Data from plate_porcelain_FLMS001491_017.txt Node
Date: Tue Feb 07 11:18:52 GMT 2017
User: dcchb
Spectrometer: FLMS00149
Trigger mode: 0
Integration Time (sec): 2.000000E-2
Scans to average: 10
Electric dark correction enabled: true
Nonlinearity correction enabled: false
Boxcar width: 0
XAxis mode: Wavelengths
Number of Pixels in Spectrum: 2048
>>>>>Begin Spectral Data<<<<<
341.393	-9.66
341.776	-9.66
342.16	-9.66
342.543	-48.08
342.927	-75.87
343.31	-53.73
343.693	-72.48
344.077	-70.22
344.46	-59.38
344.843	-53.05
345.226	-37.68
345.61	-54.63
345.993	-15.31
346.376	-13.73
346.759	12.71
347.142	36.44
347.525	54.52
347.908	50.9
348.291	74.63
348.674	99.49
349.057	101.52
349.44	132.26
349.823	168.19
350.206	201.41
350.588	227.4
350.971	249.32
351.354	255.42
351.737	264.23
352.119	292.25
352.502	282.08
352.884	299.71
353.267	324.79
353.65	340.16
354.032	303.33
354.414	326.83
354.797	330.67
355.179	347.39
355.562	362.53
355.944	361.85
356.326	367.5
356.709	347.62
357.091	358.01
357.473	375.87
357.855	399.59
358.238	345.58
358.62	393.94
359.002	368.41
359.384	381.52
359.766	366.15
360.148	401.85
360.53	374.96
360.912	380.39
361.294	384.23
361.676	380.39
362.057	369.31
362.439	404.79
362.821	377.45
363.203	393.94
363.584	381.52
363.966	361.4
364.348	368.18
364.729	384.23
365.111	369.09
365.493	375.64
365.874	397.33
366.256	377.22
366.637	391.91
367.019	376.32
367.4	383.1
367.781	383.78
368.163	400.05
368.544	389.88
368.925	383.32
369.306	400.5
369.688	376.77
370.069	402.53
370.45	389.2
370.831	419.48
371.212	381.06
371.593	394.17
371.974	413.6
372.355	395.98
372.736	419.71
373.117	402.98
373.498	386.71
373.879	400.5
374.26	374.96
374.641	400.72
375.021	411.57
375.402	411.8
375.783	441.85
376.163	430.55
376.544	445.69
376.925	459.48
377.305	452.25
377.686	445.47
378.066	439.14
378.447	457.9
378.827	455.86
379.208	475.52
379.588	467.39
379.968	487.95
380.349	453.15
380.729	446.82
381.109	471.46
381.489	456.99
381.87	485.92
382.25	466.03
382.63	502.87
383.01	481.63
383.39	499.93
383.77	514.85
384.15	509.2
384.53	521.85
384.91	493.83
385.29	520.95
385.67	525.01
386.049	527.05
386.429	532.25
386.809	527.05
387.189	546.26
387.568	557.78
387.948	579.7
388.328	558.01
388.707	567.27
389.087	572.24
389.466	570.44
389.846	596.2
390.225	583.54
390.605	588.29
390.984	614.28
391.363	609.76
391.743	615.86
392.122	611.57
392.501	619.02
392.881	645.92
393.26	659.93
393.639	647.95
394.018	635.29
394.397	649.08
394.776	670.1
395.155	677.55
395.534	676.2
395.913	680.26
396.292	704.22
396.671	725.24
397.05	709.87
397.429	718.68
397.808	725.91
398.186	730.66
398.565	725.24
398.944	733.6
399.323	721.62
399.701	753.71
400.08	767.27
400.458	784.44
400.837	810.43
401.215	783.76
401.594	782.18
401.972	788.06
402.351	802.75
402.729	801.17
403.107	835.51
403.486	849.75
403.864	848.17
404.242	856.53
404.62	884.78
404.999	870.99
405.377	853.82
405.755	860.82
406.133	898.56
406.511	914.16
406.889	933.82
407.267	911.44
407.645	936.3
408.023	971.1
408.401	963.65
408.779	971.1
409.156	997.54
409.534	998
409.912	1021.27
410.29	1054.94
410.667	1060.14
411.045	1082.74
411.422	1048.39
411.8	1080.03
412.178	1103.08
412.555	1128.16
412.933	1121.83
413.31	1134.04
413.687	1162.29
414.065	1174.94
414.442	1180.82
414.819	1207.26
415.197	1204.54
415.574	1244.77
415.951	1218.33
416.328	1269.18
416.705	1286.35
417.082	1290.19
417.46	1276.86
417.837	1314.15
418.214	1331.32
418.591	1302.85
418.967	1344.65
419.344	1341.72
419.721	1402.51
420.098	1372.45
420.475	1418.55
420.852	1419.23
421.228	1409.74
421.605	1434.6
421.982	1461.26
422.358	1485.22
422.735	1498.32
423.111	1493.8
423.488	1520.02
423.864	1519.11
424.241	1575.16
424.617	1568.6
424.994	1624.65
425.37	1588.49
425.746	1620.58
426.123	1628.94
426.499	1651.31
426.875	1665.55
427.251	1685.89
427.627	1720.46
428.003	1746.45
428.379	1786.22
428.756	1800.46
429.132	1799.11
429.507	1843.62
429.883	1854.92
430.259	1871.42
430.635	1878.65
431.011	1912.55
431.387	1981.25
431.763	2000.23
432.138	2005.65
432.514	2050.4
432.89	2063.73
433.265	2105.76
433.641	2141.47
434.016	2181.47
434.392	2177.17
434.767	2200.9
435.143	2188.93
435.518	2211.3
435.894	2284.97
436.269	2303.05
436.644	2332.88
437.02	2362.71
437.395	2348.47
437.77	2435.92
438.145	2421.24
438.52	2468.47
438.895	2496.71
439.271	2478.18
439.646	2552.53
440.021	2522.25
440.395	2552.98
440.77	2573.77
441.145	2611.06
441.52	2649.03
441.895	2672.53
442.27	2691.96
442.645	2679.08
443.019	2738.97
443.394	2719.53
443.769	2770.15
444.143	2748.23
444.518	2776.03
444.892	2818.74
445.267	2795.24
445.641	2867.78
446.016	2863.48
446.39	2891.73
446.764	2903.48
447.139	2912.07
447.513	2971.5
447.887	2988.68
448.262	2952.75
448.636	3017.38
449.01	3033.88
449.384	3090.14
449.758	3092.4
450.132	3108.22
450.506	3124.27
450.88	3180.99
451.254	3201.55
451.628	3240.88
452.002	3296.24
452.376	3278.16
452.75	3331.27
453.123	3401.55
453.497	3437.48
453.871	3453.75
454.244	3565.84
454.618	3510.47
454.992	3575.78
455.365	3610.81
455.739	3670.92
456.112	3760.41
456.486	3747.08
456.859	3806.51
457.232	3843.8
457.606	3911.59
457.979	3900.29
458.352	4029.33
458.725	4058.25
459.099	4102.32
459.472	4170.79
459.845	4201.3
460.218	4218.48
460.591	4282.88
460.964	4293.05
461.337	4372.14
461.71	4432.48
462.083	4545.7
462.456	4527.4
462.829	4547.73
463.201	4620.27
463.574	4669.31
463.947	4735.98
464.32	4811.23
464.692	4929.19
465.065	4939.36
465.438	4992.02
465.81	5035.18
466.183	5077.89
466.555	5223.87
466.928	5260.03
467.3	5287.83
467.672	5355.17
468.045	5520.36
468.417	5535.96
468.789	5591.55
469.161	5617.31
469.534	5737.53
469.906	5840.58
470.278	5898.43
470.65	5978.2
471.022	6093.23
471.394	6180.01
471.766	6286.22
472.138	6351.98
472.51	6371.41
472.882	6517.63
473.253	6598.98
473.625	6697.51
473.997	6903.83
474.369	6919.65
474.74	7030.15
475.112	7132.98
475.484	7215.23
475.855	7306.98
476.227	7396.25
476.598	7681.44
476.97	7722.57
477.341	7894.09
477.713	8004.59
478.084	8019.51
478.455	8269.44
478.827	8340.63
479.198	8607.97
479.569	8606.16
479.94	8862.2
480.311	8875.3
480.682	9140.16
481.053	9312.13
481.424	9468.73
481.795	9536.08
482.166	9715.96
482.537	9845.22
482.908	10058.78
483.279	10100.81
483.65	10350.29
484.021	10619.44
484.391	10707.12
484.762	10761.36
485.133	10901.92
485.503	11030.73
485.874	11245.64
486.244	11410.6
486.615	11605.18
486.985	11696.92
487.356	11924.94
487.726	12094.88
488.097	12316.79
488.467	12371.71
488.837	12666.84
489.207	12747.74
489.578	12946.83
489.948	13091.92
490.318	13294.17
490.688	13303.89
491.058	13639.02
491.428	13789.52
491.798	13845.57
492.168	14210.3
492.538	14281.26
492.908	14361.71
493.278	14597.86
493.648	14631.76
494.017	14792.89
494.387	14942.49
494.757	15085.08
495.126	15290.5
495.496	15349.94
495.866	15480.78
496.235	15643.04
496.605	15859.98
496.974	15837.38
497.344	16061.1
497.713	16176.81
498.082	16265.39
498.452	16427.42
498.821	16535.89
499.19	16538.38
499.559	16795.77
499.928	16923.45
500.298	16954.41
500.667	17285.25
501.036	17153.73
501.405	17399.37
501.774	17372.71
502.143	17539.71
502.512	17641.63
502.88	17863.77
503.249	17986.25
503.618	18042.52
503.987	18185.79
504.356	18216.3
504.724	18346.69
505.093	18467.59
505.462	18483.86
505.83	18809.28
506.199	18874.36
506.567	19079.78
506.936	19113.23
507.304	19326.33
507.672	19464.18
508.041	19444.52
508.409	19727.45
508.777	19895.35
509.145	19982.81
509.514	20113.88
509.882	20212.41
510.25	20260.09
510.618	20497.82
510.986	20625.5
511.354	20747.76
511.722	20971.48
512.09	21112.27
512.458	21168.54
512.826	21324.02
513.193	21512.71
513.561	21542.31
513.929	21862.08
514.297	22059.82
514.664	22126.48
515.032	22182.52
515.4	22454.38
515.767	22510.2
516.135	22649.18
516.502	22676.07
516.869	23085.33
517.237	23224.08
517.604	23131.88
517.972	23439.44
518.339	23683.05
518.706	23661.36
519.073	23839.66
519.44	23996.04
519.808	24302.92
520.175	24410.94
520.542	24771.16
520.909	24821.32
521.276	24818.61
521.643	25140.41
522.009	25273.52
522.376	25461.53
522.743	25562.32
523.11	25856.78
523.477	26178.58
523.843	26241.85
524.21	26542.64
524.577	26819.69
524.943	26862.63
525.31	27099.68
525.676	27318.21
526.043	27602.04
526.409	27623.74
526.776	28012.88
527.142	28002.03
527.508	28247.9
527.874	28484.28
528.241	28729.02
528.607	28745.74
528.973	29041.33
529.339	29090.59
529.705	29248.78
530.071	29488.09
530.437	29712.27
530.803	29883.11
531.169	29989.32
531.535	30103.22
531.901	30194.97
532.267	30267.28
532.632	30621.17
532.998	30682.19
533.364	30916.76
533.73	31020.03
534.095	31438.55
534.461	31373.24
534.826	31609.85
535.192	31815.94
535.557	32045.99
535.923	32080.79
536.288	32124.86
536.653	32346.78
537.019	32227.01
537.384	32483.95
537.749	32604.17
538.114	32607.56
538.479	32805.07
538.845	32831.74
539.21	32883.94
539.575	33080.99
539.94	33196.25
540.305	33533.86
540.67	33343.59
541.034	33590.36
541.399	33698.38
541.764	33961.2
542.129	34025.83
542.494	34107.41
542.858	34180.17
543.223	34265.14
543.587	34525.25
543.952	34397.12
544.316	34859.7
544.681	34750.33
545.045	34930.66
545.41	35074.84
545.774	35054.05
546.138	35130.66
546.503	35376.75
546.867	35423.31
547.231	35741.94
547.595	35711.66
547.959	35884.31
548.324	35896.74
548.688	36062.16
549.052	36170.63
549.416	36452.21
549.779	36530.62
550.143	36587.57
550.507	36789.37
550.871	36876.38
551.235	37005.64
551.599	37219.87
551.962	37357.04
552.326	37362.24
552.689	37650.37
553.053	37548.45
553.417	37699.18
553.78	38047.64
554.143	37962
554.507	38090.13
554.87	38409.22
555.234	38663.9
555.597	38491.93
555.96	38782.99
556.323	38880.39
556.686	39078.35
557.05	39246.48
557.413	39274.28
557.776	39554.72
558.139	39679.92
558.502	39866.8
558.865	39992.9
559.228	40286.68
559.59	40486.22
559.953	40310.86
560.316	40820.45
560.679	40864.07
561.041	41132.99
561.404	41293.43
561.767	41515.58
562.129	41674.67
562.492	41908.79
562.854	41883.02
563.217	41917.37
563.579	42094.99
563.941	42454.31
564.304	42486.4
564.666	42875.31
565.028	42932.71
565.39	43227.39
565.753	43354.62
566.115	43396.66
566.477	43580.61
566.839	43692.47
567.201	44150.31
567.563	43954.16
567.925	44396.63
568.287	44385.1
568.648	44555.04
569.01	44703.29
569.372	45084.07
569.734	44905.99
570.095	45253.1
570.457	45294.68
570.819	45444.96
571.18	45392.99
571.542	45639.31
571.903	45657.84
572.265	45906.42
572.626	45902.13
572.987	46074.78
573.349	46290.36
573.71	46320.19
574.071	46533.97
574.432	46687.19
574.794	46847.64
575.155	46795.21
575.516	46717.02
575.877	46995.66
576.238	47023.9
576.599	47269.32
576.96	47239.49
577.32	47261.19
577.681	47312.71
578.042	47512.03
578.403	47447.62
578.763	47532.82
579.124	47734.85
579.485	47771.46
579.845	47933.94
580.206	47854.39
580.566	47857.33
580.927	47816.65
581.287	48060.26
581.648	47974.16
582.008	48061.84
582.368	48012.13
582.728	47939.81
583.089	48118.34
583.449	47926.25
583.809	48159.69
584.169	48283.31
584.529	48090.77
584.889	48379.35
585.249	48168.96
585.609	48148.62
585.969	48370.54
586.329	48213.03
586.688	48286.02
587.048	48303.65
587.408	48077.89
587.768	48244.21
588.127	48109.07
588.487	48134.61
588.846	48396.07
589.206	48136.19
589.565	48265
589.925	48378.45
590.284	48259.58
590.643	48391.33
591.003	48393.13
591.362	48568.5
591.721	48480.59
592.08	48455.96
592.44	48572.11
592.799	48552.68
593.158	48483.53
593.517	48499.35
593.876	48494.6
594.235	48472.45
594.593	48432.46
594.952	48729.4
595.311	48484.43
595.67	48622.51
596.029	48768.49
596.387	48845.33
596.746	48783.63
597.104	48660.25
597.463	48719.23
597.822	48823.41
598.18	48772.79
598.538	48656.4
598.897	48940.24
599.255	48618.44
599.613	49257.52
599.972	48839.68
600.33	49147.92
600.688	48834.48
601.046	49066.56
601.404	49273.11
601.762	49092.55
602.12	49171.19
602.478	49255.48
602.836	49227.69
603.194	49214.58
603.552	49127.8
603.91	49193.34
604.268	49234.47
604.625	49167.13
604.983	49318.08
605.341	49193.11
605.698	49388.81
606.056	49506.78
606.413	49486.89
606.771	49578.87
607.128	49595.59
607.485	49457.97
607.843	49558.98
608.2	49661.58
608.557	49756.26
608.914	49707
609.272	49930.27
609.629	49804.17
609.986	50003.26
610.343	49816.37
610.7	50089.81
611.057	50009.36
611.414	49912.42
611.771	50016.14
612.127	50184.73
612.484	50106.99
612.841	50277.83
613.198	50050.72
613.554	50128
613.911	50396.92
614.267	50343.37
614.624	50212.07
614.98	50387.43
615.337	50544.94
615.693	50584.72
616.05	50373.65
616.406	50826.06
616.762	50556.92
617.118	50571.38
617.475	50603.25
617.831	50667.65
618.187	50634.43
618.543	50676.46
618.899	50949.23
619.255	50762.11
619.611	50656.58
619.967	50852.28
620.323	50921.66
620.678	50729.8
621.034	50675.33
621.39	50785.16
621.746	50647.76
622.101	51099.73
622.457	50835.1
622.812	50756.91
623.168	51001.43
623.523	50975.89
623.879	51011.6
624.234	50791.72
624.589	50942.45
624.945	50936.12
625.3	50956.68
625.655	50977.93
626.01	50986.74
626.365	50964.82
626.72	50883.46
627.075	50882.79
627.43	50888.89
627.785	50881.88
628.14	50841.88
628.495	50891.15
628.85	50811.83
629.205	50719.4
629.559	50885.05
629.914	50694.99
630.269	50750.81
630.623	50649.12
630.978	50449.8
631.332	50723.24
631.687	50654.09
632.041	50582
632.396	50653.41
632.75	50425.62
633.104	50522.8
633.459	50399.64
633.813	50375
634.167	50389.47
634.521	50360.99
634.875	50352.4
635.229	50323.93
635.583	50113.09
635.937	50161.9
636.291	50101.11
636.645	50108.34
636.999	49934.34
637.352	50095.91
637.706	49850.5
638.06	50038.97
638.413	49770.73
638.767	49793.55
639.121	49880.55
639.474	49659.99
639.828	49593.33
640.181	49737.51
640.534	49652.08
640.888	49588.13
641.241	49462.26
641.594	49465.65
641.947	49436.27
642.301	49452.32
642.654	49355.37
643.007	49444.41
643.36	49360.11
643.713	49259.33
644.066	49197.63
644.419	49076.28
644.771	48733.69
645.124	48369.41
645.477	48356.3
645.83	48082.41
646.182	47968.51
646.535	47936.65
646.888	47945.01
647.24	47749.54
647.593	48022.52
647.945	47927.84
648.298	47636.32
648.65	47585.25
649.002	47626.15
649.355	47639.48
649.707	47556.09
650.059	47674.96
650.411	48103.42
650.763	48060.04
651.115	48361.04
651.467	48356.3
651.819	48332.57
652.171	48172.12
652.523	48091.67
652.875	48028.62
653.227	47919.47
653.578	48077.21
653.93	47949.76
654.282	47799.03
654.633	47806.03
654.985	47801.74
655.337	47803.77
655.688	47813.71
656.039	47964.9
656.391	47559.48
656.742	47643.55
657.094	47699.37
657.445	47747.5
657.796	47623.44
658.147	47628.18
658.498	47677.22
658.849	47672.7
659.2	47692.36
659.551	47516.77
659.902	47649.65
660.253	47496.66
660.604	47537.34
660.955	47213.05
661.306	47492.82
661.656	47372.82
662.007	47364.69
662.358	47250.11
662.708	47247.63
663.059	47386.38
663.409	47128.08
663.76	47343.67
664.11	47332.15
664.461	47292.82
664.811	47301.41
665.161	47274.97
665.511	47161.3
665.862	47237.23
666.212	47301.86
666.562	47271.36
666.912	47169.21
667.262	47078.37
667.612	47161.53
667.962	47185.93
668.312	47085.37
668.662	47307.51
669.011	47232.26
669.361	47089.21
669.711	47067.75
670.06	47038.59
670.41	47038.59
670.76	46812.61
671.109	46961.76
671.459	46900.52
671.808	46622.79
672.157	46812.84
672.507	46608.55
672.856	46568.78
673.205	46577.14
673.554	46752.05
673.904	46553.41
674.253	46774.87
674.602	46527.65
674.951	46077.49
675.3	46002.69
675.649	46629.56
675.998	46381.21
676.346	46508.89
676.695	46606.29
677.044	46254.66
677.393	46405.62
677.741	46424.6
678.09	46354.77
678.438	46157.03
678.787	46278.39
679.135	46251.5
679.484	46023.03
679.832	46293.08
680.181	45826.87
680.529	46129.47
680.877	45867.78
681.225	45807.67
681.573	45989.58
681.922	45749.81
682.27	45574
682.618	45651.96
682.966	45547.33
683.314	45607.44
683.661	45503.27
684.009	45290.39
684.357	45375.59
684.705	45181.02
685.053	45238.19
685.4	45114.12
685.748	45038.42
686.095	45100.57
686.443	44643.4
686.79	44758.2
687.138	44643.85
687.485	44751.87
687.832	44552.56
688.18	44654.25
688.527	44315.95
688.874	44366.35
689.221	44239.35
689.568	44105.34
689.915	43972.01
690.262	44033.47
690.609	43977.88
690.956	43713.48
691.303	43793.48
691.65	43504.9
691.997	43503.32
692.344	43249.77
692.69	43208.41
693.037	43236.43
693.383	42955.31
693.73	42912.83
694.077	42684.13
694.423	42742.21
694.769	42721.19
695.116	42579.95
695.462	42555.55
695.808	42316.46
696.155	42398.49
696.501	42193.07
696.847	41906.53
697.193	41796.25
697.539	41937.94
697.885	41895
698.231	41603.71
698.577	41588.79
698.923	41578.85
699.269	41282.13
699.614	41262.02
699.96	41138.64
700.306	41086.66
700.651	40916.04
700.997	40981.13
701.342	40720.12
701.688	40676.73
702.033	40664.75
702.379	40481.93
702.724	40446.45
703.069	40536.62
703.415	39900.93
703.76	40120.13
704.105	39956.29
704.45	39742.51
704.795	39715.62
705.14	39535.29
705.485	39451.22
705.83	39391.79
706.175	39473.37
706.52	39253.26
706.865	39225.24
707.209	39213.71
707.554	39084.45
707.899	39150.67
708.243	38818.92
708.588	39042.19
708.932	38594.52
709.277	38604.24
709.621	38453.06
709.966	38354.08
710.31	38410.35
710.654	38022.11
710.998	38146.85
711.342	38039.51
711.687	37903.47
712.031	37849
712.375	37682.46
712.719	37741.44
713.063	37748.67
713.407	37794.77
713.75	37549.13
714.094	37538.73
714.438	37322.92
714.782	37439.07
715.125	37195.01
715.469	37298.28
715.812	36966.77
716.156	36910.72
716.499	36921.57
716.843	36958.41
717.186	36647.23
717.53	36787.56
717.873	36718.41
718.216	36655.82
718.559	36578.53
718.902	36288.37
719.246	36420.79
719.589	36266.45
719.932	36179.22
720.275	36060.13
720.617	35989.84
720.96	35887.93
721.303	36038.88
721.646	35945.33
721.989	35713.24
722.331	35722.96
722.674	35683.64
723.016	35623.98
723.359	35633.7
723.701	35532.46
724.044	35340.6
724.386	35160.71
724.729	35338.56
725.071	35379.47
725.413	35222.41
725.755	35142.41
726.097	34961.85
726.439	34780.61
726.782	34861.74
727.124	35065.8
727.465	34838.01
727.807	34809.76
728.149	34716.66
728.491	34555.08
728.833	34758.24
729.175	34582.2
729.516	34433.05
729.858	34307.18
730.199	34420.62
730.541	34463.33
730.882	34226.95
731.224	34394.18
731.565	34082.55
731.906	34132.94
732.248	34178.82
732.589	33976.34
732.93	33850.92
733.271	33902.22
733.612	33878.71
733.953	33900.18
734.294	33793.29
734.635	33656.8
734.976	33776.12
735.317	33499.06
735.658	33617.7
735.999	33526.63
736.339	33408.22
736.68	33455.9
737.021	33242.35
737.361	33062.92
737.702	33257.04
738.042	33135.68
738.383	33099.75
738.723	33071.28
739.063	33020.66
739.404	32981.11
739.744	32930.72
740.084	32717.61
740.424	32840.55
740.764	32718.07
741.104	32906.99
741.444	32575.25
741.784	32625.41
742.124	32516.49
742.464	32574.12
742.804	32406.21
743.143	32461.58
743.483	32373.22
743.823	32215.03
744.162	32136.84
744.502	32306.33
744.841	32057.74
745.181	32064.07
745.52	32024.3
745.86	32016.84
746.199	31913.57
746.538	31863.63
746.877	31862.72
747.216	31932.1
747.556	31809.84
747.895	31680.35
748.234	31519.68
748.573	31469.74
748.911	31511.77
749.25	31472.9
749.589	31371.21
749.928	31330.31
750.267	31212.57
750.605	31195.62
750.944	31066.81
751.283	31027.26
751.621	31048.28
751.96	31003.76
752.298	30853.71
752.636	30827.49
