Data from plate_porcelain_FLMS001491_042.txt Node
Date: Tue Feb 07 11:19:22 GMT 2017
User: dcchb
Spectrometer: FLMS00149
Trigger mode: 0
Integration Time (sec): 2.000000E-2
Scans to average: 10
Electric dark correction enabled: true
Nonlinearity correction enabled: false
Boxcar width: 0
XAxis mode: Wavelengths
Number of Pixels in Spectrum: 2048
>>>>>Begin Spectral Data<<<<<
341.393	-13.94
341.776	-13.94
342.16	-13.94
342.543	-67.27
342.927	-92.36
343.31	-70.89
343.693	-69.31
344.077	-78.57
344.46	-48.52
344.843	-65.46
345.226	-50.78
345.61	-11
345.993	-12.36
346.376	3.46
346.759	17.25
347.142	30.58
347.525	25.38
347.908	54.08
348.291	84.14
348.674	86.4
349.057	105.6
349.44	121.65
349.823	128.43
350.206	167.07
350.588	225.83
350.971	241.42
351.354	255.43
351.737	271.7
352.119	296.79
352.502	305.83
352.884	304.47
353.267	313.96
353.65	337.01
354.032	335.43
354.414	344.69
354.797	345.37
355.179	368.65
355.562	343.56
355.944	362.77
356.326	378.59
356.709	377.69
357.091	397.35
357.473	401.42
357.855	393.28
358.238	407.29
358.62	375.65
359.002	390.34
359.384	391.92
359.766	396.67
360.148	393.05
360.53	395.77
360.912	408.87
361.294	379.95
361.676	398.7
362.057	388.31
362.439	409.33
362.821	401.87
363.203	379.95
363.584	384.02
363.966	382.21
364.348	409.78
364.729	389.66
365.111	371.36
365.493	392.6
365.874	396.22
366.256	391.25
366.637	384.69
367.019	397.8
367.4	393.05
367.781	377.01
368.163	397.12
368.544	420.85
368.925	388.53
369.306	423.56
369.688	414.52
370.069	393.96
370.45	404.81
370.831	398.25
371.212	420.85
371.593	418.82
371.974	390.12
372.355	442.77
372.736	411.81
373.117	437.35
373.498	428.53
373.879	417.69
374.26	449.1
374.641	417.69
375.021	422.88
375.402	438.7
375.783	464.24
376.163	472.83
376.544	463.56
376.925	464.92
377.305	472.6
377.686	450.45
378.066	454.75
378.447	470.57
378.827	486.16
379.208	460.17
379.588	470.79
379.968	483.22
380.349	497.68
380.729	486.61
381.109	504.69
381.489	509.66
381.87	503.33
382.25	500.4
382.63	540.17
383.01	537.01
383.39	511.02
383.77	541.53
384.15	526.16
384.53	537.23
384.91	538.36
385.29	531.81
385.67	566.61
386.049	560.06
386.429	581.52
386.809	572.03
387.189	579.49
387.568	542.43
387.948	589.21
388.328	598.25
388.707	626.04
389.087	602.09
389.466	632.6
389.846	616.78
390.225	620.62
390.605	629.88
390.984	655.65
391.363	657
391.743	655.19
392.122	686.61
392.501	666.27
392.881	680.73
393.26	692.93
393.639	720.73
394.018	739.03
394.397	701.97
394.776	718.7
395.155	725.02
395.534	719.6
395.913	733.84
396.292	748.07
396.671	749.66
397.05	771.58
397.429	773.61
397.808	759.82
398.186	805.25
398.565	786.94
398.944	807.73
399.323	820.39
399.701	815.19
400.08	827.17
400.458	851.8
400.837	823.33
401.215	876.66
401.594	860.16
401.972	868.07
402.351	880.95
402.729	889.54
403.107	901.06
403.486	876.88
403.864	918.46
404.242	904.23
404.62	929.76
404.999	937.67
405.377	949.42
405.755	981.51
406.133	1004.56
406.511	991.46
406.889	1009.54
407.267	1049.08
407.645	1052.02
408.023	1047.05
408.401	1060.38
408.779	1090.44
409.156	1106.48
409.534	1112.13
409.912	1127.5
410.29	1170.21
410.667	1157.33
411.045	1193.26
411.422	1214.5
411.8	1176.99
412.178	1212.69
412.555	1245.24
412.933	1229.87
413.31	1280.71
413.687	1311.22
414.065	1324.1
414.442	1335.18
414.819	1324.33
415.197	1339.24
415.574	1379.7
415.951	1405.68
416.328	1415.17
416.705	1407.04
417.082	1425.57
417.46	1445.68
417.837	1460.6
418.214	1493.36
418.591	1506.02
418.967	1490.2
419.344	1529.75
419.721	1558.45
420.098	1576.3
420.475	1576.53
420.852	1615.85
421.228	1613.59
421.605	1645
421.982	1657.43
422.358	1652.68
422.735	1664.89
423.111	1695.85
423.488	1729.06
423.864	1709.18
424.241	1750.99
424.617	1779.01
424.994	1805.9
425.37	1832.79
425.746	1795.5
426.123	1854.26
426.499	1865.33
426.875	1904.88
427.251	1915.73
427.627	1948.27
428.003	2023.07
428.379	2026.01
428.756	2032.79
429.132	2089.06
429.507	2106.46
429.883	2091.09
430.259	2194.36
430.635	2210.86
431.011	2233.68
431.387	2257.64
431.763	2323.63
432.138	2295.15
432.514	2340.35
432.89	2390.29
433.265	2413.57
433.641	2446.11
434.016	2474.36
434.392	2536.5
434.767	2531.08
435.143	2574.47
435.518	2588.03
435.894	2647.91
436.269	2646.1
436.644	2712.77
437.02	2724.07
437.395	2761.13
437.77	2785.99
438.145	2808.13
438.52	2837.96
438.895	2856.04
439.271	2872.09
439.646	2939.2
440.021	2988.69
440.395	2982.14
440.77	3002.03
441.145	3016.71
441.52	3070.72
441.895	3078.41
442.27	3107.33
442.645	3152.53
443.019	3203.15
443.394	3182.13
443.769	3211.74
444.143	3185.75
444.518	3284.28
444.892	3256.03
445.267	3313.66
445.641	3345.29
446.016	3356.82
446.39	3388.46
446.764	3420.09
447.139	3405.18
447.513	3449.25
447.887	3480.66
448.262	3486.31
448.636	3550.03
449.01	3555.68
449.384	3590.48
449.758	3615.79
450.132	3736.47
450.506	3735.79
450.88	3739.18
451.254	3726.07
451.628	3788.67
452.002	3863.47
452.376	3903.47
452.75	3917.26
453.123	4015.78
453.497	4060.98
453.871	4034.31
454.244	4149.11
454.618	4166.06
454.992	4245.61
455.365	4213.29
455.739	4351.82
456.112	4409.9
456.486	4437.69
456.859	4479.5
457.232	4603.34
457.606	4610.8
457.979	4636.56
458.352	4784.13
458.725	4783
459.099	4810.79
459.472	4955.42
459.845	4965.82
460.218	5040.84
460.591	5091.24
460.964	5121.52
461.337	5262.31
461.71	5349.31
462.083	5397.89
462.456	5422.3
462.829	5462.3
463.201	5582.97
463.574	5613.48
463.947	5682.18
464.32	5718.11
464.692	5830.65
465.065	5884.89
465.438	5939.8
465.81	6105.67
466.183	6073.81
466.555	6234.48
466.928	6313.12
467.3	6315.61
467.672	6408.49
468.045	6615.72
468.417	6601.93
468.789	6649.16
469.161	6737.29
469.534	6857.29
469.906	7027.68
470.278	7107.45
470.65	7149.71
471.022	7310.61
471.394	7432.42
471.766	7467.44
472.138	7606.88
472.51	7819.07
472.882	7922.8
473.253	8005.96
473.625	8059.75
473.997	8278.05
474.369	8411.15
474.74	8407.08
475.112	8570.69
475.484	8713.97
475.855	8942.21
476.227	9003
476.598	9208.19
476.97	9319.37
477.341	9565.02
477.713	9678.46
478.084	9737.44
478.455	10013.82
478.827	10098.34
479.198	10438.67
479.569	10477.99
479.94	10795.27
480.311	10832.55
480.682	11111.42
481.053	11336.04
481.424	11522.93
481.795	11646.54
482.166	11786.43
482.537	11984.16
482.908	12212.4
483.279	12406.3
483.65	12558.38
484.021	12846.74
484.391	12982.1
484.762	13191.36
485.133	13212.6
485.503	13453.95
485.874	13806.94
486.244	13857.79
486.615	14099.59
486.985	14278.11
487.356	14562.17
487.726	14716.52
488.097	15020.24
488.467	15059.34
488.837	15458.42
489.207	15659.09
489.578	15908.58
489.948	15990.61
490.318	16260.21
490.688	16337.04
491.058	16565.51
491.428	16802.11
491.798	17024.93
492.168	17313.29
492.538	17327.98
492.908	17607.07
493.278	17833.95
493.648	17936.32
494.017	18138.8
494.387	18291.79
494.757	18463.09
495.126	18677.32
495.496	18813.81
495.866	18949.63
496.235	19126.8
496.605	19291.77
496.974	19487.24
497.344	19621.48
497.713	19772.66
498.082	19998.41
498.452	20158.64
498.821	20296.49
499.19	20427.56
499.559	20647.21
499.928	20667.55
500.298	20843.59
500.667	21070.48
501.036	21055.34
501.405	21238.38
501.774	21355.89
502.143	21564.93
502.512	21695.32
502.88	21869.1
503.249	21948.65
503.618	22225.47
503.987	22145.25
504.356	22408.75
504.724	22619.36
505.093	22649.64
505.462	22705.69
505.83	23056.64
506.199	23231.1
506.567	23424.77
506.936	23522.62
507.304	23853.68
507.672	23876.5
508.041	24052.77
508.409	24115.82
508.777	24422.25
509.145	24523.72
509.514	24686.65
509.882	24866.99
510.25	24841.23
510.618	25158.73
510.986	25255.23
511.354	25465.16
511.722	25669.45
512.09	25957.81
512.458	25960.97
512.826	26200.29
513.193	26417
513.561	26473.5
513.929	26774.28
514.297	26985.35
514.664	27234.16
515.032	27378.33
515.4	27485.22
515.767	27661.49
516.135	27837.08
516.502	27759.79
516.869	28255.82
517.237	28444.52
517.604	28459.44
517.972	28935.35
518.339	29005.64
518.706	29054.9
519.073	29247.21
519.44	29454.89
519.808	29971.26
520.175	29761.77
520.542	30278.6
520.909	30446.05
521.276	30455.32
521.643	30868.86
522.009	31029.76
522.376	31309.3
522.743	31485.34
523.11	31792
523.477	32048.49
523.843	32417.52
524.21	32632.88
524.577	32857.74
524.943	33027
525.31	33231.29
525.676	33452.75
526.043	33657.72
526.409	33864.72
526.776	34271.03
527.142	34424.02
527.508	34672.61
527.874	34962.09
528.241	35136.1
528.607	35154.63
528.973	35635.07
529.339	35597.55
529.705	36043.42
530.071	36296.29
530.437	36487.02
530.803	36837.52
531.169	36860.34
531.535	36891.98
531.901	37080
532.267	37256.27
532.632	37420.33
532.998	37686.09
533.364	37887.44
533.73	37953.2
534.095	38325.62
534.461	38472.05
534.826	38729.22
535.192	38824.13
535.557	39112.94
535.923	39214.41
536.288	39229.1
536.653	39402.2
537.019	39546.6
537.384	39624.34
537.749	39779.59
538.114	39952.47
538.479	39955.63
538.845	40247.15
539.21	40272.91
539.575	40683.29
539.94	40700.24
540.305	40863.63
540.67	40979.33
541.034	41022.27
541.399	41275.14
541.764	41337.74
542.129	41477.85
542.494	41636.26
542.858	41826.32
543.223	41806.88
543.587	42154.44
543.952	42157.38
544.316	42371.84
544.681	42386.75
545.045	42608.22
545.41	42663.13
545.774	42828.77
546.138	42940.86
546.503	42969.79
546.867	43048.2
547.231	43458.81
547.595	43559.15
547.959	43706.72
548.324	43786.49
548.688	43809.09
549.052	43953.94
549.416	44083.21
549.779	44178.34
550.143	44289.08
550.507	44666.01
550.871	44779.01
551.235	44802.96
551.599	45094.25
551.962	45149.39
552.326	45295.6
552.689	45546.9
553.053	45441.81
553.417	45590.96
553.78	46027.79
554.143	45978.97
554.507	46181.68
554.87	46399.53
555.234	46779.41
555.597	46626.64
555.96	46743.7
556.323	46988.67
556.686	47050.58
557.05	47314.53
557.413	47444.02
557.776	47653.96
558.139	47881.07
558.502	47989.54
558.865	48003.33
559.228	48368.97
559.59	48409.42
559.953	48488.06
560.316	48781.16
560.679	48808.05
561.041	49174.82
561.404	49373.91
561.767	49532.33
562.129	49392.9
562.492	49893
562.854	49790.63
563.217	49932.32
563.579	50091.63
563.941	50261.57
564.304	50445.75
564.666	50691.62
565.028	50736.82
565.39	50786.76
565.753	51118.73
566.115	51133.87
566.477	51381.77
566.839	51418.38
567.201	51556.91
567.563	51652.05
567.925	51901.3
568.287	51867.63
568.648	52014.07
569.01	52120.06
569.372	52345.59
569.734	52271.92
570.095	52595.52
570.457	52685.01
570.819	52744.67
571.18	52754.16
571.542	52918.68
571.903	53043.2
572.265	53082.06
572.626	53181.27
572.987	53182.63
573.349	53299.23
573.71	53420.13
574.071	53436.63
574.432	53620.58
574.794	53840.46
575.155	53797.98
575.516	53691.31
575.877	53813.12
576.238	53887.69
576.599	54042.04
576.96	54027.58
577.32	54025.99
577.681	54120.91
578.042	54237.74
578.403	54293.33
578.763	54282.94
579.124	54432.54
579.485	54454.68
579.845	54551.18
580.206	54560.67
580.566	54521.12
580.927	54459.43
581.287	54745.07
581.648	54619.43
582.008	54619.2
582.368	54646.77
582.728	54718.63
583.089	54623.95
583.449	54739.2
583.809	54733.32
584.169	54806.99
584.529	54763.83
584.889	54952.98
585.249	54723.6
585.609	54693.1
585.969	54847.89
586.329	54814.67
586.688	54849.02
587.048	54878.63
587.408	54752.08
587.768	54730.16
588.127	54745.07
588.487	54765.64
588.846	54973.09
589.206	54771.51
589.565	54855.8
589.925	54989.59
590.284	54954.78
590.643	55009.47
591.003	55031.62
591.362	55101.67
591.721	54914.56
592.08	55018.28
592.44	55065.52
592.799	55044.05
593.158	55035.23
593.517	55056.02
593.876	55088.57
594.235	55067.78
594.593	55123.59
594.952	55161.56
595.311	55050.15
595.67	55079.3
596.029	55262.57
596.387	55207.66
596.746	55287.43
597.104	55179.41
597.463	55164.04
597.822	55296.47
598.18	55207.88
598.538	55226.19
598.897	55373.98
599.255	55137.6
599.613	55489.23
599.972	55348.9
600.33	55360.42
600.688	55331.27
601.046	55488.56
601.404	55622.56
601.762	55434.32
602.12	55613.52
602.478	55588.89
602.836	55617.37
603.194	55532.62
603.552	55593.64
603.91	55493.07
604.268	55690.58
604.625	55565.84
604.983	55774.42
605.341	55652.62
605.698	55735.1
606.056	55794.76
606.413	55728.55
606.771	55896.23
607.128	55890.35
607.485	55801.54
607.843	55814.42
608.2	56021.2
608.557	56074.3
608.914	55961.99
609.272	56123.34
609.629	56041.08
609.986	56198.59
610.343	56019.61
610.7	56258.48
611.057	56237.24
611.414	56274.52
611.771	56237.69
612.127	56325.14
612.484	56321.98
612.841	56407.85
613.198	56309.55
613.554	56305.26
613.911	56507.51
614.267	56459.6
614.624	56478.36
614.98	56487.4
615.337	56612.59
615.693	56601.07
616.05	56592.71
616.406	56689.88
616.762	56591.8
617.118	56565.36
617.475	56683.55
617.831	56676.77
618.187	56718.35
618.543	56730.33
618.899	56906.82
619.255	56746.6
619.611	56783.21
619.967	56833.6
620.323	56902.98
620.678	56762.65
621.034	56766.71
621.39	56806.26
621.746	56762.65
622.101	57040.38
622.457	56795.87
622.812	56906.82
623.168	56910.44
623.523	56878.8
623.879	57025.01
624.234	56851.46
624.589	56901.85
624.945	56947.5
625.3	56970.78
625.655	56874.51
626.01	56928.97
626.365	56990.44
626.72	56916.09
627.075	56964.67
627.43	56906.14
627.785	56773.72
628.14	56825.7
628.495	56933.04
628.85	56768.3
629.205	56662.99
629.559	56867.73
629.914	56734.62
630.269	56793.61
630.623	56724.91
630.978	56590.9
631.332	56701.63
631.687	56818.69
632.041	56645.13
632.396	56714.06
632.75	56567.4
633.104	56630.9
633.459	56444.46
633.813	56473.61
634.167	56533.5
634.521	56473.61
634.875	56566.72
635.229	56408.3
635.583	56338.02
635.937	56275.43
636.291	56300.29
636.645	56309.1
636.999	56224.58
637.352	56262.32
637.706	56117.69
638.06	56172.6
638.413	56195.2
638.767	56145.49
639.121	56199.95
639.474	56009.22
639.828	55970.58
640.181	55985.72
640.534	55896.91
640.888	55881.77
641.241	55802.22
641.594	55828.43
641.947	55800.86
642.301	55798.15
642.654	55806.06
643.007	55755.44
643.36	55779.39
643.713	55772.39
644.066	55822.78
644.419	55566.52
644.771	55418.05
645.124	55186.87
645.477	55093.99
645.83	54947.33
646.182	54823.71
646.535	54655.13
646.888	54725.64
647.24	54585.08
647.593	54794.11
647.945	54651.74
648.298	54533.55
648.65	54444.51
649.002	54312.77
649.355	54507.79
649.707	54492.65
650.059	54642.25
650.411	54884.28
650.763	54917.72
651.115	55136.47
651.467	54932.64
651.819	55033.65
652.171	54886.31
652.523	54941.9
652.875	54873.2
653.227	54770.83
653.578	54806.99
653.93	54780.33
654.282	54627.79
654.633	54611.29
654.985	54688.8
655.337	54722.93
655.688	54677.28
656.039	54757.95
656.391	54506.89
656.742	54556.83
657.094	54593.44
657.445	54671.4
657.796	54609.26
658.147	54572.2
658.498	54477.06
658.849	54592.76
659.2	54438.87
659.551	54357.74
659.902	54568.81
660.253	54454.46
660.604	54469.15
660.955	54272.77
661.306	54436.38
661.656	54329.26
662.007	54369.49
662.358	54363.84
662.708	54421.92
663.059	54339.21
663.409	54084.98
663.76	54291.07
664.11	54258.98
664.461	54176.95
664.811	54263.05
665.161	54181.24
665.511	54170.85
665.862	54240.9
666.212	54201.58
666.562	54334.69
666.912	54216.5
667.262	54180.79
667.612	54140.57
667.962	54180.57
668.312	54099.67
668.662	54242.26
669.011	54154.58
669.361	54070.74
669.711	54044.75
670.06	53992.55
670.41	54024.86
670.76	53938.54
671.109	54047.92
671.459	54025.54
671.808	53975.83
672.157	54044.07
672.507	53763.18
672.856	53815.6
673.205	53963.17
673.554	53923.62
673.904	53792.1
674.253	53955.04
674.602	53773.57
674.951	53453.13
675.3	53259.46
675.649	53682.05
675.998	53803.63
676.346	53586.46
676.695	53731.77
677.044	53516.4
677.393	53725.66
677.741	53690.64
678.09	53649.51
678.438	53529.06
678.787	53550.53
679.135	53556.85
679.484	53363.87
679.832	53425.33
680.181	53207.03
680.529	53394.6
680.877	53208.62
681.225	53225.34
681.573	53379.01
681.922	53162.06
682.27	53081.61
682.618	53139.46
682.966	53030.09
683.314	53093.14
683.661	52986.93
684.009	52813.82
684.357	52696.09
684.705	52694.05
685.053	52765.69
685.4	52695.18
685.748	52465.36
686.095	52457
686.443	52368.41
686.79	52282.54
687.138	52370.45
687.485	52373.38
687.832	52287.96
688.18	52332.25
688.527	52147.63
688.874	52113.28
689.221	51963.68
689.568	51838.71
689.915	51699.05
690.262	51746.05
690.609	51684.59
690.956	51587.64
691.303	51488.21
691.65	51378.38
691.997	51314.65
692.344	51211.83
692.69	51140.19
693.037	51215
693.383	50904.95
693.73	51022.46
694.077	50784.27
694.423	50851.39
694.769	50629.93
695.116	50586.31
695.462	50644.61
695.808	50495.69
696.155	50523.26
696.501	50156.27
696.847	50309.03
697.193	49970.06
697.539	50006.67
697.885	49902.71
698.231	49757.86
698.577	49779.33
698.923	49688.48
699.269	49516.73
699.614	49182.96
699.96	49303.86
700.306	49183.41
700.651	49105.45
700.997	49087.59
701.342	48977.99
701.688	48895.51
702.033	48661.16
702.379	48521.05
702.724	48595.4
703.069	48570.77
703.415	48176.43
703.76	48233.6
704.105	48226.83
704.45	48144.34
704.795	47778.25
705.14	47695.09
705.485	47821.19
705.83	47631.13
706.175	47729.44
706.52	47550.01
706.865	47311.59
707.209	47260.52
707.554	47187.53
707.899	47295.32
708.243	47036.35
708.588	47049.45
708.932	46752.51
709.277	46734.44
709.621	46707.77
709.966	46595
710.31	46647.88
710.654	46164.73
710.998	46387.78
711.342	46383.71
711.687	45997.05
712.031	46017.39
712.375	45881.58
712.719	45906.43
713.063	45761.58
713.407	45960.67
713.75	45589.83
714.094	45708.7
714.438	45531.53
714.782	45496.95
715.125	45280.24
715.469	45303.29
715.812	45020.36
716.156	44866.46
716.499	44840.47
716.843	44928.15
717.186	44592.8
717.53	44838.89
717.873	44789.18
718.216	44693.81
718.559	44563.64
718.902	44307.38
719.246	44398.9
719.589	44260.83
719.932	44108.29
720.275	44077.33
720.617	43946.03
720.96	43941.06
721.303	43930.44
721.646	43965.47
721.989	43715.31
722.331	43806.6
722.674	43616.55
723.016	43672.59
723.359	43564.8
723.701	43471.7
724.044	43180.4
724.386	43158.26
724.729	43243.45
725.071	43188.31
725.413	43092.5
725.755	43120.52
726.097	42913.29
726.439	42721.66
726.782	42690.25
727.124	42947.19
727.465	42511.72
727.807	42399.63
728.149	42410.93
728.491	42413.42
728.833	42415.23
729.175	42347.43
729.516	42136.14
729.858	42160.32
730.199	42138.62
730.541	42072.86
730.882	41953.77
731.224	42077.38
731.565	41710.61
731.906	41969.81
732.248	41853.89
732.589	41629.48
732.93	41461.81
733.271	41541.58
733.612	41592.88
733.953	41608.24
734.294	41316.5
734.635	41158.76
734.976	41375.48
735.317	41137.52
735.658	41056.84
735.999	41233.11
736.339	40989.95
736.68	41184.3
737.021	40832.67
737.361	40733.46
737.702	40968.48
738.042	40776.4
738.383	40662.05
738.723	40746.8
739.063	40553.35
739.404	40622.05
739.744	40362.17
740.084	40169.64
740.424	40380.48
740.764	40238.11
741.104	40364.66
741.444	40141.84
741.784	39928.96
742.124	39997.44
742.464	39880.15
742.804	39869.3
743.143	39897.1
743.483	39822.75
743.823	39686.48
744.162	39677.67
744.502	39706.15
744.841	39519.71
745.181	39555.87
745.52	39386.83
745.86	39398.81
746.199	39334.86
746.538	39190.23
746.877	39195.2
747.216	39047.63
747.556	39073.39
747.895	38871.59
748.234	38768.09
748.573	38813.29
748.911	38611.48
749.25	38698.71
749.589	38514.99
749.928	38465.05
750.267	38429.79
750.605	38364.71
750.944	38282
751.283	38172.4
751.621	38369.01
751.96	37981.9
752.298	37996.81
752.636	38074.78
752.975	37856.02
753.313	37708.23
