Data from plate_porcelain_FLMS001491_087.txt Node
Date: Tue Feb 07 11:20:03 GMT 2017
User: dcchb
Spectrometer: FLMS00149
Trigger mode: 0
Integration Time (sec): 2.000000E-2
Scans to average: 10
Electric dark correction enabled: true
Nonlinearity correction enabled: false
Boxcar width: 0
XAxis mode: Wavelengths
Number of Pixels in Spectrum: 2048
>>>>>Begin Spectral Data<<<<<
341.393	-19.99
341.776	-19.99
342.16	-19.99
342.543	-67.22
342.927	-71.96
343.31	-62.92
343.693	-90.72
344.077	-69.93
344.46	-69.48
344.843	-58.4
345.226	-40.32
345.61	-39.19
345.993	-21.57
346.376	-9.59
346.759	-3.94
347.142	51.43
347.525	45.1
347.908	70.18
348.291	90.52
348.674	96.62
349.057	112.21
349.44	118.09
349.823	146.56
350.206	184.76
350.588	240.8
350.971	241.02
351.354	259.33
351.737	303.17
352.119	290.06
352.502	289.84
352.884	295.71
353.267	328.71
353.65	329.16
354.032	330.29
354.414	350.4
354.797	340.68
355.179	377.74
355.562	368.03
355.944	381.36
356.326	368.25
356.709	368.93
357.091	387.24
357.473	385.88
357.855	381.81
358.238	381.59
358.62	367.12
359.002	390.17
359.384	396.27
359.766	379.1
360.148	387.69
360.53	383.85
360.912	395.6
361.294	388.37
361.676	383.39
362.057	398.53
362.439	389.27
362.821	392.66
363.203	378.42
363.584	401.7
363.966	380.46
364.348	373.68
364.729	408.48
365.111	390.85
365.493	423.84
365.874	385.43
366.256	383.85
366.637	387.91
367.019	376.16
367.4	374.81
367.781	396.95
368.163	365.32
368.544	373.9
368.925	374.81
369.306	414.58
369.688	414.13
370.069	400.34
370.45	396.5
370.831	400.34
371.212	377.97
371.593	401.47
371.974	407.35
372.355	407.57
372.736	420.46
373.117	398.53
373.498	425.2
373.879	417.52
374.26	411.19
374.641	407.35
375.021	416.84
375.402	448.93
375.783	434.24
376.163	467.69
376.544	450.06
376.925	470.85
377.305	462.26
377.686	436.5
378.066	479.89
378.447	481.47
378.827	460
379.208	473.79
379.588	452.54
379.968	483.96
380.349	461.58
380.729	493.67
381.109	462.26
381.489	479.21
381.87	526.44
382.25	501.81
382.63	494.35
383.01	510.85
383.39	504.97
383.77	514.92
384.15	547.01
384.53	516.27
384.91	554.24
385.29	533.67
385.67	525.54
386.049	537.74
386.429	570.28
386.809	557.85
387.189	550.4
387.568	584.07
387.948	552.2
388.328	587.91
388.707	568.93
389.087	577.51
389.466	589.72
389.846	619.09
390.225	617.06
390.605	603.95
390.984	628.36
391.363	628.36
391.743	620.9
392.122	651.41
392.501	615.93
392.881	643.05
393.26	664.74
393.639	669.94
394.018	668.58
394.397	695.25
394.776	695.93
395.155	697.06
395.534	715.81
395.913	697.51
396.292	716.94
396.671	728.02
397.05	738.19
397.429	733.89
397.808	741.12
398.186	768.24
398.565	735.02
398.944	761.69
399.323	790.61
399.701	780.45
400.08	791.97
400.458	808.47
400.837	784.29
401.215	819.31
401.594	831.74
401.972	829.94
402.351	865.64
402.729	840.78
403.107	869.26
403.486	857.28
403.864	865.64
404.242	895.02
404.62	907
404.999	915.13
405.377	904.74
405.755	945.19
406.133	930.95
406.511	943.83
406.889	967.33
407.267	990.38
407.645	1001.68
408.023	976.82
408.401	1004.17
408.779	1022.47
409.156	1054.11
409.534	1046.43
409.912	1061.79
410.29	1085.07
410.667	1107.89
411.045	1127.1
411.422	1131.62
411.8	1154.9
412.178	1160.1
412.555	1196.71
412.933	1215.24
413.31	1210.04
413.687	1210.94
414.065	1226.31
414.442	1251.85
414.819	1273.77
415.197	1299.3
415.574	1327.55
415.951	1316.93
416.328	1364.39
416.705	1384.5
417.082	1351.28
417.46	1391.05
417.837	1366.87
418.214	1421.78
418.591	1457.26
418.967	1446.64
419.344	1454.55
419.721	1485.06
420.098	1490.48
420.475	1509.47
420.852	1527.09
421.228	1551.27
421.605	1531.39
421.982	1549.46
422.358	1608.22
422.735	1618.16
423.111	1594.44
423.488	1618.62
423.864	1674.66
424.241	1676.92
424.617	1680.31
424.994	1737.26
425.37	1727.31
425.746	1707.88
426.123	1758.05
426.499	1767.99
426.875	1817.93
427.251	1865.39
427.627	1891.6
428.003	1854.99
428.379	1895.9
428.756	1929.12
429.132	1952.39
429.507	1970.24
429.883	1999.62
430.259	2048.89
430.635	2036.01
431.011	2078.49
431.387	2139.28
431.763	2165.27
432.138	2213.63
432.514	2231.48
432.89	2222.44
433.265	2261.31
433.641	2324.13
434.016	2321.65
434.392	2362.32
434.767	2398.48
435.143	2433.06
435.518	2466.5
435.894	2504.92
436.269	2534.98
436.644	2570
437.02	2579.72
437.395	2576.78
437.77	2654.52
438.145	2647.52
438.52	2717.34
438.895	2728.19
439.271	2740.85
439.646	2823.78
440.021	2832.37
440.395	2837.34
440.77	2842.31
441.145	2888.19
441.52	2919.37
441.895	2930.45
442.27	2954.63
442.645	2927.06
443.019	3005.7
443.394	2995.3
443.769	3106.94
444.143	3040.05
444.518	3120.95
444.892	3095.86
445.267	3154.85
445.641	3186.03
446.016	3192.59
446.39	3212.02
446.764	3207.95
447.139	3234.62
447.513	3256.09
447.887	3298.57
448.262	3327.95
448.636	3326.59
449.01	3387.83
449.384	3447.27
449.758	3475.29
450.132	3463.76
450.506	3507.61
450.88	3506.25
451.254	3583.31
451.628	3609.75
452.002	3660.37
452.376	3696.08
452.75	3714.61
453.123	3774.49
453.497	3819.91
453.871	3865.56
454.244	3934.26
454.618	3981.04
454.992	4076.4
455.365	4054.94
455.739	4149.62
456.112	4169.06
456.486	4242.28
456.859	4263.74
457.232	4317.3
457.606	4342.39
457.979	4402.95
458.352	4449.5
458.725	4543.74
459.099	4603.4
459.472	4728.14
459.845	4685.43
460.218	4795.71
460.591	4846.1
460.964	4841.81
461.337	4944.18
461.71	5056.49
462.083	5103.95
462.456	5152.99
462.829	5209.03
463.201	5274.11
463.574	5324.05
463.947	5368.35
464.32	5485.86
464.692	5512.3
465.065	5539.87
465.438	5644.95
465.81	5773.53
466.183	5846.08
466.555	5905.96
466.928	5913.64
467.3	5983.25
467.672	6084.49
468.045	6240.42
468.417	6266.63
468.789	6308.44
469.161	6414.2
469.534	6494.42
469.906	6617.35
470.278	6654.64
470.65	6744.13
471.022	6895.31
471.394	7017.34
471.766	7054.4
472.138	7132.59
472.51	7295.3
472.882	7481.96
473.253	7556.99
473.625	7710.88
473.997	7897.09
474.369	7907.26
474.74	8014.83
475.112	8194.04
475.484	8284.66
475.855	8421.83
476.227	8518.1
476.598	8776.17
476.97	8874.02
477.341	9023.62
477.713	9184.74
478.084	9243.27
478.455	9507
478.827	9587.22
479.198	9892.97
479.569	9936.59
479.94	10202.34
480.311	10315.11
480.682	10539.74
481.053	10800.07
481.424	10947.86
481.795	11035.77
482.166	11206.16
482.537	11341.07
482.908	11556.89
483.279	11678.69
483.65	11884.79
484.021	12229.86
484.391	12267.15
484.762	12401.61
485.133	12619
485.503	12722.5
485.874	13145.32
486.244	13163.4
486.615	13396.84
486.985	13575.36
487.356	13886.77
487.726	13907.56
488.097	14279.75
488.467	14371.95
488.837	14633.41
489.207	14791.6
489.578	15069.34
489.948	15178.49
490.318	15440.63
490.688	15439.95
491.058	15694.4
491.428	15894.4
491.798	16088.52
492.168	16446.02
492.538	16481.28
492.908	16705.22
493.278	16944.99
493.648	16955.61
494.017	17208.71
494.387	17482.61
494.757	17570.96
495.126	17727.12
495.496	17878.98
495.866	17937.96
496.235	18187.67
496.605	18323.26
496.974	18439.19
497.344	18627.89
497.713	18777.26
498.082	18870.82
498.452	19107.65
498.821	19254.08
499.19	19359.62
499.559	19588.09
499.928	19624.7
500.298	19804.13
500.667	19910.11
501.036	19986.49
501.405	20323.89
501.774	20272.59
502.143	20504.67
502.512	20635.52
502.88	20843.87
503.249	20765.91
503.618	21005.45
503.987	21164.99
504.356	21259.46
504.724	21401.37
505.093	21501.26
505.462	21654.02
505.83	21782.15
506.199	22027.8
506.567	22272.99
506.936	22325.19
507.304	22548.69
507.672	22619.42
508.041	22734.67
508.409	22903.93
508.777	23172.4
509.145	23492.84
509.514	23404.94
509.882	23569
510.25	23756.34
510.618	23949.33
510.986	24040.4
511.354	24259.15
511.722	24404.91
512.09	24635.86
512.458	24623.89
512.826	24914.05
513.193	25067.72
513.561	25151.78
513.929	25453.92
514.297	25654.37
514.664	25838.09
515.032	25914.93
515.4	26211.87
515.767	26439.21
516.135	26570.5
516.502	26445.31
516.869	26885.75
517.237	27103.14
517.604	26982.02
517.972	27398.28
518.339	27661.55
518.706	27680.76
519.073	27891.15
519.44	27998.94
519.808	28427.63
520.175	28418.81
520.542	28811.35
520.909	28948.52
521.276	29028.52
521.643	29358.68
522.009	29519.35
522.376	29765.45
522.743	29925.67
523.11	30318.2
523.477	30451.3
523.843	30795.93
524.21	31003.15
524.577	31167.22
524.943	31444.05
525.31	31602.01
525.676	31942.34
526.043	32177.13
526.409	32054.88
526.776	32637.69
527.142	32720.62
527.508	33037.9
527.874	33301.85
528.241	33466.82
528.607	33569.41
528.973	33958.1
529.339	33768.96
529.705	34274.25
530.071	34458.66
530.437	34759.44
530.803	34902.26
531.169	35061.35
531.535	35047.34
531.901	35291.85
532.267	35412.53
532.632	35697.49
532.998	35752.63
533.364	35979.52
533.73	36237.14
534.095	36495.21
534.461	36631.71
534.826	36866.95
535.192	36939.72
535.557	37223.33
535.923	37191.92
536.288	37413.61
536.653	37577.22
537.019	37563.66
537.384	37749.64
537.749	37916.42
538.114	37976.08
538.479	38085.91
538.845	38265.79
539.21	38273.92
539.575	38616.29
539.94	38609.51
540.305	38953.45
540.67	38761.59
541.034	39132.21
541.399	39374.01
541.764	39396.38
542.129	39469.6
542.494	39674.34
542.858	39793.43
543.223	39862.58
543.587	40052.18
543.952	40117.26
544.316	40237.71
544.681	40376.69
545.045	40617.36
545.41	40738.49
545.774	40740.75
546.138	40796.34
546.503	41032.95
546.867	41093.96
547.231	41350.68
547.595	41438.59
547.959	41652.82
548.324	41755.41
548.688	41787.95
549.052	41862.98
549.416	42071.79
549.779	42128.74
550.143	42319.92
550.507	42605.11
550.871	42747.48
551.235	42718.1
551.599	43024.76
551.962	43080.12
552.326	43323.06
552.689	43495.71
553.053	43402.38
553.417	43645.31
553.78	44166.65
554.143	43873.55
554.507	44311.28
554.87	44414.78
555.234	44624.04
555.597	44575.23
555.96	44675.11
556.323	44965.72
556.686	44997.59
557.05	45302.21
557.413	45455.43
557.776	45530.91
558.139	45744.69
558.502	45861.75
558.865	45897.45
559.228	46292.47
559.59	46288.63
559.953	46534.72
560.316	46929.97
560.679	46879.12
561.041	47197.76
561.404	47282.73
561.767	47743.96
562.129	47466.45
562.492	47838.87
562.854	47992.31
563.217	47939.66
563.579	48221.91
563.941	48427.1
564.304	48597.49
564.666	48872.51
565.028	48830.48
565.39	49120.64
565.753	49250.13
566.115	49207.19
566.477	49576.9
566.839	49602.66
567.201	49813.73
567.563	49870
567.925	50135.53
568.287	50244.23
568.648	50178.24
569.01	50492.13
569.372	50660.94
569.734	50623.88
570.095	50839.02
570.457	50954.27
570.819	50944.32
571.18	51068.39
571.542	51194.71
571.903	51349.06
572.265	51477.64
572.626	51445.1
572.987	51529.62
573.349	51700.01
573.71	51842.83
574.071	51877.63
574.432	52005.99
574.794	52216.38
575.155	52149.49
575.516	52150.17
575.877	52257.96
576.238	52376.15
576.599	52446.43
576.96	52523.27
577.32	52516.03
577.681	52577.95
578.042	52703.37
578.403	52718.06
578.763	52816.59
579.124	52818.63
579.485	52972.07
579.845	53062.69
580.206	52962.35
580.566	52966.64
580.927	53037.83
581.287	53139.29
581.648	53055.68
582.008	53255.45
582.368	53137.94
582.728	53177.94
583.089	53116.02
583.449	53109.47
583.809	53209.8
584.169	53298.61
584.529	53244.38
584.889	53397.82
585.249	53231.27
585.609	53255.45
585.969	53350.14
586.329	53393.3
586.688	53380.64
587.048	53325.5
587.408	53213.87
587.768	53303.13
588.127	53342.68
588.487	53282.12
588.846	53530.7
589.206	53268.33
589.565	53283.02
589.925	53485.73
590.284	53419.97
590.643	53475.78
591.003	53538.61
591.362	53486.86
591.721	53497.48
592.08	53546.97
592.44	53597.81
592.799	53639.17
593.158	53556.01
593.517	53593.29
593.876	53633.52
594.235	53591.03
594.593	53527.99
594.952	53685.5
595.311	53572.73
595.67	53590.13
596.029	53792.39
596.387	53765.72
596.746	53841.42
597.104	53773.18
597.463	53750.8
597.822	53864.93
598.18	53756
598.538	53765.49
598.897	53859.73
599.255	53701.54
599.613	54054.98
599.972	53876.68
600.33	53976.11
600.688	53935.43
601.046	54071.25
601.404	54135.88
601.762	54072.83
602.12	54232.83
602.478	54213.39
602.836	54205.93
603.194	54091.36
603.552	54168.19
603.91	54094.07
604.268	54302.65
604.625	54161.64
604.983	54284.35
605.341	54205.03
605.698	54402.99
606.056	54414.74
606.413	54384.69
606.771	54507.17
607.128	54472.37
607.485	54350.79
607.843	54441.18
608.2	54531.57
608.557	54620.61
608.914	54591.23
609.272	54682.98
609.629	54757.78
609.986	54730.44
610.343	54661.74
610.7	54844.79
611.057	54848.18
611.414	54833.71
611.771	54794.62
612.127	55017.44
612.484	54915.29
612.841	55041.17
613.198	54944.9
613.554	54912.81
613.911	55172.01
614.267	55106.02
614.624	55056.31
614.98	55131.33
615.337	55349.41
615.693	55324.55
616.05	55229.64
616.406	55367.94
616.762	55236.87
617.118	55285.68
617.475	55263.31
617.831	55348.5
618.187	55338.56
618.543	55380.37
618.899	55573.81
619.255	55461.72
619.611	55492.23
619.967	55507.37
620.323	55577.87
620.678	55459.46
621.034	55387.15
621.39	55445.45
621.746	55439.57
622.101	55702.62
622.457	55602.28
622.812	55564.99
623.168	55658.32
623.523	55557.08
623.879	55698.1
624.234	55508.95
624.589	55654.93
624.945	55650.87
625.3	55661.49
625.655	55598.89
626.01	55623.75
626.365	55634.14
626.72	55681.37
627.075	55571.1
627.43	55530.42
627.785	55370.65
628.14	55508.05
628.495	55578.78
628.85	55511.66
629.205	55420.82
629.559	55604.31
629.914	55458.78
630.269	55435.28
630.623	55378.11
630.978	55287.94
631.332	55446.13
631.687	55400.25
632.041	55387.15
632.396	55401.61
632.75	55227.6
633.104	55328.39
633.459	55188.96
633.813	55116.64
634.167	55177.89
634.521	55141.28
634.875	55136.3
635.229	55110.54
635.583	54969.08
635.937	54976.76
636.291	54932.24
636.645	55059.7
636.999	54885.24
637.352	54954.61
637.706	54825.58
638.06	54859.48
638.413	54829.87
638.767	54771.79
639.121	54848.18
639.474	54523.21
639.828	54618.35
640.181	54570.44
640.534	54628.52
640.888	54518.24
641.241	54416.78
641.594	54397.79
641.947	54555.75
642.301	54441.18
642.654	54452.93
643.007	54433.72
643.36	54348.75
643.713	54255.65
644.066	54393.73
644.419	54184.01
644.771	53984.24
645.124	53713.97
645.477	53641.43
645.83	53518.04
646.182	53330.93
646.535	53244.15
646.888	53225.62
647.24	53149.92
647.593	53317.6
647.945	53169.35
648.298	53026.3
648.65	52987.21
649.002	52881.67
649.355	53030.6
649.707	53018.17
650.059	53189.01
650.411	53479.17
650.763	53423.13
651.115	53762.78
651.467	53654.31
651.819	53594.2
652.171	53425.62
652.523	53426.97
652.875	53482.79
653.227	53359.63
653.578	53491.6
653.93	53370.48
654.282	53222
654.633	53132.52
654.985	53215
655.337	53257.48
655.688	53189.24
656.039	53331.15
656.391	53115.34
656.742	53196.92
657.094	53147.66
657.445	53339.74
657.796	53213.42
658.147	53068.56
658.498	53107.66
658.849	53192.85
659.2	53124.15
659.551	53029.69
659.902	53128.45
660.253	53003.71
660.604	53022.91
660.955	52834.22
661.306	53033.53
661.656	52965.51
662.007	52965.51
662.358	52852.97
662.708	52873.99
663.059	52760.32
663.409	52706.99
663.76	52884.39
664.11	52803.26
664.461	52863.14
664.811	52813.88
665.161	52901.79
665.511	52823.6
665.862	52754.22
666.212	52846.2
666.562	52815.91
666.912	52765.07
667.262	52866.53
667.612	52707.89
667.962	52739.53
668.312	52653.88
668.662	52765.52
669.011	52620.44
669.361	52613.21
669.711	52618.4
670.06	52592.64
670.41	52567.33
670.76	52536.37
671.109	52572.53
671.459	52599.65
671.808	52450.95
672.157	52522.59
672.507	52319.43
672.856	52384.06
673.205	52419.99
673.554	52482.59
673.904	52388.13
674.253	52453.21
674.602	52358.75
674.951	52009.83
675.3	51678.99
675.649	52293.89
675.998	52230.62
676.346	52264.06
676.695	52335.02
677.044	52085.76
677.393	52176.83
677.741	52170.51
678.09	52069.27
678.438	52033.11
678.787	52068.81
679.135	51983.85
679.484	51939.33
679.832	52125.76
680.181	51819.56
680.529	51976.84
680.877	51765.77
681.225	51796.51
681.573	51877.86
681.922	51700.46
682.27	51638.77
682.618	51665.89
682.966	51552.9
683.314	51579.79
683.661	51471.32
684.009	51290.08
684.357	51130.76
684.705	51297.76
685.053	51327.82
685.4	51174.15
685.748	50981.84
686.095	50921.05
686.443	50770.09
686.79	50767.38
687.138	50704.78
687.485	50826.59
687.832	50693.03
688.18	50850.09
688.527	50461.17
688.874	50484
689.221	50339.37
689.568	50302.08
689.915	50291.01
690.262	50164.46
690.609	50057.57
690.956	49869.1
691.303	49955.88
691.65	49659.84
691.997	49578.48
692.344	49421.43
692.69	49527.86
693.037	49599.05
693.383	49161.55
693.73	49369.9
694.077	49051.27
694.423	49207.42
694.769	49010.82
695.116	48889.92
695.462	48899.63
695.808	48756.36
696.155	48699.41
696.501	48548.91
696.847	48382.36
697.193	48113.89
697.539	48381.45
697.885	48170.84
698.231	48037.51
698.577	48058.52
698.923	47957.74
699.269	47764.07
699.614	47470.74
699.96	47448.82
700.306	47540.8
700.651	47373.8
700.997	47228.04
701.342	47122.05
701.688	47087.48
702.033	46970.64
702.379	46831.44
702.724	46819.91
703.069	46903.53
703.415	46335.41
703.76	46451.79
704.105	46282.07
704.45	46195.52
704.795	45976.32
705.14	45935.19
705.485	45975.64
705.83	45738.36
706.175	45821.75
706.52	45593.05
706.865	45523.22
707.209	45576.33
707.554	45464.92
707.899	45546.73
708.243	45132.05
708.588	45161.43
708.932	44881.21
709.277	44888.44
709.621	44944.93
709.966	44589.46
710.31	44656.81
710.654	44355.12
710.998	44384.04
711.342	44420.2
711.687	44247.33
712.031	44042.81
712.375	43905.64
712.719	44025.18
713.063	43916.71
713.407	44191.96
713.75	43693.22
714.094	43858.86
714.438	43638.08
714.782	43596.49
715.125	43421.81
715.469	43457.29
715.812	43192.44
716.156	43115.83
716.499	43002.39
716.843	43128.71
717.186	42845.78
717.53	42916.51
717.873	43001.93
718.216	42792.9
718.559	42732.11
718.902	42572.12
719.246	42691.89
719.589	42425.9
719.932	42344.78
720.275	42230.88
720.617	42299.35
720.96	42149.98
721.303	42129.64
721.646	42028.17
721.989	41887.39
722.331	42011.45
722.674	41793.6
723.016	41841.51
723.359	41728.52
723.701	41718.58
724.044	41454.4
724.386	41221.87
724.729	41439.94
725.071	41266.16
725.413	41184.13
725.755	41281.08
726.097	41102.1
726.439	40911.82
726.782	40955.43
727.124	41060.29
727.465	40842.67
727.807	40785.72
728.149	40554.77
728.491	40630.25
728.833	40697.14
729.175	40514.09
729.516	40399.74
729.858	40280.2
730.199	40356.35
730.541	40286.07
730.882	40377.6
731.224	40251.95
731.565	39946.2
731.906	40098.73
732.248	40097.6
732.589	39984.16
732.93	39885.18
733.271	39828.23
733.612	39858.74
733.953	39851.73
734.294	39455.81
734.635	39535.36
734.976	39611.51
735.317	39472.99
735.658	39444.06
735.999	39369.71
736.339	39320.9
736.68	39268.47
737.021	39113.45
737.361	39057.63
737.702	39162.71
738.042	38955.04
738.383	38848.37
738.723	38936.28
739.063	38768.6
739.404	38940.35
739.744	38762.5
740.084	38622.16
740.424	38671.2
740.764	38572.45
741.104	38652.67
741.444	38417.87
741.784	38247.93
742.124	38404.99
742.464	38325
742.804	38181.95
743.143	38179.24
743.483	38120.93
743.823	37861.28
744.162	37744.67
744.502	37913.93
744.841	37841.84
745.181	37876.87
745.52	37844.1
745.86	37720.49
746.199	37659.93
746.538	37605.47
746.877	37652.47
747.216	37483.89
747.556	37300.62
747.895	37374.96
748.234	37161.18
748.573	37091.58
748.911	37030.57
749.25	37064.69
749.589	36906.05
749.928	36869.21
750.267	36859.04
750.605	36847.52
750.944	36577.24
751.283	36497.25
751.621	36612.05
751.96	36424.25
752.298	36429.68
752.636	36518.49
