Data from plate_ceramic_FLMS001491_066.txt Node
Date: Tue Feb 07 11:17:08 GMT 2017
User: dcchb
Spectrometer: FLMS00149
Trigger mode: 0
Integration Time (sec): 2.000000E-2
Scans to average: 10
Electric dark correction enabled: true
Nonlinearity correction enabled: false
Boxcar width: 0
XAxis mode: Wavelengths
Number of Pixels in Spectrum: 2048
>>>>>Begin Spectral Data<<<<<
341.393	-2.75
341.776	-2.75
342.16	-2.75
342.543	-69.19
342.927	-60.83
343.31	-71
343.693	-59.7
344.077	-64.9
344.46	-68.97
344.843	-41.17
345.226	-33.71
345.61	-35.3
345.993	-16.99
346.376	-25.58
346.759	4.7
347.142	13.06
347.525	59.62
347.908	69.56
348.291	65.27
348.674	101.42
349.057	103.68
349.44	148.88
349.823	146.39
350.206	179.16
350.588	220.06
350.971	233.17
351.354	235.66
351.737	277.24
352.119	267.52
352.502	285.15
352.884	307.97
353.267	294.19
353.65	304.58
354.032	319.27
354.414	331.93
354.797	329.44
355.179	317.92
355.562	344.13
355.944	367.63
356.326	353.62
356.709	349.55
357.091	370.8
357.473	359.04
357.855	384.13
358.238	389.33
358.62	358.37
359.002	386.16
359.384	379.61
359.766	379.16
360.148	376.22
360.53	368.31
360.912	358.59
361.294	384.58
361.676	364.24
362.057	373.73
362.439	372.38
362.821	375.31
363.203	375.54
363.584	365.6
363.966	357.91
364.348	355.43
364.729	363.34
365.111	343.9
365.493	358.82
365.874	363.34
366.256	352.72
366.637	354.75
367.019	370.34
367.4	385.26
367.781	379.83
368.163	363.79
368.544	351.13
368.925	356.56
369.306	380.29
369.688	353.62
370.069	375.99
370.45	381.64
370.831	355.65
371.212	364.92
371.593	371.02
371.974	375.09
372.355	382.09
372.736	362.21
373.117	361.53
373.498	366.05
373.879	381.19
374.26	366.95
374.641	385.26
375.021	367.41
375.402	389.78
375.783	403.56
376.163	415.99
376.544	412.38
376.925	411.92
377.305	416.44
377.686	402.88
378.066	401.98
378.447	423.9
378.827	411.25
379.208	411.02
379.588	416.44
379.968	398.37
380.349	423.45
380.729	420.74
381.109	424.58
381.489	431.13
381.87	431.36
382.25	439.72
382.63	455.54
383.01	453.96
383.39	440.85
383.77	435.43
384.15	455.76
384.53	458.02
384.91	468.65
385.29	471.13
385.67	461.41
386.049	485.37
386.429	484.46
386.809	493.73
387.189	470.68
387.568	496.67
387.948	497.8
388.328	505.03
388.707	499.61
389.087	516.78
389.466	514.29
389.846	520.17
390.225	541.64
390.605	545.25
390.984	540.96
391.363	553.16
391.743	527.63
392.122	558.36
392.501	552.71
392.881	564.46
393.26	551.13
393.639	573.95
394.018	590
394.397	570.79
394.776	578.25
395.155	583.22
395.534	601.75
395.913	579.83
396.292	601.52
396.671	633.16
397.05	606.72
397.429	617.34
397.808	633.39
398.186	624.8
398.565	625.48
398.944	647.4
399.323	612.82
399.701	647.85
400.08	664.8
400.458	647.4
400.837	664.35
401.215	693.5
401.594	661.18
401.972	665.25
402.351	702.54
402.729	698.92
403.107	701.63
403.486	719.49
403.864	711.13
404.242	738.7
404.62	740.5
404.999	764.46
405.377	760.84
405.755	764.23
406.133	780.28
406.511	800.39
406.889	780.05
407.267	775.53
407.645	817.79
408.023	823.21
408.401	827.73
408.779	848.52
409.156	858.92
409.534	847.17
409.912	857.56
410.29	879.48
410.667	862.76
411.045	901.4
411.422	920.39
411.8	904.11
412.178	945.02
412.555	949.99
412.933	944.79
413.31	985.24
413.687	989.31
414.065	976.88
414.442	1013.72
414.819	1008.52
415.197	1028.18
415.574	1041.06
415.951	1073.6
416.328	1070.89
416.705	1066.37
417.082	1060.72
417.46	1097.78
417.837	1119.93
418.214	1105.01
418.591	1107.95
418.967	1159.02
419.344	1133.49
419.721	1135.97
420.098	1187.5
420.475	1168.51
420.852	1182.53
421.228	1216.2
421.605	1195.86
421.982	1248.74
422.358	1231.56
422.735	1267.27
423.111	1253.03
423.488	1299.58
423.864	1281.05
424.241	1297.1
424.617	1303.2
424.994	1355.85
425.37	1327.15
425.746	1382.29
426.123	1384.55
426.499	1387.94
426.875	1397.21
427.251	1439.24
427.627	1442.63
428.003	1475.17
428.379	1489.64
428.756	1544.55
429.132	1518.56
429.507	1544.1
429.883	1545
430.259	1560.37
430.635	1567.37
431.011	1610.76
431.387	1659.8
431.763	1664.32
432.138	1675.62
432.514	1689.63
432.89	1732.79
433.265	1738.44
433.641	1791.32
434.016	1786.13
434.392	1804.88
434.767	1864.99
435.143	1862.06
435.518	1892.79
435.894	1911.32
436.269	1953.13
436.644	1991.54
437.02	1989.74
437.395	1991.32
437.77	2020.47
438.145	2029.28
438.52	2057.08
438.895	2048.04
439.271	2084.65
439.646	2145.44
440.021	2110.86
440.395	2121.26
440.77	2148.15
441.145	2151.09
441.52	2222.72
441.895	2220.92
442.27	2212.78
442.645	2215.04
443.019	2250.75
443.394	2289.61
443.769	2263.17
444.143	2254.14
444.518	2316.96
444.892	2298.88
445.267	2347.69
445.641	2364.87
446.016	2408.93
446.39	2394.7
446.764	2410.52
447.139	2407.13
447.513	2444.41
447.887	2452.1
448.262	2502.94
448.636	2453.68
449.01	2543.62
449.384	2567.12
449.758	2598.08
450.132	2647.12
450.506	2600.79
450.88	2605.09
451.254	2639.44
451.628	2697.74
452.002	2721.02
452.376	2737.74
452.75	2763.05
453.123	2812.99
453.497	2817.51
453.871	2857.74
454.244	2908.13
454.618	2905.64
454.992	2997.39
455.365	2961.24
455.739	3041.23
456.112	3065.64
456.486	3081.01
456.859	3135.47
457.232	3185.18
457.606	3212.53
457.979	3201.46
458.352	3314.67
458.725	3350.15
459.099	3371.85
459.472	3429.92
459.845	3487.55
460.218	3480.32
460.591	3536.81
460.964	3558.96
461.337	3661.56
461.71	3685.51
462.083	3774.1
462.456	3732.97
462.829	3759.41
463.201	3840.31
463.574	3849.57
463.947	3926.18
464.32	3974.99
464.692	4043.24
465.065	4107.19
465.438	4140.19
465.81	4192.84
466.183	4219.51
466.555	4329.11
466.928	4361.2
467.3	4388.99
467.672	4431.93
468.045	4578.82
468.417	4587.86
468.789	4584.92
469.161	4694.98
469.534	4706.27
469.906	4873.95
470.278	4897.91
470.65	4965.7
471.022	5023.33
471.394	5158.92
471.766	5180.39
472.138	5263.1
472.51	5343.55
472.882	5437.78
473.253	5517.78
473.625	5608.62
473.997	5709.64
474.369	5754.61
474.74	5814.95
475.112	5868.05
475.484	6002.06
475.855	6069.63
476.227	6120.7
476.598	6327.47
476.97	6381.03
477.341	6540.8
477.713	6655.6
478.084	6721.36
478.455	6836.39
478.827	6909.15
479.198	7110.51
479.569	7143.5
479.94	7313.21
480.311	7383.49
480.682	7585.97
481.053	7779.41
481.424	7869.81
481.795	7920.43
482.166	8060.99
482.537	8164.26
482.908	8335.33
483.279	8414.88
483.65	8596.57
484.021	8795.88
484.391	8853.06
484.762	8923.11
485.133	9061.41
485.503	9164.69
485.874	9389.54
486.244	9469.99
486.615	9645.35
486.985	9755.63
487.356	9941.39
487.726	10031.11
488.097	10223.87
488.467	10269.07
488.837	10527.14
489.207	10655.27
489.578	10781.6
489.948	10831.76
490.318	11003.06
490.688	11182.71
491.058	11253.45
491.428	11370.05
491.798	11520.33
492.168	11711.29
492.538	11782.47
492.908	11998.06
493.278	12143.14
493.648	12083.93
494.017	12336.36
494.387	12472.4
494.757	12571.6
495.126	12722.79
495.496	12812.28
495.866	12814.31
496.235	12989.45
496.605	13090.69
496.974	13301.98
497.344	13345.82
497.713	13465.37
498.082	13511.01
498.452	13660.84
498.821	13674.4
499.19	13732.03
499.559	14024
499.928	14040.72
500.298	14138.34
500.667	14339.69
501.036	14241.39
501.405	14529.52
501.774	14433.93
502.143	14730.19
502.512	14732
502.88	14887.25
503.249	14904.88
503.618	15007.02
503.987	15056.74
504.356	15201.82
504.724	15285.88
505.093	15318.42
505.462	15452.88
505.83	15634.8
506.199	15652.65
506.567	15904.17
506.936	15908.92
507.304	16133.32
507.672	16210.38
508.041	16235.69
508.409	16463.25
508.777	16484.72
509.145	16730.37
509.514	16774.88
509.882	16966.07
510.25	16954.77
510.618	17065.72
510.986	17260.97
511.354	17376.45
511.722	17452.83
512.09	17573.28
512.458	17671.81
512.826	17862.54
513.193	17898.24
513.561	18014.63
513.929	18149.99
514.297	18282.19
514.664	18514.5
515.032	18516.76
515.4	18754.04
515.767	18880.14
516.135	18984.77
516.502	18854.15
516.869	19312.44
517.237	19358.77
517.604	19347.92
517.972	19691.64
518.339	19701.36
518.706	19793.56
519.073	19897.51
519.44	20021.13
519.808	20361.23
520.175	20439.19
520.542	20692.97
520.909	20763.93
521.276	20830.6
521.643	21066.3
522.009	21147.42
522.376	21379.06
522.743	21458.83
523.11	21644.81
523.477	21900.4
523.843	22038.7
524.21	22321.86
524.577	22405.47
524.943	22526.6
525.31	22674.39
525.676	22842.97
526.043	23115.73
526.409	23146.47
526.776	23474.59
527.142	23665.55
527.508	23721.59
527.874	24035.03
528.241	24077.29
528.607	24312.31
528.973	24334.69
529.339	24419.65
529.705	24535.36
530.071	24931.96
530.437	24989.36
530.803	25208.11
531.169	25187.77
531.535	25252.4
531.901	25429.8
532.267	25526.07
532.632	25691.71
532.998	25905.94
533.364	26076.56
533.73	26096.45
534.095	26279.72
534.461	26525.59
534.826	26596.55
535.192	26769.65
535.557	26922.41
535.923	26841.74
536.288	27084.44
536.653	27210.09
537.019	27163.09
537.384	27301.16
537.749	27466.58
538.114	27546.58
538.479	27690.3
538.845	27851.2
539.21	27785.89
539.575	27890.75
539.94	28138.2
540.305	28279.21
540.67	28203.96
541.034	28356.05
541.399	28539.32
541.764	28684.18
542.129	28665.42
542.494	28776.83
542.858	28907.9
543.223	28832.65
543.587	29126.88
543.952	29203.48
544.316	29349.02
544.681	29339.53
545.045	29544.49
545.41	29635.56
545.774	29659.97
546.138	29710.14
546.503	29883.47
546.867	29993.75
547.231	30278.26
547.595	30258.37
547.959	30411.81
548.324	30452.72
548.688	30514.41
549.052	30577.68
549.416	30774.06
549.779	30826.49
550.143	30962.53
550.507	31113.49
550.871	31223.09
551.235	31335.18
551.599	31452.92
551.962	31501.5
552.326	31575.4
552.689	31960.47
553.053	31728.61
553.417	32026.69
553.78	32330.86
554.143	32223.97
554.507	32489.27
554.87	32456.28
555.234	32880
555.597	32800.68
555.96	32985.31
556.323	33094.23
556.686	33144.17
557.05	33497.38
557.413	33555.69
557.776	33695.12
558.139	33848.79
558.502	33933.98
558.865	33924.72
559.228	34341.43
559.59	34432.95
559.953	34564.02
560.316	34798.36
560.679	34853.28
561.041	34992.71
561.404	35285.13
561.767	35444.68
562.129	35407.39
562.492	35781.39
562.854	35857.77
563.217	35979.8
563.579	36263.86
563.941	36236.52
564.304	36400.81
564.666	36746.56
565.028	36737.52
565.39	36831.98
565.753	37029.94
566.115	37265.64
566.477	37488.69
566.839	37388.81
567.201	37783.37
567.563	37787.89
567.925	37987.89
568.287	37942.01
568.648	38030.6
569.01	38424.94
569.372	38610.47
569.734	38516.23
570.095	38859.27
570.457	38954.41
570.819	39029.44
571.18	38968.65
571.542	39384.91
571.903	39386.94
572.265	39596.43
572.626	39714.17
572.987	39743.32
573.349	39953.26
573.71	39883.65
574.071	40108.06
574.432	40090.2
574.794	40432.34
575.155	40553.69
575.516	40416.97
575.877	40718.66
576.238	40788.04
576.599	40749.62
576.96	40937.19
577.32	41066
577.681	41127.24
578.042	41131.08
578.403	41190.74
578.763	41255.6
579.124	41398.19
579.485	41604.06
579.845	41650.84
580.206	41563.16
580.566	41498.75
580.927	41604.06
581.287	41693.1
581.648	41512.09
582.008	41793.66
582.368	41737.62
582.728	41741.68
583.089	41689.71
583.449	41777.39
583.809	41799.76
584.169	42048.8
584.529	41934.67
584.889	42086.76
585.249	41814
585.609	41853.55
585.969	42146.65
586.329	42048.12
586.688	42177.83
587.048	42053.09
587.408	42046.99
587.768	42049.7
588.127	42011.51
588.487	42014.22
588.846	42388.67
589.206	41974.22
589.565	42171.73
589.925	42154.56
590.284	42100.77
590.643	42286.3
591.003	42338.73
591.362	42292.18
591.721	42270.26
592.08	42296.02
592.44	42466.19
592.799	42422.8
593.158	42314.1
593.517	42345.74
593.876	42459.63
594.235	42331.05
594.593	42540.99
594.952	42687.65
595.311	42492.63
595.67	42554.54
596.029	42730.59
596.387	42755.67
596.746	42769.45
597.104	42531.04
597.463	42669.8
597.822	42927.64
598.18	42709.34
598.538	42678.84
598.897	42960.86
599.255	42598.39
599.613	43291.25
599.972	42732.17
600.33	43047.41
600.688	42926.96
601.046	43150.46
601.404	43204.47
601.762	43059.84
602.12	43168.31
602.478	43264.81
602.836	43310.23
603.194	43091.03
603.552	43268.88
603.91	43035.66
604.268	43406.27
604.625	43259.16
604.983	43335.99
605.341	43319.5
605.698	43591.58
606.056	43402.43
606.413	43637.23
606.771	43659.6
607.128	43761.74
607.485	43661.18
607.843	43776.89
608.2	43723.78
608.557	43811.69
608.914	43677.68
609.272	44016.65
609.629	44153.37
609.986	44102.53
610.343	43895.98
610.7	44371.22
611.057	44152.02
611.414	44184.11
611.771	44316.31
612.127	44485.79
612.484	44314.05
612.841	44497.54
613.198	44338.68
613.554	44382.29
613.911	44742.74
614.267	44571.44
614.624	44631.33
614.98	44759.01
615.337	44914.48
615.693	44759.68
616.05	44782.51
616.406	45056.4
616.762	44866.8
617.118	44798.33
617.475	44880.13
617.831	44928.49
618.187	44968.27
618.543	45091.65
618.899	45288.48
619.255	45157.41
619.611	45099.56
619.967	45310.63
620.323	45440.34
620.678	45252.55
621.034	45079.68
621.39	45053.24
621.746	45107.7
622.101	45634.46
622.457	45121.48
622.812	45332.55
623.168	45433.79
623.523	45410.74
623.879	45433.34
624.234	45333.91
624.589	45376.84
624.945	45328.03
625.3	45337.97
625.655	45341.82
626.01	45386.33
626.365	45471.3
626.72	45376.17
627.075	45291.2
627.43	45227.02
627.785	45194.25
628.14	45268.82
628.495	45353.12
628.85	45451.87
629.205	45211.65
629.559	45443.51
629.914	45145.66
630.269	45257.07
630.623	45150.63
630.978	45030.64
631.332	45206.45
631.687	45038.77
632.041	45005.78
632.396	45004.88
632.75	44923.52
633.104	44866.57
633.459	44727.14
633.813	44755.84
634.167	44768.95
634.521	44735.5
634.875	44866.35
635.229	44650.31
635.583	44461.39
635.937	44675.62
636.291	44325.12
636.645	44426.81
636.999	44340.26
637.352	44321.05
637.706	44162.19
638.06	44438.79
638.413	44218
638.767	44149.98
639.121	44182.3
639.474	43881.97
639.828	43975.3
640.181	44006.03
640.534	44115.86
640.888	43867.28
641.241	43576.44
641.594	43889.43
641.947	43893.49
642.301	43723.33
642.654	43693.95
643.007	43727.4
643.36	43688.53
643.713	43523.33
644.066	43749.54
644.419	43457.12
644.771	43041.09
645.124	42659.63
645.477	42592.06
645.83	42373.98
646.182	42212.63
646.535	42011.51
646.888	42189.81
647.24	41966.54
647.593	42438.39
647.945	42409.24
648.298	42143.71
648.65	41919.31
649.002	41903.71
649.355	41980.77
649.707	41797.28
650.059	42105.97
650.411	42534.21
650.763	42576.69
651.115	42782.11
651.467	42645.84
651.819	42571.04
652.171	42406.98
652.523	42494.66
652.875	42590.25
653.227	42236.14
653.578	42678.16
653.93	42553.42
654.282	42349.35
654.633	42231.84
654.985	42276.13
655.337	42541.89
655.688	42264.38
656.039	42408.79
656.391	41978.29
656.742	42176.7
657.094	42064.16
657.445	42220.32
657.796	42158.62
658.147	42117.49
658.498	41851.29
658.849	42037.27
659.2	42000.21
659.551	42014.45
659.902	42020.1
660.253	41905.07
660.604	41943.94
660.955	41621.91
661.306	42024.62
661.656	41893.77
662.007	41830.5
662.358	41710.27
662.708	41774
663.059	41722.7
663.409	41490.39
663.76	41821.46
664.11	41666.66
664.461	41740.78
664.811	41674.57
665.161	41692.65
665.511	41604.74
665.862	41606.55
666.212	41644.74
666.562	41772.19
666.912	41480.67
667.262	41663.95
667.612	41482.26
667.962	41674.12
668.312	41473.67
668.662	41596.15
669.011	41446.78
669.361	41431.18
669.711	41283.62
670.06	41333.79
670.41	41214.24
670.76	41111.42
671.109	41293.11
671.459	41189.84
671.808	41337.63
672.157	41294.69
672.507	41046.11
672.856	41106.9
673.205	41137.86
673.554	41080.23
673.904	41015.83
674.253	41143.06
674.602	41082.49
674.951	40695.16
675.3	40401.83
675.649	41009.95
675.998	40880.69
676.346	40958.88
676.695	41031.2
677.044	40722.05
677.393	40876.85
677.741	40960.69
678.09	40678.66
678.438	40666.91
678.787	40790.3
679.135	40779
679.484	40632.79
679.832	40741.26
680.181	40533.58
680.529	40474.6
680.877	40353.7
681.225	40245.45
681.573	40667.14
681.922	40264.89
682.27	40178.34
682.618	40122.52
682.966	40089.75
683.314	40188.96
683.661	39937.66
684.009	39860.83
684.357	39756.2
684.705	39519.82
685.053	39804.33
685.4	39767.5
685.748	39494.51
686.095	39587.84
686.443	39339.94
686.79	39348.98
687.138	39286.38
687.485	39267.4
687.832	39217.91
688.18	39272.6
688.527	39082.09
688.874	38989.89
689.221	38752.84
689.568	38693.86
689.915	38570.47
690.262	38635.78
690.609	38726.85
690.956	38584.03
691.303	38440.98
691.65	38319.63
691.997	38189.01
692.344	38038.51
692.69	38051.39
693.037	38176.13
693.383	37829.47
693.73	37910.37
694.077	37660.44
694.423	37724.16
694.769	37636.48
695.116	37462.25
695.462	37405.98
695.808	37327.56
696.155	37348.13
696.501	37073.56
696.847	37057.06
697.193	36866.78
697.539	36875.82
697.885	36692.78
698.231	36651.65
698.577	36556.74
698.923	36581.59
699.269	36280.13
699.614	36192
699.96	36143.41
700.306	36046.69
700.651	35997.43
700.997	35898.9
701.342	35852.12
701.688	35682.64
702.033	35678.12
702.379	35451.68
702.724	35430.66
703.069	35444
703.415	35166.72
703.76	35051.92
704.105	35126.49
704.45	34879.72
704.795	34715.88
705.14	34717.91
705.485	34674.75
705.83	34557.24
706.175	34640.4
706.52	34519.28
706.865	34395.44
707.209	34198.38
707.554	34203.13
707.899	34285.38
708.243	34063.47
708.588	34000.87
708.932	33893.53
709.277	33691.05
709.621	33863.7
709.966	33743.25
710.31	33609.7
710.654	33423.26
710.998	33520.66
711.342	33513.65
711.687	33293.77
712.031	33241.12
712.375	33207.9
712.719	33210.38
713.063	33150.95
713.407	33159.31
713.75	32945.76
714.094	32965.42
714.438	32785.08
714.782	32953.67
715.125	32768.59
715.469	32882.93
715.812	32553.45
716.156	32441.82
716.499	32509.39
716.843	32404.53
717.186	32181.03
717.53	32372.67
717.873	32317.75
718.216	32258.32
718.559	32027.82
718.902	31790.08
719.246	32073.92
719.589	31956.86
719.932	31853.36
720.275	31698.33
720.617	31771.1
720.96	31613.82
721.303	31690.65
721.646	31698.33
721.989	31463.99
722.331	31499.47
722.674	31312.35
723.016	31362.97
723.359	31267.16
723.701	31198.69
724.044	30981.97
724.386	30985.58
724.729	30990.33
725.071	30978.8
725.413	31124.56
725.755	30870.11
726.097	30908.98
726.439	30638.93
726.782	30759.83
727.124	30615.65
727.465	30563.67
727.807	30499.04
728.149	30612.03
728.491	30364.81
728.833	30551.02
729.175	30415.88
729.516	30237.13
729.858	30344.02
730.199	30288.43
730.541	30263.34
730.882	30173.63
731.224	30118.26
731.565	30092.73
731.906	30055.66
732.248	30075.55
732.589	29854.54
732.93	29797.82
733.271	29880.75
733.612	29749.46
733.953	29799.63
734.294	29615
734.635	29626.3
734.976	29843.01
735.317	29473.08
735.658	29694.09
735.999	29498.84
736.339	29422.46
736.68	29618.61
737.021	29313.31
737.361	29319.41
737.702	29271.5
738.042	29299.53
738.383	29188.79
738.723	29184.5
739.063	29083.26
739.404	29199.64
739.744	29093.66
740.084	29034.22
740.424	29057.95
740.764	28963.26
741.104	28861.8
741.444	28827.67
741.784	28787
742.124	28950.38
742.464	28768.47
742.804	28675.81
743.143	28523.05
743.483	28608.24
743.823	28477.4
744.162	28291.19
744.502	28465.88
744.841	28360.79
745.181	28340
745.52	28213.23
745.86	28405.09
746.199	28165.77
746.538	27986.34
746.877	28095.49
747.216	27998.77
747.556	28051.42
747.895	27975.49
748.234	27878.32
748.573	27868.38
748.911	27777.08
749.25	27734.37
749.589	27622.28
749.928	27598.33
750.267	27794.03
750.605	27581.38
750.944	27463.42
751.283	27399.01
751.621	27473.59
751.96	27221.39
752.298	27272.46
752.636	27209.64
752.975	27149.98
753.313	27089.41
753.651	27150.66
753.989	27078.57
