Data from plate_ceramic_FLMS001491_082.txt Node
Date: Tue Feb 07 11:17:24 GMT 2017
User: dcchb
Spectrometer: FLMS00149
Trigger mode: 0
Integration Time (sec): 2.000000E-2
Scans to average: 10
Electric dark correction enabled: true
Nonlinearity correction enabled: false
Boxcar width: 0
XAxis mode: Wavelengths
Number of Pixels in Spectrum: 2048
>>>>>Begin Spectral Data<<<<<
341.393	-14.52
341.776	-14.52
342.16	-14.52
342.543	-69.21
342.927	-52.94
343.31	-69.89
343.693	-60.62
344.077	-69.89
344.46	-76.44
344.843	-49.55
345.226	-46.38
345.61	-25.14
345.993	-27.4
346.376	-8.42
346.759	-1.86
347.142	27.29
347.525	37
347.908	70.22
348.291	97.57
348.674	101.18
349.057	102.31
349.44	138.92
349.823	150.67
350.206	171.92
350.588	205.14
350.971	223.44
351.354	251.01
351.737	250.56
352.119	261.41
352.502	291.91
352.884	300.5
353.267	296.43
353.65	313.38
354.032	308.64
354.414	338.24
354.797	323.78
355.179	348.41
355.562	341.4
355.944	349.76
356.326	346.6
356.709	341.63
357.091	348.63
357.473	383.89
357.855	341.63
358.238	350.22
358.62	351.8
359.002	358.35
359.384	357.22
359.766	368.97
360.148	361.52
360.53	364.45
360.912	339.82
361.294	330.33
361.676	367.84
362.057	360.61
362.439	366.26
362.821	358.8
363.203	360.84
363.584	385.7
363.966	358.58
364.348	357
364.729	345.47
365.111	347.05
365.493	358.35
365.874	351.57
366.256	360.39
366.637	357.9
367.019	361.74
367.4	350.44
367.781	359.26
368.163	350.89
368.544	359.03
368.925	335.53
369.306	358.8
369.688	346.38
370.069	359.71
370.45	367.17
370.831	356.54
371.212	358.13
371.593	354.74
371.974	365.36
372.355	366.04
372.736	349.31
373.117	378.01
373.498	366.04
373.879	369.88
374.26	358.35
374.641	365.13
375.021	355.87
375.402	347.5
375.783	378.01
376.163	385.24
376.544	381.63
376.925	385.24
377.305	368.3
377.686	387.73
378.066	399.71
378.447	403.1
378.827	412.14
379.208	386.83
379.588	400.84
379.968	384.11
380.349	421.63
380.729	412.14
381.109	401.51
381.489	403.77
381.87	424.57
382.25	416.2
382.63	421.63
383.01	434.51
383.39	424.11
383.77	415.07
384.15	421.63
384.53	459.37
384.91	437.45
385.29	463.43
385.67	421.18
386.049	439.71
386.429	466.6
386.809	437.22
387.189	489.2
387.568	470.44
387.948	460.27
388.328	459.82
388.707	472.47
389.087	494.17
389.466	504.34
389.846	482.64
390.225	516.99
390.605	498.91
390.984	495.3
391.363	500.95
391.743	516.54
392.122	515.18
392.501	521.06
392.881	517.22
393.26	538.69
393.639	540.04
394.018	524.22
394.397	550.66
394.776	519.03
395.155	542.3
395.534	561.28
395.913	543.66
396.292	571
396.671	574.62
397.05	587.05
397.429	566.48
397.808	564
398.186	557.22
398.565	596.54
398.944	590.89
399.323	584.11
399.701	594.73
400.08	597.67
400.458	614.39
400.837	629.98
401.215	611.45
401.594	616.2
401.972	606.26
402.351	623.2
402.729	635.86
403.107	652.58
403.486	670.43
403.864	677.44
404.242	684.22
404.62	689.64
404.999	689.19
405.377	698
405.755	693.94
406.133	694.61
406.511	721.05
406.889	690.09
407.267	738.91
407.645	739.81
408.023	774.84
408.401	740.04
408.779	754.5
409.156	755.4
409.534	780.04
409.912	764.9
410.29	796.31
410.667	815.52
411.045	826.14
411.422	804.89
411.8	839.24
412.178	864.33
412.555	874.27
412.933	860.49
413.31	894.16
413.687	904.33
414.065	914.72
414.442	912.69
414.819	928.96
415.197	930.54
415.574	960.14
415.951	970.31
416.328	934.61
416.705	955.4
417.082	939.13
417.46	975.96
417.837	1009.63
418.214	1008.96
418.591	1015.06
418.967	1020.48
419.344	992.46
419.721	1056.86
420.098	1051.67
420.475	1048.5
420.852	1088.28
421.228	1100.25
421.605	1102.06
421.982	1085.56
422.358	1131.44
422.735	1117.88
423.111	1119.46
423.488	1170.76
423.864	1152.23
424.241	1170.08
424.617	1156.75
424.994	1203.98
425.37	1190.19
425.746	1234.71
426.123	1243.98
426.499	1243.3
426.875	1266.8
427.251	1267.93
427.627	1310.19
428.003	1302.06
428.379	1293.69
428.756	1348.38
429.132	1352.22
429.507	1377.08
429.883	1408.72
430.259	1404.43
430.635	1418.44
431.011	1447.36
431.387	1456.4
431.763	1485.33
432.138	1496.63
432.514	1497.08
432.89	1518.77
433.265	1564.65
433.641	1585.44
434.016	1606.23
434.392	1594.93
434.767	1648.26
435.143	1613.23
435.518	1654.82
435.894	1678.32
436.269	1657.08
436.644	1712.21
437.02	1741.37
437.395	1747.02
437.77	1777.52
438.145	1796.05
438.52	1805.55
438.895	1802.83
439.271	1824.98
439.646	1853.68
440.021	1861.36
440.395	1872.66
440.77	1851.42
441.145	1894.36
441.52	1934.81
441.895	1951.53
442.27	1969.61
442.645	1935.94
443.019	1992.43
443.394	1982.72
443.769	2031.08
444.143	2021.59
444.518	2070.17
444.892	2018.2
445.267	2091.19
445.641	2076.95
446.016	2107.91
446.39	2106.78
446.764	2113.33
447.139	2136.61
447.513	2112.66
447.887	2161.69
448.262	2179.32
448.636	2216.83
449.01	2198.98
449.384	2215.25
449.758	2274.69
450.132	2303.61
450.506	2283.73
450.88	2303.61
451.254	2305.87
451.628	2313.78
452.002	2391.29
452.376	2385.87
452.75	2404.4
453.123	2425.64
453.497	2487.79
453.871	2514.91
454.244	2532.76
454.618	2539.99
454.992	2600.1
455.365	2586.09
455.739	2692.08
456.112	2691.17
456.486	2662.02
456.859	2723.04
457.232	2780.44
457.606	2791.28
457.979	2805.07
458.352	2844.16
458.725	2885.74
459.099	2914.9
459.472	3008.45
459.845	2969.81
460.218	3040.99
460.591	3072.63
460.964	3109.92
461.337	3168.9
461.71	3226.53
462.083	3251.84
462.456	3234.89
462.829	3292.51
463.201	3341.32
463.574	3347.43
463.947	3413.19
464.32	3480.08
464.692	3513.75
465.065	3533.86
465.438	3582.22
465.81	3640.3
466.183	3675.78
466.555	3720.75
466.928	3760.97
467.3	3741.54
467.672	3809.56
468.045	3958.03
468.417	3942.66
468.789	4006.39
469.161	4028.54
469.534	4063.34
469.906	4230.79
470.278	4211.13
470.65	4316.44
471.022	4348.53
471.394	4458.36
471.766	4452.03
472.138	4538.81
472.51	4579.03
472.882	4663.1
473.253	4765.24
473.625	4771.57
473.997	4949.64
474.369	4947.84
474.74	4972.92
475.112	5067.15
475.484	5161.84
475.855	5249.52
476.227	5316.19
476.598	5460.36
476.97	5516.63
477.341	5610.87
477.713	5705.33
478.084	5711.43
478.455	5897.42
478.827	5946.23
479.198	6102.83
479.569	6104.42
479.94	6251.76
480.311	6376.5
480.682	6523.84
481.053	6627.34
481.424	6725.42
481.795	6847.9
482.166	6888.58
482.537	6968.12
482.908	7120.21
483.279	7241.11
483.65	7300.54
484.021	7527.2
484.391	7517.71
484.762	7669.8
485.133	7736.92
485.503	7873.86
485.874	8072.73
486.244	8135.55
486.615	8234.08
486.985	8341.65
487.356	8487.18
487.726	8543.22
488.097	8760.62
488.467	8801.07
488.837	8983.89
489.207	9078.35
489.578	9204
489.948	9335.07
490.318	9463.88
490.688	9513.59
491.058	9632.68
491.428	9759.91
491.798	9854.6
492.168	10046.68
492.538	10127.36
492.908	10165.78
493.278	10340.24
493.648	10396.73
494.017	10509.5
494.387	10586.56
494.757	10704.07
495.126	10867.68
495.496	10876.27
495.866	10939.09
496.235	11135.24
496.605	11230.38
496.974	11193.55
497.344	11314.67
497.713	11462.24
498.082	11486.87
498.452	11633.76
498.821	11739.97
499.19	11808.9
499.559	11934.32
499.928	12014.09
500.298	11987.2
500.667	12204.14
501.036	12245.5
501.405	12280.75
501.774	12309.45
502.143	12485.49
502.512	12532.27
502.88	12730.68
503.249	12763.45
503.618	12828.31
503.987	12816.1
504.356	12965.7
504.724	13034.63
505.093	13097.68
505.462	13199.37
505.83	13289.76
506.199	13420.83
506.567	13626.03
506.936	13654.27
507.304	13753.25
507.672	13806.81
508.041	13917.32
508.409	13972.91
508.777	14120.93
509.145	14283.64
509.514	14281.6
509.882	14407.47
510.25	14439.56
510.618	14554.14
510.986	14617.64
511.354	14837.75
511.722	14866.22
512.09	14990.51
512.458	15069.83
512.826	15088.81
513.193	15244.97
513.561	15314.12
513.929	15408.8
514.297	15648.12
514.664	15814.44
515.032	15828.23
515.4	16037.94
515.767	16143.02
516.135	16206.75
516.502	16077.03
516.869	16367.2
517.237	16449.68
517.604	16449
517.972	16724.25
518.339	16776.68
518.706	16807.41
519.073	16940.29
519.44	17184.8
519.808	17404.23
520.175	17367.4
520.542	17523.1
520.909	17677.22
521.276	17702.3
521.643	17953.82
522.009	18043.08
522.376	18029.53
522.743	18330.08
523.11	18478.78
523.477	18596.52
523.843	18772.56
524.21	18976.62
524.577	19052.55
524.943	19122.38
525.31	19332.32
525.676	19493.44
526.043	19622.25
526.409	19695.7
526.776	19846.88
527.142	20051.62
527.508	20255.46
527.874	20352.85
528.241	20413.19
528.607	20521.44
528.973	20714.2
529.339	20761.21
529.705	20857.47
530.071	21117.58
530.437	21257.01
530.803	21346.27
531.169	21463.11
531.535	21462.88
531.901	21558.47
532.267	21739.94
532.632	21845.02
532.998	21986.03
533.364	22109.42
533.73	22124.56
534.095	22254.95
534.461	22503.08
534.826	22543.76
535.192	22698.78
535.557	22897.87
535.923	22783.53
536.288	22941.94
536.653	23109.39
537.019	23106.23
537.384	23206.79
537.749	23442.04
538.114	23290.63
538.479	23445.88
538.845	23517.52
539.21	23578.08
539.575	23701.92
539.94	23839.32
540.305	23843.38
540.67	23950.5
541.034	24115.69
541.399	24223.49
541.764	24151.17
542.129	24310.94
542.494	24430.71
542.858	24496.93
543.223	24491.73
543.587	24773.08
543.952	24668.67
544.316	24824.38
544.681	24954.99
545.045	24890.36
545.41	25163.35
545.774	25110.92
546.138	25185.5
546.503	25411.03
546.867	25412.38
547.231	25693.96
547.595	25635.88
547.959	25816.89
548.324	25862.54
548.688	25921.3
549.052	26144.79
549.416	26131.46
549.779	26214.62
550.143	26292.36
550.507	26509.53
550.871	26629.07
551.235	26515.63
551.599	26785.68
551.962	26770.54
552.326	26822.06
552.689	27144.54
553.053	26996.75
553.417	27100.93
553.78	27499.11
554.143	27371.2
554.507	27490.97
554.87	27608.03
555.234	27994.01
555.597	27845.54
555.96	28023.39
556.323	28084.85
556.686	28194.91
557.05	28440.78
557.413	28578.85
557.776	28587.89
558.139	28749.02
558.502	28940.2
558.865	28872.63
559.228	29142
559.59	29210.25
559.953	29355.33
560.316	29516.68
560.679	29703.8
561.041	29735.21
561.404	29979.95
561.767	30184.46
562.129	30090.9
562.492	30467.17
562.854	30497.9
563.217	30509.2
563.579	30673.04
563.941	30933.14
564.304	31002.74
564.666	31147.37
565.028	31204.55
565.39	31308.72
565.753	31539.91
566.115	31658.09
566.477	31800.69
566.839	31990.74
567.201	32120.68
567.563	32140.12
567.925	32466.21
568.287	32507.34
568.648	32600.44
569.01	32657.62
569.372	32944.84
569.734	32957.27
570.095	33100.77
570.457	33291.95
570.819	33268.67
571.18	33263.7
571.542	33607.65
571.903	33541.89
572.265	33724.93
572.626	33777.59
572.987	33979.62
573.349	34074.3
573.71	34084.02
574.071	34244.01
574.432	34390.45
574.794	34541.41
575.155	34635.87
575.516	34520.84
575.877	34846.26
576.238	34841.97
576.599	34937.33
576.96	35075.63
577.32	35088.06
577.681	35057.1
578.042	35234.27
578.403	35312.24
578.763	35375.96
579.124	35397.43
579.485	35537.09
579.845	35708.38
580.206	35483.76
580.566	35479.91
580.927	35580.93
581.287	35600.14
581.648	35573.02
582.008	35705.45
582.368	35693.02
582.728	35747.93
583.089	35761.94
583.449	35802.39
583.809	35831.32
584.169	36002.84
584.529	35782.96
584.889	36121.03
585.249	36005.32
585.609	35846.91
585.969	36092.78
586.329	35873.58
586.688	36062.27
587.048	35910.64
587.408	35893.24
587.768	36075.83
588.127	35887.14
588.487	35962.39
588.846	36172.33
589.206	35998.54
589.565	36024.53
589.925	36207.35
590.284	36075.83
590.643	36207.58
591.003	36279.44
591.362	36345.43
591.721	36139.56
592.08	36241.02
592.44	36304.75
592.799	36523.05
593.158	36318.08
593.517	36323.51
593.876	36481.7
594.235	36310.4
594.593	36408.03
594.952	36429.04
595.311	36441.47
595.67	36576.83
596.029	36516.27
596.387	36674.01
596.746	36698.64
597.104	36503.39
597.463	36637.17
597.822	36715.81
598.18	36532.54
598.538	36572.77
598.897	36781.8
599.255	36548.59
599.613	37058.4
599.972	36769.82
600.33	36899.54
600.688	36709.94
601.046	36927.79
601.404	37010.5
601.762	37010.95
602.12	37210.94
602.478	37100.66
602.836	37080.1
603.194	36931.63
603.552	37049.36
603.91	37037.39
604.268	37238.29
604.625	37129.36
604.983	37296.14
605.341	37158.29
605.698	37422.01
606.056	37496.81
606.413	37310.6
606.771	37588.33
607.128	37596.7
607.485	37486.42
607.843	37493.65
608.2	37589.92
608.557	37765.5
608.914	37659.97
609.272	37666.75
609.629	37752.85
609.986	37967.76
610.343	37839.4
610.7	38057.93
611.057	38023.58
611.414	38064.48
611.771	38042.33
612.127	38038.27
612.484	38123.91
612.841	38298.15
613.198	38104.03
613.554	38116
613.911	38332.27
614.267	38358.03
614.624	38425.37
614.98	38442.55
615.337	38685.71
615.693	38534.07
616.05	38541.98
616.406	38736.1
616.762	38555.99
617.118	38529.33
617.475	38640.51
617.831	38714.18
618.187	38692.49
618.543	38776.55
618.899	38888.41
619.255	38938.81
619.611	38704.91
619.967	38883.44
620.323	38983.78
620.678	38894.06
621.034	38834.63
621.39	38890.67
621.746	38801.18
622.101	39210.44
622.457	39023.55
622.812	39009.77
623.168	39157.11
623.523	39057.9
623.879	39142.19
624.234	38915.53
624.589	39084.57
624.945	39015.64
625.3	39125.24
625.655	39044.57
626.01	38978.58
626.365	39098.35
626.72	38946.26
627.075	39023.78
627.43	39143.32
627.785	38941.07
628.14	38890.22
628.495	38811.58
628.85	38885.93
629.205	38857.45
629.559	39090.44
629.914	38878.47
630.269	38907.62
630.623	38802.54
630.978	38778.81
631.332	38850.22
631.687	38931.58
632.041	38748.3
632.396	38869.2
632.75	38616.56
633.104	38508.99
633.459	38462.21
633.813	38358.03
634.167	38310.35
634.521	38398.93
634.875	38437.12
635.229	38366.84
635.583	38234.87
635.937	38315.32
636.291	38129.34
636.645	38270.8
636.999	38106.51
637.352	38119.85
637.706	37968.66
638.06	38081.88
638.413	38047.53
638.767	37874.65
639.121	37901.55
639.474	37715.56
639.828	37655.45
640.181	37857.71
640.534	37765.96
640.888	37703.36
641.241	37517.15
641.594	37591.05
641.947	37600.31
642.301	37533.65
642.654	37520.54
643.007	37464.5
643.36	37594.66
643.713	37376.14
644.066	37478.73
644.419	37245.97
644.771	36951.06
645.124	36553.33
645.477	36523.28
645.83	36181.14
646.182	36177.3
646.535	36134.36
646.888	36288.03
647.24	36015.27
647.593	36283.51
647.945	36199.9
648.298	35946.57
648.65	36037.19
649.002	35725.11
649.355	35991.09
649.707	35893.46
650.059	35909.51
650.411	36222.95
650.763	36381.36
651.115	36669.49
651.467	36499.32
651.819	36554.91
652.171	36464.07
652.523	36469.49
652.875	36389.04
653.227	36225.21
653.578	36413.9
653.93	36407.35
654.282	36275.15
654.633	36102.95
654.985	36252.55
655.337	36134.36
655.688	36131.2
656.039	36355.37
656.391	35932.33
656.742	36111.54
657.094	35954.25
657.445	36076.06
657.796	36090.07
658.147	35929.62
658.498	35906.34
658.849	35984.99
659.2	35932.56
659.551	35811.66
659.902	36110.63
660.253	35845.1
660.604	35941.37
660.955	35757.65
661.306	35805.33
661.656	35758.1
662.007	35799.23
662.358	35849.17
662.708	35706.12
663.059	35731.43
663.409	35486.47
663.76	35762.62
664.11	35671.1
664.461	35649.18
664.811	35735.5
665.161	35687.37
665.511	35550.2
665.862	35625.67
666.212	35827.25
666.562	35716.07
666.912	35588.61
667.262	35599.46
667.612	35570.31
667.962	35550.65
668.312	35508.84
668.662	35572.57
669.011	35459.12
669.361	35514.49
669.711	35408.96
670.06	35549.07
670.41	35292.8
670.76	35264.33
671.109	35370.76
671.459	35253.48
671.808	35315.63
672.157	35273.82
672.507	35053.26
672.856	35079.47
673.205	35082.18
673.554	35114.73
673.904	34961.28
674.253	35312.69
674.602	35150.88
674.951	34634.29
675.3	34428.42
675.649	35096.2
675.998	34999.7
676.346	35086.7
676.695	35119.02
677.044	34808.97
677.393	34916.31
677.741	34893.72
678.09	34880.83
678.438	34665.92
678.787	34900.72
679.135	34841.74
679.484	34629.09
679.832	34720.39
680.181	34486.04
680.529	34533.72
680.877	34394.75
681.225	34463.9
681.573	34716.77
681.922	34430.45
682.27	34263.22
682.618	34422.54
682.966	34168.99
683.314	34255.09
683.661	34259.83
684.009	33991.37
684.357	33892.39
684.705	33975.32
685.053	33964.93
685.4	33840.86
685.748	33683.35
686.095	33653.07
686.443	33601.32
686.79	33558.38
687.138	33511.83
687.485	33500.31
687.832	33470.93
688.18	33569
688.527	33282.23
688.874	33325.85
689.221	33185.74
689.568	33019.87
689.915	32978.29
690.262	32951.62
690.609	32955.01
690.956	32834.56
691.303	32782.58
691.65	32695.36
691.997	32603.38
692.344	32406.78
692.69	32389.6
693.037	32609.93
693.383	32257.4
693.73	32294.91
694.077	32124.97
694.423	32200.68
694.769	32009.05
695.116	31990.51
695.462	31810.63
695.808	31661.48
696.155	31857.18
696.501	31517.98
696.847	31433.02
697.193	31356.86
697.539	31550.53
697.885	31129.29
698.231	31087.04
698.577	31113.93
698.923	31077.77
699.269	30796.87
699.614	30681.62
699.96	30686.14
700.306	30742.64
700.651	30529.76
700.997	30517.56
701.342	30505.36
701.688	30464.45
702.033	30307.85
702.379	30437.56
702.724	30175.87
703.069	30252.03
703.415	29861.53
703.76	29843
704.105	29919.61
704.45	29793.06
704.795	29660.41
705.14	29572.27
705.485	29567.3
705.83	29287.99
706.175	29454.76
706.52	29367.08
706.865	29246.86
707.209	29202.34
707.554	28990.82
707.899	29080.53
708.243	28998.28
708.588	29044.38
708.932	28938.17
709.277	28756.25
709.621	28879.86
709.966	28628.12
710.31	28806.87
710.654	28522.58
710.998	28560.55
711.342	28451.62
711.687	28348.12
712.031	28187.22
712.375	28124.18
712.719	28203.95
713.063	28221.12
713.407	28197.85
713.75	28016.16
714.094	27890.51
714.438	27967.34
714.782	27954.01
715.125	27801.7
715.469	27807.8
715.812	27652.55
716.156	27537.3
716.499	27576.85
716.843	27573.91
717.186	27398.32
717.53	27452.56
717.873	27436.74
718.216	27345.67
718.559	27218.66
718.902	27095.05
719.246	27284.88
719.589	27088.72
719.932	26859.8
720.275	26994.26
720.617	26946.35
720.96	26927.82
721.303	26820.03
721.646	26791.56
721.989	26676.08
722.331	26785.23
722.674	26585.91
723.016	26606.02
723.359	26542.3
723.701	26594.72
724.044	26338.91
724.386	26258.46
724.729	26428.18
725.071	26319.93
725.413	26307.05
725.755	26315.18
726.097	26236.99
726.439	26098.47
726.782	25993.84
727.124	26184.11
727.465	25944.12
727.807	25971.46
728.149	25989.99
728.491	25851.47
728.833	25910.22
729.175	25718.59
729.516	25826.38
729.858	25701.64
730.199	25848.08
730.541	25660.06
730.882	25621.42
731.224	25727.63
731.565	25544.81
731.906	25536.22
732.248	25557.69
732.589	25443.57
732.93	25370.12
733.271	25329.22
733.612	25281.99
733.953	25339.84
734.294	25215.33
734.635	25176.46
734.976	25239.05
735.317	25234.08
735.658	25283.8
735.999	25030.92
736.339	25004.48
736.68	24976.46
737.021	25011.26
737.361	24903.7
737.702	25021.21
738.042	24838.39
738.383	24769.91
738.723	24877.93
739.063	24643.59
739.404	24821.44
739.744	24747.99
740.084	24641.33
740.424	24666.41
740.764	24547.55
741.104	24610.37
741.444	24505.29
741.784	24322.24
742.124	24403.82
742.464	24345.29
742.804	24378.96
743.143	24239.76
743.483	24295.35
743.823	24170.83
744.162	24098.07
744.502	24146.2
744.841	23960.67
745.181	23978.3
745.52	23908.02
745.86	23944.4
746.199	23860.79
746.538	23815.14
746.877	23877.51
747.216	23882.25
747.556	23813.78
747.895	23712.54
748.234	23654.91
748.573	23552.32
748.911	23611.07
749.25	23620.11
749.589	23505.99
749.928	23438.2
750.267	23499.89
750.605	23249.28
750.944	23346.22
751.283	23136.06
751.621	23188.49
751.96	23055.38
752.298	23105.1
752.636	23042.28
752.975	22979
753.313	22916.63
753.651	23003.41
753.989	22867.59
754.327	22845.22
