Data from plate_porcelain_FLMS001491_043.txt Node
Date: Tue Feb 07 11:19:22 GMT 2017
User: dcchb
Spectrometer: FLMS00149
Trigger mode: 0
Integration Time (sec): 2.000000E-2
Scans to average: 10
Electric dark correction enabled: true
Nonlinearity correction enabled: false
Boxcar width: 0
XAxis mode: Wavelengths
Number of Pixels in Spectrum: 2048
>>>>>Begin Spectral Data<<<<<
341.393	4.92
341.776	4.92
342.16	4.92
342.543	-64.24
342.927	-67.4
343.31	-75.76
343.693	-74.4
344.077	-71.47
344.46	-63.33
344.843	-42.32
345.226	-37.8
345.61	-13.62
345.993	-15.65
346.376	-21.3
346.759	-2.54
347.142	27.74
347.525	58.47
347.908	60.96
348.291	70
348.674	83.11
349.057	117.91
349.44	113.16
349.823	147.96
350.206	164.46
350.588	234.06
350.971	253.5
351.354	277.68
351.737	257.11
352.119	279.94
352.502	298.24
352.884	298.01
353.267	310.44
353.65	321.07
354.032	332.59
354.414	370.1
354.797	363.55
355.179	348.18
355.562	363.78
355.944	370.78
356.326	367.17
356.709	383.89
357.091	393.83
357.473	381.85
357.855	384.79
358.238	384.79
358.62	378.69
359.002	397.45
359.384	407.39
359.766	388.41
360.148	385.02
360.53	391.12
360.912	367.17
361.294	396.09
361.676	401.06
362.057	376.2
362.439	398.8
362.821	398.58
363.203	386.83
363.584	403.77
363.966	379.14
364.348	378.24
364.729	399.48
365.111	394.74
365.493	396.77
365.874	399.26
366.256	408.97
366.637	391.35
367.019	386.37
367.4	400.84
367.781	397.67
368.163	402.87
368.544	401.97
368.925	394.06
369.306	415.75
369.688	414.62
370.069	385.47
370.45	408.07
370.831	408.52
371.212	414.62
371.593	419.59
371.974	383.21
372.355	414.85
372.736	403.55
373.117	404.68
373.498	415.07
373.879	417.56
374.26	394.74
374.641	388.41
375.021	418.46
375.402	431.34
375.783	447.84
376.163	472.7
376.544	464.79
376.925	449.42
377.305	449.2
377.686	466.6
378.066	473.15
378.447	457.33
378.827	486.71
379.208	465.69
379.588	480.61
379.968	514.96
380.349	479.93
380.729	483.77
381.109	507.73
381.489	509.08
381.87	507.73
382.25	510.66
382.63	516.99
383.01	537.78
383.39	520.61
383.77	507.95
384.15	521.74
384.53	545.92
384.91	564
385.29	555.18
385.67	537.78
386.049	570.78
386.429	577.33
386.809	567.61
387.189	569.19
387.568	561.06
387.948	595.41
388.328	594.05
388.707	610.77
389.087	614.62
389.466	624.11
389.846	611.68
390.225	637.21
390.605	649.19
390.984	651
391.363	627.5
391.743	654.84
392.122	672.02
392.501	684.9
392.881	681.96
393.26	684.67
393.639	685.12
394.018	710.43
394.397	717.21
394.776	705.01
395.155	733.03
395.534	726.48
395.913	736.65
396.292	764.9
396.671	733.03
397.05	783.2
397.429	777.55
397.808	780.26
398.186	774.61
398.565	787.27
398.944	788.85
399.323	782.3
399.701	829.07
400.08	804.67
400.458	839.92
400.837	851.9
401.215	852.8
401.594	886.25
401.972	846.7
402.351	869.53
402.729	876.76
403.107	893.93
403.486	929.64
403.864	930.31
404.242	934.61
404.62	930.31
404.999	956.53
405.377	957.21
405.755	970.31
406.133	998.56
406.511	982.06
406.889	1025.68
407.267	1024.1
407.645	1046.24
408.023	1069.52
408.401	1078.79
408.779	1073.14
409.156	1082.17
409.534	1101.61
409.912	1148.16
410.29	1140.03
410.667	1152.91
411.045	1167.37
411.422	1184.32
411.8	1204.88
412.178	1218.22
412.555	1236.07
412.933	1266.58
413.31	1277.65
413.687	1288.95
414.065	1287.37
414.442	1310.64
414.819	1329.17
415.197	1376.4
415.574	1380.47
415.951	1348.16
416.328	1388.38
416.705	1446.69
417.082	1427.48
417.46	1422.28
417.837	1449.17
418.214	1474.26
418.591	1529.39
418.967	1485.33
419.344	1515.61
419.721	1567.81
420.098	1553.8
420.475	1597.87
420.852	1588.38
421.228	1619.11
421.605	1611.88
421.982	1632.44
422.358	1662.72
422.735	1687.13
423.111	1651.88
423.488	1746.79
423.864	1743.85
424.241	1765.77
424.617	1810.74
424.994	1798.99
425.37	1806.22
425.746	1824.98
426.123	1858.65
426.499	1876.28
426.875	1903.17
427.251	1951.08
427.627	1960.34
428.003	2036.05
428.379	2001.47
428.756	2043.73
429.132	2047.12
429.507	2099.1
429.883	2120.11
430.259	2165.08
430.635	2191.3
431.011	2184.07
431.387	2285.08
431.763	2297.74
432.138	2316.49
432.514	2349.71
432.89	2353.55
433.265	2398.98
433.641	2452.08
434.016	2438.07
434.392	2546.77
434.767	2556.26
435.143	2544.51
435.518	2626.99
435.894	2605.52
436.269	2675.58
436.644	2729.59
437.02	2737.72
437.395	2736.37
437.77	2770.49
438.145	2792.64
438.52	2891.62
438.895	2871.28
439.271	2893.2
439.646	2986.31
440.021	2958.74
440.395	2979.75
440.77	2965.29
441.145	3029.24
441.52	3097.94
441.895	3098.39
442.27	3094.1
442.645	3132.97
443.019	3206.86
443.394	3141.78
443.769	3203.25
444.143	3198.05
444.518	3322.34
444.892	3266.75
445.267	3301.33
445.641	3302.68
446.016	3340.65
446.39	3386.75
446.764	3421.1
447.139	3411.83
447.513	3464.49
447.887	3494.31
448.262	3513.3
448.636	3535.9
449.01	3593.75
449.384	3632.39
449.758	3638.04
450.132	3725.27
450.506	3712.16
450.88	3706.74
451.254	3750.81
451.628	3789
452.002	3874.42
452.376	3925.04
452.75	3933.17
453.123	3947.64
453.497	4036.22
453.871	4040.29
454.244	4188.99
454.618	4166.16
454.992	4233.5
455.365	4243.22
455.739	4372.26
456.112	4403.9
456.486	4444.8
456.859	4455.87
457.232	4591.46
457.606	4593.5
457.979	4597.79
458.352	4708.52
458.725	4814.51
459.099	4854.51
459.472	4941.51
459.845	4963.43
460.218	5050.21
460.591	5063.99
460.964	5118
461.337	5210.65
461.71	5327.71
462.083	5374.27
462.456	5428.5
462.829	5386.69
463.201	5501.49
463.574	5569.97
463.947	5657.65
464.32	5776.06
464.692	5814.48
465.065	5854.25
465.438	5933.35
465.81	6116.84
466.183	6102.83
466.555	6242.04
466.928	6310.74
467.3	6290.85
467.672	6427.12
468.045	6598.41
468.417	6600.45
468.789	6662.82
469.161	6736.04
469.534	6889.25
469.906	7075.69
470.278	7081.79
470.65	7130.6
471.022	7341.45
471.394	7456.7
471.766	7513.42
472.138	7538.5
472.51	7761.32
472.882	7903.46
473.253	7941.88
473.625	8123.57
473.997	8296.67
474.369	8334.64
474.74	8444.47
475.112	8547.52
475.484	8779.37
475.855	8855.08
476.227	8950.89
476.598	9262.07
476.97	9322.86
477.341	9552.46
477.713	9682.4
478.084	9739.12
478.455	9993.35
478.827	10060.7
479.198	10373
479.569	10406.68
479.94	10754.91
480.311	10824.07
480.682	11107
481.053	11358.74
481.424	11505.86
481.795	11617.49
482.166	11800.31
482.537	12001.89
482.908	12292.5
483.279	12358.94
483.65	12553.29
484.021	12838.7
484.391	12970.22
484.762	13108.3
485.133	13278.24
485.503	13429.19
485.874	13766.81
486.244	13825.57
486.615	14254.26
486.985	14372.9
487.356	14523.18
487.726	14623.06
488.097	15011.98
488.467	15168.36
488.837	15480.89
489.207	15689.47
489.578	15820.32
489.948	16009.24
490.318	16135.56
490.688	16353.64
491.058	16595.89
491.428	16818.94
491.798	17007.86
492.168	17261.64
492.538	17412.59
492.908	17691.23
493.278	17951.34
493.648	17882.19
494.017	18131.9
494.387	18307.71
494.757	18456.18
495.126	18689.62
495.496	18708.83
495.866	18986.56
496.235	19139.33
496.605	19271.98
496.974	19397.4
497.344	19646.43
497.713	19684.62
498.082	19934.79
498.452	20143.14
498.821	20293.65
499.19	20402.57
499.559	20407.99
499.928	20755.78
500.298	20821.09
500.667	20979.96
501.036	21090.46
501.405	21258.59
501.774	21320.51
502.143	21593.5
502.512	21654.74
502.88	21888.63
503.249	21863.78
503.618	22161.85
503.987	22232.81
504.356	22411.56
504.724	22561.16
505.093	22538.11
505.462	22706.24
505.83	22924.99
506.199	23215.15
506.567	23445.65
506.936	23497.86
507.304	23747.12
507.672	23943.27
508.041	23930.39
508.409	24130.83
508.777	24290.15
509.145	24590.71
509.514	24573.76
509.882	24833.87
510.25	24890.59
510.618	24986.63
510.986	25183.01
511.354	25444.7
511.722	25688.76
512.09	26001.75
512.458	25873.61
512.826	26170.78
513.193	26484.9
513.561	26525.35
513.929	26821.84
514.297	27002.17
514.664	27222.28
515.032	27285.78
515.4	27574.36
515.767	27635.83
516.135	27952.2
516.502	27817.52
516.869	28332.98
517.237	28436.26
517.604	28353.55
517.972	28832.18
518.339	29009.12
518.706	29081.44
519.073	29304.26
519.44	29563.91
519.808	29820.85
520.175	29821.31
520.542	30315.98
520.909	30450.89
521.276	30381.52
521.643	30851.56
522.009	31057.88
522.376	31291.1
522.743	31567.93
523.11	31818.54
523.477	32179.44
523.843	32249.04
524.21	32664.62
524.577	32818.97
524.943	32952.98
525.31	33228.9
525.676	33422.79
526.043	33788.21
526.409	33945.49
526.776	34301.19
527.142	34426.38
527.508	34721.52
527.874	34915.18
528.241	35071.56
528.607	35180.04
528.973	35544.32
529.339	35555.84
529.705	35900.02
530.071	36267.92
530.437	36568.25
530.803	36785.87
531.169	36900.22
531.535	36918.97
531.901	37013.21
532.267	37174.56
532.632	37537.94
532.998	37640.31
533.364	37844.6
533.73	38051.37
534.095	38328.43
534.461	38425.37
534.826	38629.21
535.192	38839.15
535.557	39073.72
535.923	39043.21
536.288	39256.99
536.653	39506.93
537.019	39459.7
537.384	39733.36
537.749	39927.03
538.114	39915.73
538.479	40022.85
538.845	40314.36
539.21	40239.34
539.575	40553.45
539.94	40693.56
540.305	40915.93
540.67	40754.35
541.034	41232.08
541.399	41203.15
541.764	41407.22
542.129	41497.38
542.494	41564.05
542.858	41880.65
543.223	41849.69
543.587	42206.52
543.952	42191.38
544.316	42369.22
544.681	42218.27
545.045	42635.88
545.41	42675.43
545.774	42697.8
546.138	42944.8
546.503	42954.97
546.867	43060.51
547.231	43588.4
547.595	43507.95
547.959	43564.9
548.324	43681.05
548.688	43836.76
549.052	44036.98
549.416	44157.2
549.779	44204.66
550.143	44399.23
550.507	44494.82
550.871	44844.19
551.235	44731.2
551.599	45083.73
551.962	45200.79
552.326	45324.18
552.689	45425.64
553.053	45382.03
553.417	45725.07
553.78	46114.89
554.143	46006.19
554.507	46151.72
554.87	46454.54
555.234	46705.16
555.597	46483.92
555.96	46753.97
556.323	46983.11
556.686	47067.41
557.05	47304.69
557.413	47390.11
557.776	47584.68
558.139	47721.4
558.502	47913.71
558.865	47983.31
559.228	48334.27
559.59	48381.95
559.953	48503.53
560.316	48778.32
560.679	48904.65
561.041	49168.82
561.404	49294.47
561.767	49525.87
562.129	49444.52
562.492	49766.32
562.854	49728.58
563.217	49840.67
563.579	50060.1
563.941	50254.67
564.304	50459.18
564.666	50674.32
565.028	50757.7
565.39	50841.77
565.753	51075.44
566.115	51261.42
566.477	51386.84
566.839	51402.89
567.201	51579.6
567.563	51615.31
567.925	51796.1
568.287	51913.38
568.648	51909.31
569.01	52041.51
569.372	52391.79
569.734	52313.82
570.095	52597.43
570.457	52537.77
570.819	52748.61
571.18	52736.86
571.542	52937.76
571.903	52956.74
572.265	53062.73
572.626	53133.91
572.987	53241.48
573.349	53344.76
573.71	53575.71
574.071	53559.89
574.432	53604.41
574.794	53841.92
575.155	53746.33
575.516	53783.61
575.877	53815.93
576.238	53960.33
576.599	54009.6
576.96	54058.18
577.32	54025.87
577.681	54122.36
578.042	54248.01
578.403	54339.76
578.763	54352.86
579.124	54377.04
579.485	54472.18
579.845	54551.96
580.206	54540.43
580.566	54502.92
580.927	54575.68
581.287	54641.22
581.648	54476.93
582.008	54690.71
582.368	54632.41
582.728	54764.15
583.089	54720.54
583.449	54679.86
583.809	54747.2
584.169	54784.72
584.529	54766.41
584.889	54887.54
585.249	54765.96
585.609	54672.63
585.969	54909.23
586.329	54775.68
586.688	54826.52
587.048	54810.48
587.408	54744.27
587.768	54827.2
588.127	54738.62
588.487	54679.18
588.846	55032.39
589.206	54781.33
589.565	54799.18
589.925	54961.89
590.284	54865.17
590.643	54904.04
591.003	55041.21
591.362	55048.89
591.721	54983.58
592.08	54874.43
592.44	55077.59
592.799	55070.36
593.158	55064.03
593.517	55051.38
593.876	55060.19
594.235	55025.62
594.593	55109.23
594.952	55139.51
595.311	54959.63
595.67	55031.94
596.029	55184.93
596.387	55173.63
596.746	55306.06
597.104	55143.58
597.463	55174.76
597.822	55273.07
598.18	55182.45
598.538	55185.84
598.897	55314.42
599.255	55116.01
599.613	55533.85
599.972	55311.48
600.33	55489.78
600.688	55329.11
601.046	55517.35
601.404	55599.39
601.762	55410.24
602.12	55568.2
602.478	55607.07
602.836	55597.35
603.194	55530.69
603.552	55567.75
603.91	55494.3
604.268	55709.44
604.625	55608.2
604.983	55760.96
605.341	55624.02
605.698	55753.05
606.056	55785.14
606.413	55728.87
606.771	55874.41
607.128	55913.5
607.485	55765.71
607.843	55770.91
608.2	55995.76
608.557	56039.6
608.914	55980.17
609.272	56110.78
609.629	56075.53
609.986	56221.06
610.343	56043.22
610.7	56228.97
611.057	56277.79
611.414	56129.09
611.771	56249.31
612.127	56348.52
612.484	56267.62
612.841	56403.88
613.198	56295.41
613.554	56381.96
613.911	56510.32
614.267	56468.97
614.624	56449.76
614.98	56468.97
615.337	56650.88
615.693	56627.16
616.05	56572.47
616.406	56697.21
616.762	56574.28
617.118	56686.14
617.475	56612.01
617.831	56747.38
618.187	56662.18
618.543	56748.06
618.899	56797.32
619.255	56821.95
619.611	56733.37
619.967	56866.02
620.323	56859.24
620.678	56773.59
621.034	56739.47
621.39	56797.55
621.746	56799.58
622.101	57104.88
622.457	56790.31
622.812	56872.35
623.168	56942.85
623.523	56950.54
623.879	57051.1
624.234	56802.29
624.589	56990.08
624.945	56988.05
625.3	56979.91
625.655	56852.23
626.01	56926.81
626.365	56918.67
626.72	56950.08
627.075	56859.69
627.43	56885
627.785	56786.7
628.14	56896.75
628.495	56861.27
628.85	56810.65
629.205	56724.1
629.559	56867.37
629.914	56750.32
630.269	56833.7
630.623	56769.07
630.978	56581.73
631.332	56790.09
631.687	56809.98
632.041	56648.85
632.396	56715.51
632.75	56535.63
633.104	56579.25
633.459	56460.38
633.813	56465.58
634.167	56481.85
634.521	56469.65
634.875	56430.78
635.229	56429.87
635.583	56306.49
635.937	56285.47
636.291	56242.31
636.645	56294.51
636.999	56216.32
637.352	56379.25
637.706	56103.1
638.06	56151.91
638.413	56163.66
638.767	56138.13
639.121	56189.43
639.474	55946.72
639.828	55973.84
640.181	55984.46
640.534	56040.05
640.888	55859.27
641.241	55796.67
641.594	55812.71
641.947	55882.54
642.301	55738.36
642.654	55838.93
643.007	55809.55
643.36	55722.32
643.713	55704.47
644.066	55805.48
644.419	55600.06
644.771	55388.77
645.124	55110.36
645.477	55026.97
645.83	54888.22
646.182	54740.2
646.535	54688.9
646.888	54699.07
647.24	54610.48
647.593	54749.01
647.945	54717.37
648.298	54500.88
648.65	54355.35
649.002	54311.51
649.355	54393.54
649.707	54378.4
650.059	54531.39
650.411	54862.23
650.763	54910.82
651.115	55157.14
651.467	55068.55
651.819	54956.24
652.171	54913.08
652.523	54873.3
652.875	54817.03
653.227	54688.22
653.578	54846.64
653.93	54895.68
654.282	54655.23
654.633	54637.83
654.985	54694.55
655.337	54692.29
655.688	54663.14
656.039	54773.42
656.391	54506.08
656.742	54518.28
657.094	54586.3
657.445	54757.37
657.796	54621.11
658.147	54522.8
658.498	54469.92
658.849	54535.23
659.2	54519.87
659.551	54449.81
659.902	54532.29
660.253	54561.22
660.604	54499.3
660.955	54304.73
661.306	54396.71
661.656	54389.47
662.007	54301.34
662.358	54360.1
662.708	54333.43
663.059	54253.43
663.409	54048.24
663.76	54251.4
664.11	54246.2
664.461	54240.1
664.811	54233.55
665.161	54288.23
665.511	54250.95
665.862	54237.84
666.212	54355.58
666.562	54328.01
666.912	54114.9
667.262	54193.09
667.612	54205.75
667.962	54241
668.312	54157.39
668.662	54158.75
669.011	54106.09
669.361	54170.27
669.711	54024.51
670.06	53918.07
670.41	54001.69
670.76	53893.67
671.109	54011.63
671.459	53981.12
671.808	53905.87
672.157	53992.42
672.507	53867.68
672.856	53878.75
673.205	53927.57
673.554	53949.49
673.904	53748.59
674.253	53919.66
674.602	53698.87
674.951	53406.67
675.3	53250.29
675.649	53764.41
675.998	53631.98
676.346	53647.8
676.695	53783.16
677.044	53521.47
677.393	53660.45
677.741	53663.62
678.09	53547.01
678.438	53421.59
678.787	53524.86
679.135	53544.52
679.484	53416.84
679.832	53468.14
680.181	53277.19
680.529	53404.64
680.877	53240.35
681.225	53153.35
681.573	53364.87
681.922	53185.21
682.27	53116.51
682.618	53122.84
682.966	52953.58
683.314	53105.89
683.661	52942.05
684.009	52707.94
684.357	52705.68
684.705	52651.44
685.053	52687.37
685.4	52718.78
685.748	52494.61
686.095	52529.86
686.443	52301.39
686.79	52179.59
687.138	52331.45
687.485	52418.68
687.832	52183.2
688.18	52201.51
688.527	52115.18
688.874	52031.12
689.221	51963.32
689.568	51803.78
689.915	51826.6
690.262	51779.6
690.609	51691.92
690.956	51506.16
691.303	51515.88
691.65	51352.94
691.997	51423
692.344	51157.92
692.69	51212.38
693.037	51229.78
693.383	50865.95
693.73	51085.83
694.077	50859.4
694.423	50794.54
694.769	50725.39
695.116	50704.37
695.462	50597.03
695.808	50527.65
696.155	50481.55
696.501	50292.18
696.847	50172.18
697.193	50032.53
697.539	50000.66
697.885	49891.29
698.231	49854.68
698.577	49838.18
698.923	49574.91
699.269	49459.43
699.614	49207.69
699.96	49122.27
700.306	49230.74
700.651	49038.43
700.997	49000.24
701.342	48862.39
701.688	48807.93
702.033	48745.78
702.379	48643.41
702.724	48489.06
703.069	48575.39
703.415	48201.84
703.76	48364.77
704.105	48306.24
704.45	48082.07
704.795	47762.53
705.14	47749.65
705.485	47726.37
705.83	47698.35
706.175	47694.73
706.52	47499.71
706.865	47302.88
707.209	47334.74
707.554	47227.4
707.899	47360.96
708.243	46907.86
708.588	46935.66
708.932	46737.7
709.277	46791.93
709.621	46810.92
709.966	46512.39
710.31	46553.97
710.654	46141.1
710.998	46265.39
711.342	46253.19
711.687	46059.52
712.031	45919.19
712.375	45851.17
712.719	45871.96
713.063	45703.15
713.407	45891.62
713.75	45594.9
714.094	45459.31
714.438	45481.23
714.782	45538.41
715.125	45344.51
715.469	45356.72
715.812	45001.02
716.156	44910.18
716.499	44827.24
716.843	44949.04
717.186	44585.89
717.53	44880.8
717.873	44899.78
718.216	44790.18
718.559	44494.37
718.902	44315.39
719.246	44486.23
719.589	44324.65
719.932	44069.07
720.275	44086.92
720.617	44044.44
720.96	43913.14
721.303	43869.52
721.646	43892.8
721.989	43688.29
722.331	43773.71
722.674	43615.97
723.016	43713.37
723.359	43622.75
723.701	43632.24
724.044	43152.48
724.386	43126.95
724.729	43362.65
725.071	43040.39
725.413	43018.47
725.755	43003.11
726.097	42867.97
726.439	42647.41
726.782	42710.46
727.124	42844.69
727.465	42508.66
727.807	42567.64
728.149	42416
728.491	42463.46
728.833	42500.52
729.175	42351.15
729.516	42180.76
729.858	42149.8
730.199	42189.34
730.541	41878.84
730.882	42008.78
731.224	42114.54
731.565	41890.37
731.906	41843.36
732.248	41740.09
732.589	41756.13
732.93	41553.65
733.271	41595.46
733.612	41636.14
733.953	41629.58
734.294	41311.17
734.635	41373.54
734.976	41367.9
735.317	41130.16
735.658	41001.13
735.999	41076.83
736.339	40976.27
736.68	41077.51
737.021	40801.81
737.361	40621.25
737.702	40885.65
738.042	40714.81
738.383	40821.02
738.723	40772.88
739.063	40536.5
739.404	40644.3
739.744	40451.99
740.084	40410.18
740.424	40448.6
740.764	40232.56
741.104	40314.59
741.444	40110.08
741.784	40053.13
742.124	40041.83
742.464	39863.75
742.804	40006.8
743.143	39936.07
743.483	39823.53
743.823	39714.38
744.162	39802.29
744.502	39719.35
744.841	39565.68
745.181	39625.79
745.52	39398
745.86	39410.88
746.199	39256.54
746.538	39269.19
746.877	39337.67
747.216	39143.32
747.556	39106.94
747.895	39039.82
748.234	38663.11
748.573	38729.09
748.911	38727.06
749.25	38761.86
749.589	38481.42
749.928	38608.65
750.267	38381.99
750.605	38397.58
750.944	38306.28
751.283	38184.7
751.621	38220.86
751.96	38040.3
752.298	38026.06
752.636	38087.3
752.975	37970.47
