Data from plate_porcelain_FLMS001491_020.txt Node
Date: Tue Feb 07 11:18:53 GMT 2017
User: dcchb
Spectrometer: FLMS00149
Trigger mode: 0
Integration Time (sec): 2.000000E-2
Scans to average: 10
Electric dark correction enabled: true
Nonlinearity correction enabled: false
Boxcar width: 0
XAxis mode: Wavelengths
Number of Pixels in Spectrum: 2048
>>>>>Begin Spectral Data<<<<<
341.393	-14.46
341.776	-14.46
342.16	-14.46
342.543	-52.65
342.927	-49.49
343.31	-66.89
343.693	-73.9
344.077	-80.9
344.46	-43.84
344.843	-59.21
345.226	-45.87
345.61	-47.68
345.993	-14.69
346.376	-1.13
346.759	16.27
347.142	31.19
347.525	35.48
347.908	36.16
348.291	85.65
348.674	109.6
349.057	119.77
349.44	125.42
349.823	134.01
350.206	168.36
350.588	234.34
350.971	234.34
351.354	252.65
351.737	277.73
352.119	296.04
352.502	297.17
352.884	293.78
353.267	328.8
353.65	320.67
354.032	341.46
354.414	327
354.797	377.39
355.179	351.4
355.562	364.06
355.944	334.91
356.326	380.55
356.709	377.62
357.091	379.65
357.473	379.2
357.855	394.57
358.238	395.02
358.62	399.76
359.002	370.16
359.384	380.1
359.766	407.45
360.148	380.55
360.53	402.93
360.912	373.55
361.294	374.45
361.676	385.3
362.057	385.98
362.439	383.49
362.821	387.79
363.203	376.26
363.584	383.72
363.966	398.18
364.348	386.88
364.729	401.57
365.111	408.12
365.493	383.27
365.874	391.85
366.256	368.58
366.637	381.46
367.019	389.37
367.4	390.95
367.781	384.17
368.163	386.88
368.544	396.83
368.925	392.08
369.306	378.75
369.688	388.46
370.069	402.7
370.45	397.96
370.831	411.74
371.212	385.3
371.593	401.12
371.974	406.09
372.355	421.68
372.736	408.35
373.117	420.55
373.498	424.85
373.879	427.56
374.26	414.23
374.641	429.14
375.021	414
375.402	427.79
375.783	435.47
376.163	435.69
376.544	442.25
376.925	444.28
377.305	429.59
377.686	425.75
378.066	453.1
378.447	463.49
378.827	466.2
379.208	458.07
379.588	453.1
379.968	465.98
380.349	482.93
380.729	468.91
381.109	467.33
381.489	507.56
381.87	509.82
382.25	496.94
382.63	482.7
383.01	490.61
383.39	477.28
383.77	508.01
384.15	503.94
384.53	492.64
384.91	500.33
385.29	545.3
385.67	529.03
386.049	545.75
386.429	539.42
386.809	562.7
387.189	545.3
387.568	548.23
387.948	578.06
388.328	581.45
388.707	597.95
389.087	566.76
389.466	578.06
389.846	598.63
390.225	587.33
390.605	601.79
390.984	622.36
391.363	643.37
391.743	623.49
392.122	636.37
392.501	624.84
392.881	640.44
393.26	654.9
393.639	651.96
394.018	673.65
394.397	664.62
394.776	677.5
395.155	675.01
395.534	677.5
395.913	689.02
396.292	704.16
396.671	704.16
397.05	709.13
397.429	732.18
397.808	734.67
398.186	709.36
398.565	756.36
398.944	739.64
399.323	755.01
399.701	755.69
400.08	767.44
400.458	762.47
400.837	791.84
401.215	794.78
401.594	793.2
401.972	810.37
402.351	824.16
402.729	830.94
403.107	830.94
403.486	852.41
403.864	862.12
404.242	851.73
404.62	860.77
404.999	878.62
405.377	872.97
405.755	901.67
406.133	919.98
406.511	905.06
406.889	934.89
407.267	947.77
407.645	951.39
408.023	966.98
408.401	998.62
408.779	987.32
409.156	983.02
409.534	990.93
409.912	1028.22
410.29	1039.52
410.667	1077.03
411.045	1090.82
411.422	1080.42
411.8	1098.95
412.178	1104.15
412.555	1119.52
412.933	1127.88
413.31	1187.09
413.687	1163.36
414.065	1146.86
414.442	1184.38
414.819	1221.21
415.197	1219.18
415.574	1235
415.951	1266.63
416.328	1251.49
416.705	1242.68
417.082	1270.25
417.46	1278.84
417.837	1336.91
418.214	1346.18
418.591	1348.21
418.967	1377.82
419.344	1371.94
419.721	1389.57
420.098	1382.79
420.475	1410.36
420.852	1413.52
421.228	1446.74
421.605	1466.85
421.982	1445.84
422.358	1452.17
422.735	1515.89
423.111	1476.57
423.488	1513.63
423.864	1537.13
424.241	1528.77
424.617	1559.51
424.994	1577.81
425.37	1603.12
425.746	1611.94
426.123	1625.49
426.499	1688.54
426.875	1682.44
427.251	1707.3
427.627	1726.51
428.003	1755.21
428.379	1798.37
428.756	1782.55
429.132	1826.39
429.507	1862.32
429.883	1867.97
430.259	1884.47
430.635	1948.42
431.011	1919.27
431.387	1964.69
431.763	2010.79
432.138	2027.97
432.514	2054.41
432.89	2054.86
433.265	2085.37
433.641	2115.88
434.016	2113.84
434.392	2208.53
434.767	2243.56
435.143	2191.58
435.518	2241.75
435.894	2280.17
436.269	2320.84
436.644	2325.14
437.02	2366.49
437.395	2392.03
437.77	2429.54
438.145	2452.82
438.52	2471.57
438.895	2485.58
439.271	2502.76
439.646	2558.35
440.021	2546.37
440.395	2584.11
440.77	2572.81
441.145	2611.68
441.52	2673.83
441.895	2664.34
442.27	2677.67
442.645	2721.06
443.019	2720.15
443.394	2738.46
443.769	2773.49
444.143	2729.42
444.518	2838.34
444.892	2788.4
445.267	2820.72
445.641	2894.61
446.016	2869.98
446.39	2907.95
446.764	2941.84
447.139	2937.32
447.513	2939.36
447.887	2961.73
448.262	3015.74
448.636	3038.11
449.01	3021.39
449.384	3116.53
449.758	3104.78
450.132	3137.77
450.506	3205.34
450.88	3185.23
451.254	3193.36
451.628	3267.03
452.002	3306.58
452.376	3329.4
452.75	3371.21
453.123	3350.87
453.497	3387.48
453.871	3462.73
454.244	3523.3
454.618	3575.5
454.992	3569.85
455.365	3603.97
455.739	3695.95
456.112	3745.44
456.486	3739.79
456.859	3787.7
457.232	3896.39
457.606	3877.41
457.979	3981.14
458.352	4021.82
458.725	4050.29
459.099	4073.57
459.472	4161.7
459.845	4209.38
460.218	4227.91
460.591	4284.63
460.964	4276.72
461.337	4452.76
461.71	4490.96
462.083	4494.12
462.456	4538.86
462.829	4546.32
463.201	4667
463.574	4696.6
463.947	4769.37
464.32	4852.08
464.692	4865.18
465.065	4908.8
465.438	5010.04
465.81	5050.04
466.183	5118.51
466.555	5257.94
466.928	5252.97
467.3	5272.86
467.672	5305.85
468.045	5478.73
468.417	5556.69
468.789	5561.44
469.161	5617.48
469.534	5745.16
469.906	5849.56
470.278	5880.98
470.65	5947.19
471.022	6067.41
471.394	6201.19
471.766	6265.6
472.138	6290.23
472.51	6449.32
472.882	6522.31
473.253	6612.03
473.625	6732.25
473.997	6870.33
474.369	6897.45
474.74	6967.73
475.112	7118.91
475.484	7282.29
475.855	7364.78
476.227	7496.07
476.598	7703.3
476.97	7703.53
477.341	7930.19
477.713	8046.34
478.084	8085.89
478.455	8270.97
478.827	8352.77
479.198	8600.9
479.569	8590.28
479.94	8883.16
480.311	8915.92
480.682	9108.46
481.053	9309.13
481.424	9501.67
481.795	9550.94
482.166	9722.23
482.537	9847.65
482.908	10113.63
483.279	10147.98
483.65	10296.45
484.021	10526.5
484.391	10723.11
484.762	10774.18
485.133	10893.05
485.503	11126.71
485.874	11329.42
486.244	11351.11
486.615	11603.31
486.985	11734.38
487.356	12009.85
487.726	12119.68
488.097	12307.25
488.467	12419.11
488.837	12623.62
489.207	12867.23
489.578	13026.1
489.948	13162.59
490.318	13369.14
490.688	13357.61
491.058	13585.18
491.428	13753.31
491.798	13853.65
492.168	14233.07
492.538	14300.87
492.908	14384.71
493.278	14628.77
493.648	14557.81
494.017	14840.06
494.387	14999.15
494.757	15026.27
495.126	15366.38
495.496	15396.88
495.866	15495.86
496.235	15710.55
496.605	15752.13
496.974	15861.28
497.344	16078.22
497.713	16086.36
498.082	16262.85
498.452	16419.68
498.821	16571.54
499.19	16629.17
499.559	16760.69
499.928	16967.01
500.298	17015.82
500.667	17260.34
501.036	17212.2
501.405	17421.24
501.774	17368.81
502.143	17660.78
502.512	17674.79
502.88	17855.58
503.249	17894.9
503.618	18020.77
503.987	18093.99
504.356	18181.89
504.724	18293.3
505.093	18425.5
505.462	18642
505.83	18823.23
506.199	18839.05
506.567	19128.31
506.936	19131.93
507.304	19441.97
507.672	19399.49
508.041	19519.49
508.409	19653.49
508.777	19838.8
509.145	19964.9
509.514	20088.06
509.882	20189.3
510.25	20324.21
510.618	20479.91
510.986	20553.58
511.354	20871.32
511.722	20864.31
512.09	21200.12
512.458	21087.36
512.826	21346.33
513.193	21488.47
513.561	21562.37
513.929	21831.06
514.297	22003.94
514.664	22190.6
515.032	22199.19
515.4	22436.92
515.767	22530.03
516.135	22652.74
516.502	22600.08
516.869	23078.26
517.237	23155.32
517.604	23181.09
517.972	23465.82
518.339	23701.07
518.706	23745.36
519.073	23896.32
519.44	24009.54
519.808	24271.68
520.175	24305.58
520.542	24722.97
520.909	24783.3
521.276	24919.57
521.643	25235.04
522.009	25313.91
522.376	25530.85
522.743	25613.79
523.11	25943.95
523.477	26046.32
523.843	26328.8
524.21	26615.57
524.577	26803.36
524.943	26907.32
525.31	27082.23
525.676	27423.23
526.043	27491.93
526.409	27657.35
526.776	27980.51
527.142	28057.79
527.508	28281.06
527.874	28444.22
528.241	28687.38
528.607	28679.25
528.973	29116.52
529.339	29053.47
529.705	29435.16
530.071	29568.04
530.437	29736.39
530.803	30024.07
531.169	30015.93
531.535	30135.93
531.901	30346.32
532.267	30415.92
532.632	30601.23
532.998	30744.95
533.364	30935.46
533.73	31057.04
534.095	31343.58
534.461	31485.5
534.826	31686.85
535.192	31625.38
535.557	31940.86
535.923	32012.72
536.288	32165.93
536.653	32196.67
537.019	32329.32
537.384	32414.51
537.749	32617.22
538.114	32662.19
538.479	32884.11
538.845	32884.56
539.21	32947.38
539.575	33234.38
539.94	33250.2
540.305	33393.47
540.67	33481.38
541.034	33565.22
541.399	33841.6
541.764	33883.63
542.129	33975.83
542.494	34136.96
542.858	34289.04
543.223	34451.3
543.587	34534.46
543.952	34541.46
544.316	34750.72
544.681	34716.83
545.045	34981.45
545.41	34984.84
545.774	35069.13
546.138	35290.15
546.503	35353.65
546.867	35330.82
547.231	35836.35
547.595	35668.67
547.959	35992.73
548.324	35986.85
548.688	35992.5
549.052	36366.05
549.416	36375.77
549.779	36421.64
550.143	36578.7
550.507	36790.67
550.871	36936.88
551.235	36985.69
551.599	37129.19
551.962	37298.68
552.326	37399.47
552.689	37637.65
553.053	37475.4
553.417	37620.71
553.78	38052.56
554.143	37904.54
554.507	38280.12
554.87	38404.87
555.234	38782.94
555.597	38601.02
555.96	38718.3
556.323	38912.88
556.686	39201
557.05	39323.26
557.413	39339.3
557.776	39477.15
558.139	39899.29
558.502	39885.5
558.865	40045.5
559.228	40292.5
559.59	40400.29
559.953	40417.24
560.316	40880.51
560.679	40808.87
561.041	41223.77
561.404	41495.18
561.767	41563.65
562.129	41452.24
562.492	42007.48
562.854	42074.6
563.217	41906.02
563.579	42256.06
563.941	42511.2
564.304	42643.62
564.666	42846.11
565.028	42936.95
565.39	43126.32
565.753	43270.73
566.115	43546.65
566.477	43538.97
566.839	43697.16
567.201	44064.38
567.563	44016.47
567.925	44439.74
568.287	44411.49
568.648	44519.06
569.01	44759.28
569.372	45012.15
569.734	44820.06
570.095	45100.96
570.457	45218.47
570.819	45474.74
571.18	45349.32
571.542	45587.95
571.903	45714.05
572.265	45912.47
572.626	46010.32
572.987	46108.62
573.349	46227.94
573.71	46312.68
574.071	46377.09
574.432	46631.54
574.794	46905.66
575.155	46895.26
575.516	46696.85
575.877	46888.26
576.238	47071.76
576.599	47191.08
576.96	47220.91
577.32	47249.38
577.681	47389.04
578.042	47511.97
578.403	47558.3
578.763	47542.93
579.124	47667.22
579.485	47708.35
579.845	47998.51
580.206	47752.87
580.566	47763.49
580.927	47879.42
581.287	47988.34
581.648	47810.72
582.008	47977.04
582.368	47949.93
582.728	48155.12
583.089	47993.09
583.449	47973.65
583.809	48247.09
584.169	48249.35
584.529	48127.32
584.889	48285.74
585.249	48104.95
585.609	48028.12
585.969	48369.35
586.329	48195.12
586.688	48309.92
587.048	48211.39
587.408	48121.67
587.768	48108.11
588.127	48218.17
588.487	48188.56
588.846	48392.63
589.206	48231.5
589.565	48254.32
589.925	48395.11
590.284	48282.12
590.643	48308.79
591.003	48585.62
591.362	48490.25
591.721	48566.18
592.08	48400.99
592.44	48618.38
592.799	48550.81
593.158	48577.93
593.517	48523.24
593.876	48497.26
594.235	48504.26
594.593	48567.08
594.952	48647.53
595.311	48463.13
595.67	48639.85
596.029	48938.83
596.387	48785.16
596.746	48804.82
597.104	48741.54
597.463	48818.38
597.822	48857.7
598.18	48691.6
598.538	48717.14
598.897	48944.93
599.255	48540.42
599.613	49188.09
599.972	48976.57
600.33	49154.19
600.688	48942.89
601.046	49034.87
601.404	49249.1
601.762	49105.83
602.12	49272.83
602.478	49266.05
602.836	49286.16
603.194	49055.43
603.552	49205.03
603.91	49112.61
604.268	49334.07
604.625	49275.09
604.983	49396.44
605.341	49226.95
605.698	49411.13
606.056	49607.51
606.413	49510.11
606.771	49670.11
607.128	49624.68
607.485	49565.25
607.843	49526.83
608.2	49645.7
608.557	49807.73
608.914	49691.35
609.272	49832.36
609.629	49829.88
609.986	49957.33
610.343	49894.96
610.7	50045.24
611.057	50083.2
611.414	49977.89
611.771	50091.79
612.127	50234.39
612.484	50205.69
612.841	50311.9
613.198	50235.06
613.554	50060.6
613.911	50409.52
614.267	50316.64
614.624	50252.24
614.98	50424.44
615.337	50475.06
615.693	50541.04
616.05	50514.6
616.406	50602.29
616.762	50469.18
617.118	50565
617.475	50491.33
617.831	50657.43
618.187	50647.03
618.543	50761.38
618.899	50907.81
619.255	50745.56
619.611	50752.56
619.967	50915.5
620.323	50896.29
620.678	50824.43
621.034	50713.47
621.39	50819.91
621.746	50678.89
622.101	51069.17
622.457	50686.58
622.812	50884.99
623.168	50909.62
623.523	50890.87
623.879	51058.32
624.234	50782.17
624.589	50896.29
624.945	50889.28
625.3	50940.36
625.655	50945.33
626.01	50945.78
626.365	51009.05
626.72	50958.66
627.075	50872.79
627.43	50857.19
627.785	50736.75
628.14	50826.91
628.495	50809.96
628.85	50861.94
629.205	50612.91
629.559	50917.53
629.914	50731.32
630.269	50685.67
630.623	50721.83
630.978	50592.12
631.332	50684.32
631.687	50686.35
632.041	50466.47
632.396	50657.2
632.75	50474.61
633.104	50533.81
633.459	50398.9
633.813	50315.06
634.167	50410.88
634.521	50291.78
634.875	50421.05
635.229	50229.64
635.583	50064.67
635.937	50157.55
636.291	50050.44
636.645	50125.69
636.999	50036.42
637.352	50075.97
637.706	49956.2
638.06	49906.48
638.413	49791.69
638.767	49726.6
639.121	49865.81
639.474	49576.32
639.828	49641.18
640.181	49692.7
640.534	49641.86
640.888	49607.28
641.241	49306.05
641.594	49489.77
641.947	49622.2
642.301	49449.55
642.654	49419.04
643.007	49518.25
643.36	49254.52
643.713	49212.72
644.066	49394.18
644.419	49075.77
644.771	48730.02
645.124	48240.31
645.477	48365.28
645.83	47961
646.182	47955.8
646.535	47766.88
646.888	48046.19
647.24	47937.95
647.593	47937.72
647.945	47896.59
648.298	47647.56
648.65	47639.43
649.002	47560.11
649.355	47554.23
649.707	47549.94
650.059	47716.03
650.411	48026.99
650.763	48156.02
651.115	48534.09
651.467	48287.77
651.819	48175.23
652.171	48134.1
652.523	48075.12
652.875	48085.06
653.227	47851.4
653.578	48054.1
653.93	47964.16
654.282	47757.84
654.633	47717.84
654.985	47673.55
655.337	47858.63
655.688	47752.42
656.039	47922.13
656.391	47712.19
656.742	47709.71
657.094	47788.8
657.445	47869.02
657.796	47743.83
658.147	47649.37
658.498	47494.8
658.849	47747.9
659.2	47565.3
659.551	47474.23
659.902	47618.18
660.253	47497.73
660.604	47531.18
660.955	47462.93
661.306	47498.64
661.656	47331.41
662.007	47484.85
662.358	47425.65
662.708	47304.52
663.059	47361.47
663.409	47105.43
663.76	47430.62
664.11	47212.32
664.461	47375.7
664.811	47405.76
665.161	47216.39
665.511	47235.59
665.862	47280.34
666.212	47281.92
666.562	47385.42
666.912	47163.51
667.262	47210.28
667.612	47225.42
667.962	47231.53
668.312	47144.98
668.662	47307
669.011	47153.11
669.361	47135.48
669.711	47075.6
670.06	46895.26
670.41	46883.06
670.76	46810.07
671.109	46986.11
671.459	46928.94
671.808	46914.02
672.157	46921.7
672.507	46611.66
672.856	46694.82
673.205	46729.17
673.554	46846.9
673.904	46664.54
674.253	46914.25
674.602	46709.96
674.951	46171.67
675.3	45996.08
675.649	46395.84
675.998	46442.39
676.346	46417.08
676.695	46686.91
677.044	46257.77
677.393	46437.65
677.741	46446.01
678.09	46307.26
678.438	46244.43
678.787	46269.97
679.135	46362.85
679.484	46071.11
679.832	46130.09
680.181	45914.72
680.529	46066.13
680.877	46015.06
681.225	45840.38
681.573	46177.32
681.922	45714.28
682.27	45698.69
682.618	45707.5
682.966	45611.23
683.314	45720.38
683.661	45476.77
684.009	45222.09
684.357	45309.09
684.705	45131.69
685.053	45278.58
685.4	45186.61
685.748	45033.62
686.095	44986.16
686.443	44790.46
686.79	44651.48
687.138	44662.55
687.485	44724.02
687.832	44597.02
688.18	44623.91
688.527	44312.28
688.874	44405.39
689.221	44261.89
689.568	44148.22
689.915	44050.14
690.262	44060.54
690.609	43868.68
690.956	43653.09
691.303	43702.13
691.65	43527.44
691.997	43498.97
692.344	43234.8
692.69	43308.69
693.037	43230.05
693.383	42862.6
693.73	42988.25
694.077	42797.74
694.423	42725.43
694.769	42633.91
695.116	42615.38
695.462	42557.3
695.808	42287.93
696.155	42489.28
696.501	42101.04
696.847	42256.52
697.193	41856.53
697.539	42033.7
697.885	41630.77
698.231	41632.58
698.577	41642.97
698.923	41565.91
699.269	41325.47
699.614	41199.82
699.96	41041.63
700.306	41124.34
700.651	40927.29
700.997	40932.03
701.342	40894.74
701.688	40654.98
702.033	40620.63
702.379	40526.39
702.724	40368.88
703.069	40503.79
703.415	39897.03
703.76	40072.62
704.105	40015.45
704.45	39883.47
704.795	39558.73
705.14	39557.38
705.485	39511.5
705.83	39440.09
706.175	39336.14
706.52	39339.76
706.865	39257.5
707.209	39163.49
707.554	38960.33
707.899	39114
708.243	38909.26
708.588	38777.96
708.932	38502.94
709.277	38533
709.621	38412.1
709.966	38382.27
710.31	38372.32
710.654	38059.34
710.998	37996.52
711.342	38169.17
711.687	37788.16
712.031	37823.64
712.375	37815.95
712.719	37786.8
713.063	37730.53
713.407	37783.19
713.75	37522.86
714.094	37515.85
714.438	37369.41
714.782	37410.54
715.125	37174.84
715.469	37191.11
715.812	37019.82
716.156	36971.46
716.499	36879.93
716.843	36893.27
717.186	36746.38
717.53	36782.31
717.873	36731.01
718.216	36642.43
718.559	36474.3
718.902	36356.78
719.246	36443.79
719.589	36378.48
719.932	36191.36
720.275	36104.81
720.617	35953.4
720.96	36033.63
721.303	36059.62
721.646	35969.68
721.989	35742.11
722.331	35717.7
722.674	35682.9
723.016	35726.74
723.359	35567.65
723.701	35618.95
724.044	35340.31
724.386	35237.49
724.729	35310.26
725.071	35255.12
725.413	35186.42
725.755	35284.5
726.097	35106.2
726.439	34810.84
726.782	34843.15
727.124	35062.58
727.465	34776.94
727.807	34731.74
728.149	34687.68
728.491	34601.58
728.833	34510.28
729.175	34527
729.516	34562.26
729.858	34407
730.199	34436.83
730.541	34362.94
730.882	34237.29
731.224	34431.86
731.565	34180.8
731.906	34162.94
732.248	34110.74
732.589	34048.14
732.93	33906.45
733.271	33915.94
733.612	33864.19
733.953	33922.27
734.294	33758.89
734.635	33669.85
734.976	33715.27
735.317	33599.34
735.658	33486.8
735.999	33556.63
736.339	33368.61
736.68	33480.48
737.021	33331.1
737.361	33255.85
737.702	33363.42
738.042	33231.67
738.383	33166.36
738.723	33138.56
739.063	33028.28
739.404	33083.2
739.744	33019.02
740.084	32827.39
740.424	32781.74
740.764	32789.65
741.104	32977.66
741.444	32721.85
741.784	32552.59
742.124	32569.54
742.464	32477.34
742.804	32495.42
743.143	32368.41
743.483	32428.07
743.823	32209.1
744.162	32249.1
744.502	32269.89
744.841	32074.41
745.181	32245.03
745.52	32005.49
745.86	32043.9
746.199	32002.55
746.538	31922.32
746.877	31966.17
747.216	31838.48
747.556	31792.84
747.895	31761.42
748.234	31540.64
748.573	31488.21
748.911	31532.96
749.25	31458.83
749.589	31439.63
749.928	31271.49
750.267	31332.74
750.605	31243.92
750.944	31234.43
751.283	30975.23
751.621	30970.49
751.96	30861.56
752.298	30915.8
752.636	30822.24
752.975	30680.78
753.313	30543.6
