Data from plate_ceramic_FLMS001491_050.txt Node
Date: Tue Feb 07 11:16:51 GMT 2017
User: dcchb
Spectrometer: FLMS00149
Trigger mode: 0
Integration Time (sec): 2.000000E-2
Scans to average: 10
Electric dark correction enabled: true
Nonlinearity correction enabled: false
Boxcar width: 0
XAxis mode: Wavelengths
Number of Pixels in Spectrum: 2048
>>>>>Begin Spectral Data<<<<<
341.393	-14.15
341.776	-14.15
342.16	-14.15
342.543	-65.9
342.927	-70.2
343.31	-59.8
343.693	-69.29
344.077	-67.48
344.46	-59.57
344.843	-42.17
345.226	-50.99
345.61	-32.46
345.993	-23.87
346.376	-6.02
346.759	17.94
347.142	39.41
347.525	32.63
347.908	55
348.291	83.47
348.674	82.12
349.057	101.1
349.44	114.66
349.823	133.19
350.206	157.59
350.588	217.48
350.971	217.71
351.354	219.29
351.737	247.76
352.119	250.7
352.502	263.58
352.884	277.82
353.267	292.51
353.65	301.77
354.032	338.61
354.414	305.39
354.797	341.09
355.179	324.37
355.562	334.99
355.944	319.85
356.326	358.04
356.709	339.28
357.091	341.09
357.473	341.77
357.855	356.23
358.238	368.44
358.62	358.49
359.002	360.53
359.384	369.79
359.766	341.54
360.148	338.15
360.53	374.76
360.912	356.69
361.294	324.82
361.676	361.43
362.057	323.92
362.439	353.75
362.821	343.8
363.203	349.45
363.584	342.45
363.966	337.48
364.348	342.22
364.729	324.37
365.111	343.8
365.493	322.79
365.874	337.25
366.256	356.91
366.637	369.57
367.019	330.02
367.4	344.26
367.781	361.66
368.163	333.86
368.544	342.9
368.925	340.87
369.306	345.16
369.688	350.13
370.069	337.48
370.45	341.54
370.831	345.84
371.212	344.03
371.593	341.54
371.974	344.48
372.355	376.12
372.736	354.88
373.117	353.07
373.498	365.27
373.879	348.1
374.26	343.8
374.641	350.81
375.021	350.13
375.402	359.4
375.783	383.8
376.163	377.25
376.544	370.47
376.925	375.22
377.305	358.49
377.686	384.26
378.066	371.15
378.447	377.7
378.827	364.37
379.208	393.52
379.588	379.51
379.968	396.46
380.349	386.97
380.729	396.46
381.109	398.94
381.489	405.5
381.87	394.2
382.25	410.02
382.63	399.4
383.01	401.43
383.39	411.6
383.77	418.38
384.15	410.02
384.53	424.48
384.91	423.35
385.29	422.22
385.67	431.49
386.049	434.2
386.429	422.67
386.809	430.58
387.189	456.57
387.568	445.04
387.948	465.61
388.328	444.37
388.707	445.5
389.087	472.61
389.466	476.23
389.846	480.98
390.225	477.36
390.605	475.78
390.984	464.03
391.363	486.85
391.743	479.85
392.122	493.18
392.501	496.79
392.881	530.01
393.26	518.04
393.639	514.42
394.018	528.66
394.397	520.3
394.776	535.21
395.155	501.77
395.534	519.62
395.913	530.01
396.292	549
396.671	547.41
397.05	548.77
397.429	567.08
397.808	553.97
398.186	571.14
398.565	589.67
398.944	567.3
399.323	565.27
399.701	579.96
400.08	570.47
400.458	604.59
400.837	610.69
401.215	613.4
401.594	597.58
401.972	599.84
402.351	628.32
402.729	592.16
403.107	616.11
403.486	646.62
403.864	628.54
404.242	637.58
404.62	638.49
404.999	652.05
405.377	658.82
405.755	678.03
406.133	699.5
406.511	693.63
406.889	724.59
407.267	692.27
407.645	699.28
408.023	708.54
408.401	731.36
408.779	733.17
409.156	724.13
409.534	739.95
409.912	765.94
410.29	776.11
410.667	792.83
411.045	791.93
411.422	777.47
411.8	793.96
412.178	850.46
412.555	835.54
412.933	825.37
413.31	843
413.687	858.82
414.065	854.07
414.442	850.68
414.819	880.97
415.197	857.46
415.574	900.4
415.951	911.47
416.328	906.5
416.705	946.27
417.082	926.16
417.46	945.37
417.837	970.91
418.214	953.96
418.591	1001.64
418.967	965.94
419.344	974.3
419.721	1000.74
420.098	1005.93
420.475	983.34
420.852	1030.34
421.228	1026.72
421.605	1027.63
421.982	1045.71
422.358	1054.75
422.735	1073.95
423.111	1089.32
423.488	1103.11
423.864	1082.54
424.241	1126.61
424.617	1122.09
424.994	1145.59
425.37	1143.78
425.746	1161.18
426.123	1184.46
426.499	1168.19
426.875	1197.12
427.251	1238.92
427.627	1247.96
428.003	1223.1
428.379	1278.47
428.756	1312.14
429.132	1297
429.507	1319.37
429.883	1315.3
430.259	1340.16
430.635	1370.44
431.011	1387.39
431.387	1425.81
431.763	1438.24
432.138	1454.96
432.514	1440.27
432.89	1454.96
433.265	1491.8
433.641	1518.69
434.016	1529.76
434.392	1548.07
434.767	1573.83
435.143	1546.48
435.518	1593.94
435.894	1597.1
436.269	1637.33
436.644	1650.44
437.02	1654.28
437.395	1685.24
437.77	1711.9
438.145	1681.85
438.52	1708.29
438.895	1769.08
439.271	1748.51
439.646	1767.95
440.021	1804.33
440.395	1854.73
440.77	1804.78
441.145	1836.42
441.52	1843.88
441.895	1844.78
442.27	1869.64
442.645	1869.19
443.019	1925.91
443.394	1858.11
443.769	1930.66
444.143	1905.35
444.518	1938.11
444.892	1917.32
445.267	1973.14
445.641	1956.19
446.016	2018.11
446.39	2012.24
446.764	2053.36
447.139	2040.94
447.513	2064.44
447.887	2050.2
448.262	2085.91
448.636	2063.31
449.01	2106.02
449.384	2140.59
449.758	2143.31
450.132	2156.19
450.506	2155.73
450.88	2188.95
451.254	2198.67
451.628	2242.96
452.002	2267.14
452.376	2255.17
452.75	2277.09
453.123	2320.7
453.497	2381.49
453.871	2385.11
454.244	2418.1
454.618	2440.02
454.992	2466.01
455.365	2484.77
455.739	2557.98
456.112	2592.11
456.486	2554.37
456.859	2586.46
457.232	2638.43
457.606	2612.45
457.979	2662.61
458.352	2734.93
458.725	2772.22
459.099	2804.53
459.472	2865.55
459.845	2870.07
460.218	2909.84
460.591	2927.47
460.964	2972.44
461.337	3025.32
461.71	3072.77
462.083	3094.69
462.456	3164.97
462.829	3128.82
463.201	3241.13
463.574	3225.99
463.947	3233.45
464.32	3341.92
464.692	3314.35
465.065	3368.58
465.438	3431.18
465.81	3478.19
466.183	3520.22
466.555	3579.43
466.928	3610.16
467.3	3593.21
467.672	3681.34
468.045	3769.25
468.417	3783.94
468.789	3811.96
469.161	3822.58
469.534	3932.86
469.906	3994.33
470.278	4023.26
470.65	4076.36
471.022	4159.07
471.394	4195.23
471.766	4266.64
472.138	4327.88
472.51	4343.02
472.882	4447.65
473.253	4531.04
473.625	4585.5
473.997	4665.95
474.369	4676.8
474.74	4797.7
475.112	4856.45
475.484	4913.63
475.855	5029.78
476.227	5078.37
476.598	5236.56
476.97	5272.26
477.341	5366.72
477.713	5414.86
478.084	5461.41
478.455	5627.96
478.827	5733.95
479.198	5806.71
479.569	5855.52
479.94	6036.54
480.311	6060.26
480.682	6157.66
481.053	6321.05
481.424	6435.85
481.795	6543.42
482.166	6583.41
482.537	6659.57
482.908	6825.89
483.279	6921.26
483.65	7054.36
484.021	7170.29
484.391	7273.11
484.762	7326.22
485.133	7423.84
485.503	7514.92
485.874	7706.77
486.244	7744.74
486.615	7897.73
486.985	7976.82
487.356	8191.96
487.726	8203.03
488.097	8376.59
488.467	8500.2
488.837	8598.95
489.207	8734.09
489.578	8849.12
489.948	8894.99
490.318	9041.88
490.688	9117.13
491.058	9216.57
491.428	9341.08
491.798	9445.49
492.168	9621.53
492.538	9691.81
492.908	9760.05
493.278	9907.17
493.648	9935.19
494.017	10108.29
494.387	10222.64
494.757	10205.47
495.126	10350.32
495.496	10394.61
495.866	10478.23
496.235	10624.21
496.605	10686.81
496.974	10762.74
497.344	10896.52
497.713	10991.43
498.082	11075.05
498.452	11169.96
498.821	11221.94
499.19	11289.05
499.559	11357.07
499.928	11527.69
500.298	11610.17
500.667	11654.47
501.036	11700.12
501.405	11752.54
501.774	11807.01
502.143	11981.46
502.512	11988.47
502.88	12233.44
503.249	12231.4
503.618	12306.43
503.987	12355.69
504.356	12436.82
504.724	12478.17
505.093	12632.29
505.462	12755.23
505.83	12788
506.199	12880.2
506.567	12969.69
506.936	13046.07
507.304	13199.06
507.672	13266.18
508.041	13277.25
508.409	13441.31
508.777	13564.47
509.145	13725.6
509.514	13693.74
509.882	13786.61
510.25	13879.72
510.618	13998.81
510.986	14045.59
511.354	14093.73
511.722	14280.16
512.09	14449.65
512.458	14475.41
512.826	14547.05
513.193	14726.93
513.561	14764.67
513.929	14828.85
514.297	15021.38
514.664	15114.49
515.032	15204.2
515.4	15318.78
515.767	15429.74
516.135	15572.78
516.502	15537.76
516.869	15778.65
517.237	15746.11
517.604	15780.69
517.972	16105.2
518.339	16205.31
518.706	16179.09
519.073	16337.73
519.44	16465.41
519.808	16666.09
520.175	16625.18
520.542	16953.54
520.909	16981.56
521.276	16960.77
521.643	17248.44
522.009	17355.79
522.376	17433.52
522.743	17660.19
523.11	17780.18
523.477	17906.96
523.843	18015.66
524.21	18254.75
524.577	18365.03
524.943	18442.54
525.31	18577.9
525.676	18729.31
526.043	18849.08
526.409	18951
526.776	19130.2
527.142	19292.46
527.508	19354.83
527.874	19584.88
528.241	19676.86
528.607	19746.91
528.973	19926.34
529.339	19947.36
529.705	20045.43
530.071	20259.44
530.437	20377.85
530.803	20606.1
531.169	20643.61
531.535	20613.1
531.901	20762.25
532.267	20835.7
532.632	20981.45
532.998	21067.33
533.364	21289.47
533.73	21292.18
534.095	21472.74
534.461	21634.54
534.826	21729.23
535.192	21757.7
535.557	22003.8
535.923	21938.49
536.288	22134.42
536.653	22182.78
537.019	22145.72
537.384	22376.22
537.749	22301.65
538.114	22484.92
538.479	22556.1
538.845	22645.59
539.21	22679.26
539.575	22872.48
539.94	22832.25
540.305	23065.69
540.67	23027.28
541.034	23190.44
541.399	23274.5
541.764	23338.45
542.129	23426.81
542.494	23506.59
542.858	23543.42
543.223	23640.82
543.587	23820.93
543.952	23847.14
544.316	23902.51
544.681	23858.89
545.045	24098.21
545.41	24257.07
545.774	24321.71
546.138	24336.39
546.503	24342.95
546.867	24308.15
547.231	24640.79
547.595	24633.56
547.959	24681.02
548.324	24641.24
548.688	24833.1
549.052	25065.87
549.416	25052.53
549.779	25106.09
550.143	25198.07
550.507	25412.52
550.871	25551.28
551.235	25462.69
551.599	25681.44
551.962	25722.35
552.326	25854.77
552.689	26046.86
553.053	25890.7
553.417	26190.36
553.78	26384.02
554.143	26309.9
554.507	26440.52
554.87	26577.92
555.234	26922.09
555.597	26662.89
555.96	26719.83
556.323	26938.59
556.686	26971.35
557.05	27283.21
557.413	27353.94
557.776	27404.56
558.139	27564.33
558.502	27633.93
558.865	27789.64
559.228	27901.5
559.59	28044.55
559.953	28112.57
560.316	28457.42
560.679	28292.45
561.041	28546.45
561.404	28717.3
561.767	28877.52
562.129	28824.41
562.492	29267.79
562.854	29153.67
563.217	29317.51
563.579	29344.4
563.941	29605.63
564.304	29712.07
564.666	29877.49
565.028	30016.7
565.39	30121.33
565.753	30315.45
566.115	30360.87
566.477	30508.44
566.839	30604.03
567.201	30758.15
567.563	30738.03
567.925	30998.82
568.287	31062.77
568.648	31051.25
569.01	31375.53
569.372	31489.88
569.734	31422.31
570.095	31723.54
570.457	31733.94
570.819	31795.41
571.18	32007.83
571.542	32165.34
571.903	32114.04
572.265	32372.57
572.626	32379.12
572.987	32356.97
573.349	32602.39
573.71	32631.09
574.071	32758.32
574.432	32952.21
574.794	33005.09
575.155	32986.34
575.516	33013.45
575.877	33186.78
576.238	33261.58
576.599	33358.76
576.96	33327.34
577.32	33476.72
577.681	33505.64
578.042	33629.48
578.403	33593.78
578.763	33721.91
579.124	33778.63
579.485	33954.67
579.845	34054.33
580.206	33973.88
580.566	34033.54
580.927	34106.98
581.287	34099.3
581.648	33965.52
582.008	34134.78
582.368	34083.26
582.728	34142.69
583.089	34114.67
583.449	34187.89
583.809	34245.96
584.169	34357.15
584.529	34146.08
584.889	34528.89
585.249	34295.23
585.609	34266.3
585.969	34469.01
586.329	34322.35
586.688	34524.6
587.048	34342.23
587.408	34219.07
587.768	34389.46
588.127	34345.4
588.487	34363.25
588.846	34605.5
589.206	34427.88
589.565	34344.27
589.925	34479.4
590.284	34346.07
590.643	34429.01
591.003	34596.92
591.362	34697.7
591.721	34606.86
592.08	34618.61
592.44	34851.37
592.799	34694.31
593.158	34590.36
593.517	34529.35
593.876	34666.07
594.235	34632.39
594.593	34625.84
594.952	34808.89
595.311	34678.72
595.67	34683.92
596.029	34989.45
596.387	34989.9
596.746	34983.12
597.104	34825.61
597.463	34985.38
597.822	35022.44
598.18	34927.53
598.538	34954.42
598.897	35072.61
599.255	34999.84
599.613	35389.66
599.972	35208.65
600.33	35208.2
600.688	34967.07
601.046	35157.35
601.404	35345.37
601.762	35329.55
602.12	35373.62
602.478	35450.68
602.836	35393.5
603.194	35374.3
603.552	35299.72
603.91	35335.43
604.268	35500.85
604.625	35357.35
604.983	35525.25
605.341	35389.89
605.698	35539.94
606.056	35694.74
606.413	35487.29
606.771	35716.66
607.128	35734.74
607.485	35671.92
607.843	35719.37
608.2	35831.01
608.557	35917.78
608.914	35929.31
609.272	35951
609.629	36129.3
609.986	36093.37
610.343	35968.4
610.7	36368.17
611.057	36304.44
611.414	36282.52
611.771	36239.81
612.127	36445.68
612.484	36325.23
612.841	36447.49
613.198	36271.45
613.554	36224.67
613.911	36560.48
614.267	36605.9
614.624	36424.89
614.98	36543.53
615.337	36825.56
615.693	36660.82
616.05	36636.86
616.406	36844.77
616.762	36818.33
617.118	36704.88
617.475	36771.1
617.831	36749.4
618.187	36976.51
618.543	36833.69
618.899	37273.68
619.255	36961.82
619.611	37014.25
619.967	37161.82
620.323	37176.28
620.678	37066
621.034	37090.41
621.39	37113.01
621.746	36925.22
622.101	37335.15
622.457	37039.56
622.812	37200.24
623.168	37228.94
623.523	37323.85
623.879	37321.82
624.234	37079.11
624.589	37166.79
624.945	37250.4
625.3	37080.69
625.655	37150.97
626.01	37092.89
626.365	37302.83
626.72	37103.29
627.075	37218.32
627.43	37174.93
627.785	36959.34
628.14	37103.52
628.495	37168.15
628.85	37080.69
629.205	36885.44
629.559	37104.87
629.914	36873.01
630.269	37000.47
630.623	36874.82
630.978	36763.41
631.332	36895.84
631.687	36933.8
632.041	36862.17
632.396	36895.61
632.75	36737.65
633.104	36776.74
633.459	36545.56
633.813	36635.28
634.167	36445
634.521	36600.03
634.875	36564.32
635.229	36493.59
635.583	36236.19
635.937	36383.31
636.291	36238.68
636.645	36353.71
636.999	36373.59
637.352	36354.38
637.706	36148.96
638.06	36153.94
638.413	36071.45
638.767	36010.66
639.121	36176.08
639.474	35907.16
639.828	35910.33
640.181	36065.35
640.534	35916.43
640.888	35794.4
641.241	35602.54
641.594	35603.89
641.947	35883.44
642.301	35584.91
642.654	35727.96
643.007	35677.11
643.36	35582.88
643.713	35525.7
644.066	35522.77
644.419	35273.28
644.771	35161.87
645.124	34679.4
645.477	34666.29
645.83	34523.02
646.182	34285.28
646.535	34233.76
646.888	34398.28
647.24	34177.49
647.593	34395.11
647.945	34283.48
648.298	34058.17
648.65	33923.49
649.002	33909.7
649.355	33983.6
649.707	33912.87
650.059	34159.19
650.411	34447.77
650.763	34424.26
651.115	34789.9
651.467	34722.11
651.819	34793.52
652.171	34457.94
652.523	34576.35
652.875	34535.22
653.227	34333.19
653.578	34667.42
653.93	34520.76
654.282	34370.71
654.633	34297.49
654.985	34289.13
655.337	34408.67
655.688	34250.03
656.039	34456.58
656.391	34111.5
656.742	34198.96
657.094	34148.79
657.445	34268.34
657.796	34127.55
658.147	34107.66
658.498	34074.9
658.849	34140.88
659.2	34071.05
659.551	33989.25
659.902	34145.85
660.253	34060.88
660.604	34115.12
660.955	33845.97
661.306	33996.7
661.656	33850.95
662.007	33928.23
662.358	34023.37
662.708	33721.01
663.059	33935.92
663.409	33670.16
663.76	34060.88
664.11	33800.1
664.461	33769.59
664.811	33799.42
665.161	33740.21
665.511	33752.87
665.862	33667.45
666.212	33834.22
666.562	33721.91
666.912	33801.68
667.262	33671.74
667.612	33511.52
667.962	33683.94
668.312	33588.13
668.662	33742.7
669.011	33635.81
669.361	33567.79
669.711	33447.34
670.06	33469.94
670.41	33430.84
670.76	33351.52
671.109	33440.79
671.459	33395.82
671.808	33347.68
672.157	33335.25
672.507	33161.02
672.856	33030.4
673.205	33229.04
673.554	33352.88
673.904	33328.02
674.253	33373.44
674.602	33210.51
674.951	32768.26
675.3	32660.24
675.649	33203.96
675.998	33165.31
676.346	33037.63
676.695	33167.35
677.044	33001.7
677.393	33053.9
677.741	33036.96
678.09	32967.35
678.438	32845.32
678.787	32933.68
679.135	32863.18
679.484	32730.3
679.832	32915.6
680.181	32818.88
680.529	32791.09
680.877	32563.3
681.225	32485.78
681.573	32732.11
681.922	32525.11
682.27	32418.22
682.618	32518.78
682.966	32477.42
683.314	32458.21
683.661	32420.7
684.009	32194.04
684.357	32204.89
684.705	31969.41
685.053	32057.09
685.4	32165.79
685.748	31756.99
686.095	31914.5
686.443	31756.31
686.79	31653.72
687.138	31643.32
687.485	31738.46
687.832	31559.93
688.18	31591.8
688.527	31434.96
688.874	31378.69
689.221	31242.43
689.568	31335.98
689.915	31133.05
690.262	31123.79
690.609	31123.11
690.956	31093.28
691.303	30976.9
691.65	30905.49
691.997	30779.16
692.344	30686.51
692.69	30629.79
693.037	30787.3
693.383	30480.19
693.73	30619.62
694.077	30470.7
694.423	30409.45
694.769	30267.31
695.116	30248.55
695.462	30196.58
695.808	30011.95
696.155	30025.74
696.501	29757.95
696.847	29666.2
697.193	29584.84
697.539	29674.56
697.885	29539.42
698.231	29308.24
698.577	29328.13
698.923	29301.01
699.269	29083.39
699.614	29004.97
699.96	28958.19
700.306	28929.04
700.651	28875.26
700.997	28910.74
701.342	28654.92
701.688	28607.02
702.033	28424.42
702.379	28472.78
702.724	28527.92
703.069	28454.03
703.415	28165.22
703.76	28125.9
704.105	28186.24
704.45	28179.23
704.795	27865.34
705.14	27891.1
705.485	27850.43
705.83	27605.23
706.175	27800.26
706.52	27611.34
706.865	27657.89
707.209	27543.77
707.554	27429.65
707.899	27400.72
708.243	27388.29
708.588	27345.35
708.932	27095.19
709.277	27167.05
709.621	27150.11
709.966	26968.42
710.31	27089.54
710.654	26932.94
710.998	26804.58
711.342	26751.25
711.687	26764.35
712.031	26572.04
712.375	26514.42
712.719	26563
713.063	26539.73
713.407	26646.39
713.75	26443.23
714.094	26409.33
714.438	26248.21
714.782	26244.59
715.125	26196.46
715.469	26240.3
715.812	25997.14
716.156	25859.97
716.499	26038.72
716.843	26004.6
717.186	25841.21
717.53	25894.32
717.873	25959.85
718.216	25740.65
718.559	25718.05
718.902	25504.27
719.246	25564.61
719.589	25557.15
719.932	25413.65
720.275	25337.5
720.617	25314
720.96	25344.5
721.303	25269.48
721.646	25318.52
721.989	25252.75
722.331	25223.6
722.674	25177.28
723.016	25136.37
723.359	24876.49
723.701	24972.76
724.044	24856.83
724.386	24800.56
724.729	24799.66
725.071	24777.51
725.413	24748.36
725.755	24730.06
726.097	24704.97
726.439	24557.63
726.782	24542.49
727.124	24593.79
727.465	24498.2
727.807	24542.04
728.149	24400.35
728.491	24376.84
728.833	24391.53
729.175	24215.49
729.516	24189.28
729.858	24124.87
730.199	24125.78
730.541	24116.29
730.882	24068.6
731.224	24138.89
731.565	23950.87
731.906	23935.27
732.248	23961.04
732.589	23796.3
732.93	23719.01
733.271	23748.61
733.612	23790.87
733.953	23758.56
734.294	23719.24
734.635	23566.47
734.976	23729.86
735.317	23597.2
735.658	23577.77
735.999	23505.23
736.339	23430.43
736.68	23527.6
737.021	23383.88
737.361	23292.13
737.702	23464.55
738.042	23279.7
738.383	23246.71
738.723	23355.4
739.063	23212.58
739.404	23223.43
739.744	23098.46
740.084	23051.68
740.424	23074.96
740.764	23039.48
741.104	23124.9
741.444	22877
741.784	22907.96
742.124	22983.21
742.464	22838.58
742.804	22819.37
743.143	22753.38
743.483	22787.28
743.823	22630
744.162	22623.67
744.502	22623.44
744.841	22623.67
745.181	22638.81
745.52	22481.98
745.86	22426.84
746.199	22419.61
746.538	22399.72
746.877	22383.45
747.216	22366.28
747.556	22301.87
747.895	22308.88
748.234	22163.8
748.573	22061.88
748.911	22061.88
749.25	22099.39
749.589	21994.31
749.928	22034.31
750.267	22019.39
750.605	22090.58
750.944	21873.63
751.283	21810.58
751.621	21843.13
751.96	21723.13
752.298	21678.16
752.636	21659.85
752.975	21487.43
753.313	21531.95
753.651	21619.86
753.989	21537.15
754.327	21500.08
754.666	21233.88
