Data from plate_porcelain_FLMS001491_069.txt Node
Date: Tue Feb 07 11:19:42 GMT 2017
User: dcchb
Spectrometer: FLMS00149
Trigger mode: 0
Integration Time (sec): 2.000000E-2
Scans to average: 10
Electric dark correction enabled: true
Nonlinearity correction enabled: false
Boxcar width: 0
XAxis mode: Wavelengths
Number of Pixels in Spectrum: 2048
>>>>>Begin Spectral Data<<<<<
341.393	-9.84
341.776	-9.84
342.16	-9.84
342.543	-69.5
342.927	-55.49
343.31	-59.79
343.693	-58.66
344.077	-62.95
344.46	-69.28
344.843	-38.77
345.226	-29.5
345.61	-54.81
345.993	-8.04
346.376	-7.36
346.759	10.72
347.142	22.02
347.525	16.6
347.908	47.1
348.291	81.45
348.674	84.62
349.057	126.65
349.44	130.04
349.823	163.03
350.206	170.04
350.588	240.54
350.971	253.2
351.354	253.65
351.737	283.48
352.119	304.27
352.502	309.92
352.884	306.08
353.267	335.01
353.65	325.06
354.032	342.24
354.414	370.26
354.797	352.63
355.179	365.74
355.562	375
355.944	368
356.326	383.59
356.709	390.37
357.091	380.88
357.473	377.94
357.855	383.14
358.238	389.92
358.62	402.35
359.002	388.11
359.384	408.45
359.766	391.95
360.148	407.32
360.53	395.57
360.912	391.73
361.294	410.94
361.676	378.85
362.057	389.92
362.439	383.37
362.821	395.57
363.203	400.54
363.584	378.39
363.966	384.5
364.348	398.28
364.729	389.02
365.111	389.69
365.493	400.31
365.874	392.63
366.256	391.5
366.637	402.35
367.019	391.05
367.4	407.32
367.781	396.47
368.163	395.57
368.544	417.04
368.925	391.73
369.306	403.93
369.688	409.13
370.069	402.8
370.45	410.48
370.831	416.81
371.212	405.51
371.593	413.87
371.974	413.65
372.355	422.46
372.736	438.51
373.117	415.23
373.498	414.33
373.879	412.97
374.26	422.69
374.641	420.88
375.021	432.4
375.402	427.88
375.783	448
376.163	467.88
376.544	465.17
376.925	469.01
377.305	443.25
377.686	466.3
378.066	454.1
378.447	473.53
378.827	474.89
379.208	491.84
379.588	495.45
379.968	489.8
380.349	470.59
380.729	487.54
381.109	516.92
381.489	480.31
381.87	494.1
382.25	498.39
382.63	502.01
383.01	502.46
383.39	527.54
383.77	521.89
384.15	524.83
384.53	515.57
384.91	525.06
385.29	553.08
385.67	556.24
386.049	557.15
386.429	585.85
386.809	577.71
387.189	575.9
387.568	566.64
387.948	584.72
388.328	594.43
388.707	643.7
389.087	633.53
389.466	607.99
389.846	631.27
390.225	624.94
390.605	636.47
390.984	643.7
391.363	632.17
391.743	651.61
392.122	649.57
392.501	685.5
392.881	679.63
393.26	687.99
393.639	673.3
394.018	711.49
394.397	692.51
394.776	710.36
395.155	712.17
395.534	722.11
395.913	746.97
396.292	732.06
396.671	752.17
397.05	761.89
397.429	763.47
397.808	742.23
398.186	781.77
398.565	786.97
398.944	783.36
399.323	798.5
399.701	802.79
400.08	817.93
400.458	817.7
400.837	835.33
401.215	841.21
401.594	850.7
401.972	876.91
402.351	866.74
402.729	881.43
403.107	913.97
403.486	897.93
403.864	934.54
404.242	943.35
404.62	958.27
404.999	921.88
405.377	950.58
405.755	959.4
406.133	982.22
406.511	994.42
406.889	1005.72
407.267	1010.24
407.645	994.87
408.023	1066.29
408.401	1074.65
408.779	1066.06
409.156	1112.84
409.534	1091.37
409.912	1105.61
410.29	1158.03
410.667	1134.31
411.045	1165.27
411.422	1167.53
411.8	1214.98
412.178	1215.21
412.555	1224.02
412.933	1254.53
413.31	1248.88
413.687	1255.66
414.065	1288.43
414.442	1313.28
414.819	1327.52
415.197	1348.99
415.574	1342.89
415.951	1372.72
416.328	1396.67
416.705	1418.14
417.082	1410.01
417.46	1462.21
417.837	1447.74
418.214	1453.85
418.591	1475.77
418.967	1481.64
419.344	1489.78
419.721	1526.84
420.098	1521.19
420.475	1551.02
420.852	1570.68
421.228	1571.81
421.605	1587.18
421.982	1636.21
422.358	1642.09
422.735	1663.56
423.111	1668.76
423.488	1707.17
423.864	1705.59
424.241	1709.88
424.617	1752.6
424.994	1764.8
425.37	1761.18
425.746	1798.02
426.123	1833.5
426.499	1849.09
426.875	1921.86
427.251	1938.58
427.627	1925.25
428.003	1938.13
428.379	1988.07
428.756	2016.09
429.132	2025.36
429.507	2061.06
429.883	2078.69
430.259	2113.49
430.635	2153.49
431.011	2170.89
431.387	2211.11
431.763	2265.8
432.138	2313.26
432.514	2312.81
432.89	2298.12
433.265	2375.18
433.641	2401.17
434.016	2416.98
434.392	2438.45
434.767	2520.48
435.143	2486.36
435.518	2547.15
435.894	2581.5
436.269	2658.56
436.644	2671.44
437.02	2701.04
437.395	2669.86
437.77	2727.94
438.145	2782.17
438.52	2833.47
438.895	2827.37
439.271	2850.65
439.646	2936.97
440.021	2925.9
440.395	2933.36
440.77	2920.7
441.145	2936.29
441.52	3030.53
441.895	3029.85
442.27	3082.05
442.645	3119.11
443.019	3112.33
443.394	3153.24
443.769	3148.26
444.143	3150.75
444.518	3225.32
444.892	3186.91
445.267	3225.55
445.641	3280.01
446.016	3274.14
446.39	3356.62
446.764	3353.23
447.139	3385.32
447.513	3375.6
447.887	3380.8
448.262	3452.66
448.636	3442.27
449.01	3495.6
449.384	3572.43
449.758	3569.72
450.132	3622.38
450.506	3638.65
450.88	3704.41
451.254	3689.27
451.628	3719.1
452.002	3798.64
452.376	3808.81
452.75	3878.64
453.123	3853.33
453.497	3954.57
453.871	3967
454.244	4041.57
454.618	4101.69
454.992	4146.88
455.365	4177.16
455.739	4271.62
456.112	4312.3
456.486	4355.69
456.859	4446.31
457.232	4491.28
457.606	4499.42
457.979	4564.5
458.352	4623.03
458.725	4708.9
459.099	4744.83
459.472	4853.76
459.845	4892.63
460.218	4910.48
460.591	4986.41
460.964	5025.5
461.337	5130.81
461.71	5257.14
462.083	5251.71
462.456	5277.93
462.829	5277.93
463.201	5429.11
463.574	5463.01
463.947	5559.73
464.32	5635.66
464.692	5727.86
465.065	5766.05
465.438	5841.75
465.81	5910.45
466.183	6015.99
466.555	6094.63
466.928	6107.73
467.3	6203.33
467.672	6239.26
468.045	6422.3
468.417	6414.17
468.789	6537.1
469.161	6646.7
469.534	6764.44
469.906	6879.47
470.278	6941.61
470.65	6996.3
471.022	7125.79
471.394	7286.91
471.766	7342.5
472.138	7465.89
472.51	7607.58
472.882	7712.89
473.253	7826.56
473.625	7902.26
473.997	8078.08
474.369	8127.79
474.74	8249.6
475.112	8415.02
475.484	8519.42
475.855	8712.19
476.227	8768.68
476.598	9025.62
476.97	9080.09
477.341	9329.8
477.713	9440.75
478.084	9479.4
478.455	9772.27
478.827	9883.68
479.198	10164.8
479.569	10187.85
479.94	10488.86
480.311	10634.17
480.682	10846.59
481.053	10992.58
481.424	11258.56
481.795	11431.21
482.166	11517.54
482.537	11626.23
482.908	11941.71
483.279	12098.09
483.65	12241.36
484.021	12571.29
484.391	12588.02
484.762	12783.04
485.133	12943.94
485.503	13137.61
485.874	13473.87
486.244	13508.67
486.615	13878.15
486.985	13968.55
487.356	14274.75
487.726	14417.57
488.097	14665.93
488.467	14658.92
488.837	15006.48
489.207	15264.56
489.578	15482.4
489.948	15626.13
490.318	15788.84
490.688	15943.41
491.058	16159
491.428	16405.77
491.798	16533.45
492.168	16960.56
492.538	17098.86
492.908	17218.86
493.278	17371.17
493.648	17521.9
494.017	17697.49
494.387	17841.21
494.757	18034.2
495.126	18205.95
495.496	18288.43
495.866	18369.56
496.235	18579.5
496.605	18830.79
496.974	18998.02
497.344	19208.86
497.713	19199.14
498.082	19381.74
498.452	19741.5
498.821	19706.7
499.19	19873.47
499.559	20089.51
499.928	20139.91
500.298	20369.51
500.667	20582.83
501.036	20483.85
501.405	20764.98
501.774	20732.21
502.143	21106.44
502.512	21084.29
502.88	21290.61
503.249	21371.29
503.618	21566.76
503.987	21767.66
504.356	21907.55
504.724	21891.5
505.093	22095.56
505.462	22237.93
505.83	22517.02
506.199	22613.29
506.567	22880.18
506.936	22828.43
507.304	23239.26
507.672	23216.21
508.041	23416.21
508.409	23533.72
508.777	23838.79
509.145	23963.76
509.514	23956.08
509.882	24172.34
510.25	24322.85
510.618	24575.95
510.986	24593.58
511.354	24880.8
511.722	24970.97
512.09	25269.72
512.458	25329.83
512.826	25559.88
513.193	25649.82
513.561	25880.1
513.929	26125.97
514.297	26322.34
514.664	26544.49
515.032	26605.5
515.4	26913.74
515.767	27141.76
516.135	27223.56
516.502	27055.88
516.869	27611.8
517.237	27678.69
517.604	27733.83
517.972	28040.04
518.339	28332.69
518.706	28386.92
519.073	28649.29
519.44	28790.53
519.808	29178.09
520.175	29226.45
520.542	29655.14
520.909	29663.5
521.276	29686.1
521.643	30147.78
522.009	30395.91
522.376	30727.43
522.743	30775.79
523.11	31053.29
523.477	31246.96
523.843	31527.18
524.21	31939.37
524.577	32060.05
524.943	32205.35
525.31	32381.17
525.676	32738.67
526.043	32941.83
526.409	33044.2
526.776	33415.27
527.142	33641.25
527.508	33802.6
527.874	34127.34
528.241	34277.16
528.607	34339.99
528.973	34767.55
529.339	34767.09
529.705	35116.01
530.071	35479.62
530.437	35596.45
530.803	35896.78
531.169	35948.76
531.535	36056.78
531.901	36196.44
532.267	36489.76
532.632	36600.72
532.998	36789.87
533.364	37049.75
533.73	37051.1
534.095	37499.9
534.461	37523.18
534.826	37811.99
535.192	37955.94
535.557	38254.46
535.923	38221.69
536.288	38429.37
536.653	38495.81
537.019	38487.9
537.384	38663.49
537.749	38897.61
538.114	38971.5
538.479	39178.73
538.845	39363.36
539.21	39237.03
539.575	39555.89
539.94	39709.79
540.305	40015.77
540.67	39889.9
541.034	40017.58
541.399	40362.88
541.764	40431.35
542.129	40553.61
542.494	40649.2
542.858	40768.97
543.223	40832.02
543.587	41171.45
543.952	41166.25
544.316	41271.1
544.681	41514.49
545.045	41597.2
545.41	41736.4
545.774	41893.69
546.138	41929.39
546.503	42141.82
546.867	42218.42
547.231	42523.5
547.595	42556.95
547.959	42750.39
548.324	42816.15
548.688	42940.89
549.052	43019.53
549.416	43099.53
549.779	43327.32
550.143	43391.05
550.507	43569.8
550.871	43857.02
551.235	43875.1
551.599	44170.01
551.962	44284.58
552.326	44403.68
552.689	44627.63
553.053	44582.2
553.417	44704.23
553.78	45163.66
554.143	45044.34
554.507	45294.73
554.87	45428.28
555.234	45918.67
555.597	45590.54
555.96	45904.88
556.323	46113.46
556.686	46004.09
557.05	46299.22
557.413	46495.15
557.776	46608.14
558.139	47001.8
558.502	46904.85
558.865	46993.67
559.228	47368.34
559.59	47398.17
559.953	47419.87
560.316	47945.28
560.679	47914.09
561.041	48066.41
561.404	48446.73
561.767	48620.29
562.129	48503.91
562.492	48885.82
562.854	48805.82
563.217	49132.59
563.579	49202.19
563.941	49453.49
564.304	49615.97
564.666	49868.17
565.028	49902.29
565.39	50025.68
565.753	50269.74
566.115	50374.59
566.477	50456.4
566.839	50521.71
567.201	50802.38
567.563	50841.93
567.925	51073.11
568.287	51263.61
568.648	51232.42
569.01	51418.63
569.372	51598.97
569.734	51562.36
570.095	51780.88
570.457	51904.04
570.819	52006.19
571.18	52010.03
571.542	52256.8
571.903	52271.27
572.265	52374.99
572.626	52445.5
572.987	52555.55
573.349	52642.1
573.71	52748.77
574.071	52779.73
574.432	52834.87
574.794	53125.26
575.155	53103.11
575.516	52972.27
575.877	53217.23
576.238	53250.45
576.599	53321.18
576.96	53397.79
577.32	53330.67
577.681	53554.4
578.042	53540.61
578.403	53659.25
578.763	53652.93
579.124	53701.29
579.485	53861.96
579.845	53859.7
580.206	53829.87
580.566	53857.89
580.927	53864.9
581.287	53978.79
581.648	53858.12
582.008	54026.7
582.368	53923.88
582.728	54030.32
583.089	53997.1
583.449	54045.68
583.809	54033.71
584.169	54122.97
584.529	54068.73
584.889	54324.32
585.249	54046.36
585.609	53968.85
585.969	54231.44
586.329	54080.03
586.688	54133.36
587.048	54181.95
587.408	54162.97
587.768	54151.22
588.127	54159.8
588.487	54093.14
588.846	54329.29
589.206	54187.83
589.565	54131.33
589.925	54313.7
590.284	54223.53
590.643	54291.55
591.003	54376.75
591.362	54338.78
591.721	54370.42
592.08	54305.79
592.44	54461.04
592.799	54460.14
593.158	54396.18
593.517	54387.37
593.876	54415.17
594.235	54388.95
594.593	54424.88
594.952	54584.65
595.311	54388.5
595.67	54507.82
596.029	54588.04
596.387	54534.94
596.746	54626.46
597.104	54513.47
597.463	54576.52
597.822	54703.52
598.18	54546.01
598.538	54628.49
598.897	54700.36
599.255	54504.88
599.613	54928.15
599.972	54699.68
600.33	54834.14
600.688	54716.63
601.046	54888.15
601.404	54984.87
601.762	54962.04
602.12	55039.56
602.478	54978.09
602.836	55040.91
603.194	54857.87
603.552	54941.71
603.91	54844.53
604.268	55028.71
604.625	54975.15
604.983	55123.17
605.341	55006.11
605.698	55221.02
606.056	55171.08
606.413	55171.98
606.771	55265.99
607.128	55249.27
607.485	55099.22
607.843	55125.2
608.2	55386.89
608.557	55411.52
608.914	55327.91
609.272	55405.42
609.629	55478.87
609.986	55625.75
610.343	55429.15
610.7	55701.91
611.057	55583.72
611.414	55628.69
611.771	55606.09
612.127	55650.16
612.484	55641.57
612.841	55802.7
613.198	55684.51
613.554	55788.46
613.911	55855.35
614.267	55861.68
614.624	55813.09
614.98	55889.25
615.337	55991.85
615.693	56016.93
616.05	55928.8
616.406	56096.25
616.762	55990.72
617.118	55984.16
617.475	56018.96
617.831	56063.26
618.187	56061.22
618.543	56046.31
618.899	56333.08
619.255	56253.31
619.611	56133.76
619.967	56230.48
620.323	56298.51
620.678	56283.36
621.034	56115.69
621.39	56277.49
621.746	56213.54
622.101	56481.33
622.457	56188.23
622.812	56192.52
623.168	56344.38
623.523	56352.06
623.879	56362.68
624.234	56201.56
624.589	56347.54
624.945	56432.29
625.3	56437.48
625.655	56315.23
626.01	56345.51
626.365	56305.74
626.72	56311.39
627.075	56235.91
627.43	56293.08
627.785	56173.54
628.14	56190.26
628.495	56219.19
628.85	56264.38
629.205	56099.64
629.559	56186.42
629.914	56182.58
630.269	56199.98
630.623	56118.62
630.978	56040.21
631.332	56146.65
631.687	56172.86
632.041	56076.36
632.396	56070.04
632.75	55939.87
633.104	56026.2
633.459	55904.84
633.813	55829.59
634.167	55906.65
634.521	55885.86
634.875	55881.34
635.229	55832.76
635.583	55665.98
635.937	55714.79
636.291	55668.92
636.645	55661.01
636.999	55576.72
637.352	55678.86
637.706	55552.54
638.06	55612.2
638.413	55526.32
638.767	55503.27
639.121	55480.22
639.474	55240.23
639.828	55271.87
640.181	55320
640.534	55423.5
640.888	55252.88
641.241	55194.81
641.594	55193.68
641.947	55295.59
642.301	55174.69
642.654	55230.51
643.007	55156.39
643.36	55112.55
643.713	55035.71
644.066	55094.92
644.419	54913.46
644.771	54659.68
645.124	54529.74
645.477	54435.73
645.83	54192.35
646.182	54099.69
646.535	54037.1
646.888	54061.95
647.24	53920.49
647.593	54068.73
647.945	53920.26
648.298	53788.74
648.65	53721.17
649.002	53645.69
649.355	53775.63
649.707	53745.35
650.059	53796.42
650.411	54199.58
650.763	54209.29
651.115	54449.51
651.467	54317.77
651.819	54263.98
652.171	54242.51
652.523	54208.39
652.875	54217.66
653.227	54036.19
653.578	54215.17
653.93	54146.7
654.282	53996.87
654.633	53984.44
654.985	54019.24
655.337	53988.74
655.688	53937.44
656.039	54069.86
656.391	53873.48
656.742	53880.49
657.094	53849.53
657.445	54025.57
657.796	53863.32
658.147	53847.72
658.498	53781.51
658.849	53877.55
659.2	53785.58
659.551	53749.19
659.902	53853.15
660.253	53809.76
660.604	53786.48
660.955	53704.22
661.306	53755.97
661.656	53633.04
662.007	53642.98
662.358	53668.97
662.708	53661.06
663.059	53480.73
663.409	53320.73
663.76	53595.07
664.11	53593.27
664.461	53636.65
664.811	53534.28
665.161	53560.95
665.511	53473.5
665.862	53496.09
666.212	53631.23
666.562	53639.14
666.912	53487.28
667.262	53494.06
667.612	53459.94
667.962	53569.09
668.312	53463.33
668.662	53529.31
669.011	53467.17
669.361	53352.14
669.711	53356.21
670.06	53362.09
670.41	53292.71
670.76	53246.61
671.109	53364.35
671.459	53253.39
671.808	53181.53
672.157	53292.71
672.507	53128.87
672.856	53092.71
673.205	53172.49
673.554	53262.65
673.904	53157.8
674.253	53196.67
674.602	53088.65
674.951	52657.92
675.3	52581.54
675.649	53004.35
675.998	52945.15
676.346	52991.47
676.695	53097.69
677.044	52833.06
677.393	53013.39
677.741	53084.58
678.09	52869.44
678.438	52800.29
678.787	52805.94
679.135	52830.8
679.484	52722.78
679.832	52758.71
680.181	52556.23
680.529	52628.55
680.877	52513.52
681.225	52589.45
681.573	52646.4
681.922	52450.92
682.27	52349.46
682.618	52314.2
682.966	52324.6
683.314	52309.46
683.661	52188.78
684.009	52169.12
684.357	51983.59
684.705	52005.06
685.053	51999.86
685.4	51952.63
685.748	51703.82
686.095	51714.22
686.443	51550.16
686.79	51498.18
687.138	51555.13
687.485	51681.68
687.832	51458.86
688.18	51541.12
688.527	51316.49
688.874	51288.02
689.221	51235.14
689.568	51100.9
689.915	50894.58
690.262	51062.71
690.609	50919.21
690.956	50780.46
691.303	50570.29
691.65	50550.63
691.997	50555.15
692.344	50315.39
692.69	50441.94
693.037	50464.53
693.383	50059.57
693.73	50264.09
694.077	49979.12
694.423	49919.69
694.769	49892.12
695.116	49816.64
695.462	49863.65
695.808	49725.35
696.155	49706.36
696.501	49387.27
696.847	49518.8
697.193	49126.49
697.539	49391.12
697.885	49140.73
698.231	48915.87
698.577	48941.86
698.923	48801.75
699.269	48615.54
699.614	48369.22
699.96	48310.24
700.306	48485.38
700.651	48432.05
700.997	48116.35
701.342	48035.67
701.688	48048.1
702.033	47906.41
702.379	47793.19
702.724	47708
703.069	47768.79
703.415	47342.13
703.76	47351.17
704.105	47282.02
704.45	47174.9
704.795	46909.6
705.14	46778.76
705.485	46931.07
705.83	46649.72
706.175	46763.62
706.52	46488.82
706.865	46326.79
707.209	46387.13
707.554	46191.2
707.899	46392.1
708.243	46222.61
708.588	46002.51
708.932	45711.89
709.277	45774.94
709.621	45849.06
709.966	45578.79
710.31	45692.23
710.654	45234.39
710.998	45483.65
711.342	45412.01
711.687	45184
712.031	45135.18
712.375	44877.56
712.719	45079.37
713.063	44828.52
713.407	44962.98
713.75	44603.9
714.094	44678.47
714.438	44558.25
714.782	44529.55
715.125	44358.03
715.469	44336.33
715.812	43978.6
716.156	43982.45
716.499	44030.13
716.843	44127.07
717.186	43717.59
717.53	43831.04
717.873	43843.01
718.216	43796.91
718.559	43615.9
718.902	43384.27
719.246	43603.25
719.589	43288.9
719.932	43232.63
720.275	43227.21
720.617	43222.69
720.96	43012.3
721.303	42936.37
721.646	43012.75
721.989	42758.07
722.331	42935.69
722.674	42611.41
723.016	42786.77
723.359	42627.68
723.701	42620.45
724.044	42396.95
724.386	42141.14
724.729	42328.03
725.071	42222.49
725.413	42073.34
725.755	42048.03
726.097	41929.39
726.439	41753.13
726.782	41840.58
727.124	41759.68
727.465	41782.73
727.807	41608.95
728.149	41543.19
728.491	41453.7
728.833	41631.32
729.175	41428.39
729.516	41401.27
729.858	41259.35
730.199	41224.78
730.541	41137.77
730.882	40957.89
731.224	41095.97
731.565	40946.14
731.906	40953.82
732.248	40848.74
732.589	40530.56
732.93	40507.51
733.271	40666.37
733.612	40684
733.953	40754.51
734.294	40499.37
734.635	40321.07
734.976	40364.46
735.317	40149.78
735.658	40217.8
735.999	40100.74
736.339	40087.41
736.68	40256.22
737.021	40013.06
737.361	39996.79
737.702	40006.5
738.042	39814.19
738.383	39827.75
738.723	39814.19
739.063	39679.96
739.404	39769
739.744	39490.59
740.084	39540.08
740.424	39543.69
740.764	39297.37
741.104	39296.47
741.444	39244.04
741.784	39012.63
742.124	38952.3
742.464	38976.7
742.804	39013.08
743.143	38908.68
743.483	38886.53
743.823	38668.46
744.162	38686.09
744.502	38798.17
744.841	38458.07
745.181	38617.16
745.52	38485.41
745.86	38512.98
746.199	38286.32
746.538	38341.69
746.877	38287
747.216	38270.28
747.556	38098.31
747.895	38036.84
748.234	37861.02
748.573	37964.3
748.911	37764.53
749.25	37762.27
749.589	37618.77
749.928	37588.04
750.267	37654.25
750.605	37552.33
750.944	37303.3
751.283	37366.57
751.621	37281.15
751.96	37107.6
752.298	37079.12
752.636	37159.12
752.975	36968.62
753.313	36884.78
