Data from plate_porcelain_FLMS001491_026.txt Node
Date: Tue Feb 07 11:19:02 GMT 2017
User: dcchb
Spectrometer: FLMS00149
Trigger mode: 0
Integration Time (sec): 2.000000E-2
Scans to average: 10
Electric dark correction enabled: true
Nonlinearity correction enabled: false
Boxcar width: 0
XAxis mode: Wavelengths
Number of Pixels in Spectrum: 2048
>>>>>Begin Spectral Data<<<<<
341.393	-11.99
341.776	-11.99
342.16	-11.99
342.543	-71.42
342.927	-47.47
343.31	-57.64
343.693	-69.39
344.077	-71.42
344.46	-60.35
344.843	-53.8
345.226	-54.48
345.61	-40.47
345.993	-15.15
346.376	-6.79
346.759	17.39
347.142	39.53
347.525	43.37
347.908	61.45
348.291	63.26
348.674	98.29
349.057	106.2
349.44	108.01
349.823	129.25
350.206	180.32
350.588	216.25
350.971	252.63
351.354	265.52
351.737	266.42
352.119	261.22
352.502	289.92
352.884	329.24
353.267	314.55
353.65	361.11
354.032	328.34
354.414	343.03
354.797	339.86
355.179	369.92
355.562	356.36
355.944	391.16
356.326	374.21
356.709	382.35
357.091	381.9
357.473	387.09
357.855	403.37
358.238	394.1
358.62	396.13
359.002	393.65
359.384	381.67
359.766	372.86
360.148	399.3
360.53	392.52
360.912	412.86
361.294	416.02
361.676	413.76
362.057	387.77
362.439	392.07
362.821	397.49
363.203	391.61
363.584	419.18
363.966	391.39
364.348	399.07
364.729	399.07
365.111	382.35
365.493	402.69
365.874	406.3
366.256	393.65
366.637	397.49
367.019	396.59
367.4	382.8
367.781	380.99
368.163	394.55
368.544	398.17
368.925	403.82
369.306	413.53
369.688	402.91
370.069	396.13
370.45	434.32
370.831	389.35
371.212	406.53
371.593	400.43
371.974	409.24
372.355	435.68
372.736	435.23
373.117	449.24
373.498	407.88
373.879	416.47
374.26	419.18
374.641	418.28
375.021	420.77
375.402	436.13
375.783	453.08
376.163	468.67
376.544	459.18
376.925	465.28
377.305	469.13
377.686	456.7
378.066	464.61
378.447	454.89
378.827	475.23
379.208	476.13
379.588	468.9
379.968	492.4
380.349	506.87
380.729	507.09
381.109	506.87
381.489	491.27
381.87	507.09
382.25	482.23
382.63	502.57
383.01	510.03
383.39	526.07
383.77	537.37
384.15	524.94
384.53	543.47
384.91	521.33
385.29	557.94
385.67	556.13
386.049	551.38
386.429	556.81
386.809	581.21
387.189	562
387.568	588.9
387.948	573.3
388.328	599.07
388.707	597.26
389.087	602
389.466	620.76
389.846	626.41
390.225	637.48
390.605	636.35
390.984	637.03
391.363	657.14
391.743	661.89
392.122	674.09
392.501	675
392.881	692.4
393.26	696.92
393.639	700.76
394.018	727.88
394.397	705.05
394.776	687.43
395.155	725.84
395.534	755.22
395.913	729.68
396.292	744.37
396.671	757.25
397.05	762
397.429	777.82
397.808	793.86
398.186	764.26
398.565	786.86
398.944	786.41
399.323	781.89
399.701	794.99
400.08	813.07
400.458	824.6
400.837	819.85
401.215	844.26
401.594	859.17
401.972	848.1
402.351	870.92
402.729	910.92
403.107	886.74
403.486	904.37
403.864	902.34
404.242	923.35
404.62	951.6
404.999	950.92
405.377	944.14
405.755	974.2
406.133	969.23
406.511	982.33
406.889	1006.74
407.267	1019.62
407.645	1027.08
408.023	1061.43
408.401	1078.15
408.779	1075.21
409.156	1075.44
409.534	1123.8
409.912	1110.01
410.29	1143.01
410.667	1144.59
411.045	1180.52
411.422	1166.06
411.8	1189.79
412.178	1221.87
412.555	1236.79
412.933	1272.27
413.31	1244.25
413.687	1283.79
414.065	1311.36
414.442	1308.88
414.819	1328.76
415.197	1349.33
415.574	1357.69
415.951	1398.59
416.328	1359.72
416.705	1394.3
417.082	1439.04
417.46	1431.59
417.837	1472.26
418.214	1465.94
418.591	1479.72
418.967	1508.87
419.344	1533.28
419.721	1544.58
420.098	1577.57
420.475	1597.68
420.852	1572.37
421.228	1608.08
421.605	1608.53
421.982	1611.02
422.358	1633.84
422.735	1680.62
423.111	1655.54
423.488	1710.9
423.864	1711.35
424.241	1734.18
424.617	1774.63
424.994	1771.01
425.37	1804.23
425.746	1836.1
426.123	1854.85
426.499	1859.37
426.875	1864.34
427.251	1924.23
427.627	1960.39
428.003	1990.89
428.379	1969.88
428.756	2023.44
429.132	2043.77
429.507	2088.52
429.883	2077.9
430.259	2157.67
430.635	2181.4
431.011	2200.15
431.387	2251.23
431.763	2269.76
432.138	2270.89
432.514	2314.28
432.89	2340.04
433.265	2399.7
433.641	2427.27
434.016	2451.67
434.392	2460.49
434.767	2515.4
435.143	2566.25
435.518	2568.96
435.894	2572.57
436.269	2646.92
436.644	2705.23
437.02	2686.02
437.395	2699.35
437.77	2788.16
438.145	2785
438.52	2827.71
438.895	2843.75
439.271	2855.5
439.646	2937.99
440.021	2948.16
440.395	2977.08
440.77	2949.06
441.145	2976.18
441.52	3050.08
441.895	3091.2
442.27	3064.54
442.645	3116.29
443.019	3148.6
443.394	3142.05
443.769	3185.66
444.143	3182.28
444.518	3252.33
444.892	3237.87
445.267	3276.51
445.641	3330.29
446.016	3341.82
446.39	3359.22
446.764	3387.24
447.139	3361.03
447.513	3455.94
447.887	3441.93
448.262	3489.39
448.636	3541.81
449.01	3566.9
449.384	3629.04
449.758	3613.9
450.132	3668.59
450.506	3694.35
450.88	3697.06
451.254	3708.14
451.628	3834.01
452.002	3803.73
452.376	3821.81
452.75	3924.18
453.123	3941.13
453.497	4039.65
453.871	4024.29
454.244	4114.91
454.618	4138.41
454.992	4184.96
455.365	4255.24
455.739	4355.8
456.112	4359.87
456.486	4404.62
456.859	4480.09
457.232	4557.15
457.606	4562.35
457.979	4636.7
458.352	4721.9
458.725	4751.5
459.099	4777.04
459.472	4952.17
459.845	4936.13
460.218	5036.01
460.591	5025.84
460.964	5066.07
461.337	5214.54
461.71	5283.69
462.083	5383.8
462.456	5350.35
462.829	5414.08
463.201	5443.91
463.574	5535.66
463.947	5582.89
464.32	5746.05
464.692	5767.07
465.065	5839.15
465.438	5918.47
465.81	5995.99
466.183	6087.06
466.555	6266.49
466.928	6242.99
467.3	6279.59
467.672	6397.11
468.045	6522.75
468.417	6550.55
468.789	6654.95
469.161	6760.94
469.534	6832.12
469.906	6991.44
470.278	7073.02
470.65	7114.83
471.022	7299.68
471.394	7430.52
471.766	7435.04
472.138	7560.01
472.51	7703.74
472.882	7853.11
473.253	7964.3
473.625	8072.54
473.997	8276.38
474.369	8322.48
474.74	8400.44
475.112	8555.69
475.484	8704.62
475.855	8850.15
476.227	8978.51
476.598	9197.48
476.97	9281.1
477.341	9519.06
477.713	9613.97
478.084	9720.41
478.455	9949.55
478.827	10041.76
479.198	10385.93
479.569	10372.82
479.94	10688.52
480.311	10839.25
480.682	11054.16
481.053	11277.2
481.424	11437.88
481.795	11563.75
482.166	11700.47
482.537	11889.39
482.908	12180.91
483.279	12328.48
483.65	12521.24
484.021	12816.15
484.391	12965.07
484.762	13022.02
485.133	13232.18
485.503	13377.49
485.874	13698.16
486.244	13816.8
486.615	14173.62
486.985	14202.1
487.356	14538.81
487.726	14686.15
488.097	14946.71
488.467	15056.09
488.837	15309.87
489.207	15548.5
489.578	15737.43
489.948	15931.77
490.318	16114.82
490.688	16238.88
491.058	16443.4
491.428	16683.39
491.798	16895.13
492.168	17273.2
492.538	17245.63
492.908	17588.45
493.278	17823.25
493.648	17844.49
494.017	18179.62
494.387	18211.94
494.757	18464.59
495.126	18537.58
495.496	18625.94
495.866	18885.14
496.235	19178.69
496.605	19211.68
496.974	19383.66
497.344	19534.84
497.713	19696.19
498.082	19963.53
498.452	20006.01
498.821	20229.51
499.19	20219.79
499.559	20462.5
499.928	20609.39
500.298	20738.2
500.667	21005.76
501.036	20962.37
501.405	21228.58
501.774	21212.31
502.143	21523.26
502.512	21646.65
502.88	21887.09
503.249	21875.34
503.618	22031.72
503.987	22231.27
504.356	22385.84
504.724	22468.77
505.093	22555.1
505.462	22773.4
505.83	22962.32
506.199	23183.33
506.567	23414.06
506.936	23357.79
507.304	23626.71
507.672	23805.69
508.041	23969.07
508.409	24179.01
508.777	24362.06
509.145	24517.99
509.514	24676.63
509.882	24753.01
510.25	24960.01
510.618	25125.88
510.986	25224.86
511.354	25341.92
511.722	25700.78
512.09	25672.08
512.458	25959.98
512.826	26228.22
513.193	26297.15
513.561	26395.68
513.929	26755.21
514.297	26966.28
514.664	27251.7
515.032	27215.32
515.4	27552.48
515.767	27634.06
516.135	27924.68
516.502	27778.46
516.869	28266.14
517.237	28294.38
517.604	28449.18
517.972	28776.86
518.339	28971.65
518.706	29044.42
519.073	29312.89
519.44	29443.51
519.808	29786.55
520.175	29822.48
520.542	30205.75
520.909	30377.27
521.276	30372.29
521.643	30807.09
522.009	30911.04
522.376	31264.7
522.743	31369.78
523.11	31711.92
523.477	32148.97
523.843	32306.71
524.21	32566.81
524.577	32863.53
524.943	32927.48
525.31	33221.49
525.676	33498.09
526.043	33667.12
526.409	33959.77
526.776	34243.83
527.142	34336.03
527.508	34580.09
527.874	34971.04
528.241	35170.59
528.607	35218.49
528.973	35529.67
529.339	35584.13
529.705	36060.05
530.071	36338.24
530.437	36436.54
530.803	36661.39
531.169	37015.74
531.535	36987.49
531.901	36999.92
532.267	37008.28
532.632	37481.26
532.998	37710.18
533.364	37870.63
533.73	37967.12
534.095	38451.4
534.461	38375.47
534.826	38675.35
535.192	38772.98
535.557	39059.75
535.923	39078.51
536.288	39353.98
536.653	39482.34
537.019	39390.81
537.384	39669.23
537.749	39715.33
538.114	39875.32
538.479	39925.04
538.845	40318.47
539.21	40297.01
539.575	40398.7
539.94	40652.25
540.305	40941.28
540.67	40939.02
541.034	41009.53
541.399	41223.08
541.764	41294.04
542.129	41521.38
542.494	41579.68
542.858	41803.41
543.223	41818.1
543.587	41995.04
543.952	42046.11
544.316	42272.32
544.681	42343.05
545.045	42595.25
545.41	42726.55
545.774	42844.06
546.138	42972.64
546.503	43262.8
546.867	43107.55
547.231	43361.33
547.595	43356.81
547.959	43560.42
548.324	43690.14
548.688	43838.38
549.052	44053.06
549.416	44016
549.779	44273.17
550.143	44401.98
550.507	44671.58
550.871	44855.08
551.235	44665.48
551.599	45235.18
551.962	45214.39
552.326	45360.38
552.689	45593.14
553.053	45376.65
553.417	45613.93
553.78	46036.29
554.143	46031.54
554.507	46182.73
554.87	46316.73
555.234	46721.7
555.597	46533.68
555.96	46885.76
556.323	47071.74
556.686	46834.01
557.05	47424.05
557.413	47452.52
557.776	47494.56
558.139	47841.21
558.502	47878.05
558.865	47966.18
559.228	48281.88
559.59	48468.09
559.953	48525.94
560.316	48801.41
560.679	48892.94
561.041	49170.44
561.404	49391.46
561.767	49515.52
562.129	49257.67
562.492	49813.37
562.854	49713.03
563.217	49873.25
563.579	50054.26
563.941	50346.46
564.304	50393.24
564.666	50646.79
565.028	50729.27
565.39	50856.95
565.753	51075.25
566.115	51159.09
566.477	51294.46
566.839	51396.6
567.201	51614.22
567.563	51657.38
567.925	51960.2
568.287	51883.37
568.648	51908.9
569.01	52108.67
569.372	52337.59
569.734	52220.08
570.095	52483.35
570.457	52572.61
570.819	52720.63
571.18	52806.51
571.542	52925.83
571.903	52938.25
572.265	53060.29
572.626	53135.99
572.987	53206.95
573.349	53234.97
573.71	53415.3
574.071	53457.79
574.432	53617.33
574.794	53761.51
575.155	53756.54
575.516	53686.94
575.877	53910.66
576.238	53956.99
576.599	54056.42
576.96	54083.99
577.32	54034.95
577.681	54225.9
578.042	54206.7
578.403	54311.55
578.763	54356.97
579.124	54374.38
579.485	54424.77
579.845	54538.21
580.206	54407.59
580.566	54526.69
580.927	54578.44
581.287	54661.15
581.648	54543.86
582.008	54656.85
582.368	54708.38
582.728	54685.33
583.089	54675.84
583.449	54754.03
583.809	54745.44
584.169	54790.41
584.529	54727.13
584.889	54918.77
585.249	54718.1
585.609	54643.75
585.969	54841.03
586.329	54822.27
586.688	54883.29
587.048	54850.75
587.408	54743.86
587.768	54821.82
588.127	54713.58
588.487	54800.35
588.846	54923.97
589.206	54835.38
589.565	54826.34
589.925	54969.39
590.284	54990.18
590.643	54941.59
591.003	55021.14
591.362	55048.26
591.721	54910.86
592.08	54971.2
592.44	55060.69
592.799	55104.98
593.158	55004.87
593.517	55038.99
593.876	55027.92
594.235	54995.6
594.593	55102.49
594.952	55081.02
595.311	55021.36
595.67	55094.81
596.029	55275.37
596.387	55161.25
596.746	55231.3
597.104	55136.16
597.463	55206.22
597.822	55377.06
598.18	55192.66
598.538	55231.75
598.897	55340.9
599.255	55141.59
599.613	55497.96
599.972	55303.39
600.33	55421.81
600.688	55400.56
601.046	55529.37
601.404	55653.89
601.762	55489.6
602.12	55615.25
602.478	55631.52
602.836	55674.91
603.194	55502.03
603.552	55594.23
603.91	55502.93
604.268	55634.68
604.625	55579.32
604.983	55753.77
605.341	55582.71
605.698	55724.17
606.056	55754.68
606.413	55768.46
606.771	55902.47
607.128	55854.56
607.485	55782.7
607.843	55774.56
608.2	55912.87
608.557	56050.49
608.914	55939.53
609.272	56067.21
609.629	56048.46
609.986	56176.81
610.343	56080.77
610.7	56304.72
611.057	56212.29
611.414	56287.77
611.771	56265.17
612.127	56424.26
612.484	56259.98
612.841	56417.71
613.198	56302.91
613.554	56351.05
613.911	56565.96
614.267	56422.68
614.624	56485.73
614.98	56531.15
615.337	56631.72
615.693	56648.67
616.05	56574.54
616.406	56657.03
616.762	56606.18
617.118	56602.34
617.475	56608.21
617.831	56721.43
618.187	56740.41
618.543	56734.99
618.899	56848.21
619.255	56841.2
619.611	56786.29
619.967	56890.92
620.323	56992.39
620.678	56824.71
621.034	56820.19
621.39	56761.88
621.746	56815.89
622.101	57017.47
622.457	56836.68
622.812	56940.18
623.168	57025.83
623.523	56942.67
623.879	57003.01
624.234	56900.86
624.589	56937.92
624.945	56959.39
625.3	57031.48
625.655	56949.67
626.01	56947.19
626.365	57000.52
626.72	56935.44
627.075	56927.53
627.43	56908.32
627.785	56836.46
628.14	56928.21
628.495	56866.06
628.85	56828.77
629.205	56725.5
629.559	56875.78
629.914	56780.41
630.269	56864.48
630.623	56751.26
630.978	56640.76
631.332	56780.87
631.687	56861.99
632.041	56715.33
632.396	56739.74
632.75	56606.86
633.104	56672.17
633.459	56582.68
633.813	56455.22
634.167	56514.21
634.521	56511.95
634.875	56532.28
635.229	56434.89
635.583	56308.34
635.937	56384.49
636.291	56324.38
636.645	56327.77
636.999	56265.63
637.352	56323.93
637.706	56184.05
638.06	56198.73
638.413	56193.76
638.767	56168.23
639.121	56182.24
639.474	55992.41
639.828	55912.87
640.181	56037.61
640.534	56027.44
640.888	55865.18
641.241	55798.74
641.594	55920.32
641.947	55969.59
642.301	55859.31
642.654	55895.47
643.007	55813.66
643.36	55750.84
643.713	55681.01
644.066	55723.27
644.419	55649.82
644.771	55436.95
645.124	55130.51
645.477	55176.61
645.83	54961.48
646.182	54820.92
646.535	54595.39
646.888	54779.11
647.24	54523.3
647.593	54789.28
647.945	54692.11
648.298	54459.57
648.65	54470.42
649.002	54405.34
649.355	54499.57
649.707	54501.83
650.059	54606.23
650.411	54930.74
650.763	54961.03
651.115	55244.41
651.467	55018.2
651.819	55074.02
652.171	54977.52
652.523	55001.7
652.875	54959.44
653.227	54847.58
653.578	54896.4
653.93	54783.86
654.282	54757.19
654.633	54597.87
654.985	54734.82
655.337	54730.98
655.688	54676.51
656.039	54811.88
656.391	54518.78
656.742	54578.44
657.094	54624.54
657.445	54794.93
657.796	54686.01
658.147	54588.61
658.498	54497.31
658.849	54608.49
659.2	54476.75
659.551	54504.99
659.902	54549.96
660.253	54482.62
660.604	54592
660.955	54427.48
661.306	54424.09
661.656	54422.96
662.007	54392.45
662.358	54361.95
662.708	54437.88
663.059	54290.31
663.409	54204.44
663.76	54341.16
664.11	54241.72
664.461	54326.92
664.811	54396.75
665.161	54266.36
665.511	54265
665.862	54257.09
666.212	54357.88
666.562	54345.22
666.912	54264.32
667.262	54295.28
667.612	54161.73
667.962	54180.93
668.312	54230.42
668.662	54299.35
669.011	54181.61
669.361	54115.85
669.711	54133.25
670.06	54138.68
670.41	54020.03
670.76	53963.54
671.109	54102.52
671.459	54051.22
671.808	53972.8
672.157	54159.24
672.507	53830.66
672.856	53900.04
673.205	53913.82
673.554	53936.87
673.904	53803.77
674.253	53950.66
674.602	53870.89
674.951	53512.25
675.3	53286.95
675.649	53749.08
675.998	53701.62
676.346	53690.78
676.695	53832.24
677.044	53579.59
677.393	53679.03
677.741	53719.93
678.09	53643.1
678.438	53480.16
678.787	53633.15
679.135	53606.94
679.484	53505.92
679.832	53558.8
680.181	53389.09
680.529	53406.72
680.877	53332.14
681.225	53272.03
681.573	53459.15
681.922	53233.84
682.27	53161.3
682.618	53203.33
682.966	53114.52
683.314	53152.49
683.661	52881.08
684.009	52912.04
684.357	52877.92
684.705	52838.6
685.053	52849.44
685.4	52777.81
685.748	52649
686.095	52504.59
686.443	52389.34
686.79	52412.39
687.138	52467.08
687.485	52482.22
687.832	52350.02
688.18	52330.81
688.527	52112.51
688.874	52100.54
689.221	51975.34
689.568	51964.72
689.915	51810.37
690.262	51884.5
690.609	51739.42
690.956	51615.35
691.303	51582.13
691.65	51414.91
691.997	51474.34
692.344	51269.82
692.69	51238.86
693.037	51284.51
693.383	50914.35
693.73	51038.42
694.077	50749.84
694.423	50823.06
694.769	50684.53
695.116	50683.85
695.462	50595.04
695.808	50584.87
696.155	50511.88
696.501	50298.55
696.847	50349.85
697.193	49992.12
697.539	50182.85
697.885	49986.69
698.231	49887.94
698.577	49816.08
698.923	49793.7
699.269	49506.71
699.614	49371.12
699.96	49193.49
700.306	49371.34
700.651	49113.5
700.997	49120.5
701.342	49157.11
701.688	48873.05
702.033	48782.21
702.379	48683.23
702.724	48718.48
703.069	48815.43
703.415	48406.4
703.76	48343.57
704.105	48336.57
704.45	48113.3
704.795	47900.87
705.14	47775.23
705.485	47802.12
705.83	47620.43
706.175	47781.78
706.52	47601.67
706.865	47433.31
707.209	47466.76
707.554	47189.48
707.899	47349.25
708.243	47107.22
708.588	47201.46
708.932	46760.56
709.277	46810.73
709.621	46870.17
709.966	46677.63
710.31	46742.94
710.654	46260.46
710.998	46384.75
711.342	46449.84
711.687	46305.21
712.031	46122.61
712.375	46027.25
712.719	46000.81
713.063	45801.27
713.407	46001.49
713.75	45777.31
714.094	45746.58
714.438	45607.15
714.782	45549.3
715.125	45375.29
715.469	45456.19
715.812	45130.1
716.156	44941.63
716.499	44883.78
716.843	44947.28
717.186	44714.97
717.53	44908.18
717.873	44993.38
718.216	44740.28
718.559	44712.71
718.902	44481.08
719.246	44664.8
719.589	44542.32
719.932	44227.75
720.275	44252.83
720.617	44150.92
720.96	44059.62
721.303	44093.74
721.646	44033.4
721.989	43798.61
722.331	43981.65
722.674	43897.14
723.016	43851.26
723.359	43759.29
723.701	43670.25
724.044	43390.94
724.386	43208.79
724.729	43290.15
725.071	43301.67
725.413	43229.81
725.755	43190.49
726.097	42977.84
726.439	42929.03
726.782	42848.35
727.124	43020.1
727.465	42743.27
727.807	42816.49
728.149	42558.19
728.491	42536.49
728.833	42576.72
729.175	42366.56
729.516	42288.14
729.858	42259.89
730.199	42330.17
730.541	42250.63
730.882	42066
731.224	42155.04
731.565	41863.29
731.906	41888.38
732.248	41965.21
732.589	41747.59
732.93	41636.86
733.271	41756.18
733.612	41715.05
733.953	41643.64
734.294	41415.62
734.635	41395.51
734.976	41541.27
735.317	41314.15
735.658	41346.47
735.999	41208.85
736.339	41187.6
736.68	41214.95
737.021	41020.83
737.361	40800.04
737.702	41042.07
738.042	40782.42
738.383	40881.4
738.723	40873.94
739.063	40640.05
739.404	40616.09
739.744	40532.48
740.084	40527.96
740.424	40413.39
740.764	40384.01
741.104	40508.98
741.444	40144.69
741.784	40115.99
742.124	40188.08
742.464	40155.77
742.804	40076.22
743.143	40006.17
743.483	39974.53
743.823	39737.02
744.162	39723.01
744.502	39876.68
744.841	39590.36
745.181	39643.24
745.52	39579.06
745.86	39661.54
746.199	39380.42
746.538	39450.47
746.877	39445.05
747.216	39272.63
747.556	39148.11
747.895	39142.91
748.234	38989.24
748.573	38828.12
748.911	38849.59
749.25	38809.13
749.589	38835.8
749.928	38611.85
750.267	38713.32
750.605	38563.94
750.944	38386.55
751.283	38273.78
751.621	38401.69
751.96	38112.43
752.298	38171.19
752.636	38195.59
