Data from plate_ceramic_FLMS001491_005.txt Node
Date: Tue Feb 07 11:16:14 GMT 2017
User: dcchb
Spectrometer: FLMS00149
Trigger mode: 0
Integration Time (sec): 2.000000E-2
Scans to average: 10
Electric dark correction enabled: true
Nonlinearity correction enabled: false
Boxcar width: 0
XAxis mode: Wavelengths
Number of Pixels in Spectrum: 2048
>>>>>Begin Spectral Data<<<<<
341.393	-32.73
341.776	-32.73
342.16	-32.73
342.543	-58.04
342.927	-72.27
343.31	-77.92
343.693	-70.69
344.077	-58.26
344.46	-63.91
344.843	-53.52
345.226	-32.05
345.61	-32.95
345.993	-27.3
346.376	-18.94
346.759	19.02
347.142	27.84
347.525	60.38
347.908	59.02
348.291	83.88
348.674	87.5
349.057	97.89
349.44	125.91
349.823	150.55
350.206	166.37
350.588	216.53
350.971	223.54
351.354	233.93
351.737	255.85
352.119	265.12
352.502	283.65
352.884	303.54
353.267	289.07
353.65	297.66
354.032	306.02
354.414	339.69
354.797	313.93
355.179	317.1
355.562	335.17
355.944	339.02
356.326	350.77
356.709	359.13
357.091	359.13
357.473	355.06
357.855	361.39
358.238	353.03
358.62	360.71
359.002	365.23
359.384	371.11
359.766	377.89
360.148	371.78
360.53	347.38
360.912	357.77
361.294	357.1
361.676	365.46
362.057	365
362.439	359.81
362.821	352.35
363.203	351.9
363.584	334.5
363.966	357.77
364.348	363.42
364.729	341.73
365.111	361.39
365.493	348.51
365.874	356.19
366.256	341.05
366.637	355.74
367.019	370.65
367.4	351.22
367.781	353.71
368.163	344.21
368.544	349.86
368.925	330.88
369.306	367.94
369.688	361.16
370.069	372.24
370.45	356.42
370.831	376.76
371.212	364.1
371.593	360.48
371.974	362.74
372.355	387.15
372.736	360.71
373.117	377.66
373.498	364.1
373.879	360.48
374.26	359.13
374.641	380.82
375.021	367.26
375.402	384.89
375.783	381.05
376.163	400.48
376.544	405
376.925	375.85
377.305	385.57
377.686	400.48
378.066	385.34
378.447	409.98
378.827	391.44
379.208	395.96
379.588	412.01
379.968	418.79
380.349	421.5
380.729	408.85
381.109	419.01
381.489	412.46
381.87	409.75
382.25	415.85
382.63	449.07
383.01	435.51
383.39	425.57
383.77	444.1
384.15	466.92
384.53	447.94
384.91	450.65
385.29	461.5
385.67	451.33
386.049	453.14
386.429	450.43
386.809	460.82
387.189	458.11
387.568	470.54
387.948	476.87
388.328	492.68
388.707	496.75
389.087	506.02
389.466	493.14
389.846	509.18
390.225	520.03
390.605	507.37
390.984	487.04
391.363	517.77
391.743	512.57
392.122	535.85
392.501	532.01
392.881	546.92
393.26	541.95
393.639	556.19
394.018	570.42
394.397	564.1
394.776	566.36
395.155	583.3
395.534	556.19
395.913	572.68
396.292	598.44
396.671	594.38
397.05	600.03
397.429	626.92
397.808	620.82
398.186	642.74
398.565	628.5
398.944	645.45
399.323	635.28
399.701	632.12
400.08	650.42
400.458	669.63
400.837	649.97
401.215	656.97
401.594	644.09
401.972	677.09
402.351	703.53
402.729	708.5
403.107	697.43
403.486	702.85
403.864	690.19
404.242	708.05
404.62	734.94
404.999	707.37
405.377	740.81
405.755	735.62
406.133	763.41
406.511	774.71
406.889	751.21
407.267	789.63
407.645	778.78
408.023	799.34
408.401	818.33
408.779	830.08
409.156	847.48
409.534	817.65
409.912	847.93
410.29	887.93
410.667	899.68
411.045	895.84
411.422	897.42
411.8	913.01
412.178	936.06
412.555	942.84
412.933	944.88
413.31	959.34
413.687	991.2
414.065	977.19
414.442	994.14
414.819	1011.77
415.197	1016.51
415.574	1049.73
415.951	1034.37
416.328	1053.57
416.705	1049.51
417.082	1083.4
417.46	1073.91
417.837	1103.74
418.214	1100.13
418.591	1128.15
418.967	1132.22
419.344	1155.94
419.721	1178.99
420.098	1155.72
420.475	1171.76
420.852	1179.67
421.228	1191.88
421.605	1218.09
421.982	1239.11
422.358	1257.86
422.735	1269.84
423.111	1231.2
423.488	1302.38
423.864	1292.89
424.241	1299.22
424.617	1320.46
424.994	1339.22
425.37	1327.47
425.746	1357.07
426.123	1368.82
426.499	1389.16
426.875	1433.9
427.251	1444.75
427.627	1463.05
428.003	1480.23
428.379	1501.25
428.756	1517.97
429.132	1531.3
429.507	1543.73
429.883	1543.05
430.259	1581.02
430.635	1597.51
431.011	1636.61
431.387	1660.11
431.763	1678.64
432.138	1673.9
432.514	1740.11
432.89	1708.25
433.265	1752.31
433.641	1757.74
434.016	1810.39
434.392	1868.92
434.767	1890.61
435.143	1844.29
435.518	1888.13
435.894	1898.75
436.269	1942.14
436.644	1964.06
437.02	1969.26
437.395	1985.3
437.77	2013.32
438.145	2059.65
438.52	2058.52
438.895	2068.01
439.271	2052.19
439.646	2157.05
440.021	2159.99
440.395	2149.59
440.77	2152.98
441.145	2185.3
441.52	2202.92
441.895	2244.28
442.27	2224.39
442.645	2279.98
443.019	2296.25
443.394	2306.65
443.769	2322.69
444.143	2326.08
444.518	2363.82
444.892	2355.91
445.267	2371.28
445.641	2405.85
446.016	2409.7
446.39	2433.2
446.764	2457.6
447.139	2453.09
447.513	2471.84
447.887	2520.88
448.262	2495.34
448.636	2512.97
449.01	2575.57
449.384	2619.86
449.758	2605.4
450.132	2613.53
450.506	2637.26
450.88	2663.02
451.254	2647.88
451.628	2717.03
452.002	2757.03
452.376	2786.64
452.75	2815.79
453.123	2876.35
453.497	2911.38
453.871	2879.29
454.244	2977.37
454.618	2968.33
454.992	3065.72
455.365	3014.88
455.739	3108.66
456.112	3112.05
456.486	3160.19
456.859	3196.57
457.232	3267.98
457.606	3281.76
457.979	3338.26
458.352	3368.77
458.725	3387.52
459.099	3420.52
459.472	3503.45
459.845	3553.4
460.218	3585.26
460.591	3596.11
460.964	3701.19
461.337	3725.37
461.71	3770.56
462.083	3856.66
462.456	3850.79
462.829	3859.15
463.201	3942.99
463.574	3926.49
463.947	3983.67
464.32	4111.57
464.692	4131.46
465.065	4168.97
465.438	4220.72
465.81	4252.81
466.183	4323.09
466.555	4421.85
466.928	4495.07
467.3	4456.2
467.672	4545.69
468.045	4632.01
468.417	4686.47
468.789	4688.51
469.161	4820.48
469.534	4876.98
469.906	4971.44
470.278	5041.94
470.65	5077.42
471.022	5188.83
471.394	5232.67
471.766	5308.83
472.138	5367.13
472.51	5475.83
472.882	5568.71
473.253	5668.37
473.625	5737.74
473.997	5837.63
474.369	5907.01
474.74	5977.51
475.112	6080.11
475.484	6149.49
475.855	6263.61
476.227	6303.38
476.598	6528.23
476.97	6601.22
477.341	6696.14
477.713	6808.9
478.084	6886.87
478.455	7026.07
478.827	7125.73
479.198	7396.23
479.569	7296.35
479.94	7547.19
480.311	7592.16
480.682	7800.29
481.053	7975.2
481.424	8144.91
481.795	8223.55
482.166	8318.24
482.537	8407.28
482.908	8636.2
483.279	8678.68
483.65	8905.12
484.021	9059.01
484.391	9175.17
484.762	9243.42
485.133	9261.04
485.503	9441.83
485.874	9668.26
486.244	9795.72
486.615	10028.93
486.985	10118.42
487.356	10321.8
487.726	10428.47
488.097	10587.79
488.467	10602.7
488.837	10868.68
489.207	11027.78
489.578	11153.87
489.948	11253.53
490.318	11383.47
490.688	11433.87
491.058	11665.95
491.428	11754.76
491.798	11987.52
492.168	12179.61
492.538	12221.19
492.908	12339.15
493.278	12521.52
493.648	12666.15
494.017	12720.84
494.387	12879.03
494.757	13011
495.126	13138.45
495.496	13163.76
495.866	13343.65
496.235	13486.69
496.605	13637.65
496.974	13607.59
497.344	13780.92
497.713	13854.59
498.082	14043.97
498.452	14109.28
498.821	14246
499.19	14263.17
499.559	14490.06
499.928	14586.55
500.298	14655.93
500.667	14797.17
501.036	14813.89
501.405	14929.37
501.774	15022.92
502.143	15176.59
502.512	15143.37
502.88	15411.84
503.249	15422.69
503.618	15618.84
503.987	15632.4
504.356	15769.57
504.724	15823.36
505.093	16017.47
505.462	16015.21
505.83	16201.88
506.199	16245.04
506.567	16575.88
506.936	16471.7
507.304	16792.14
507.672	16758.92
508.041	16856.55
508.409	16970.22
508.777	17171.12
509.145	17362.07
509.514	17343.54
509.882	17533.59
510.25	17522.29
510.618	17704.44
510.986	17756.86
511.354	18020.81
511.722	18084.76
512.09	18233.46
512.458	18285.66
512.826	18456.96
513.193	18621.25
513.561	18753
513.929	18941.47
514.297	19046.32
514.664	19188.69
515.032	19343.04
515.4	19540.32
515.767	19564.05
516.135	19715.23
516.502	19644.5
516.869	19979.4
517.237	20166.74
517.604	20116.8
517.972	20419.62
518.339	20465.49
518.706	20522.44
519.073	20734.64
519.44	20806.95
519.808	21058.92
520.175	21100.96
520.542	21439.7
520.909	21516.76
521.276	21521.96
521.643	21773.71
522.009	22023.19
522.376	22209.18
522.743	22295.73
523.11	22477.19
523.477	22790.63
523.843	22861.36
524.21	23158.76
524.577	23237.4
524.943	23354.68
525.31	23641.23
525.676	23787.67
526.043	23946.31
526.409	24047.09
526.776	24325.28
527.142	24408.67
527.508	24588.32
527.874	24847.52
528.241	24832.38
528.607	25038.25
528.973	25261.53
529.339	25194.86
529.705	25556.66
530.071	25896.76
530.437	25887.72
530.803	26172.69
531.169	26280.03
531.535	26219.47
531.901	26304.89
532.267	26511.66
532.632	26607.25
532.998	26779.9
533.364	26916.85
533.73	27148.71
534.095	27178.31
534.461	27442.71
534.826	27634.57
535.192	27635.25
535.557	27935.13
535.923	27901.23
536.288	28105.07
536.653	28185.52
537.019	28233.2
537.384	28369.24
537.749	28402.69
538.114	28494.21
538.479	28579.86
538.845	28733.52
539.21	28755.22
539.575	28988.43
539.94	28966.96
540.305	29270.69
540.67	29199.05
541.034	29310.68
541.399	29484.01
541.764	29595.87
542.129	29654.4
542.494	29700.05
542.858	29932.14
543.223	29973.27
543.587	30200.38
543.952	30182.07
544.316	30302.52
544.681	30275.18
545.045	30620.71
545.41	30703.87
545.774	30768.05
546.138	30822.73
546.503	30915.61
546.867	30894.82
547.231	31220.92
547.595	31327.81
547.959	31459.55
548.324	31496.16
548.688	31608.48
549.052	31668.81
549.416	31852.99
549.779	31828.13
550.143	31963.5
550.507	32248.01
550.871	32373.2
551.235	32207.56
551.599	32585.17
551.962	32509.24
552.326	32735
552.689	32854.32
553.053	32879.63
553.417	32922.79
553.78	33294.99
554.143	33205.72
554.507	33514.19
554.87	33561.65
555.234	33881.41
555.597	33686.61
555.96	33946.27
556.323	34102.42
556.686	34076.66
557.05	34604.56
557.413	34519.36
557.776	34565.24
558.139	34906.47
558.502	34978.78
558.865	35142.4
559.228	35320.92
559.59	35475.04
559.953	35561.37
560.316	35754.36
560.679	35901.02
561.041	36131.97
561.404	36176.27
561.767	36452.19
562.129	36334
562.492	36925.17
562.854	36852.63
563.217	37034.32
563.579	37184.6
563.941	37462.33
564.304	37466.85
564.666	37773.74
565.028	37769.9
565.39	37858.03
565.753	38172.82
566.115	38315.19
566.477	38412.14
566.839	38472.48
567.201	38746.82
567.563	38736.42
567.925	39074.95
568.287	39115.62
568.648	39187.71
569.01	39269.52
569.372	39584.54
569.734	39523.52
570.095	39854.14
570.457	39919.67
570.819	40092.32
571.18	40130.51
571.542	40425.87
571.903	40400.11
572.265	40571.86
572.626	40617.28
572.987	40807.1
573.349	40914.22
573.71	40981.79
574.071	41018.62
574.432	41119.64
574.794	41412.06
575.155	41488.89
575.516	41540.19
575.877	41604.6
576.238	41807.08
576.599	41900.86
576.96	41855.21
577.32	41981.31
577.681	42104.47
578.042	42265.6
578.403	42222.66
578.763	42141.76
579.124	42298.59
579.485	42419.94
579.845	42634.18
580.206	42499.72
580.566	42562.99
580.927	42562.54
581.287	42755.53
581.648	42572.93
582.008	42828.97
582.368	42761.86
582.728	42876.88
583.089	42647.51
583.449	42817.9
583.809	42900.84
584.169	42988.97
584.529	42778.35
584.889	43123.88
585.249	42793.04
585.609	42821.06
585.969	43113.26
586.329	42902.19
586.688	43052.92
587.048	43081.62
587.408	42992.81
587.768	42931.34
588.127	43043.66
588.487	42948.52
588.846	43334.04
589.206	43069.42
589.565	43073.94
589.925	43293.37
590.284	43165.69
590.643	43254.05
591.003	43352.12
591.362	43351.9
591.721	43221.28
592.08	43213.82
592.44	43415.85
592.799	43341.73
593.158	43492.23
593.517	43362.07
593.876	43449.3
594.235	43328.17
594.593	43361.84
594.952	43714.83
595.311	43349.86
595.67	43543.98
596.029	43641.61
596.387	43709.4
596.746	43658.78
597.104	43592.34
597.463	43715.96
597.822	43776.74
598.18	43730.64
598.538	43652.68
598.897	43808.38
599.255	43607.71
599.613	44157.07
599.972	43908.27
600.33	43843.41
600.688	43910.3
601.046	43863.97
601.404	44018.55
601.762	44053.8
602.12	44185.77
602.478	44205.89
602.836	44236.62
603.194	44016.74
603.552	44118.43
603.91	43987.36
604.268	44333.34
604.625	44284.3
604.983	44480
605.341	44370.4
605.698	44529.27
606.056	44410.4
606.413	44391.87
606.771	44588.02
607.128	44630.06
607.485	44506.67
607.843	44555.03
608.2	44854
608.557	44779.66
608.914	44812.2
609.272	44944.85
609.629	45180.78
609.986	45084.73
610.343	44892.42
610.7	45245.41
611.057	45073.43
611.414	45118.4
611.771	45201.57
612.127	45446.08
612.484	45275.46
612.841	45400.66
613.198	45271.85
613.554	45354.1
613.911	45576.47
614.267	45542.8
614.624	45547.09
614.98	45497.38
615.337	45777.14
615.693	45717.03
616.05	45681.55
616.406	45947.08
616.762	45758.16
617.118	45918.61
617.475	45776.01
617.831	45922.68
618.187	46046.97
618.543	45974.65
618.899	46210.58
619.255	46168.09
619.611	46088.1
619.967	46182.33
620.323	46253.29
620.678	46149.34
621.034	45989.79
621.39	46189.34
621.746	46075.89
622.101	46480.63
622.457	46107.98
622.812	46257.13
623.168	46390.69
623.523	46417.13
623.879	46452.61
624.234	46202.44
624.589	46290.12
624.945	46301.2
625.3	46318.37
625.655	46279.73
626.01	46196.12
626.365	46394.75
626.72	46309.11
627.075	46252.16
627.43	46217.81
627.785	46110.02
628.14	46181.43
628.495	46242.44
628.85	46178.49
629.205	45951.38
629.559	46232.5
629.914	46080.41
630.269	46056.01
630.623	45979.62
630.978	45869.34
631.332	45956.57
631.687	46180.07
632.041	45919.29
632.396	45892.85
632.75	45641.1
633.104	45833.87
633.459	45556.13
633.813	45566.75
634.167	45552.97
634.521	45411.96
634.875	45606.75
635.229	45491.73
635.583	45308.23
635.937	45276.14
636.291	45280.66
636.645	45379.64
636.999	45160.21
637.352	45287.21
637.706	45058.97
638.06	45349.36
638.413	45056.94
638.767	45079.31
639.121	45112.3
639.474	44711.18
639.828	44845.42
640.181	44820.33
640.534	44893.33
640.888	44763.84
641.241	44570.85
641.594	44604.52
641.947	44856.26
642.301	44608.81
642.654	44792.08
643.007	44558.42
643.36	44585.99
643.713	44500.12
644.066	44594.35
644.419	44340.8
644.771	44096.06
645.124	43679.8
645.477	43675.73
645.83	43313.25
646.182	43111.23
646.535	42992.13
646.888	43165.46
647.24	42994.84
647.593	43196.65
647.945	42996.2
648.298	42872.36
648.65	42741.07
649.002	42681.63
649.355	42798.24
649.707	42751.01
650.059	42938.8
650.411	43473.02
650.763	43406.13
651.115	43561.38
651.467	43561.16
651.819	43408.62
652.171	43396.42
652.523	43444.1
652.875	43372.91
653.227	43099.02
653.578	43515.96
653.93	43386.7
654.282	43252.24
654.633	43108.29
654.985	43181.73
655.337	43328.62
655.688	43131.56
656.039	43152.58
656.391	42781.97
656.742	42904.9
657.094	42934.73
657.445	42988.52
657.796	42902.19
658.147	42800.95
658.498	42805.24
658.849	42863.1
659.2	42810.89
659.551	42711.24
659.902	42907.61
660.253	42651.8
660.604	42836.66
660.955	42526.16
661.306	42707.85
661.656	42644.34
662.007	42576.78
662.358	42508.08
662.708	42502.88
663.059	42495.87
663.409	42340.17
663.76	42540.39
664.11	42449.1
664.461	42374.07
664.811	42410.45
665.161	42400.96
665.511	42469.66
665.862	42368.87
666.212	42577.45
666.562	42486.16
666.912	42476.44
667.262	42382.43
667.612	42352.83
667.962	42428.08
668.312	42192.38
668.662	42532.94
669.011	42273.06
669.361	42212.72
669.711	42265.82
670.06	42178.14
670.41	42175.88
670.76	41987.86
671.109	42184.24
671.459	42071.03
671.808	42049.11
672.157	42076
672.507	41876.46
672.856	41982.67
673.205	41952.84
673.554	42049.78
673.904	41830.81
674.253	42041.42
674.602	41887.98
674.951	41479.18
675.3	41110.6
675.649	41814.31
675.998	41632.39
676.346	41678.49
676.695	41901.54
677.044	41505.62
677.393	41657.93
677.741	41620.42
678.09	41495.9
678.438	41544.03
678.787	41481.44
679.135	41659.29
679.484	41316.92
679.832	41488.67
680.181	41347.2
680.529	41317.6
680.877	41084.61
681.225	41084.16
681.573	41270.14
681.922	41124.61
682.27	40965.52
682.618	40975.01
682.966	40943.15
683.314	40970.49
683.661	40899.98
684.009	40524.63
684.357	40482.37
684.705	40399.88
685.053	40600.1
685.4	40503.16
685.748	40232.66
686.095	40299.32
686.443	39927.58
686.79	40022.94
687.138	39923.06
687.485	40177.74
687.832	39900.91
688.18	40081.25
688.527	39697.3
688.874	39734.36
689.221	39527.36
689.568	39490.08
689.915	39499.12
690.262	39429.74
690.609	39307.03
690.956	39207.83
691.303	39005.8
691.65	38886.03
691.997	38802.41
692.344	38604.68
692.69	38864.78
693.037	38831.34
693.383	38505.92
693.73	38535.53
694.077	38302.76
694.423	38408.3
694.769	38446.49
695.116	38220.51
695.462	38246.04
695.808	38033.17
696.155	37986.61
696.501	37733.74
696.847	37605.38
697.193	37458.04
697.539	37619.39
697.885	37298.27
698.231	37228.22
698.577	37234.32
698.923	37071.84
699.269	36939.64
699.614	36610.38
699.96	36587.55
700.306	36736.03
700.651	36730.15
700.997	36476.82
701.342	36447.9
701.688	36476.37
702.033	36133.56
702.379	36144.85
702.724	36126.32
703.069	36107.79
703.415	35829.16
703.76	35796.16
704.105	35694.02
704.45	35572.44
704.795	35349.17
705.14	35198.89
705.485	35229.4
705.83	35209.06
706.175	35207.93
706.52	35117.54
706.865	35013.81
707.209	34972.23
707.554	34954.15
707.899	34919.35
708.243	34774.95
708.588	34719.36
708.932	34479.14
709.277	34516.65
709.621	34452.02
709.966	34198.92
710.31	34282.53
710.654	34054.97
710.998	34239.59
711.342	34065.14
711.687	33973.84
712.031	33850.68
712.375	33715.99
712.719	33817.91
713.063	33740.4
713.407	33744.01
713.75	33500.4
714.094	33542.66
714.438	33322.33
714.782	33483.46
715.125	33250.24
715.469	33327.75
715.812	33205.95
716.156	32884.6
716.499	33048.44
716.843	32957.82
717.186	32771.61
717.53	32773.64
717.873	32882.12
718.216	32853.42
718.559	32609.13
718.902	32524.16
719.246	32716.02
719.589	32434.44
719.932	32386.08
720.275	32514.22
720.617	32266.09
720.96	32187.44
721.303	32303.83
721.646	32109.03
721.989	31877.4
722.331	32061.57
722.674	31982.25
723.016	31914.91
723.359	31848.47
723.701	31839.43
724.044	31682.15
724.386	31525.32
724.729	31657.74
725.071	31402.38
725.413	31525.54
725.755	31433.11
726.097	31289.84
726.439	31251.88
726.782	31175.04
727.124	31314.02
727.465	31046.01
727.807	31045.55
728.149	30921.26
728.491	30981.83
728.833	31088.04
729.175	30931.21
729.516	30946.8
729.858	30854.15
730.199	30796.97
730.541	30791.78
730.882	30685.34
731.224	30674.72
731.565	30455.06
731.906	30560.82
732.248	30512.01
732.589	30342.07
732.93	30195.86
733.271	30265.69
733.612	30383.65
733.953	30378
734.294	29990.89
734.635	30002.42
734.976	30205.35
735.317	29992.02
735.658	29951.57
735.999	29938.01
736.339	29902.76
736.68	29957.9
737.021	29860.95
737.361	29722.65
737.702	29903.21
738.042	29750.9
738.383	29623.67
738.723	29660.73
739.063	29515.42
739.404	29629.55
739.744	29439.04
740.084	29364.92
740.424	29493.05
740.764	29395.65
741.104	29427.74
741.444	29227.52
741.784	29110.01
742.124	29149.56
742.464	29249.22
742.804	29076.34
743.143	28982.78
743.483	29045.61
743.823	28895.55
744.162	28829.79
744.502	28709.8
744.841	28596.8
745.181	28722.68
745.52	28677.71
745.86	28665.28
746.199	28557.03
746.538	28460.54
746.877	28562.68
747.216	28551.16
747.556	28280.65
747.895	28367.88
748.234	28141
748.573	28283.82
748.911	28205.4
749.25	28127.44
749.589	28022.81
749.928	28225.06
750.267	28158.4
750.605	27981
750.944	27955.47
751.283	27802.48
751.621	27897.16
751.96	27714.79
752.298	27757.73
752.636	27671.86
752.975	27613.55
753.313	27508.92
753.651	27619.2
