Data from red_cardboard_box_FLMS001491_00099.txt Node
Date: Wed Feb 08 11:33:26 GMT 2017
User: dcchb
Spectrometer: FLMS00149
Trigger mode: 0
Integration Time (sec): 2.000000E-2
Scans to average: 10
Electric dark correction enabled: true
Nonlinearity correction enabled: false
Boxcar width: 0
XAxis mode: Wavelengths
Number of Pixels in Spectrum: 2048
>>>>>Begin Spectral Data<<<<<
341.393	-2.23
341.776	-2.23
342.16	-2.23
342.543	-43.81
342.927	-61.67
343.31	-78.84
343.693	-85.17
344.077	-55.56
344.46	-62.34
344.843	-47.2
345.226	-26.86
345.61	-35.68
345.993	-5.17
346.376	-21.89
346.759	4.77
347.142	42.06
347.525	27.6
347.908	65.79
348.291	79.12
348.674	95.62
349.057	103.75
349.44	146.69
349.823	148.27
350.206	171.55
350.588	170.65
350.971	201.6
351.354	240.7
351.737	232.79
352.119	247.93
352.502	260.13
352.884	284.09
353.267	280.25
353.65	300.81
354.032	300.13
354.414	313.69
354.797	304.2
355.179	334.71
355.562	311.66
355.944	325.67
356.326	349.4
356.709	332.22
357.091	366.35
357.473	342.62
357.855	359.11
358.238	336.52
358.62	371.09
359.002	341.71
359.384	349.4
359.766	330.87
360.148	355.5
360.53	360.02
360.912	340.36
361.294	351.43
361.676	352.34
362.057	340.81
362.439	346.46
362.821	338.1
363.203	333.8
363.584	358.21
363.966	340.58
364.348	332.45
364.729	324.31
365.111	343.3
365.493	326.35
365.874	324.99
366.256	301.26
366.637	323.64
367.019	299.23
367.4	324.77
367.781	311.66
368.163	316.4
368.544	296.29
368.925	333.8
369.306	313.24
369.688	325.9
370.069	336.74
370.45	320.02
370.831	321.83
371.212	292.68
371.593	329.29
371.974	301.49
372.355	300.36
372.736	302.85
373.117	300.59
373.498	312.34
373.879	337.87
374.26	319.34
374.641	339.91
375.021	323.18
375.402	321.83
375.783	325.9
376.163	320.7
376.544	327.25
376.925	336.29
377.305	336.74
377.686	324.54
378.066	320.25
378.447	324.31
378.827	343.07
379.208	327.7
379.588	332.45
379.968	327.03
380.349	332.22
380.729	321.38
381.109	342.84
381.489	353.47
381.87	333.8
382.25	341.94
382.63	350.53
383.01	338.55
383.39	349.17
383.77	360.92
384.15	323.18
384.53	356.4
384.91	369.74
385.29	345.33
385.67	335.16
386.049	357.08
386.429	354.6
386.809	368.61
387.189	372.9
387.568	368.61
387.948	365.67
388.328	357.31
388.707	355.27
389.087	347.82
389.466	376.06
389.846	367.02
390.225	357.76
390.605	353.01
390.984	379
391.363	343.75
391.743	353.01
392.122	362.05
392.501	376.06
392.881	364.76
393.26	392.56
393.639	375.16
394.018	390.98
394.397	376.97
394.776	373.13
395.155	367.93
395.534	389.17
395.913	374.71
396.292	401.15
396.671	378.55
397.05	389.85
397.429	384.42
397.808	371.32
398.186	374.26
398.565	367.48
398.944	397.76
399.323	392.11
399.701	380.58
400.08	384.2
400.458	397.08
400.837	390.75
401.215	387.36
401.594	385.33
401.972	388.27
402.351	392.33
402.729	397.53
403.107	382.17
403.486	389.17
403.864	428.49
404.242	410.64
404.62	413.8
404.999	403.86
405.377	416.97
405.755	415.84
406.133	412.67
406.511	403.41
406.889	418.32
407.267	430.07
407.645	416.97
408.023	440.69
408.401	424.42
408.779	442.05
409.156	419.23
409.534	433.92
409.912	451.54
410.29	435.05
410.667	410.41
411.045	420.36
411.422	456.29
411.8	439.34
412.178	444.54
412.555	447.47
412.933	446.8
413.31	463.52
413.687	455.61
414.065	462.61
414.442	454.93
414.819	476.4
415.197	485.67
415.574	466.68
415.951	470.52
416.328	489.73
416.705	488.83
417.082	467.13
417.46	472.11
417.837	489.05
418.214	500.81
418.591	485.89
418.967	520.69
419.344	487.25
419.721	487.7
420.098	524.31
420.475	490.18
420.852	486.57
421.228	525.89
421.605	519.79
421.982	514.37
422.358	534.7
422.735	531.99
423.111	534.25
423.488	530.18
423.864	543.29
424.241	542.39
424.617	526.57
424.994	501.71
425.37	542.16
425.746	541.93
426.123	561.14
426.499	534.93
426.875	538.55
427.251	540.13
427.627	543.29
428.003	560.47
428.379	567.7
428.756	567.02
429.132	553.01
429.507	593.23
429.883	599.11
430.259	578.77
430.635	581.03
431.011	580.8
431.387	593.01
431.763	596.62
432.138	597.07
432.514	607.92
432.89	628.26
433.265	595.72
433.641	615.38
434.016	643.18
434.392	641.14
434.767	644.53
435.143	643.4
435.518	626.23
435.894	630.29
436.269	650.18
436.644	652.21
437.02	667.81
437.395	635.27
437.77	646.11
438.145	673.46
438.52	667.13
438.895	690.18
439.271	688.15
439.646	687.24
440.021	704.87
440.395	704.64
440.77	704.19
441.145	690.18
441.52	712.78
441.895	707.58
442.27	722.27
442.645	725.21
443.019	722.5
443.394	712.1
443.769	722.27
444.143	724.75
444.518	705.09
444.892	719.78
445.267	728.6
445.641	726.79
446.016	736.96
446.39	733.79
446.764	730.18
447.139	755.04
447.513	749.61
447.887	759.1
448.262	760.46
448.636	739.22
449.01	772.21
449.384	767.69
449.758	773.79
450.132	783.96
450.506	780.57
450.88	783.51
451.254	774.7
451.628	785.32
452.002	794.36
452.376	805.88
452.75	806.56
453.123	813.79
453.497	817.86
453.871	832.1
454.244	837.52
454.618	831.87
454.992	857.63
455.365	837.52
455.739	857.86
456.112	870.51
456.486	873.23
456.859	887.24
457.232	868.71
457.606	883.17
457.979	919.1
458.352	906.22
458.725	925.88
459.099	913.68
459.472	924.07
459.845	922.26
460.218	927.91
460.591	966.78
460.964	960.91
461.337	951.87
461.71	990.51
462.083	984.64
462.456	973.79
462.829	949.61
463.201	1012.66
463.574	996.61
463.947	1038.42
464.32	1006.78
464.692	1026.89
465.065	1025.99
465.438	1057.63
465.81	1054.46
466.183	1044.29
466.555	1071.64
466.928	1070.06
467.3	1049.04
467.672	1095.37
468.045	1131.75
468.417	1133.33
468.789	1103.95
469.161	1092.2
469.534	1152.99
469.906	1166.33
470.278	1160
470.65	1206.1
471.022	1189.83
471.394	1220.79
471.766	1214.69
472.138	1204.74
472.51	1286.77
472.882	1293.1
473.253	1261.69
473.625	1284.29
473.997	1329.26
474.369	1305.98
474.74	1317.96
475.112	1338.98
475.484	1360.67
475.855	1393.66
476.227	1388.69
476.598	1417.17
476.97	1419.65
477.341	1472.31
477.713	1490.84
478.084	1477.05
478.455	1490.16
478.827	1512.08
479.198	1551.63
479.569	1569.93
479.94	1583.26
480.311	1591.85
480.682	1618.06
481.053	1657.61
481.424	1691.28
481.795	1700.1
482.166	1740.55
482.537	1711.62
482.908	1771.51
483.279	1767.89
483.65	1815.57
484.021	1863.26
484.391	1856.25
484.762	1877.49
485.133	1882.24
485.503	1884.72
485.874	1963.37
486.244	1961.56
486.615	1975.8
486.985	1984.16
487.356	2030.26
487.726	2037.26
488.097	2068.45
488.467	2101.22
488.837	2130.37
489.207	2145.28
489.578	2146.41
489.948	2238.84
490.318	2228.44
490.688	2247.65
491.058	2267.09
491.428	2282.23
491.798	2315
492.168	2396.35
492.538	2382.56
492.908	2393.19
493.278	2412.62
493.648	2442
494.017	2443.81
494.387	2468.89
494.757	2492.39
495.126	2543.24
495.496	2493.97
495.866	2536.01
496.235	2583.69
496.605	2569.45
496.974	2606.51
497.344	2639.96
497.713	2637.25
498.082	2668.88
498.452	2685.61
498.821	2712.73
499.19	2688.09
499.559	2766.51
499.928	2750.69
500.298	2748.43
500.667	2831.59
501.036	2794.98
501.405	2845.15
501.774	2822.33
502.143	2827.98
502.512	2923.57
502.88	2924.92
503.249	2940.52
503.618	2948.43
503.987	2984.13
504.356	2982.77
504.724	2989.33
505.093	3027.75
505.462	3018.48
505.83	3041.76
506.199	3067.97
506.567	3091.92
506.936	3100.51
507.304	3134.64
507.672	3117.23
508.041	3162.88
508.409	3205.59
508.777	3217.57
509.145	3244.24
509.514	3270.45
509.882	3242.65
510.25	3321.07
510.618	3353.39
510.986	3340.96
511.354	3373.05
511.722	3413.72
512.09	3405.59
512.458	3412.59
512.826	3454.17
513.193	3486.26
513.561	3496.43
513.929	3514.06
514.297	3537.56
514.664	3550.9
515.032	3613.49
515.4	3642.64
515.767	3662.76
516.135	3670.44
516.502	3685.81
516.869	3739.59
517.237	3799.7
517.604	3762.42
517.972	3793.15
518.339	3838.57
518.706	3839.7
519.073	3886.25
519.44	3889.19
519.808	3916.08
520.175	3951.56
520.542	4006.48
520.909	3992.47
521.276	4022.75
521.643	4036.76
522.009	4111.78
522.376	4129.41
522.743	4193.14
523.11	4212.35
523.477	4260.03
523.843	4273.59
524.21	4295.06
524.577	4330.99
524.943	4372.79
525.31	4376.41
525.676	4424.09
526.043	4446.24
526.409	4457.76
526.776	4518.78
527.142	4504.77
527.508	4568.5
527.874	4605.56
528.241	4621.6
528.607	4634.71
528.973	4684.65
529.339	4718.32
529.705	4759.68
530.071	4783.63
530.437	4843.74
530.803	4829.73
531.169	4915.38
531.535	4875.83
531.901	4905.66
532.267	4907.92
532.632	4989.73
532.998	4978.2
533.364	5026.34
533.73	5092.78
534.095	5093
534.461	5064.75
534.826	5164.86
535.192	5213.68
535.557	5238.31
535.923	5237.4
536.288	5269.72
536.653	5272.88
537.019	5335.48
537.384	5312.88
537.749	5347.01
538.114	5360.34
538.479	5376.84
538.845	5427.23
539.21	5432.43
539.575	5424.07
539.94	5487.34
540.305	5489.38
540.67	5507.68
541.034	5553.55
541.399	5578.64
541.764	5596.72
542.129	5657.73
542.494	5646.43
542.858	5681.91
543.223	5767.11
543.587	5709.26
543.952	5721.23
544.316	5784.28
544.681	5791.74
545.045	5788.35
545.41	5858.63
545.774	5887.33
546.138	5898.63
546.503	5932.3
546.867	5938.63
547.231	5991.96
547.595	6063.82
547.959	6093.43
548.324	6102.01
548.688	6092.52
549.052	6119.42
549.416	6175.46
549.779	6187.89
550.143	6184.5
550.507	6257.94
550.871	6347.66
551.235	6321.22
551.599	6406.19
551.962	6415.68
552.326	6447.77
552.689	6445.73
553.053	6489.12
553.417	6490.48
553.78	6635.56
554.143	6617.71
554.507	6654.32
554.87	6753.97
555.234	6800.08
555.597	6729.34
555.96	6795.56
556.323	6903.12
556.686	6884.14
557.05	6962.33
557.413	7008.43
557.776	7054.76
558.139	7059.28
558.502	7114.64
558.865	7150.35
559.228	7187.86
559.59	7261.31
559.953	7351.02
560.316	7381.53
560.679	7417.46
561.041	7463.56
561.404	7629.43
561.767	7691.13
562.129	7676.44
562.492	7776.32
562.854	7816.77
563.217	7813.83
563.579	7829.88
563.941	7979.03
564.304	8040.95
564.666	8098.12
565.028	8220.38
565.39	8212.24
565.753	8378.34
566.115	8339.92
566.477	8461.73
566.839	8517.09
567.201	8612.01
567.563	8646.81
567.925	8741.04
568.287	8829.85
568.648	8929.28
569.01	9020.36
569.372	9103.29
569.734	9072.56
570.095	9244.98
570.457	9346.22
570.819	9370.63
571.18	9435.71
571.542	9531.76
571.903	9641.81
572.265	9771.75
572.626	9774.01
572.987	9846.1
573.349	9962.7
573.71	10067.11
574.071	10133.32
574.432	10344.16
574.794	10411.96
575.155	10504.16
575.516	10451.05
575.877	10669.35
576.238	10748.22
576.599	10900.98
576.96	10973.75
577.32	11093.52
577.681	11202.45
578.042	11356.57
578.403	11398.82
578.763	11564.7
579.124	11620.06
579.485	11842.2
579.845	11957.68
580.206	12069.54
580.566	12203.55
580.927	12385.24
581.287	12545.46
581.648	12697.77
582.008	12965.34
582.368	13124.65
582.728	13276.06
583.089	13410.07
583.449	13534.81
583.809	13735.94
584.169	13991.07
584.529	14178.86
584.889	14462.25
585.249	14505.86
585.609	14726.87
585.969	15059.97
586.329	15267.2
586.688	15419.51
587.048	15722.55
587.408	15891.14
587.768	16144.01
588.127	16388.98
588.487	16672.81
588.846	17160.71
589.206	17243.42
589.565	17482.28
589.925	17899.44
590.284	18164.3
590.643	18466.66
591.003	18867.78
591.362	19242.69
591.721	19449.23
592.08	19816.23
592.44	20209.67
592.799	20604.23
593.158	20781.85
593.517	21262.07
593.876	21584.77
594.235	21859.57
594.593	22250.06
594.952	22778.19
595.311	23125.52
595.67	23472.41
596.029	24013.18
596.387	24472.38
596.746	24885.02
597.104	25088.41
597.463	25501.28
597.822	25878.44
598.18	26254.03
598.538	26609.5
598.897	27117.28
599.255	27341.23
599.613	28105.96
599.972	28400.86
600.33	28923.34
600.688	29225.25
601.046	29605.35
601.404	30307.25
601.762	30541.37
602.12	31109.49
602.478	31461.35
602.836	32011.16
603.194	32063.82
603.552	32668.77
603.91	32967.97
604.268	33522.76
604.625	33760.27
604.983	34208.39
605.341	34498.78
605.698	35030.97
606.056	35528.13
606.413	35851.74
606.771	36211.51
607.128	36616.69
607.485	36728.55
607.843	37133.06
608.2	37684.24
608.557	38049.42
608.914	38168.06
609.272	38652.12
609.629	39029.51
609.986	39339.11
610.343	39450.97
610.7	40033.33
611.057	40207.56
611.414	40476.48
611.771	40854.1
612.127	41148.78
612.484	41406.4
612.841	41770.46
613.198	41769.55
613.554	42117.11
613.911	42402.98
614.267	42585.35
614.624	42965.68
614.98	43174.26
615.337	43405.44
615.693	43607.47
616.05	43681.59
616.406	44217.4
616.762	44152.09
617.118	44339.88
617.475	44502.59
617.831	44764.05
618.187	45123.59
618.543	45218.73
618.899	45665.49
619.255	45696.45
619.611	45783.23
619.967	46056.44
620.323	46259.38
620.678	46235.42
621.034	46293.27
621.39	46465.93
621.746	46516.55
622.101	47091.22
622.457	46738.46
622.812	46923.31
623.168	47144.78
623.523	47207.37
623.879	47398.78
624.234	47221.16
624.589	47536.86
624.945	47501.38
625.3	47710.86
625.655	47676.06
626.01	47865.44
626.365	47927.58
626.72	47961.48
627.075	48106.11
627.43	48176.39
627.785	48105.88
628.14	48273.79
628.495	48450.05
628.85	48434.46
629.205	48270.85
629.559	48634.68
629.914	48535.93
630.269	48637.39
630.623	48539.32
630.978	48447.34
631.332	48786.32
631.687	48953.32
632.041	48790.16
632.396	48845.75
632.75	48776.15
633.104	48840.55
633.459	48799.65
633.813	48670.61
634.167	48925.97
634.521	48867.67
634.875	48998.74
635.229	48902.92
635.583	48778.63
635.937	48858.4
636.291	48804.39
636.645	48886.88
636.999	48746.09
637.352	48974.33
637.706	48752.87
638.06	48948.35
638.413	48824.06
638.767	48853.88
639.121	48964.39
639.474	48753.1
639.828	48862.7
640.181	48907.44
640.534	49029.7
640.888	48803.94
641.241	48737.73
641.594	48892.98
641.947	48954.22
642.301	48794.45
642.654	48832.64
643.007	48873.32
643.36	48943.37
643.713	48846.88
644.066	48901.34
644.419	48727.56
644.771	48455.48
645.124	48053.45
645.477	48147.69
645.83	47914.02
646.182	47817.75
646.535	47689.4
646.888	47875.15
647.24	47668.83
647.593	47878.77
647.945	47879
648.298	47620.02
648.65	47687.36
649.002	47624.31
649.355	47697.08
649.707	47579.57
650.059	47817.75
650.411	48184.3
650.763	48300.68
651.115	48641.69
651.467	48576.6
651.819	48703.38
652.171	48560.79
652.523	48409.15
652.875	48541.58
653.227	48348.14
653.578	48655.47
653.93	48550.84
654.282	48396.95
654.633	48356.72
654.985	48450.51
655.337	48434.91
655.688	48448.25
656.039	48578.64
656.391	48237.63
656.742	48405.76
657.094	48300
657.445	48478.98
657.796	48254.58
658.147	48351.75
658.498	48328.93
658.849	48349.04
659.2	48078.76
659.551	48250.51
659.902	48215.71
660.253	48394.46
660.604	48401.92
660.955	48153.11
661.306	48328.7
661.656	48168.48
662.007	48300.68
662.358	48247.8
662.708	48270.4
663.059	48248.25
663.409	48027.47
663.76	48368.25
664.11	48275.6
664.461	48334.58
664.811	48289.15
665.161	48423.61
665.511	48218.65
665.862	48297.74
666.212	48311.07
666.562	48398.76
666.912	48357.17
667.262	48155.82
667.612	48231.08
667.962	48196.05
668.312	48159.21
668.662	48432.88
669.011	48270.62
669.361	48267.01
669.711	48186.11
670.06	48232.88
670.41	48109.27
670.76	47977.07
671.109	48063.62
671.459	48120.12
671.808	48126.9
672.157	48121.93
672.507	47850.97
672.856	47999.9
673.205	48042.83
673.554	47939.56
673.904	47921.03
674.253	48183.39
674.602	47851.65
674.951	47580.47
675.3	47331.67
675.649	47867.92
675.998	47735.04
676.346	47883.74
676.695	48067.01
677.044	47725.1
677.393	47931.42
677.741	47884.64
678.09	47756.51
678.438	47675.84
678.787	47628.38
679.135	47763.74
679.484	47489.63
679.832	47544.99
680.181	47334.6
680.529	47561.26
680.877	47461.83
681.225	47314.94
681.573	47630.64
681.922	47153.59
682.27	47091.9
682.618	47330.54
682.966	47116.3
683.314	47083.54
683.661	47131.9
684.009	46833.37
684.357	46756.54
684.705	46761.28
685.053	46837.89
685.4	46777.78
685.748	46644.9
686.095	46514.74
686.443	46452.59
686.79	46397
687.138	46580.95
687.485	46452.37
687.832	46277.91
688.18	46260.28
688.527	46076.56
688.874	46118.82
689.221	46065.48
689.568	45849.67
689.915	45942.55
690.262	45877.24
690.609	45848.54
690.956	45529
691.303	45489.68
691.65	45397.7
691.997	45446.74
692.344	45085.4
692.69	45158.16
693.037	45242.68
693.383	44884.95
693.73	45041.56
694.077	44730.83
694.423	44868.68
694.769	44630.04
695.116	44571.74
695.462	44434.79
695.808	44338.07
696.155	44330.84
696.501	44170.17
696.847	44199.54
697.193	43829.38
697.539	43867.8
697.885	43607.7
698.231	43774.02
698.577	43573.12
698.923	43498.77
699.269	43242.06
699.614	43125.22
699.96	43061.72
700.306	43127.48
700.651	42912.12
700.997	42841.16
701.342	42744.22
701.688	42612.47
702.033	42608.17
702.379	42543.77
702.724	42320.72
703.069	42377.22
703.415	41871.47
703.76	42042.76
704.105	42001.41
704.45	41904.24
704.795	41687.75
705.14	41722.32
705.485	41544.47
705.83	41418.83
706.175	41553.74
706.52	41445.72
706.865	41279.85
707.209	41266.74
707.554	41146.52
707.899	41199.62
708.243	40927.54
708.588	40947.2
708.932	40716.25
709.277	40618.62
709.621	40515.8
709.966	40236.03
710.31	40388.34
710.654	39941.58
710.998	40195.81
711.342	40313.09
711.687	40173.21
712.031	39916.04
712.375	39911.07
712.719	39871.3
713.063	40004.4
713.407	39729.61
713.75	39569.61
714.094	39706.33
714.438	39475.37
714.782	39525.77
715.125	39344.08
715.469	39361.48
715.812	39161.26
716.156	39014.14
716.499	38964.2
716.843	39056.85
717.186	38853.02
717.53	39045.56
717.873	38939.8
718.216	38690.31
718.559	38645.34
718.902	38405.12
719.246	38571.9
719.589	38436.08
719.932	38407.38
720.275	38248.51
720.617	38279.02
720.96	38104.56
721.303	38096.88
721.646	38188.18
721.989	37818.92
722.331	38123.77
722.674	37893.5
723.016	37998.13
723.359	37878.13
723.701	37868.86
724.044	37653.28
724.386	37423.68
724.729	37654.41
725.071	37411.47
725.413	37470.68
725.755	37459.83
726.097	37319.05
726.439	37253.29
726.782	37084.7
727.124	37331.93
727.465	37013.29
727.807	37035.21
728.149	36998.6
728.491	37002.9
728.833	37038.38
729.175	36831.15
729.516	36828.89
729.858	36726.97
730.199	36856.46
730.541	36687.65
730.882	36553.42
731.224	36694.88
731.565	36479.52
731.906	36401.11
732.248	36507.32
732.589	36351.61
732.93	36263.93
733.271	36292.18
733.612	36195.01
733.953	36252.18
734.294	36021.68
734.635	36014.22
734.976	36204.27
735.317	35888.58
735.658	35873.66
735.999	36028.91
736.339	35866.66
736.68	35994.34
737.021	35954.79
737.361	35742.37
737.702	35789.82
738.042	35580.34
738.383	35531.3
738.723	35626.89
739.063	35574.91
739.404	35626.66
739.744	35424.63
740.084	35284.98
740.424	35389.15
740.764	35299.44
741.104	35341.7
741.444	35186.9
741.784	35089.5
742.124	35270.06
742.464	35011.09
742.804	35073.68
743.143	35027.81
743.483	35049.95
743.823	34847.25
744.162	34691.09
744.502	34914.82
744.841	34783.29
745.181	34935.38
745.52	34580.14
745.86	34689.29
746.199	34581.04
746.538	34561.83
746.877	34666.24
747.216	34675.95
747.556	34609.97
747.895	34545.79
748.234	34333.59
748.573	34225.79
748.911	34180.15
749.25	34209.98
749.589	34092.01
749.928	34136.98
750.267	34016.31
750.605	33982.41
750.944	33997.33
751.283	33807.5
751.621	33860.38
751.96	33654.74
752.298	33685.7
752.636	33644.12
752.975	33554.17
753.313	33396.66
753.651	33567.96
753.989	33319.15
754.327	33299.49
754.666	33082.55
755.004	33123.45
755.342	33132.94
755.679	33243.22
756.017	32899.95
756.355	32974.53
756.693	32830.58
757.031	32864.7
757.368	32758.71
757.706	32691.82
758.044	32680.98
758.381	32555.1
758.719	32395.56
759.056	32489.12
759.394	32306.52
759.731	32207.32
760.068	32049.58
760.405	31881
