Data from red_shiny_book_FLMS001491_00040.txt Node
Date: Wed Feb 08 15:24:47 GMT 2017
User: dcchb
Spectrometer: FLMS00149
Trigger mode: 0
Integration Time (sec): 2.000000E-2
Scans to average: 10
Electric dark correction enabled: true
Nonlinearity correction enabled: false
Boxcar width: 0
XAxis mode: Wavelengths
Number of Pixels in Spectrum: 2048
>>>>>Begin Spectral Data<<<<<
341.393	-8.29
341.776	-8.29
342.16	-8.29
342.543	-46.71
342.927	-58.68
343.31	-69.76
343.693	-65.69
344.077	-86.03
344.46	-62.98
344.843	-43.77
345.226	-32.7
345.61	-41.96
345.993	-23.43
346.376	-16.43
346.759	6.62
347.142	51.14
347.525	31.93
347.908	71.71
348.291	85.27
348.674	105.15
349.057	90.92
349.44	119.62
349.823	147.19
350.206	178.37
350.588	189.67
350.971	215.88
351.354	220.86
351.737	236.22
352.119	243.45
352.502	259.05
352.884	266.05
353.267	296.11
353.65	304.47
354.032	306.96
354.414	308.54
354.797	321.19
355.179	309.67
355.562	312.6
355.944	316.22
356.326	323
356.709	348.99
357.091	352.83
357.473	348.08
357.855	337.91
358.238	338.37
358.62	334.07
359.002	365.48
359.384	365.94
359.766	334.3
360.148	346.95
360.53	336.56
360.912	336.33
361.294	355.99
361.676	334.53
362.057	334.07
362.439	315.09
362.821	305.15
363.203	332.04
363.584	335.2
363.966	314.86
364.348	330.68
364.729	336.33
365.111	325.94
365.493	336.56
365.874	335.88
366.256	309.67
366.637	320.29
367.019	312.6
367.4	327.52
367.781	321.64
368.163	311.47
368.544	308.54
368.925	315.77
369.306	339.04
369.688	323
370.069	325.03
370.45	296.33
370.831	315.54
371.212	316.22
371.593	311.93
371.974	324.58
372.355	326.39
372.736	301.31
373.117	324.13
373.498	311.93
373.879	321.19
374.26	313.06
374.641	328.42
375.021	308.99
375.402	332.72
375.783	334.98
376.163	326.16
376.544	316.45
376.925	338.82
377.305	338.82
377.686	333.85
378.066	310.34
378.447	347.18
378.827	344.02
379.208	338.59
379.588	338.14
379.968	323.23
380.349	345.15
380.729	332.27
381.109	340.4
381.489	356.45
381.87	332.49
382.25	341.98
382.63	347.63
383.01	335.88
383.39	342.89
383.77	335.43
384.15	343.11
384.53	364.58
384.91	377.69
385.29	356.67
385.67	354.64
386.049	381.08
386.429	362.32
386.809	350.8
387.189	349.89
387.568	356.67
387.948	349.67
388.328	372.26
388.707	365.71
389.087	361.42
389.466	364.13
389.846	358.71
390.225	358.93
390.605	362.55
390.984	377.01
391.363	395.09
391.743	365.48
392.122	370.46
392.501	362.32
392.881	391.25
393.26	383.79
393.639	386.73
394.018	385.37
394.397	391.92
394.776	394.18
395.155	390.12
395.534	369.1
395.913	385.15
396.292	380.17
396.671	378.37
397.05	386.28
397.429	398.03
397.808	384.92
398.186	411.81
398.565	398.25
398.944	387.86
399.323	372.94
399.701	398.03
400.08	383.34
400.458	361.64
400.837	408.2
401.215	401.19
401.594	416.33
401.972	394.86
402.351	413.39
402.729	394.86
403.107	410.46
403.486	395.09
403.864	407.74
404.242	407.07
404.62	404.81
404.999	404.58
405.377	429.44
405.755	424.92
406.133	403.22
406.511	431.25
406.889	437.12
407.267	454.75
407.645	413.39
408.023	420.85
408.401	435.09
408.779	434.18
409.156	427.63
409.534	447.52
409.912	450
410.29	469.21
410.667	483
411.045	457.91
411.422	464.24
411.8	475.99
412.178	460.17
412.555	490
412.933	486.84
413.31	465.82
413.687	487.29
414.065	480.06
414.442	524.58
414.819	500.62
415.197	509.21
415.574	521.41
415.951	518.48
416.328	516.44
416.705	519.83
417.082	510.57
417.46	517.8
417.837	508.08
418.214	550.79
418.591	512.37
418.967	548.76
419.344	529.32
419.721	530
420.098	539.72
420.475	544.92
420.852	549.89
421.228	536.33
421.605	550.11
421.982	550.34
422.358	566.61
422.735	561.19
423.111	579.49
423.488	572.71
423.864	571.58
424.241	598.02
424.617	582.88
424.994	587.63
425.37	599.83
425.746	585.14
426.123	593.28
426.499	609.09
426.875	595.99
427.251	599.15
427.627	625.14
428.003	613.61
428.379	615.42
428.756	614.74
429.132	626.72
429.507	626.04
429.883	613.84
430.259	663.78
430.635	625.82
431.011	649.09
431.387	666.27
431.763	676.21
432.138	655.65
432.514	655.65
432.89	674.4
433.265	680.73
433.641	707.17
434.016	696.78
434.392	726.83
434.767	715.53
435.143	709.43
435.518	735.64
435.894	724.57
436.269	719.83
436.644	714.4
437.02	725.25
437.395	729.32
437.77	735.87
438.145	753.72
438.52	773.61
438.895	754.4
439.271	751.01
439.646	782.87
440.021	759.37
440.395	771.12
440.77	751.24
441.145	775.87
441.52	788.3
441.895	788.98
442.27	798.69
442.645	798.92
443.019	805.02
443.394	794.4
443.769	819.48
444.143	818.35
444.518	835.98
444.892	823.33
445.267	835.3
445.641	799.37
446.016	826.72
446.39	810.67
446.764	803.89
447.139	811.57
447.513	806.15
447.887	845.25
448.262	840.05
448.636	818.13
449.01	858.58
449.384	849.31
449.758	835.53
450.132	825.81
450.506	858.35
450.88	869.65
451.254	849.77
451.628	865.58
452.002	835.75
452.376	871.01
452.75	871.69
453.123	885.02
453.497	881.86
453.871	908.3
454.244	909.88
454.618	914.4
454.992	924.11
455.365	918.46
455.739	934.51
456.112	926.15
456.486	924.11
456.859	966.82
457.232	941.97
457.606	959.59
457.979	964.11
458.352	970.89
458.725	981.06
459.099	945.13
459.472	989.65
459.845	966.15
460.218	967.95
460.591	987.39
460.964	979.03
461.337	1007.73
461.71	1000.95
462.083	1053.83
462.456	1005.47
462.829	1029.87
463.201	1038.91
463.574	1026.26
463.947	1025.58
464.32	1056.77
464.692	1060.38
465.065	1039.59
465.438	1075.97
465.81	1049.53
466.183	1067.39
466.555	1110.32
466.928	1120.95
467.3	1086.37
467.672	1098.35
468.045	1159.14
468.417	1133.6
468.789	1127.95
469.161	1129.08
469.534	1141.51
469.906	1151.9
470.278	1162.07
470.65	1153.26
471.022	1183.54
471.394	1209.76
471.766	1223.32
472.138	1203.65
472.51	1242.07
472.882	1272.81
473.253	1288.85
473.625	1271.9
473.997	1294.27
474.369	1308.96
474.74	1306.02
475.112	1324.1
475.484	1346.7
475.855	1343.31
476.227	1330.21
476.598	1355.97
476.97	1388.51
477.341	1415.63
477.713	1437.32
478.084	1441.16
478.455	1490.43
478.827	1501.27
479.198	1542.4
479.569	1551.67
479.94	1555.96
480.311	1574.27
480.682	1588.28
481.053	1623.53
481.424	1585.57
481.795	1609.75
482.166	1661.5
482.537	1682.74
482.908	1733.36
483.279	1740.36
483.65	1769.52
484.021	1823.3
484.391	1809.29
484.762	1830.08
485.133	1874.15
485.503	1876.41
485.874	1902.17
486.244	1919.57
486.615	1927.7
486.985	1923.18
487.356	1946.91
487.726	1952.56
488.097	2014.25
488.467	2025.78
488.837	2094.25
489.207	2134.7
489.578	2158.88
489.948	2184.42
490.318	2231.65
490.688	2243.85
491.058	2249.05
491.428	2265.32
491.798	2287.24
492.168	2292.67
492.538	2274.36
492.908	2303.06
493.278	2320.01
493.648	2324.53
494.017	2380.57
494.387	2373.79
494.757	2432.55
495.126	2485.43
495.496	2491.76
495.866	2546.67
496.235	2583.96
496.605	2550.06
496.974	2590.74
497.344	2576.27
497.713	2566.33
498.082	2615.6
498.452	2588.93
498.821	2566.56
499.19	2605.43
499.559	2643.16
499.928	2653.79
500.298	2705.54
500.667	2702.6
501.036	2725.2
501.405	2752.09
501.774	2786.21
502.143	2808.13
502.512	2798.42
502.88	2776.27
503.249	2806.55
503.618	2791.18
503.987	2785.08
504.356	2806.1
504.724	2733.33
505.093	2803.16
505.462	2784.86
505.83	2800.22
506.199	2831.86
506.567	2906.89
506.936	2897.17
507.304	2936.49
507.672	2967.45
508.041	2979.65
508.409	2999.31
508.777	2992.08
509.145	2987.34
509.514	2971.07
509.882	2975.13
510.25	2927.45
510.618	2947.79
510.986	2933.55
511.354	2936.49
511.722	2918.64
512.09	2936.49
512.458	2976.94
512.826	3011.29
513.193	3028.47
513.561	3074.11
513.929	3098.07
514.297	3128.12
514.664	3105.3
515.032	3135.36
515.4	3163.83
515.767	3137.84
516.135	3105.53
516.502	3076.83
516.869	3060.33
517.237	3069.59
517.604	3026.43
517.972	3050.84
518.339	3082.02
518.706	3096.94
519.073	3125.64
519.44	3197.05
519.808	3195.47
520.175	3221.68
520.542	3223.94
520.909	3222.36
521.276	3291.74
521.643	3297.84
522.009	3247.22
522.376	3269.59
522.743	3274.33
523.11	3226.2
523.477	3241.34
523.843	3239.99
524.21	3231.4
524.577	3242.02
524.943	3272.3
525.31	3341
525.676	3368.57
526.043	3415.8
526.409	3476.14
526.776	3542.35
527.142	3539.41
527.508	3557.04
527.874	3624.16
528.241	3627.09
528.607	3592.74
528.973	3554.33
529.339	3531.05
529.705	3561.56
530.071	3569.92
530.437	3563.59
530.803	3540.99
531.169	3571.95
531.535	3595
531.901	3647.66
532.267	3692.18
532.632	3748.67
532.998	3813.76
533.364	3874.32
533.73	3913.41
534.095	3945.73
534.461	3985.73
534.826	4005.84
535.192	4046.07
535.557	4038.61
535.923	4006.52
536.288	3977.59
536.653	3992.06
537.019	3968.33
537.384	3938.95
537.749	3957.25
538.114	4015.78
538.479	3955.9
538.845	4037.48
539.21	4041.55
539.575	4170.36
539.94	4182.79
540.305	4274.08
540.67	4331.48
541.034	4341.65
541.399	4422.33
541.764	4396.79
542.129	4414.19
542.494	4419.39
542.858	4402.21
543.223	4363.57
543.587	4354.53
543.952	4290.13
544.316	4293.29
544.681	4320.63
545.045	4341.65
545.41	4336.68
545.774	4425.94
546.138	4459.84
546.503	4507.97
546.867	4524.25
547.231	4600.4
547.595	4615.54
547.959	4688.76
548.324	4718.14
548.688	4735.31
549.052	4733.51
549.416	4706.61
549.779	4691.92
550.143	4667.07
550.507	4690.12
550.871	4612.6
551.235	4547.07
551.599	4603.79
551.962	4547.07
552.326	4531.48
552.689	4575.54
553.053	4572.83
553.417	4594.98
553.78	4677.69
554.143	4681.08
554.507	4776.22
554.87	4765.14
555.234	4836.33
555.597	4892.37
555.96	4881.52
556.323	4930.11
556.686	4956.55
557.05	4920.85
557.413	4880.85
557.776	4823.22
558.139	4821.86
558.502	4816.67
558.865	4745.26
559.228	4757.91
559.59	4681.3
559.953	4753.62
560.316	4761.53
560.679	4806.72
561.041	4811.02
561.404	4871.81
561.767	4970.56
562.129	5025.02
562.492	5069.54
562.854	5095.53
563.217	5150.22
563.579	5158.13
563.941	5179.6
564.304	5244.23
564.666	5217.79
565.028	5183.44
565.39	5126.94
565.753	5120.61
566.115	5086.26
566.477	5008.07
566.839	4989.77
567.201	4963.1
567.563	5018.24
567.925	5030.45
568.287	5107.51
568.648	5140.73
569.01	5190.67
569.372	5250.78
569.734	5313.38
570.095	5347.73
570.457	5448.06
570.819	5524.45
571.18	5590.21
571.542	5613.71
571.903	5623.2
572.265	5582.97
572.626	5596.53
572.987	5589.08
573.349	5562.86
573.71	5564.44
574.071	5572.58
574.432	5545.01
574.794	5569.19
575.155	5613.93
575.516	5603.99
575.877	5700.03
576.238	5721.5
576.599	5852.35
576.96	5945.68
577.32	6048.05
577.681	6243.3
578.042	6353.35
578.403	6437.87
578.763	6632.89
579.124	6700.01
579.485	6940.91
579.845	7026.78
580.206	7125.98
580.566	7278.75
580.927	7342.25
581.287	7460.67
581.648	7574.33
582.008	7749.02
582.368	7920.31
582.728	8064.49
583.089	8322.11
583.449	8528.66
583.809	8718.49
584.169	9081.64
584.529	9358.02
584.889	9757.55
585.249	10045.91
585.609	10389.63
585.969	10847.47
586.329	11257.63
586.688	11644.28
587.048	12047.44
587.408	12465.05
587.768	12865.72
588.127	13245.82
588.487	13609.2
588.846	14144.56
589.206	14459.35
589.565	14790.42
589.925	15221.59
590.284	15633.78
590.643	16018.63
591.003	16440.54
591.362	16999.62
591.721	17384.7
592.08	17731.13
592.44	18307.61
592.799	18743.31
593.158	19313.91
593.517	19917.74
593.876	20503.03
594.235	20958.84
594.593	21598.82
594.952	22210.79
595.311	22663.88
595.67	23291.21
596.029	23958.76
596.387	24395.36
596.746	24983.37
597.104	25326.18
597.463	25740.86
597.822	26413.16
598.18	26647.96
598.538	27123.43
598.897	27601.83
599.255	27859.45
599.613	28625.31
599.972	28802.03
600.33	29388.9
600.688	29659.63
601.046	30245.38
601.404	30881.97
601.762	31182.08
602.12	31748.84
602.478	32244.65
602.836	32759.44
603.194	33042.37
603.552	33614.1
603.91	34062
604.268	34640.74
604.625	34810.68
604.983	35384
605.341	35655.86
605.698	36296.97
606.056	36535.16
606.413	36703.51
606.771	37146.44
607.128	37514.11
607.485	37724.05
607.843	37885.18
608.2	38326.07
608.557	38746.62
608.914	38841.54
609.272	39186.38
609.629	39521.74
609.986	39787.95
610.343	39896.65
610.7	40436.3
611.057	40772.11
611.414	41094.81
611.771	41219.55
612.127	41701.12
612.484	41918.52
612.841	42263.14
613.198	42346.75
613.554	42703.13
613.911	43052.72
614.267	43179.73
614.624	43510.79
614.98	43667.85
615.337	43981.51
615.693	43940.61
616.05	44014.73
616.406	44346.48
616.762	44279.36
617.118	44408.85
617.475	44510.31
617.831	44547.37
618.187	44735.17
618.543	44914.6
618.899	45234.59
619.255	45157.53
619.611	45122.73
619.967	45619.21
620.323	45845.19
620.678	45766.32
621.034	45854.23
621.39	45971.97
621.746	46192.53
622.101	46776.02
622.457	46494.89
622.812	46764.26
623.168	46909.35
623.523	46826.18
623.879	47157.25
624.234	46962.9
624.589	47034.31
624.945	47157.47
625.3	47302.33
625.655	47164.71
626.01	47189.56
626.365	47145.05
626.72	47034.77
627.075	47048.33
627.43	46960.64
627.785	47145.72
628.14	47155.89
628.495	47201.77
628.85	47162.45
629.205	47243.12
629.559	47462.1
629.914	47372.84
630.269	47508.2
630.623	47527.63
630.978	47435.89
631.332	47741.41
631.687	47845.59
632.041	47792.26
632.396	47864.57
632.75	47936.89
633.104	47836.78
633.459	47768.76
633.813	47698.93
634.167	47743.22
634.521	47630.46
634.875	47732.6
635.229	47645.6
635.583	47378.71
635.937	47398.37
636.291	47265.72
636.645	47281.31
636.999	47208.55
637.352	47150.7
637.706	47007.65
638.06	47182.56
638.413	47060.3
638.767	46954.32
639.121	47106.85
639.474	46908.67
639.828	46928.1
640.181	47189.34
640.534	47152.05
640.888	47129.68
641.241	47029.12
641.594	47170.36
641.947	47383.91
642.301	47222.56
642.654	47341.65
643.007	47331.03
643.36	47404.25
643.713	47259.39
644.066	47453.29
644.419	47124.71
644.771	46627.32
645.124	46267.78
645.477	46186.43
645.83	45739.43
646.182	45705.76
646.535	45549.38
646.888	45725.87
647.24	45315.49
647.593	45479.33
647.945	45404.98
648.298	45233.68
648.65	45117.3
649.002	45071.43
649.355	45164.98
649.707	45123.86
650.059	45352.78
650.411	45876.6
650.763	45976.49
651.115	46409.92
651.467	46290.6
651.819	46323.82
652.171	46353.65
652.523	46398.85
652.875	46230.49
653.227	46041.12
653.578	46390.72
653.93	46336.48
654.282	46117.73
654.633	46010.84
654.985	46080.21
655.337	46070.05
655.688	46050.16
656.039	46009.03
656.391	45701.24
656.742	45773.56
657.094	45692.2
657.445	45720
657.796	45576.73
658.147	45444.3
658.498	45481.81
658.849	45627.12
659.2	45317.07
659.551	45330.4
659.902	45520.23
660.253	45485.43
660.604	45575.82
660.955	45339.9
661.306	45609.04
661.656	45557.74
662.007	45611.53
662.358	45748.92
662.708	45737.85
663.059	45681.13
663.409	45480.23
663.76	45916.15
664.11	45919.54
664.461	45901.91
664.811	45734.69
665.161	45636.84
665.511	45615.59
665.862	45470.97
666.212	45649.72
666.562	45624.63
666.912	45410.85
667.262	45348.71
667.612	45289.73
667.962	45095.38
668.312	44924.31
668.662	45120.92
669.011	44976.06
669.361	45027.36
669.711	44855.61
670.06	44754.6
670.41	44772.68
670.76	44828.04
671.109	45085.44
671.459	44811.55
671.808	44891.55
672.157	45011.09
672.507	44910.53
672.856	44992.33
673.205	44948.04
673.554	45164.98
673.904	45064.65
674.253	45245.21
674.602	45245.21
674.951	44611.55
675.3	44511.22
675.649	45051.77
675.998	44927.93
676.346	44995.5
676.695	45034.59
677.044	44730.42
677.393	44853.35
677.741	44703.3
678.09	44626.69
678.438	44388.28
678.787	44415.4
679.135	44372.46
679.484	44214.05
679.832	44122.3
680.181	44018.57
680.529	43914.17
680.877	43913.49
681.225	43955.3
681.573	44050.66
681.922	43781.97
682.27	43654.06
682.618	43824.46
682.966	43751.91
683.314	43903.32
683.661	43748.3
684.009	43580.39
684.357	43595.53
684.705	43680.96
685.053	43847.05
685.4	43771.8
685.748	43481.41
686.095	43438.25
686.443	43441.41
686.79	43341.3
687.138	43529.32
687.485	43454.75
687.832	43242.1
688.18	43197.13
688.527	42880.07
688.874	42840.75
689.221	42707.42
689.568	42443.47
689.915	42392.63
690.262	42260.65
690.609	42029.25
690.956	41988.12
691.303	41800.1
691.65	41716.94
691.997	41668.81
692.344	41325.31
692.69	41402.6
693.037	41417.96
693.383	41171.42
693.73	41313.79
694.077	41070.86
694.423	41154.92
694.769	41034.92
695.116	41027.69
695.462	41098.65
695.808	41045.09
696.155	41089.61
696.501	40744.08
696.847	40767.36
697.193	40588.16
697.539	40866.79
697.885	40646.23
698.231	40334.83
698.577	40482.4
698.923	40385.68
699.269	40144.33
699.614	39968.74
699.96	39894.61
700.306	39843.09
700.651	39540.05
700.997	39388.41
701.342	39408.75
701.688	39255.31
702.033	39030.91
702.379	38966.05
702.724	38737.13
703.069	38797.24
703.415	38310.93
703.76	38357.25
704.105	38293.75
704.45	38236.35
704.795	38101.67
705.14	38097.6
705.485	37927.43
705.83	37880.66
706.175	37971.05
706.52	37682.7
706.865	37899.19
707.209	37633.88
707.554	37641.57
707.899	37871.62
708.243	37583.26
708.588	37541.91
708.932	37462.36
709.277	37485.41
709.621	37381.01
709.966	37161.58
710.31	37246.55
710.654	37033.45
710.998	37082.03
711.342	37087.01
711.687	36923.17
712.031	36773.12
712.375	36573.12
712.719	36625.32
713.063	36481.82
713.407	36621.71
713.75	36205.9
714.094	36144.66
714.438	36021.95
714.782	36129.52
715.125	35874.61
715.469	35880.48
715.812	35541.06
716.156	35302.19
716.499	35495.63
716.843	35479.36
717.186	35200.28
717.53	35445.01
717.873	35297.67
718.216	35358.01
718.559	35185.36
718.902	35003.22
719.246	35149.65
719.589	34953.28
719.932	34985.59
720.275	34972.48
720.617	35007.96
720.96	34980.39
721.303	35034.86
721.646	35063.33
721.989	34830.12
722.331	35001.41
722.674	34837.12
723.016	34844.58
723.359	34782.66
723.701	34820.85
724.044	34452.95
724.386	34410.92
724.729	34374.76
725.071	34327.53
725.413	34194.65
725.755	34264.71
726.097	34038.05
726.439	33754.21
726.782	33818.16
727.124	33925.51
727.465	33523.48
727.807	33561.45
728.149	33427.67
728.491	33356.03
728.833	33322.81
729.175	33175.7
729.516	33119.2
729.858	33042.14
730.199	33112.42
730.541	33042.59
730.882	33062.03
731.224	33065.64
731.565	32882.82
731.906	32988.58
732.248	33073.33
732.589	32801.02
732.93	32767.12
733.271	32906.32
733.612	32885.08
733.953	32947
734.294	32761.92
734.635	32722.15
734.976	32897.74
735.317	32684.63
735.658	32668.14
735.999	32824.52
736.339	32669.27
736.68	32785.2
737.021	32744.29
737.361	32479.89
737.702	32660.68
738.042	32501.81
738.383	32334.36
738.723	32349.5
739.063	32144.76
739.404	32153.35
739.744	31991.32
740.084	31974.6
740.424	31841.27
740.764	31782.29
741.104	31834.04
741.444	31649.18
741.784	31502.07
742.124	31449.19
742.464	31387.95
742.804	31298.46
743.143	31288.29
743.483	31260.94
743.823	31114.05
744.162	31055.75
744.502	31204.22
744.841	31132.13
745.181	31141.4
745.52	31055.53
745.86	31141.62
746.199	31118.35
746.538	31174.62
746.877	31091.23
747.216	31207.39
747.556	31094.39
747.895	31180.27
748.234	30964.68
748.573	30996.09
748.911	30952.25
749.25	30949.09
749.589	30839.94
749.928	30794.52
750.267	30827.28
750.605	30720.84
750.944	30607.85
751.283	30526.95
751.621	30602.2
751.96	30311.59
752.298	30269.78
752.636	30233.85
752.975	30080.41
753.313	29985.5
753.651	30066.4
753.989	29850.59
754.327	29623.7
754.666	29496.02
755.004	29524.27
755.342	29438.62
755.679	29347.32
756.017	29159.53
756.355	29240.88
756.693	29150.49
757.031	29102.58
757.368	28860.1
757.706	28996.37
758.044	28747.34
758.381	28804.96
758.719	28703.95
759.056	28654.23
759.394	28808.35
759.731	28612.43
760.068	28472.77
760.405	28487.46
760.743	28429.83
