Data from red_cardboard_box_FLMS001491_00084.txt Node
Date: Wed Feb 08 11:33:16 GMT 2017
User: dcchb
Spectrometer: FLMS00149
Trigger mode: 0
Integration Time (sec): 2.000000E-2
Scans to average: 10
Electric dark correction enabled: true
Nonlinearity correction enabled: false
Boxcar width: 0
XAxis mode: Wavelengths
Number of Pixels in Spectrum: 2048
>>>>>Begin Spectral Data<<<<<
341.393	-0.35
341.776	-0.35
342.16	-0.35
342.543	-67.24
342.927	-64.53
343.31	-70.63
343.693	-72.89
344.077	-60.92
344.46	-76.51
344.843	-55.49
345.226	-35.61
345.61	-39.22
345.993	1.91
346.376	-25.21
346.759	15.01
347.142	20.66
347.525	38.97
347.908	76.71
348.291	83.71
348.674	90.72
349.057	108.8
349.44	123.71
349.823	153.54
350.206	190.15
350.588	191.51
350.971	206.65
351.354	245.29
351.737	237.38
352.119	254.33
352.502	248.68
352.884	272.63
353.267	292.29
353.65	289.36
354.032	311.73
354.414	320.09
354.797	332.75
355.179	317.83
355.562	336.59
355.944	340.43
356.326	338.85
356.709	337.49
357.091	339.3
357.473	350.37
357.855	354.21
358.238	341.78
358.62	368
359.002	349.92
359.384	333.88
359.766	340.88
360.148	337.94
360.53	322.12
360.912	333.42
361.294	335.91
361.676	345.4
362.057	325.06
362.439	326.64
362.821	335.68
363.203	328.23
363.584	337.04
363.966	316.25
364.348	319.19
364.729	331.62
365.111	323.71
365.493	317.6
365.874	314.44
366.256	319.64
366.637	328.45
367.019	303.37
367.4	307.66
367.781	345.17
368.163	305.18
368.544	299.07
368.925	320.54
369.306	311.73
369.688	332.07
370.069	321.22
370.45	313.54
370.831	311.73
371.212	321.22
371.593	299.75
371.974	307.44
372.355	310.6
372.736	291.62
373.117	305.63
373.498	326.64
373.879	312.18
374.26	308.79
374.641	312.86
375.021	324.16
375.402	325.29
375.783	332.52
376.163	333.65
376.544	335.01
376.925	328.23
377.305	322.12
377.686	324.38
378.066	329.13
378.447	326.64
378.827	331.39
379.208	332.29
379.588	339.07
379.968	325.74
380.349	355.57
380.729	348.34
381.109	315.12
381.489	344.95
381.87	314.44
382.25	320.77
382.63	316.47
383.01	340.2
383.39	327.55
383.77	335.68
384.15	326.19
384.53	341.33
384.91	342.01
385.29	353.31
385.67	355.57
386.049	353.31
386.429	341.78
386.809	340.88
387.189	332.07
387.568	343.59
387.948	333.88
388.328	338.4
388.707	354.67
389.087	357.38
389.466	356.47
389.846	351.05
390.225	336.81
390.605	369.58
390.984	360.77
391.363	324.16
391.743	355.34
392.122	375.91
392.501	370.71
392.881	382.24
393.26	358.06
393.639	398.73
394.018	356.93
394.397	387.89
394.776	369.13
395.155	374.1
395.534	377.49
395.913	370.26
396.292	398.51
396.671	402.35
397.05	374.1
397.429	382.01
397.808	364.84
398.186	397.83
398.565	386.3
398.944	375.68
399.323	370.03
399.701	378.39
400.08	379.52
400.458	365.06
400.837	376.13
401.215	375
401.594	381.78
401.972	378.39
402.351	398.73
402.729	404.61
403.107	395.79
403.486	383.37
403.864	409.13
404.242	396.7
404.62	400.09
404.999	399.18
405.377	405.74
405.755	405.29
406.133	400.09
406.511	407.55
406.889	393.08
407.267	413.65
407.645	405.74
408.023	415.68
408.401	421.1
408.779	421.33
409.156	437.15
409.534	431.27
409.912	424.95
410.29	415.46
410.667	432.86
411.045	429.24
411.422	438.28
411.8	434.44
412.178	429.47
412.555	445.28
412.933	445.74
413.31	435.34
413.687	441.67
414.065	445.51
414.442	457.04
414.819	456.58
415.197	454.78
415.574	463.82
415.951	465.62
416.328	452.97
416.705	459.52
417.082	479.41
417.46	451.84
417.837	465.85
418.214	467.43
418.591	462.91
418.967	479.86
419.344	462.23
419.721	482.57
420.098	484.38
420.475	463.59
420.852	477.6
421.228	479.18
421.605	481.44
421.982	484.15
422.358	482.57
422.735	489.58
423.111	485.51
423.488	497.94
423.864	516.24
424.241	490.03
424.617	513.53
424.994	500.65
425.37	496.58
425.746	511.95
426.123	499.52
426.499	509.24
426.875	507.43
427.251	506.3
427.627	528.22
428.003	530.48
428.379	519.41
428.756	525.28
429.132	537.49
429.507	532.29
429.883	541.33
430.259	535.45
430.635	554.89
431.011	546.07
431.387	558.28
431.763	551.95
432.138	571.38
432.514	559.18
432.89	535
433.265	588.78
433.641	567.54
434.016	569.35
434.392	556.69
434.767	600.31
435.143	582.68
435.518	593.53
435.894	581.78
436.269	607.09
436.644	606.64
437.02	613.64
437.395	603.7
437.77	612.29
438.145	623.13
438.52	601.89
438.895	636.92
439.271	644.83
439.646	625.85
440.021	637.14
440.395	614.32
440.77	631.49
441.145	613.19
441.52	625.85
441.895	652.51
442.27	645.05
442.645	638.27
443.019	666.52
443.394	665.17
443.769	658.39
444.143	664.49
444.518	677.6
444.892	680.31
445.267	674.21
445.641	669.69
446.016	673.3
446.39	669.91
446.764	703.81
447.139	688.67
447.513	676.24
447.887	688.89
448.262	673.75
448.636	698.61
449.01	694.54
449.384	711.49
449.758	692.28
450.132	704.49
450.506	693.19
450.88	722.11
451.254	730.48
451.628	713.98
452.002	724.83
452.376	742.9
452.75	726.18
453.123	731.15
453.497	742.45
453.871	748.33
454.244	764.6
454.618	754.66
454.992	768.67
455.365	741.32
455.739	777.48
456.112	786.97
456.486	767.54
456.859	786.74
457.232	788.55
457.606	773.19
457.979	813.18
458.352	796.91
458.725	812.96
459.099	819.06
459.472	818.83
459.845	845.27
460.218	828.1
460.591	851.83
460.964	839.85
461.337	857.93
461.71	871.04
462.083	864.71
462.456	852.51
462.829	895.89
463.201	872.84
463.574	895.22
463.947	910.13
464.32	910.13
464.692	920.3
465.065	902
465.438	925.05
465.81	940.41
466.183	935.89
466.555	959.4
466.928	956.01
467.3	954.65
467.672	979.28
468.045	961.2
468.417	982.22
468.789	966.85
469.161	982.67
469.534	990.81
469.906	989.23
470.278	1033.29
470.65	1012.5
471.022	1034.65
471.394	1073.52
471.766	1080.07
472.138	1072.84
472.51	1105.83
472.882	1130.24
473.253	1120.97
473.625	1132.72
473.997	1116.23
474.369	1146.74
474.74	1154.42
475.112	1167.75
475.484	1209.78
475.855	1206.39
476.227	1203.01
476.598	1239.39
476.97	1236.9
477.341	1244.59
477.713	1263.79
478.084	1288.43
478.455	1294.53
478.827	1308.09
479.198	1335.43
479.569	1346.5
479.94	1352.15
480.311	1372.04
480.682	1404.58
481.053	1402.55
481.424	1423.56
481.795	1470.12
482.166	1451.81
482.537	1492.04
482.908	1522.32
483.279	1508.76
483.65	1561.41
484.021	1576.55
484.391	1589.21
484.762	1574.52
485.133	1602.09
485.503	1602.77
485.874	1624.91
486.244	1650.68
486.615	1689.77
486.985	1718.92
487.356	1734.29
487.726	1732.93
488.097	1805.48
488.467	1771.35
488.837	1810.45
489.207	1786.94
489.578	1849.54
489.948	1859.03
490.318	1884.34
490.688	1900.84
491.058	1927.51
491.428	1919.6
491.798	1958.69
492.168	1984.23
492.538	1981.52
492.908	2014.51
493.278	2023.32
493.648	2038.01
494.017	2082.08
494.387	2059.93
494.757	2094.73
495.126	2079.14
495.496	2110.33
495.866	2150.32
496.235	2166.6
496.605	2175.41
496.974	2184.67
497.344	2184
497.713	2263.09
498.082	2248.85
498.452	2244.33
498.821	2250.21
499.19	2257.89
499.559	2293.82
499.928	2322.75
500.298	2351.45
500.667	2343.99
501.036	2339.7
501.405	2357.33
501.774	2368.85
502.143	2421.5
502.512	2423.99
502.88	2413.82
503.249	2417.44
503.618	2472.58
503.987	2463.31
504.356	2482.97
504.724	2501.73
505.093	2531.56
505.462	2534.5
505.83	2562.29
506.199	2550.09
506.567	2594.15
506.936	2574.72
507.304	2595.74
507.672	2600.03
508.041	2651.1
508.409	2681.61
508.777	2682.97
509.145	2713.47
509.514	2708.73
509.882	2742.17
510.25	2757.99
510.618	2785.79
510.986	2786.69
511.354	2814.04
511.722	2846.8
512.09	2836.86
512.458	2858.78
512.826	2885.67
513.193	2897.65
513.561	2892.68
513.929	2964.54
514.297	2955.05
514.664	3009.29
515.032	2986.91
515.4	3040.92
515.767	3034.6
516.135	3082.5
516.502	3062.17
516.869	3102.62
517.237	3167.93
517.604	3115.5
517.972	3172.44
518.339	3169.51
518.706	3197.98
519.073	3257.64
519.44	3234.82
519.808	3299.45
520.175	3294.48
520.542	3341.48
520.909	3345.1
521.276	3363.4
521.643	3395.72
522.009	3385.55
522.376	3424.19
522.743	3487.92
523.11	3488.59
523.477	3487.92
523.843	3560.23
524.21	3610.63
524.577	3578.31
524.943	3608.82
525.31	3668.25
525.676	3695.37
526.043	3698.76
526.409	3727.23
526.776	3781.47
527.142	3770.17
527.508	3796.38
527.874	3818.53
528.241	3842.48
528.607	3908.24
528.973	3910.96
529.339	3922.03
529.705	3974.23
530.071	3979.88
530.437	4035.02
530.803	4031.63
531.169	4042.03
531.535	4092.19
531.901	4085.87
532.267	4118.41
532.632	4148.69
532.998	4175.58
533.364	4201.8
533.73	4209.25
534.095	4229.14
534.461	4287.22
534.826	4315.24
535.192	4286.09
535.557	4362.47
535.923	4319.08
536.288	4347.1
536.653	4397.5
537.019	4400.21
537.384	4449.25
537.749	4476.37
538.114	4449.47
538.479	4489.47
538.845	4485.86
539.21	4496.03
539.575	4530.38
539.94	4599.3
540.305	4612.41
540.67	4611.96
541.034	4636.59
541.399	4646.53
541.764	4683.82
542.129	4682.24
542.494	4729.01
542.858	4703.48
543.223	4777.37
543.587	4782.12
543.952	4768.11
544.316	4826.19
544.681	4831.38
545.045	4871.16
545.41	4886.3
545.774	4915
546.138	4915.68
546.503	4937.82
546.867	4907.99
547.231	5030.93
547.595	5028.89
547.959	5055.33
548.324	5057.37
548.688	5065.05
549.052	5123.35
549.416	5164.48
549.779	5157.03
550.143	5201.32
550.507	5239.06
550.871	5247.19
551.235	5245.84
551.599	5347.08
551.962	5286.74
552.326	5407.87
552.689	5418.26
553.053	5398.83
553.417	5420.07
553.78	5549.78
554.143	5493.97
554.507	5534.87
554.87	5574.42
555.234	5672.72
555.597	5677.46
555.96	5675.43
556.323	5705.49
556.686	5773.05
557.05	5840.62
557.413	5806.5
557.776	5909.32
558.139	5907.97
558.502	5977.34
558.865	5987.96
559.228	6015.08
559.59	6114.74
559.953	6134.4
560.316	6196.77
560.679	6237.45
561.041	6305.47
561.404	6338.01
561.767	6415.75
562.129	6388.41
562.492	6495.3
562.854	6522.19
563.217	6534.84
563.579	6608.06
563.941	6633.82
564.304	6717.89
564.666	6777.1
565.028	6836.3
565.39	6890.99
565.753	6927.6
566.115	7042.17
566.477	7081.95
566.839	7182.73
567.201	7275.84
567.563	7267.25
567.925	7389.74
568.287	7415.05
568.648	7409.85
569.01	7549.5
569.372	7653.91
569.734	7614.14
570.095	7779.56
570.457	7834.47
570.819	7884.41
571.18	7946.1
571.542	8024.52
571.903	8085.31
572.265	8242.59
572.626	8279.66
572.987	8322.14
573.349	8403.04
573.71	8566.65
574.071	8634.67
574.432	8684.84
574.794	8856.14
575.155	8916.02
575.516	8895.68
575.877	9057.49
576.238	9173.19
576.599	9232.62
576.96	9352.85
577.32	9489.79
577.681	9553.75
578.042	9648.21
578.403	9768.66
578.763	9876.45
579.124	9969.33
579.485	10109.44
579.845	10261.3
580.206	10407.51
580.566	10469.2
580.927	10506.94
581.287	10764.11
581.648	10891.11
582.008	11082.07
582.368	11206.36
582.728	11365.45
583.089	11505.56
583.449	11673.24
583.809	11795.27
584.169	11964.08
584.529	12148.25
584.889	12417.17
585.249	12564.06
585.609	12748.92
585.969	13029.59
586.329	13116.59
586.688	13335.34
587.048	13594.54
587.408	13812.62
587.768	14004.48
588.127	14214.19
588.487	14476.1
588.846	14887.17
589.206	15000.38
589.565	15320.15
589.925	15606.24
590.284	15844.43
590.643	16099.79
591.003	16384.75
591.362	16723.73
591.721	16887.79
592.08	17251.85
592.44	17636.25
592.799	17905.16
593.158	18237.59
593.517	18533.4
593.876	18832.15
594.235	19131.12
594.593	19499.02
594.952	19839.13
595.311	20189.4
595.67	20553.91
596.029	21011.07
596.387	21477.5
596.746	21898.73
597.104	22040.42
597.463	22415.1
597.822	22853.74
598.18	23099.38
598.538	23430.9
598.897	24013.25
599.255	24249.18
599.613	24853.46
599.972	24961.48
600.33	25449.83
600.688	25643.72
601.046	26248
601.404	26652.96
601.762	27006.85
602.12	27390.11
602.478	27880.27
602.836	28145.8
603.194	28369.75
603.552	28765.44
603.91	29048.83
604.268	29536.95
604.625	29743.72
604.983	30253.09
605.341	30527.88
605.698	30803.36
606.056	31358.82
606.413	31555.65
606.771	31884.23
607.128	32246.03
607.485	32467.72
607.843	32742.74
608.2	33187.25
608.557	33601.25
608.914	33777.52
609.272	34267.67
609.629	34489.14
609.986	34838.96
610.343	34900.65
610.7	35477.58
611.057	35565.04
611.414	35879.16
611.771	35981.07
612.127	36332.93
612.484	36671
612.841	36930.88
613.198	36941.27
613.554	37193.02
613.911	37712.78
614.267	37664.65
614.624	37929.72
614.98	38187.12
615.337	38465.98
615.693	38587.33
616.05	38891.05
616.406	39178.73
616.762	39241.78
617.118	39339.4
617.475	39515.67
617.831	39924.7
618.187	40051.25
618.543	40148.65
618.899	40581.86
619.255	40635.41
619.611	40694.17
619.967	40949.98
620.323	41230.65
620.678	41012.58
621.034	41219.81
621.39	41289.86
621.746	41330.09
622.101	41922.39
622.457	41647.82
622.812	41884.42
623.168	42090.29
623.523	42193.34
623.879	42405.54
624.234	42037.86
624.589	42404.86
624.945	42443.73
625.3	42695.25
625.655	42783.61
626.01	42810.72
626.365	42850.27
626.72	42934.11
627.075	43009.36
627.43	43073.32
627.785	43038.74
628.14	43217.49
628.495	43421.1
628.85	43236.93
629.205	43216.59
629.559	43501.1
629.914	43476.24
630.269	43588.56
630.623	43515.11
630.978	43515.11
631.332	43674.88
631.687	43568.67
632.041	43630.14
632.396	43813.64
632.75	43695.9
633.104	43756.91
633.459	43641.44
633.813	43659.52
634.167	43761.66
634.521	43878.72
634.875	43786.74
635.229	43805.73
635.583	43668.33
635.937	43599.18
636.291	43742
636.645	43848.66
636.999	43618.84
637.352	43934.76
637.706	43625.84
638.06	43845.27
638.413	43773.86
638.767	43651.38
639.121	43922.11
639.474	43645.28
639.828	43674.2
640.181	43826.74
640.534	43828.32
640.888	43746.07
641.241	43518.95
641.594	43629.46
641.947	43945.38
642.301	43710.59
642.654	43814.31
643.007	43825.61
643.36	43803.92
643.713	43758.5
644.066	43954.65
644.419	43504.94
644.771	43389.01
645.124	42979.53
645.477	42925.52
645.83	42809.37
646.182	42687.79
646.535	42611.18
646.888	42691.86
647.24	42547.91
647.593	42863.38
647.945	42721.24
648.298	42544.52
648.65	42492.09
649.002	42322.6
649.355	42588.36
649.707	42514.24
650.059	42789.48
650.411	43045.75
650.763	43193.99
651.115	43586.52
651.467	43440.54
651.819	43499.75
652.171	43469.92
652.523	43366.42
652.875	43448.22
653.227	43291.62
653.578	43554.43
653.93	43524.15
654.282	43317.6
654.633	43056.59
654.985	43359.64
655.337	43324.16
655.688	43257.72
656.039	43418.84
656.391	43036.48
656.742	43227.44
657.094	43207.1
657.445	43435.34
657.796	43215.23
658.147	43234.22
658.498	43242.8
658.849	43303.14
659.2	43200.09
659.551	42927.11
659.902	43289.36
660.253	43316.93
660.604	43310.6
660.955	43136.37
661.306	43279.41
661.656	43052.07
662.007	43329.36
662.358	43226.76
662.708	43250.49
663.059	43240.32
663.409	42999.19
663.76	43448
664.11	43320.32
664.461	43199.87
664.811	43233.09
665.161	43214.1
665.511	43090.04
665.862	43283.03
666.212	43330.94
666.562	43237.61
666.912	43136.82
667.262	43102.47
667.612	43189.25
667.962	43053.66
668.312	43076.71
668.662	43312.63
669.011	43140.66
669.361	43230.6
669.711	43136.59
670.06	43047.78
670.41	42950.38
670.76	42986.54
671.109	43062.7
671.459	43021.79
671.808	42945.86
672.157	43194.9
672.507	42708.35
672.856	42694.57
673.205	42921.46
673.554	42952.87
673.904	42846.66
674.253	43072.19
674.602	42927.56
674.951	42518.98
675.3	42158.99
675.649	42772.76
675.998	42760.1
676.346	42760.1
676.695	42932.53
677.044	42530.73
677.393	42764.4
677.741	42731.86
678.09	42564.4
678.438	42605.08
678.787	42749.26
679.135	42659.32
679.484	42342.04
679.832	42681.24
680.181	42349.49
680.529	42384.07
680.877	42276.05
681.225	42347.91
681.573	42555.14
681.922	42226.11
682.27	41967.36
682.618	42223.17
682.966	42060.24
683.314	42142.49
683.661	41891.65
684.009	41863.86
684.357	41735.27
684.705	41642.17
685.053	41709.06
685.4	41702.96
685.748	41419.8
686.095	41413.47
686.443	41351.55
686.79	41322.4
687.138	41420.03
687.485	41305
687.832	41342.97
688.18	41191.78
688.527	41071.34
688.874	40919.02
689.221	40904.56
689.568	40670.44
689.915	40507.06
690.262	40614.85
690.609	40632.7
690.956	40591.8
691.303	40421.86
691.65	40143.45
691.997	40211.92
692.344	39958.37
692.69	39988.88
693.037	40049.89
693.383	39843.12
693.73	39827.75
694.077	39608.32
694.423	39687.87
694.769	39603.8
695.116	39500.98
695.462	39415.79
695.808	39286.3
696.155	39241.55
696.501	38950.49
696.847	39088.11
697.193	38705.97
697.539	38954.33
697.885	38661.68
698.231	38617.61
698.577	38699.87
698.923	38467.34
699.269	38178.76
699.614	38173.78
699.96	38132.66
700.306	38137.4
700.651	37735.83
700.997	37866.67
701.342	37698.77
701.688	37666.91
702.033	37612.9
702.379	37650.41
702.724	37480.02
703.069	37541.71
703.415	37245.45
703.76	37162.06
704.105	37239.12
704.45	37117.09
704.795	36802.75
705.14	36777.21
705.485	36831.9
705.83	36547.16
706.175	36603.88
706.52	36592.13
706.865	36496.77
707.209	36338.13
707.554	36261.97
707.899	36289.09
708.243	36171.35
708.588	36059.04
708.932	35826.73
709.277	35855.2
709.621	35767.52
709.966	35525.94
710.31	35556.9
710.654	35304.26
710.998	35382.22
711.342	35599.39
711.687	35323.69
712.031	35286.4
712.375	35130.02
712.719	35286.85
713.063	35153.52
713.407	35205.27
713.75	35003.7
714.094	34985.17
714.438	34770.03
714.782	34846.64
715.125	34577.49
715.469	34680.54
715.812	34445.29
716.156	34502.69
716.499	34409.14
716.843	34411.17
717.186	34202.59
717.53	34530.49
717.873	34427.67
718.216	34155.58
718.559	34100.9
718.902	33841.02
719.246	34009.6
719.589	33939.09
719.932	33744.52
720.275	33727.35
720.617	33803.5
720.96	33682.6
721.303	33725.09
721.646	33744.52
721.989	33508.37
722.331	33442.16
722.674	33450.07
723.016	33535.04
723.359	33358.32
723.701	33462.95
724.044	33145.67
724.386	33087.82
724.729	33255.27
725.071	33296.62
725.413	33065.22
725.755	33130.08
726.097	32839.24
726.439	32825.9
726.782	32801.95
727.124	32890.99
727.465	32675.62
727.807	32836.52
728.149	32619.35
728.491	32618.45
728.833	32635.17
729.175	32485.8
729.516	32262.98
729.858	32327.38
730.199	32413.48
730.541	32472.01
730.882	32341.62
731.224	32389.98
731.565	32173.04
731.906	32170.78
732.248	32170.78
732.589	32051.23
732.93	32067.5
733.271	31954.96
733.612	31890.33
733.953	31996.32
734.294	31881.75
734.635	31949.77
734.976	31862.09
735.317	31728.76
735.658	31740.28
735.999	31713.84
736.339	31554.75
736.68	31771.24
737.021	31558.37
737.361	31540.06
737.702	31498.93
738.042	31492.38
738.383	31422.78
738.723	31403.11
739.063	31345.04
739.404	31397.24
739.744	31256.68
740.084	31158.83
740.424	31249.67
740.764	31206.28
741.104	31206.06
741.444	30990.24
741.784	30869.34
742.124	31105.5
742.464	30947.99
742.804	30981.21
743.143	30866.86
743.483	30800.19
743.823	30712.51
744.162	30650.82
744.502	30713.87
744.841	30616.92
745.181	30715
745.52	30642.01
745.86	30640.42
746.199	30594.1
746.538	30496.92
746.877	30606.53
747.216	30463.03
747.556	30454.44
747.895	30484.95
748.234	30242.24
748.573	30254.44
748.911	30201.34
749.25	30290.15
749.589	30006.32
749.928	30199.3
750.267	30200.21
750.605	29954.11
750.944	30006.09
751.283	29834.57
751.621	29950.05
751.96	29901.23
752.298	29811.97
752.636	29710.96
752.975	29710.96
753.313	29557.29
753.651	29660.56
753.989	29424.41
754.327	29432.55
754.666	29279.33
755.004	29366.11
755.342	29336.28
755.679	29321.14
756.017	29220.8
756.355	29271.42
756.693	29056.06
757.031	29212.89
757.368	28909.4
757.706	28832.79
758.044	28897.19
758.381	28813.13
758.719	28924.08
759.056	28592.79
759.394	28633.47
759.731	28492.46
760.068	28536.3
760.405	28423.76
760.743	28313.25
761.08	28394.15
