Data from red_cardboard_box_FLMS001491_00079.txt Node
Date: Wed Feb 08 11:33:07 GMT 2017
User: dcchb
Spectrometer: FLMS00149
Trigger mode: 0
Integration Time (sec): 2.000000E-2
Scans to average: 10
Electric dark correction enabled: true
Nonlinearity correction enabled: false
Boxcar width: 0
XAxis mode: Wavelengths
Number of Pixels in Spectrum: 2048
>>>>>Begin Spectral Data<<<<<
341.393	-4.92
341.776	-4.92
342.16	-4.92
342.543	-59.6
342.927	-67.06
343.31	-72.03
343.693	-70
344.077	-53.28
344.46	-66.61
344.843	-72.94
345.226	-43.33
345.61	-29.32
345.993	-17.34
346.376	-20.51
346.759	18.36
347.142	35.08
347.525	44.8
347.908	55.87
348.291	70.34
348.674	87.29
349.057	133.61
349.44	121.18
349.823	138.81
350.206	161.63
350.588	182.42
350.971	204.12
351.354	217.9
351.737	225.14
352.119	237.11
352.502	263.55
352.884	272.82
353.267	287.05
353.65	285.02
354.032	296.55
354.414	296.32
354.797	309.2
355.179	312.82
355.562	302.2
355.944	346.26
356.326	336.54
356.709	335.64
357.091	340.61
357.473	346.49
357.855	339.03
358.238	356.88
358.62	338.35
359.002	333.61
359.384	337.22
359.766	333.16
360.148	351.23
360.53	322.08
360.912	341.97
361.294	344
361.676	342.65
362.057	327.73
362.439	324.12
362.821	305.59
363.203	328.64
363.584	308.07
363.966	331.57
364.348	308.97
364.729	323.21
365.111	337
365.493	318.24
365.874	313.49
366.256	311.91
366.637	294.96
367.019	299.94
367.4	322.99
367.781	304.68
368.163	308.75
368.544	302.65
368.925	315.08
369.306	306.04
369.688	308.97
370.069	311.01
370.45	300.16
370.831	289.54
371.212	312.59
371.593	290.44
371.974	307.85
372.355	299.71
372.736	324.12
373.117	318.69
373.498	308.52
373.879	310.56
374.26	308.75
374.641	310.1
375.021	330.9
375.402	319.82
375.783	301.07
376.163	325.92
376.544	332.7
376.925	317.11
377.305	320.73
377.686	323.89
378.066	311.23
378.447	322.08
378.827	304.91
379.208	332.48
379.588	321.86
379.968	333.16
380.349	310.1
380.729	321.4
381.109	317.34
381.489	327.51
381.87	307.85
382.25	343.32
382.63	343.78
383.01	322.76
383.39	331.12
383.77	341.74
384.15	340.61
384.53	313.04
384.91	324.12
385.29	334.06
385.67	343.1
386.049	325.92
386.429	331.57
386.809	343.78
387.189	324.79
387.568	340.61
387.948	339.48
388.328	353.49
388.707	334.51
389.087	349.2
389.466	332.48
389.846	327.28
390.225	332.03
390.605	354.4
390.984	324.79
391.363	351.46
391.743	341.97
392.122	357.11
392.501	358.47
392.881	335.64
393.26	370.89
393.639	339.03
394.018	353.04
394.397	349.2
394.776	359.82
395.155	358.92
395.534	346.71
395.913	328.86
396.292	370.67
396.671	349.88
397.05	366.6
397.429	346.71
397.808	347.17
398.186	358.24
398.565	364.57
398.944	344.91
399.323	353.49
399.701	348.75
400.08	353.95
400.458	346.71
400.837	361.18
401.215	371.8
401.594	373.83
401.972	341.06
402.351	360.72
402.729	359.6
403.107	366.37
403.486	353.72
403.864	374.74
404.242	362.98
404.62	376.77
404.999	373.61
405.377	350.33
405.755	376.77
406.133	362.76
406.511	389.65
406.889	362.98
407.267	392.14
407.645	397.79
408.023	402.98
408.401	385.81
408.779	383.55
409.156	377
409.534	386.94
409.912	388.07
410.29	377.9
410.667	402.76
411.045	397.33
411.422	383.1
411.8	383.78
412.178	405.47
412.555	397.33
412.933	409.76
413.31	424.45
413.687	379.93
414.065	408.86
414.442	400.27
414.819	411.12
415.197	420.84
415.574	422.87
415.951	421.97
416.328	387.84
416.705	415.64
417.082	403.21
417.46	403.66
417.837	425.81
418.214	413.83
418.591	443.21
418.967	416.09
419.344	413.15
419.721	423.55
420.098	408.41
420.475	416.09
420.852	428.52
421.228	423.55
421.605	440.5
421.982	450.67
422.358	422.87
422.735	429.88
423.111	418.35
423.488	433.49
423.864	440.5
424.241	436.43
424.617	425.13
424.994	442.3
425.37	443.43
425.746	440.04
426.123	469.2
426.499	442.98
426.875	450.67
427.251	437.56
427.627	467.84
428.003	458.8
428.379	468.07
428.756	481.85
429.132	458.12
429.507	464.23
429.883	447.73
430.259	461.29
430.635	471.46
431.011	477.78
431.387	467.84
431.763	473.26
432.138	471
432.514	463.1
432.89	482.76
433.265	480.72
433.641	491.79
434.016	478.46
434.392	488.18
434.767	502.87
435.143	484.11
435.518	496.54
435.894	507.39
436.269	470.33
436.644	485.02
437.02	505.13
437.395	527.95
437.77	520.72
438.145	527.95
438.52	529.99
438.895	514.17
439.271	518.01
439.646	518.46
440.021	522.3
440.395	518.69
440.77	514.39
441.145	539.03
441.52	548.74
441.895	555.52
442.27	537.9
442.645	557.78
443.019	551.45
443.394	533.38
443.769	564.56
444.143	541.74
444.518	552.36
444.892	541.96
445.267	533.15
445.641	570.44
446.016	541.74
446.39	558.23
446.764	557.33
447.139	548.29
447.513	583.32
447.887	574.05
448.262	562.53
448.636	571.79
449.01	571.11
449.384	575.18
449.758	583.09
450.132	594.62
450.506	584
450.88	597.78
451.254	578.35
451.628	581.96
452.002	578.35
452.376	593.04
452.75	575.18
453.123	602.75
453.497	612.24
453.871	595.52
454.244	613.83
454.618	631.9
454.992	615.86
455.365	622.86
455.739	630.55
456.112	616.76
456.486	633.26
456.859	614.28
457.232	651.34
457.606	631.23
457.979	626.25
458.352	651.56
458.725	639.59
459.099	642.75
459.472	649.76
459.845	651.79
460.218	679.13
460.591	663.99
460.964	679.59
461.337	672.36
461.71	682.98
462.083	683.2
462.456	694.28
462.829	683.43
463.201	689.08
463.574	689.53
463.947	692.69
464.32	713.94
464.692	725.69
465.065	726.59
465.438	732.24
465.81	755.29
466.183	727.27
466.555	758.45
466.928	752.13
467.3	777.44
467.672	746.48
468.045	774.95
468.417	752.58
468.789	762.97
469.161	763.88
469.534	794.84
469.906	769.98
470.278	803.43
470.65	818.11
471.022	778.57
471.394	839.13
471.766	800.49
472.138	815.4
472.51	832.8
472.882	836.42
473.253	818.79
473.625	854.72
473.997	891.78
474.369	876.42
474.74	873.03
475.112	885.23
475.484	890.65
475.855	911.67
476.227	889.07
476.598	939.47
476.97	940.14
477.341	936.53
477.713	952.8
478.084	948.28
478.455	971.78
478.827	983.99
479.198	1014.04
479.569	998.22
479.94	1020.82
480.311	1036.87
480.682	1017.2
481.053	1046.81
481.424	1069.41
481.795	1093.81
482.166	1096.98
482.537	1092.46
482.908	1120.93
483.279	1118.67
483.65	1141.27
484.021	1197.31
484.391	1156.18
484.762	1185.79
485.133	1177.2
485.503	1194.83
485.874	1240.7
486.244	1203.87
486.615	1242.74
486.985	1235.5
487.356	1264.2
487.726	1288.61
488.097	1297.2
488.467	1315.28
488.837	1298.33
489.207	1353.24
489.578	1344.43
489.948	1372.22
490.318	1345.33
490.688	1367.93
491.058	1396.4
491.428	1405.44
491.798	1414.93
492.168	1475.95
492.538	1456.52
492.908	1449.51
493.278	1472.56
493.648	1491.54
494.017	1482.05
494.387	1522.5
494.757	1502.62
495.126	1517.76
495.496	1533.12
495.866	1554.82
496.235	1570.64
496.605	1585.78
496.974	1586.91
497.344	1598.88
497.713	1617.19
498.082	1605.44
498.452	1635.27
498.821	1614.7
499.19	1640.69
499.559	1620.58
499.928	1678.88
500.298	1657.19
500.667	1676.62
501.036	1703.51
501.405	1715.27
501.774	1693.57
502.143	1708.71
502.512	1726.11
502.88	1736.51
503.249	1744.87
503.618	1737.41
503.987	1761.82
504.356	1798.65
504.724	1767.69
505.093	1758.43
505.462	1812.44
505.83	1821.93
506.199	1840.23
506.567	1866.22
506.936	1843.17
507.304	1885.88
507.672	1894.24
508.041	1911.19
508.409	1906.9
508.777	1908.48
509.145	1927.69
509.514	1937.63
509.882	1950.74
510.25	1934.02
510.618	1959.1
510.986	1966.78
511.354	1961.81
511.722	2006.56
512.09	1988.93
512.458	2016.95
512.826	2045.88
513.193	2055.6
513.561	2038.87
513.929	2058.53
514.297	2082.94
514.664	2116.39
515.032	2110.96
515.4	2132.2
515.767	2135.82
516.135	2164.97
516.502	2149.15
516.869	2190.73
517.237	2192.99
517.604	2187.8
517.972	2219.21
518.339	2239.77
518.706	2243.16
519.073	2260.79
519.44	2284.74
519.808	2303.95
520.175	2325.65
520.542	2289.94
520.909	2391.63
521.276	2325.42
521.643	2348.92
522.009	2369.94
522.376	2419.43
522.743	2399.09
523.11	2446.32
523.477	2487
523.843	2439.54
524.21	2465.08
524.577	2530.61
524.943	2490.39
525.31	2528.58
525.676	2560.44
526.043	2607.22
526.409	2569.93
526.776	2632.76
527.142	2633.43
527.508	2673.88
527.874	2664.39
528.241	2667.11
528.607	2674.79
528.973	2721.57
529.339	2706.88
529.705	2757.5
530.071	2768.57
530.437	2776.71
530.803	2805.63
531.169	2785.29
531.535	2837.95
531.901	2843.82
532.267	2877.72
532.632	2869.13
532.998	2879.08
533.364	2901.68
533.73	2912.3
534.095	2949.58
534.461	2979.41
534.826	2951.62
535.192	2996.81
535.557	3004.5
535.923	3013.99
536.288	3010.6
536.653	3047.43
537.019	3050.82
537.384	3062.35
537.749	3037.94
538.114	3067.32
538.479	3096.47
538.845	3119.97
539.21	3114.32
539.575	3143.93
539.94	3126.3
540.305	3197.71
540.67	3159.97
541.034	3221.44
541.399	3246.75
541.764	3204.04
542.129	3237.26
542.494	3278.39
542.858	3301.44
543.223	3276.81
543.587	3276.81
543.952	3310.93
544.316	3330.14
544.681	3302.34
545.045	3352.74
545.41	3345.05
545.774	3357.48
546.138	3369.01
546.503	3422.34
546.867	3384.83
547.231	3457.37
547.595	3460.98
547.959	3486.74
548.324	3485.61
548.688	3497.37
549.052	3527.2
549.416	3575.56
549.779	3537.14
550.143	3575.33
550.507	3553.64
550.871	3539.4
551.235	3622.11
551.599	3665.04
551.962	3666.63
552.326	3655.33
552.689	3718.83
553.053	3659.17
553.417	3711.37
553.78	3756.12
554.143	3746.62
554.507	3791.37
554.87	3798.37
555.234	3872.05
555.597	3853.51
555.96	3869.33
556.323	3905.49
556.686	3919.5
557.05	3974.64
557.413	3980.29
557.776	4011.02
558.139	3990.01
558.502	4040.63
558.865	4063.9
559.228	4116.56
559.59	4138.7
559.953	4172.15
560.316	4201.98
560.679	4203.56
561.041	4283.33
561.404	4261.87
561.767	4342.09
562.129	4293.73
562.492	4410.56
562.854	4416.66
563.217	4408.53
563.579	4457.34
563.941	4524.46
564.304	4538.92
564.666	4567.85
565.028	4652.36
565.39	4710.44
565.753	4711.35
566.115	4787.05
566.477	4771.46
566.839	4807.39
567.201	4900.49
567.563	4910.44
567.925	4945.01
568.287	4965.12
568.648	5009.19
569.01	5033.82
569.372	5130.77
569.734	5153.82
570.095	5232.24
570.457	5265.23
570.819	5250.31
571.18	5328.05
571.542	5401.5
571.903	5445.79
572.265	5509.52
572.626	5514.49
572.987	5546.35
573.349	5615.28
573.71	5684.43
574.071	5698.66
574.432	5776.4
574.794	5874.25
575.155	5881.26
575.516	5913.12
575.877	5998.09
576.238	6062.04
576.599	6100.24
576.96	6103.85
577.32	6204.64
577.681	6289.38
578.042	6394.69
578.403	6406.22
578.763	6469.49
579.124	6555.14
579.485	6606.89
579.845	6695.02
580.206	6755.59
580.566	6845.75
580.927	6939.99
581.287	6998.97
581.648	7091.62
582.008	7255.23
582.368	7269.47
582.728	7356.47
583.089	7491.61
583.449	7611.16
583.809	7674.66
584.169	7805.73
584.529	7898.38
584.889	8086.85
585.249	8160.75
585.609	8205.49
585.969	8419.72
586.329	8517.12
586.688	8663.78
587.048	8873.27
587.408	8908.07
587.768	9126.82
588.127	9202.07
588.487	9373.37
588.846	9565.68
589.206	9689.29
589.565	9830.08
589.925	10058.1
590.284	10183.74
590.643	10397.3
591.003	10615.6
591.362	10814.01
591.721	10982.14
592.08	11156.15
592.44	11422.13
592.799	11576.93
593.158	11719.97
593.517	11951.38
593.876	12182.34
594.235	12402.44
594.593	12651.25
594.952	12913.62
595.311	13037.68
595.67	13391.79
596.029	13685.12
596.387	13876.3
596.746	14151.77
597.104	14364.2
597.463	14564.19
597.822	14811.87
598.18	15033.11
598.538	15277.62
598.897	15690.94
599.255	15729.36
599.613	16163.47
599.972	16309.46
600.33	16651.37
600.688	16859.5
601.046	17112.83
601.404	17450.67
601.762	17788.97
602.12	18088.85
602.478	18238.22
602.836	18369.97
603.194	18518.44
603.552	18997.52
603.91	19159.1
604.268	19456.72
604.625	19670.05
604.983	20117.04
605.341	20143.93
605.698	20517.48
606.056	20736.91
606.413	20962.67
606.771	21186.62
607.128	21410.57
607.485	21606.49
607.843	21792.03
608.2	22133.03
608.557	22453.48
608.914	22516.07
609.272	22801.26
609.629	23110.41
609.986	23266.34
610.343	23439.89
610.7	23861.12
611.057	23860.22
611.414	24103.6
611.771	24350.38
612.127	24537.04
612.484	24629.69
612.841	24902
613.198	25022.22
613.554	25130.92
613.911	25471.48
614.267	25489.56
614.624	25730
614.98	25821.3
615.337	26049.09
615.693	26136.32
616.05	26358.23
616.406	26689.3
616.762	26630.09
617.118	26745.12
617.475	26964.32
617.831	27082.06
618.187	27181.04
618.543	27414.25
618.899	27544.42
619.255	27706.45
619.611	27777.86
619.967	27882.71
620.323	28070.5
620.678	27952.32
621.034	28094.69
621.39	28195.7
621.746	28295.13
622.101	28615.12
622.457	28522.24
622.812	28627.78
623.168	28850.15
623.523	28756.14
623.879	28988.9
624.234	28900.99
624.589	29049.24
624.945	29218.05
625.3	29175.79
625.655	29386.63
626.01	29380.07
626.365	29477.7
626.72	29488.32
627.075	29568.54
627.43	29624.14
627.785	29613.74
628.14	29728.99
628.495	29791.14
628.85	29916.33
629.205	29751.36
629.559	30034.97
629.914	29853.28
630.269	30011.92
630.623	29974.18
630.978	29959.27
631.332	30095.99
631.687	30237.23
632.041	30171.47
632.396	30319.26
632.75	30143.22
633.104	30330.78
633.459	30091.47
633.813	30125.37
634.167	30230.9
634.521	30238.13
634.875	30309.99
635.229	30225.93
635.583	30244.23
635.937	30196.1
636.291	30177.79
636.645	30257.79
636.999	30218.92
637.352	30404.68
637.706	30262.31
638.06	30307.06
638.413	30268.64
638.767	30319.71
639.121	30290.11
639.474	30096.67
639.828	30277.68
640.181	30354.74
640.534	30335.3
640.888	30294.85
641.241	30102.54
641.594	30335.98
641.947	30476.77
642.301	30242.88
642.654	30294.85
643.007	30415.75
643.36	30337.79
643.713	30370.56
644.066	30381.63
644.419	30324.91
644.771	30032.26
645.124	29748.2
645.477	29702.1
645.83	29519.05
646.182	29477.47
646.535	29424.14
646.888	29542.33
647.24	29552.73
647.593	29705.72
647.945	29664.59
648.298	29536.23
648.65	29483.8
649.002	29578.26
649.355	29493.97
649.707	29430.7
650.059	29712.72
650.411	30035.65
650.763	30111.58
651.115	30402.19
651.467	30390.22
651.819	30263.22
652.171	30272.71
652.523	30246.49
652.875	30233.39
653.227	30133.73
653.578	30322.88
653.93	30387.73
654.282	30134.18
654.633	30087.4
654.985	30217.12
655.337	30140.51
655.688	30285.81
656.039	30296.66
656.391	29911.81
656.742	30135.08
657.094	30126.72
657.445	30218.47
657.796	30186.38
658.147	30097.34
658.498	29969.89
658.849	30110
659.2	29956.78
659.551	30035.42
659.902	30011.47
660.253	30088.08
660.604	30008.08
660.955	30153.84
661.306	30095.76
661.656	30077.01
662.007	30008.08
662.358	30070.9
662.708	30179.6
663.059	30099.38
663.409	29911.36
663.76	30191.58
664.11	30185.25
664.461	30180.51
664.811	30213.73
665.161	30094.18
665.511	29925.15
665.862	29995.88
666.212	30224.12
666.562	30264.8
666.912	30181.18
667.262	30148.19
667.612	30080.85
667.962	30119.94
668.312	30131.24
668.662	30274.29
669.011	30196.55
669.361	30240.62
669.711	30219.83
670.06	30188.87
670.41	30135.99
670.76	30050.11
671.109	30155.87
671.459	29976.67
671.808	30022.54
672.157	30124.46
672.507	29939.38
672.856	29878.59
673.205	30001.75
673.554	30031.13
673.904	29942.32
674.253	30102.32
674.602	30055.99
674.951	29664.14
675.3	29405.16
675.649	29905.71
675.998	29962.21
676.346	29955.2
676.695	30015.09
677.044	29784.36
677.393	29870.46
677.741	29879.72
678.09	29773.74
678.438	29808.09
678.787	29741.42
679.135	29792.27
679.484	29496.46
679.832	29741.65
680.181	29559.05
680.529	29642.21
680.877	29612.84
681.225	29549.79
681.573	29738.26
681.922	29478.15
682.27	29428.21
682.618	29448.77
682.966	29409.9
683.314	29478.15
683.661	29394.99
684.009	29333.75
684.357	29108.67
684.705	29070.48
685.053	29134.66
685.4	28957.94
685.748	28924.95
686.095	29115.9
686.443	28884.95
686.79	28846.98
687.138	28879.3
687.485	28932.18
687.832	28689.25
688.18	28858.51
688.527	28656.7
688.874	28670.49
689.221	28566.54
689.568	28536.03
689.915	28430.72
690.262	28484.28
690.609	28396.37
690.956	28397.5
691.303	28374.68
691.65	28106.89
691.997	28057.17
692.344	27874.35
692.69	27965.42
693.037	28016.95
693.383	27688.59
693.73	27857.86
694.077	27679.78
694.423	27623.74
694.769	27690.18
695.116	27554.13
695.462	27524.53
695.808	27394.82
696.155	27333.12
696.501	27249.06
696.847	27255.61
697.193	27108.27
697.539	27292.9
697.885	26921.61
698.231	26910.31
698.577	26813.81
698.923	26848.62
699.269	26767.26
699.614	26634.16
699.96	26559.13
700.306	26640.03
700.651	26368.85
700.997	26473.71
701.342	26334.05
701.688	26368.85
702.033	26203.21
702.379	26206.15
702.724	26052.03
703.069	26183.77
703.415	25850.68
703.76	25922.31
704.105	25891.81
704.45	25877.57
704.795	25668.53
705.14	25685.48
705.485	25546.28
705.83	25536.33
706.175	25606.84
706.52	25457.92
706.865	25402.78
707.209	25330.46
707.554	25256.79
707.899	25381.54
708.243	25164.82
708.588	25191.48
708.932	25020.64
709.277	25123.24
709.621	25141.99
709.966	24789.24
710.31	24813.64
710.654	24721.44
710.998	24814.32
711.342	24921.66
711.687	24783.36
712.031	24639.41
712.375	24425.63
712.719	24511.95
713.063	24528.9
713.407	24568.45
713.75	24419.98
714.094	24442.35
714.438	24233.54
714.782	24436.02
715.125	24178.63
715.469	24166.88
715.812	24145.86
716.156	23960.56
716.499	23928.47
716.843	24101.34
717.186	23874.68
717.53	24085.52
717.873	24071.51
718.216	23865.64
718.559	23716.04
718.902	23698.19
719.246	23781.8
719.589	23709.94
719.932	23624.29
720.275	23527.12
720.617	23514.92
720.96	23461.81
721.303	23466.56
721.646	23550.62
721.989	23385.43
722.331	23485.54
722.674	23361.25
723.016	23333.23
723.359	23346.56
723.701	23257.75
724.044	23188.6
724.386	23166.45
724.729	23181.59
725.071	23099.56
725.413	23090.75
725.755	23109.73
726.097	23073.35
726.439	22875.61
726.782	23022.73
727.124	23060.69
727.465	22714.49
727.807	22837.42
728.149	22792.68
728.491	22744.77
728.833	22861.15
729.175	22748.61
729.516	22652.34
729.858	22703.41
730.199	22665
730.541	22674.71
730.882	22651.66
731.224	22704.77
731.565	22622.96
731.906	22490.76
732.248	22573.93
732.589	22445.34
732.93	22512.01
733.271	22344.1
733.612	22395.17
733.953	22395.63
734.294	22361.95
734.635	22318.79
734.976	22328.51
735.317	22199.02
735.658	22115.41
735.999	22251
736.339	22081.74
736.68	22209.19
737.021	22097.1
737.361	22081.51
737.702	22160.6
738.042	22048.74
738.383	21975.07
738.723	21961.74
739.063	21912.25
739.404	21962.19
739.744	21932.59
740.084	21868.63
740.424	21827.05
740.764	21839.03
741.104	21907.96
741.444	21773.04
741.784	21598.58
742.124	21699.6
742.464	21723.33
742.804	21722.88
743.143	21693.72
743.483	21646.94
743.823	21491.02
744.162	21595.87
744.502	21457.12
744.841	21545.7
745.181	21559.72
745.52	21437.01
745.86	21525.82
746.199	21457.8
746.538	21414.41
746.877	21383.45
747.216	21414.18
747.556	21293.96
747.895	21286.5
748.234	21301.42
748.573	21197.01
748.911	21235.2
749.25	21257.58
749.589	21130.57
749.928	21080.86
750.267	21055.1
750.605	21118.82
750.944	20991.82
751.283	20989.56
751.621	20973.06
751.96	20846.29
752.298	20899.62
752.636	20779.4
752.975	20807.64
753.313	20689.46
753.651	20757.48
753.989	20639.74
754.327	20688.1
754.666	20468.22
755.004	20638.16
755.342	20563.58
755.679	20590.7
756.017	20373.76
756.355	20404.94
756.693	20418.28
757.031	20445.39
757.368	20286.98
757.706	20406.98
758.044	20151.17
758.381	20187.32
758.719	20224.84
759.056	20147.78
759.394	20094.22
759.731	20018.74
760.068	20000.43
760.405	19876.14
760.743	19899.42
761.08	19894.22
761.417	19876.6
761.754	19722.7
762.091	19766.54
