Data from red_shiny_book_FLMS001491_00005.txt Node
Date: Wed Feb 08 15:23:34 GMT 2017
User: dcchb
Spectrometer: FLMS00149
Trigger mode: 0
Integration Time (sec): 2.000000E-2
Scans to average: 10
Electric dark correction enabled: true
Nonlinearity correction enabled: false
Boxcar width: 0
XAxis mode: Wavelengths
Number of Pixels in Spectrum: 2048
>>>>>Begin Spectral Data<<<<<
341.393	-19.52
341.776	-19.52
342.16	-19.52
342.543	-54.77
342.927	-72.17
343.31	-57.48
343.693	-66.3
344.077	-54.77
344.46	-61.78
344.843	-62.91
345.226	-41.89
345.61	-38.73
345.993	-15.9
346.376	1.72
346.759	-11.61
347.142	8.5
347.525	40.14
347.908	88.5
348.291	88.73
348.674	71.33
349.057	112.45
349.44	124.88
349.823	134.83
350.206	158.56
350.588	192.68
350.971	202.4
351.354	242.85
351.737	267.48
352.119	270.87
352.502	260.93
352.884	271.32
353.267	323.3
353.65	320.58
354.032	333.92
354.414	309.06
354.797	343.64
355.179	327.59
355.562	354.26
355.944	334.37
356.326	341.83
356.709	325.56
357.091	329.85
357.473	358.32
357.855	356.97
358.238	350.87
358.62	360.13
359.002	351.09
359.384	362.62
359.766	365.78
360.148	347.7
360.53	359.91
360.912	332.56
361.294	360.81
361.676	328.95
362.057	345.67
362.439	354.93
362.821	338.21
363.203	333.01
363.584	354.26
363.966	340.7
364.348	342.28
364.729	338.21
365.111	319.68
365.493	323.97
365.874	315.61
366.256	335.95
366.637	338.21
367.019	342.96
367.4	328.95
367.781	315.39
368.163	324.65
368.544	338.66
368.925	341.6
369.306	338.21
369.688	315.39
370.069	345.89
370.45	310.42
370.831	320.36
371.212	338.21
371.593	330.3
371.974	323.3
372.355	351.32
372.736	324.65
373.117	347.7
373.498	328.72
373.879	327.82
374.26	340.25
374.641	319.45
375.021	318.32
375.402	339.57
375.783	345.44
376.163	342.73
376.544	339.12
376.925	341.38
377.305	352
377.686	355.16
378.066	352.22
378.447	351.32
378.827	342.73
379.208	348.83
379.588	355.61
379.968	354.71
380.349	361.71
380.729	355.61
381.109	358.55
381.489	351.54
381.87	358.32
382.25	364.65
382.63	371.2
383.01	387.02
383.39	366.46
383.77	360.81
384.15	371.2
384.53	371.43
384.91	364.2
385.29	362.84
385.67	362.62
386.049	373.46
386.429	354.71
386.809	387.02
387.189	379.34
387.568	373.46
387.948	391.54
388.328	375.27
388.707	386.57
389.087	384.09
389.466	394.71
389.846	370.3
390.225	381.83
390.605	390.19
390.984	384.76
391.363	366.69
391.743	394.48
392.122	390.41
392.501	401.26
392.881	424.76
393.26	392.9
393.639	389.28
394.018	403.29
394.397	407.81
394.776	419.34
395.155	415.72
395.534	434.71
395.913	409.62
396.292	426.57
396.671	413.46
397.05	424.31
397.429	431.32
397.808	410.3
398.186	432.9
398.565	430.64
398.944	432.45
399.323	442.39
399.701	425.89
400.08	436.29
400.458	415.05
400.837	448.04
401.215	438.32
401.594	425.44
401.972	443.52
402.351	450.3
402.729	448.27
403.107	447.59
403.486	470.19
403.864	437.64
404.242	472.45
404.62	460.02
404.999	444.2
405.377	462.95
405.755	475.16
406.133	477.19
406.511	471.32
406.889	494.14
407.267	483.52
407.645	485.78
408.023	513.12
408.401	513.57
408.779	476.51
409.156	494.82
409.534	493.24
409.912	500.69
410.29	501.15
410.667	510.86
411.045	519.45
411.422	523.29
411.8	501.15
412.178	539.79
412.555	512.44
412.933	527.13
413.31	525.78
413.687	538.21
414.065	579.11
414.442	548.15
414.819	570.07
415.197	544.99
415.574	597.41
415.951	583.85
416.328	562.61
416.705	575.49
417.082	584.53
417.46	575.95
417.837	599.22
418.214	606.23
418.591	621.82
418.967	625.89
419.344	611.65
419.721	633.57
420.098	608.49
420.475	606.45
420.852	630.86
421.228	630.18
421.605	640.8
421.982	642.61
422.358	672.89
422.735	660.01
423.111	679.9
423.488	675.83
423.864	676.06
424.241	665.89
424.617	652.1
424.994	681.25
425.37	678.99
425.746	666.79
426.123	662.27
426.499	700.91
426.875	720.12
427.251	710.86
427.627	728.03
428.003	737.07
428.379	721.93
428.756	717.41
429.132	741.59
429.507	747.01
429.883	732.55
430.259	781.36
430.635	764.41
431.011	786.56
431.387	774.81
431.763	810.06
432.138	822.72
432.514	800.35
432.89	781.14
433.265	805.09
433.641	806.22
434.016	787.92
434.392	819.33
434.767	839.89
435.143	851.42
435.518	834.47
435.894	869.5
436.269	867.01
436.644	876.95
437.02	891.87
437.395	878.54
437.77	879.21
438.145	862.94
438.52	863.17
438.895	878.76
439.271	878.31
439.646	931.19
440.021	949.49
440.395	948.14
440.77	939.78
441.145	948.14
441.52	962.15
441.895	934.58
442.27	944.07
442.645	915.82
443.019	916.28
443.394	936.16
443.769	926.22
444.143	954.24
444.518	984.07
444.892	987.46
445.267	1012.09
445.641	1017.52
446.016	1015.48
446.39	1004.63
446.764	992.88
447.139	950.4
447.513	976.16
447.887	994.01
448.262	975.93
448.636	1008.93
449.01	1006.44
449.384	1043.96
449.758	1034.92
450.132	1064.52
450.506	1080.56
450.88	1063.16
451.254	1047.8
451.628	1048.7
452.002	1062.03
452.376	1049.38
452.75	1037.18
453.123	1046.44
453.497	1083.73
453.871	1089.15
454.244	1113.11
454.618	1138.19
454.992	1146.33
455.365	1162.37
455.739	1137.96
456.112	1153.56
456.486	1121.47
456.859	1118.76
457.232	1120.56
457.606	1138.64
457.979	1134.57
458.352	1168.92
458.725	1204.86
459.099	1193.78
459.472	1247.34
459.845	1247.57
460.218	1278.75
460.591	1259.32
460.964	1265.19
461.337	1236.72
461.71	1223.84
462.083	1228.36
462.456	1218.19
462.829	1219.09
463.201	1229.04
463.574	1297.96
463.947	1314
464.32	1325.98
464.692	1362.37
465.065	1359.2
465.438	1379.31
465.81	1401.46
466.183	1384.74
466.555	1392.42
466.928	1356.94
467.3	1340.9
467.672	1335.7
468.045	1370.5
468.417	1410.95
468.789	1424.28
469.161	1427.22
469.534	1475.13
469.906	1552.64
470.278	1531.85
470.65	1588.57
471.022	1568.91
471.394	1570.72
471.766	1558.97
472.138	1535.69
472.51	1572.08
472.882	1565.3
473.253	1561
473.625	1595.81
473.997	1634.45
474.369	1662.02
474.74	1716.93
475.112	1731.17
475.484	1823.6
475.855	1793.99
476.227	1805.97
476.598	1862.92
476.97	1834.44
477.341	1835.12
477.713	1833.54
478.084	1818.17
478.455	1846.42
478.827	1851.62
479.198	1923.93
479.569	1959.64
479.94	2042.12
480.311	2065.62
480.682	2146.3
481.053	2202.34
481.424	2204.6
481.795	2204.38
482.166	2207.31
482.537	2206.18
482.908	2199.18
483.279	2212.29
483.65	2234.21
484.021	2206.18
484.391	2282.12
484.762	2345.16
485.133	2405.95
485.503	2439.85
485.874	2511.04
486.244	2628.55
486.615	2663.8
486.985	2661.09
487.356	2727.98
487.726	2700.18
488.097	2698.83
488.467	2669
488.837	2670.58
489.207	2677.13
489.578	2716
489.948	2734.53
490.318	2774.53
490.688	2842.55
491.058	2893.17
491.428	2995.54
491.798	3092.26
492.168	3186.5
492.538	3208.64
492.908	3239.38
493.278	3258.59
493.648	3207.51
494.017	3179.49
494.387	3162.09
494.757	3106.5
495.126	3130.23
495.496	3117.12
495.866	3141.75
496.235	3210.9
496.605	3258.36
496.974	3384.91
497.344	3463.33
497.713	3518.47
498.082	3554.85
498.452	3609.99
498.821	3620.16
499.19	3642.31
499.559	3626.94
499.928	3586.49
500.298	3514.85
500.667	3486.6
501.036	3466.72
501.405	3417.9
501.774	3482.99
502.143	3484.8
502.512	3542.19
502.88	3638.01
503.249	3725.47
503.618	3784.9
503.987	3902.19
504.356	3898.34
504.724	3928.17
505.093	3880.49
505.462	3918.68
505.83	3847.27
506.199	3800.49
506.567	3790.78
506.936	3714.62
507.304	3718.01
507.672	3722.08
508.041	3716.2
508.409	3803.66
508.777	3851.34
509.145	3962.3
509.514	4002.75
509.882	4104.21
510.25	4115.06
510.618	4173.36
510.986	4239.35
511.354	4219.69
511.722	4207.71
512.09	4108.51
512.458	4090.88
512.826	3983.54
513.193	3940.6
513.561	3892.24
513.929	3885.01
514.297	3956.87
514.664	3989.87
515.032	4048.85
515.4	4174.95
515.767	4227.6
516.135	4312.34
516.502	4337.65
516.869	4473.92
517.237	4481.83
517.604	4450.65
517.972	4440.25
518.339	4365.9
518.706	4316.41
519.073	4247.04
519.44	4204.78
519.808	4158
520.175	4086.36
520.542	4119.58
520.909	4161.16
521.276	4171.78
521.643	4329.52
522.009	4387.6
522.376	4504.66
522.743	4649.28
523.11	4690.64
523.477	4736.74
523.843	4810.64
524.21	4797.08
524.577	4798.89
524.943	4775.38
525.31	4717.08
525.676	4635.73
526.043	4630.53
526.409	4512.56
526.776	4516.41
527.142	4514.37
527.508	4544.2
527.874	4615.61
528.241	4739
528.607	4807.7
528.973	4998.2
529.339	5071.42
529.705	5199.1
530.071	5298.31
530.437	5404.74
530.803	5377.17
531.169	5400.23
531.535	5286.78
531.901	5288.82
532.267	5240.23
532.632	5155.71
532.998	5054.7
533.364	5044.3
533.73	4986.9
534.095	5003.85
534.461	5111.42
534.826	5159.1
535.192	5298.76
535.557	5428.93
535.923	5534.01
536.288	5675.7
536.653	5826.2
537.019	5810.61
537.384	5944.84
537.749	5990.72
538.114	5952.75
538.479	5912.75
538.845	5891.29
539.21	5786.2
539.575	5675.7
539.94	5575.59
540.305	5556.83
540.67	5505.76
541.034	5492.65
541.399	5568.81
541.764	5602.71
542.129	5822.36
542.494	5915.92
542.858	6060.32
543.223	6171.73
543.587	6294.66
543.952	6380.54
544.316	6446.75
544.681	6479.29
545.045	6471.61
545.41	6441.55
545.774	6447.66
546.138	6326.75
546.503	6268.68
546.867	6105.52
547.231	6122.01
547.595	5988.23
547.959	5974.67
548.324	5966.99
548.688	5985.29
549.052	6069.13
549.416	6184.39
549.779	6283.37
550.143	6444.27
550.507	6557.93
550.871	6726.29
551.235	6736.91
551.599	6852.62
551.962	6881.32
552.326	6888.55
552.689	6826.63
553.053	6759.29
553.417	6695.11
553.78	6674.99
554.143	6500.76
554.507	6384.61
554.87	6358.17
555.234	6346.87
555.597	6255.8
555.96	6213.76
556.323	6365.85
556.686	6382.8
557.05	6550.7
557.413	6660.98
557.776	6788.66
558.139	6973.74
558.502	7111.37
558.865	7145.49
559.228	7310.23
559.59	7330.34
559.953	7326.73
560.316	7366.28
560.679	7244.7
561.041	7158.6
561.404	7093.51
561.767	6925.16
562.129	6746.86
562.492	6759.06
562.854	6672.73
563.217	6608.78
563.579	6652.85
563.941	6675.67
564.304	6834.99
564.666	6877.93
565.028	7075.21
565.39	7215.09
565.753	7412.15
566.115	7552.26
566.477	7647.4
566.839	7760.39
567.201	7799.26
567.563	7768.52
567.925	7865.02
568.287	7771.01
568.648	7698.02
569.01	7570.34
569.372	7485.14
569.734	7393.17
570.095	7367.86
570.457	7261.19
570.819	7135.32
571.18	7139.84
571.542	7147.3
571.903	7255.54
572.265	7394.75
572.626	7533.28
572.987	7708.19
573.349	7874.06
573.71	8142.07
574.071	8300.94
574.432	8373.71
574.794	8647.6
575.155	8757.88
575.516	8712
575.877	8855.95
576.238	8744.77
576.599	8763.98
576.96	8718.78
577.32	8617.77
577.681	8598.79
578.042	8567.37
578.403	8494.83
578.763	8547.71
579.124	8676.52
579.485	8708.84
579.845	8937.99
580.206	9088.94
580.566	9281.03
580.927	9645.99
581.287	9977.28
581.648	10222.02
582.008	10666.98
582.368	11033.98
582.728	11324.14
583.089	11630.8
583.449	11984.91
583.809	12322.3
584.169	12519.81
584.529	12710.09
584.889	13028.95
585.249	13162.96
585.609	13341.26
585.969	13593.68
586.329	13761.81
586.688	14230.95
587.048	14397.05
587.408	14764.5
587.768	15192.96
588.127	15616
588.487	16023.9
588.846	16659.59
589.206	17183.42
589.565	17703.86
589.925	18453.22
590.284	19084.61
590.643	19685.05
591.003	20307.4
591.362	21031.23
591.721	21466.7
592.08	21999.34
592.44	22585.31
592.799	23004.73
593.158	23438.85
593.517	23889.23
593.876	24182.56
594.235	24595.43
594.593	25002.42
594.952	25354.95
595.311	25690.77
595.67	26066.35
596.029	26806.44
596.387	27275.81
596.746	27826.08
597.104	28168.67
597.463	28875.99
597.822	29551.45
598.18	30058.56
598.538	30793.91
598.897	31653.55
599.255	31889.25
599.613	33006.05
599.972	33235.43
600.33	33894.39
600.688	34260.71
601.046	34893.01
601.404	35448.02
601.762	35705.19
602.12	36220.88
602.478	36462.23
602.836	36879.4
603.194	36839.4
603.552	37181.76
603.91	37376.79
604.268	37781.07
604.625	37998.69
604.983	38445.46
605.341	38737.65
605.698	39310.29
606.056	39724.75
606.413	40200.67
606.771	40623.03
607.128	41240.64
607.485	41515.89
607.843	41956.78
608.2	42511.57
608.557	43145.45
608.914	43264.09
609.272	43847.12
609.629	44231.52
609.986	44493.21
610.343	44602.13
610.7	45199.63
611.057	45209.8
611.414	45209.12
611.771	45347.65
612.127	45622.44
612.484	45560.98
612.841	45752.61
613.198	45791.48
613.554	45879.84
613.911	46110.12
614.267	46196.67
614.624	46401.63
614.98	46479.15
615.337	46979.02
615.693	47063.08
616.05	47180.6
616.406	47670.75
616.762	47782.84
617.118	48073.23
617.475	48340.34
617.831	48741.01
618.187	48912.75
618.543	48932.87
618.899	49393.64
619.255	49477.03
619.611	49438.84
619.967	49666.86
620.323	49652.62
620.678	49627.99
621.034	49475.68
621.39	49441.55
621.746	49252.86
622.101	49691.04
622.457	49328.56
622.812	49386.87
623.168	49437.26
623.523	49558.61
623.879	49580.98
624.234	49425.28
624.589	49830.24
624.945	49844.93
625.3	49950.01
625.655	50025.72
626.01	50249.67
626.365	50485.82
626.72	50526.95
627.075	50673.61
627.43	50702.54
627.785	50850.33
628.14	50911.34
628.495	51000.83
628.85	51035.41
629.205	50941.4
629.559	51149.76
629.914	51088.52
630.269	50882.65
630.623	50786.6
630.978	50633.39
631.332	50728.52
631.687	50640.62
632.041	50434.07
632.396	50512.49
632.75	50339.83
633.104	50268.42
633.459	50202.66
633.813	50080.18
634.167	50288.08
634.521	50267.07
634.875	50408.53
635.229	50436.33
635.583	50378.48
635.937	50573.95
636.291	50550.45
636.645	50600.84
636.999	50573.73
637.352	50861.63
637.706	50638.36
638.06	50790.9
638.413	50712.48
638.767	50706.38
639.121	50823.44
639.474	50586.61
639.828	50588.87
640.181	50536.44
640.534	50509.55
640.888	50217.13
641.241	50012.39
641.594	50034.53
641.947	50043.12
642.301	49881.77
642.654	49811.26
643.007	49710.25
643.36	49568.56
643.713	49566.97
644.066	49776.46
644.419	49532.17
644.771	49445.62
645.124	49098.06
645.477	49049.47
645.83	49046.08
646.182	48889.03
646.535	48985.07
646.888	49177.83
647.24	49012.64
647.593	49296.25
647.945	49310.71
648.298	49069.59
648.65	49220.09
649.002	48964.28
649.355	49213.08
649.707	48943.71
650.059	49124.5
650.411	49503.25
650.763	49299.64
651.115	49613.98
651.467	49429.35
651.819	49262.57
652.171	49143.71
652.523	48978.29
652.875	48894.45
653.227	48702.82
653.578	48926.54
653.93	48754.11
654.282	48644.74
654.633	48557.06
654.985	48685.41
655.337	48622.14
655.688	48842.92
656.039	49057.61
656.391	48777.16
656.742	49074.56
657.094	49168.57
657.445	49124.73
657.796	49370.59
658.147	49202.69
658.498	49348.45
658.849	49402.01
659.2	49427.54
659.551	49250.6
659.902	49476.81
660.253	49295.79
660.604	49340.76
660.955	49174.44
661.306	49095.8
661.656	48920.44
662.007	48843.15
662.358	48719.31
662.708	48600.22
663.059	48389.15
663.409	48153
663.76	48398.42
664.11	48380.56
664.461	48289.49
664.811	48276.39
665.161	48301.92
665.511	48018.09
665.862	48181.93
666.212	48437.06
666.562	48547.11
666.912	48400.68
667.262	48449.49
667.612	48501.01
667.962	48736.03
668.312	48605.42
668.662	48969.48
669.011	48830.04
669.361	48805.86
669.711	48874.56
670.06	48962.24
670.41	48784.4
670.76	48646.55
671.109	48878.63
671.459	48648.81
671.808	48517.06
672.157	48634.57
672.507	48170.85
672.856	48120.23
673.205	48213.56
673.554	48118.88
673.904	47919.11
674.253	48054.47
674.602	47708.94
674.951	47212.01
675.3	47061.28
675.649	47584.2
675.998	47583.3
676.346	47494.94
676.695	47681.37
677.044	47383.75
677.393	47495.16
677.741	47658.1
678.09	47575.39
678.438	47658.1
678.787	47818.77
679.135	47903.29
679.484	47650.87
679.832	47836.85
680.181	47680.24
680.529	47910.52
680.877	47803.63
681.225	47863.97
681.573	48088.14
681.922	47723.41
682.27	47641.15
682.618	47628.27
682.966	47512.56
683.314	47540.81
683.661	47303.76
684.009	46962.07
684.357	46824.9
684.705	46755.97
685.053	46646.15
685.4	46497.45
685.748	46299.71
686.095	46217.68
686.443	46090.68
686.79	45969.1
687.138	45982.89
687.485	45940.85
687.832	45862.89
688.18	45820.41
688.527	45767.53
688.874	45671.71
689.221	45682.33
689.568	45673.52
689.915	45687.75
690.262	45639.62
690.609	45747.19
690.956	45651.14
691.303	45647.08
691.65	45618.15
691.997	45622.22
692.344	45503.35
692.69	45378.16
693.037	45485.05
693.383	45104.04
693.73	45252.96
694.077	45044.61
694.423	44992.4
694.769	44762.81
695.116	44638.06
695.462	44310.61
695.808	44208.7
696.155	44232.65
696.501	43866.33
696.847	43666.79
697.193	43394.93
697.539	43339.11
697.885	43090.99
698.231	42841.27
698.577	42773.93
698.923	42739.81
699.269	42541.85
699.614	42358.58
699.96	42432.25
700.306	42360.38
700.651	42295.53
700.997	42183.44
701.342	42331.46
701.688	42258.92
702.033	42165.59
702.379	42322.19
702.724	42196.55
703.069	42455.52
703.415	42022.31
703.76	42190.44
704.105	42295.75
704.45	42259.6
704.795	41914.52
705.14	41761.76
705.485	41780.96
705.83	41667.97
706.175	41647.41
706.52	41381.88
706.865	41332.84
707.209	41135.56
707.554	41000.65
707.899	40960.42
708.243	40555.46
708.588	40398.63
708.932	40146.2
709.277	40011.07
709.621	39994.57
709.966	39755.93
710.31	39700.57
710.654	39211.31
710.998	39398.88
711.342	39253.8
711.687	39217.64
712.031	39020.36
712.375	38968.61
712.719	39101.94
713.063	39108.49
713.407	39250.18
713.75	39038.89
714.094	39169.05
714.438	38939.23
714.782	39041.37
715.125	39073.92
715.469	39118.89
715.812	39057.19
716.156	39015.39
716.499	39080.24
716.843	39115.04
717.186	38973.35
717.53	39072.56
717.873	39075.5
718.216	39014.48
718.559	38665.11
718.902	38418.57
719.246	38514.61
719.589	38395.97
719.932	38159.36
720.275	38068.07
720.617	37942.87
720.96	37788.3
721.303	37776.32
721.646	37657.68
721.989	37179.95
722.331	37335.2
722.674	37105.61
723.016	37006.17
723.359	36932.28
723.701	36881.43
724.044	36743.13
724.386	36601.89
724.729	36757.37
725.071	36576.58
725.413	36580.87
725.755	36619.07
726.097	36466.98
726.439	36298.4
726.782	36514.21
727.124	36650.03
727.465	36494.55
727.807	36540.42
728.149	36480.09
728.491	36621.78
728.833	36545.17
729.175	36538.62
729.516	36583.81
729.858	36455.91
730.199	36540.65
730.541	36577.71
730.882	36398.73
731.224	36539.07
731.565	36193.77
731.906	36302.69
732.248	36243.71
732.589	35950.38
732.93	35867.67
733.271	35816.37
733.612	35726.66
733.953	35578.64
734.294	35391.08
734.635	35161.93
734.976	35266.78
735.317	34967.58
735.658	34876.74
735.999	34726.46
736.339	34703.86
736.68	34724.65
737.021	34660.25
737.361	34427.26
737.702	34582.73
738.042	34459.8
738.383	34441.27
738.723	34449.4
739.063	34433.59
739.404	34527.14
739.744	34423.64
740.084	34445.34
740.424	34540.25
740.764	34416.86
741.104	34630.42
741.444	34411.44
741.784	34497.09
742.124	34728.27
742.464	34572.57
742.804	34667.03
743.143	34519.69
743.483	34669.51
743.823	34476.07
744.162	34452.12
744.502	34578.22
744.841	34368.28
745.181	34471.78
745.52	34228.39
745.86	34233.59
746.199	34065.46
746.538	33919.02
746.877	34065.46
747.216	33857.1
747.556	33648.3
747.895	33635.19
748.234	33396.55
748.573	33168.99
748.911	33169.66
749.25	32993.62
749.589	32858.94
749.928	32832.72
750.267	32707.76
750.605	32636.57
750.944	32461.66
751.283	32447.2
751.621	32478.38
751.96	32284.72
752.298	32221.21
752.636	32325.62
752.975	32219.63
753.313	32221.44
753.651	32248.11
753.989	32120.43
754.327	32142.35
754.666	32112.97
755.004	32184.38
755.342	32245.85
755.679	32136.47
756.017	32021.45
756.355	32121.1
756.693	32081.56
757.031	32203.81
757.368	31975.8
757.706	32060.32
758.044	31985.97
758.381	31798.4
758.719	31802.69
759.056	31647.44
759.394	31638.63
759.731	31395.25
760.068	31351.41
