Data from red_shiny_book_FLMS001491_00098.txt Node
Date: Wed Feb 08 15:25:38 GMT 2017
User: dcchb
Spectrometer: FLMS00149
Trigger mode: 0
Integration Time (sec): 2.000000E-2
Scans to average: 10
Electric dark correction enabled: true
Nonlinearity correction enabled: false
Boxcar width: 0
XAxis mode: Wavelengths
Number of Pixels in Spectrum: 2048
>>>>>Begin Spectral Data<<<<<
341.393	0.89
341.776	0.89
342.16	0.89
342.543	-62.16
342.927	-77.98
343.31	-83.63
343.693	-55.61
344.077	-51.54
344.46	-87.02
344.843	-49.73
345.226	-37.08
345.61	-21.93
345.993	-22.84
346.376	-15.38
346.759	7.67
347.142	13.32
347.525	39.31
347.908	59.65
348.291	82.24
348.674	103.94
349.057	118.63
349.44	147.55
349.823	134.9
350.206	164.5
350.588	213.99
350.971	202.24
351.354	228
351.737	229.58
352.119	244.73
352.502	288.57
352.884	273.2
353.267	282.92
353.65	310.94
354.032	319.07
354.414	304.38
354.797	304.61
355.179	297.15
355.562	332.18
355.944	337.6
356.326	333.54
356.709	329.69
357.091	352.97
357.473	353.2
357.855	354.55
358.238	349.58
358.62	348.68
359.002	336.7
359.384	349.81
359.766	341.9
360.148	328.34
360.53	356.59
360.912	336.7
361.294	341.9
361.676	332.41
362.057	360.88
362.439	355.46
362.821	348.23
363.203	325.85
363.584	347.77
363.966	330.15
364.348	329.47
364.729	330.15
365.111	317.49
365.493	319.53
365.874	312.52
366.256	324.95
366.637	319.75
367.019	319.53
367.4	317.94
367.781	323.82
368.163	331.28
368.544	335.57
368.925	341.22
369.306	317.04
369.688	330.37
370.069	330.6
370.45	340.99
370.831	335.34
371.212	308.68
371.593	310.71
371.974	324.95
372.355	325.4
372.736	335.8
373.117	319.53
373.498	332.18
373.879	349.36
374.26	297.83
374.641	326.08
375.021	320.2
375.402	344.61
375.783	311.62
376.163	334.44
376.544	341.67
376.925	344.84
377.305	322.46
377.686	330.15
378.066	322.92
378.447	339.19
378.827	331.73
379.208	327.21
379.588	345.51
379.968	336.7
380.349	319.98
380.729	341.22
381.109	338.73
381.489	329.47
381.87	350.26
382.25	339.86
382.63	357.49
383.01	346.87
383.39	341.9
383.77	355
384.15	364.27
384.53	362.24
384.91	360.88
385.29	345.51
385.67	353.2
386.049	329.69
386.429	357.26
386.809	372.86
387.189	364.5
387.568	362.69
387.948	362.91
388.328	368.34
388.707	348.9
389.087	369.47
389.466	353.2
389.846	350.26
390.225	392.29
390.605	365.4
390.984	372.86
391.363	373.54
391.743	391.16
392.122	381.67
392.501	382.12
392.881	397.26
393.26	396.81
393.639	386.64
394.018	404.5
394.397	378.73
394.776	390.03
395.155	374.44
395.534	412.18
395.913	400.43
396.292	386.87
396.671	398.39
397.05	398.39
397.429	409.69
397.808	387.09
398.186	401.78
398.565	382.57
398.944	413.99
399.323	402.24
399.701	411.05
400.08	405.4
400.458	391.61
400.837	429.35
401.215	409.24
401.594	411.95
401.972	434.78
402.351	424.83
402.729	432.06
403.107	425.96
403.486	416.02
403.864	400.43
404.242	426.64
404.62	449.01
404.999	437.26
405.377	442.23
405.755	457.15
406.133	451.05
406.511	450.82
406.889	443.36
407.267	458.05
407.645	447.43
408.023	488.56
408.401	463.7
408.779	476.58
409.156	464.38
409.534	453.08
409.912	487.2
410.29	484.94
410.667	474.78
411.045	463.48
411.422	474.78
411.8	491.05
412.178	479.97
412.555	491.5
412.933	523.81
413.31	514.55
413.687	520.42
414.065	531.95
414.442	523.14
414.819	534.21
415.197	514.55
415.574	509.58
415.951	515.9
416.328	520.65
416.705	551.61
417.082	548.9
417.46	578.28
417.837	559.75
418.214	557.49
418.591	548.9
418.967	552.29
419.344	567.88
419.721	562.46
420.098	557.71
420.475	580.54
420.852	572.17
421.228	584.15
421.605	610.82
421.982	611.5
422.358	593.42
422.735	607.43
423.111	593.19
423.488	584.15
423.864	602.91
424.241	608.11
424.617	589.12
424.994	617.37
425.37	620.53
425.746	657.37
426.123	648.1
426.499	651.72
426.875	655.79
427.251	651.49
427.627	663.92
428.003	647.2
428.379	671.61
428.756	656.69
429.132	668.22
429.507	681.78
429.883	701.44
430.259	672.96
430.635	699.4
431.011	708.89
431.387	724.26
431.763	739.18
432.138	707.76
432.514	701.44
432.89	699.63
433.265	710.02
433.641	723.36
434.016	757.48
434.392	737.59
434.767	757.48
435.143	764.49
435.518	777.14
435.894	782.79
436.269	785.05
436.644	786.18
437.02	796.8
437.395	775.78
437.77	787.54
438.145	792.28
438.52	816.01
438.895	816.69
439.271	827.31
439.646	840.42
440.021	859.62
440.395	865.73
440.77	827.31
441.145	835.44
441.52	835.22
441.895	827.76
442.27	837.93
442.645	840.19
443.019	844.48
443.394	850.36
443.769	871.6
444.143	894.88
444.518	906.85
444.892	890.81
445.267	880.87
445.641	887.42
446.016	893.97
446.39	870.47
446.764	909.79
447.139	867.53
447.513	883.35
447.887	871.83
448.262	897.14
448.636	927.42
449.01	932.84
449.384	929
449.758	952.96
450.132	981.2
450.506	945.72
450.88	932.39
451.254	954.99
451.628	952.05
452.002	913.18
452.376	914.09
452.75	936.91
453.123	946.18
453.497	969.45
453.871	977.59
454.244	1020.07
454.618	1020.07
454.992	1012.16
455.365	1035.66
455.739	1025.72
456.112	1034.99
456.486	1023.91
456.859	1026.63
457.232	1017.36
457.606	1014.87
457.979	1009.45
458.352	1009.22
458.725	1049.45
459.099	1056
459.472	1091.93
459.845	1115.44
460.218	1111.14
460.591	1132.84
460.964	1101.65
461.337	1118.6
461.71	1096.23
462.083	1105.49
462.456	1079.51
462.829	1094.65
463.201	1098.94
463.574	1127.41
463.947	1128.77
464.32	1145.94
464.692	1196.79
465.065	1208.99
465.438	1218.48
465.81	1232.5
466.183	1250.12
466.555	1264.13
466.928	1256.22
467.3	1206.73
467.672	1234.3
468.045	1221.2
468.417	1228.88
468.789	1216.45
469.161	1249.9
469.534	1268.88
469.906	1322.44
470.278	1343.91
470.65	1368.31
471.022	1399.5
471.394	1398.14
471.766	1391.14
472.138	1393.62
472.51	1392.49
472.882	1431.59
473.253	1394.07
473.625	1392.27
473.997	1411.02
474.369	1444.92
474.74	1408.76
475.112	1493.05
475.484	1482.43
475.855	1550.23
476.227	1576.22
476.598	1638.81
476.97	1625.48
477.341	1658.47
477.713	1652.6
478.084	1621.41
478.455	1661.86
478.827	1626.61
479.198	1638.13
479.569	1678.13
479.94	1704.12
480.311	1712.94
480.682	1773.72
481.053	1816.66
481.424	1891.01
481.795	1915.19
482.166	1947.28
482.537	1997
482.908	1994.28
483.279	2009.2
483.65	2059.59
484.021	2040.61
484.391	2002.19
484.762	2025.7
485.133	1984.79
485.503	2017.11
485.874	2049.88
486.244	2102.98
486.615	2107.28
486.985	2209.42
487.356	2297.78
487.726	2320.83
488.097	2394.27
488.467	2414.61
488.837	2429.07
489.207	2467.72
489.578	2468.17
489.948	2470.43
490.318	2421.62
490.688	2411.45
491.058	2403.99
491.428	2428.4
491.798	2466.14
492.168	2524.44
492.538	2533.03
492.908	2637.66
493.278	2681.72
493.648	2735.28
494.017	2801.49
494.387	2862.06
494.757	2870.64
495.126	2906.12
495.496	2846.01
495.866	2862.96
496.235	2864.09
496.605	2799.23
496.974	2793.81
497.344	2782.96
497.713	2768.5
498.082	2812.79
498.452	2867.71
498.821	2918.1
499.19	2954.94
499.559	3058.89
499.928	3116.29
500.298	3187.47
500.667	3176.17
501.036	3187.02
501.405	3244.19
501.774	3162.16
502.143	3156.29
502.512	3088.72
502.88	3086.68
503.249	3042.84
503.618	3014.82
503.987	3033.58
504.356	3050.3
504.724	3088.94
505.093	3118.55
505.462	3140.92
505.83	3254.14
506.199	3313.8
506.567	3418.43
506.936	3421.36
507.304	3479.89
507.672	3449.84
508.041	3430.63
508.409	3413.46
508.777	3360.12
509.145	3321.25
509.514	3248.49
509.882	3283.06
510.25	3211.65
510.618	3234.25
510.986	3229.28
511.354	3293.01
511.722	3337.98
512.09	3402.61
512.458	3441.93
512.826	3523.06
513.193	3598.54
513.561	3613.22
513.929	3652.55
514.297	3655.03
514.664	3652.77
515.032	3627.91
515.4	3564.86
515.767	3536.84
516.135	3479.44
516.502	3446.67
516.869	3405.32
517.237	3360.8
517.604	3372.55
517.972	3449.61
518.339	3506.56
518.706	3566.67
519.073	3634.69
519.44	3686.22
519.808	3793.56
520.175	3802.6
520.542	3888.02
520.909	3926.89
521.276	3874.46
521.643	3888.7
522.009	3817.51
522.376	3819.55
522.743	3712.2
523.11	3703.62
523.477	3654.81
523.843	3635.82
524.21	3634.01
524.577	3659.78
524.943	3693
525.31	3818.87
525.676	3869.26
526.043	3994.01
526.409	4075.13
526.776	4155.58
527.142	4220.21
527.508	4271.74
527.874	4342.92
528.241	4294.34
528.607	4273.09
528.973	4271.51
529.339	4179.31
529.705	4176.37
530.071	4086.66
530.437	4036.26
530.803	4044.4
531.169	4068.13
531.535	4050.27
531.901	4090.73
532.267	4205.53
532.632	4321.23
532.998	4403.26
533.364	4473.54
533.73	4565.52
534.095	4722.12
534.461	4796.7
534.826	4828.56
535.192	4840.76
535.557	4852.74
535.923	4772.52
536.288	4747.43
536.653	4668.79
537.019	4571.62
537.384	4557.38
537.749	4549.02
538.114	4520.09
538.479	4492.3
538.845	4503.82
539.21	4568.45
539.575	4624.95
539.94	4727.77
540.305	4845.06
540.67	4965.05
541.034	5054.54
541.399	5134.77
541.764	5260.64
542.129	5298.6
542.494	5341.77
542.858	5341.77
543.223	5273.75
543.587	5248.21
543.952	5170.02
544.316	5108.33
544.681	5025.39
545.045	5014.77
545.41	4957.82
545.774	4935.9
546.138	4949.91
546.503	4963.92
546.867	5014.09
547.231	5118.04
547.595	5210.92
547.959	5271.94
548.324	5363.46
548.688	5520.52
549.052	5610.23
549.416	5686.16
549.779	5685.71
550.143	5692.04
550.507	5744.47
550.871	5652.04
551.235	5584.47
551.599	5503.57
551.962	5458.37
552.326	5353.07
552.689	5302.9
553.053	5221.77
553.417	5176.35
553.78	5207.53
554.143	5179.74
554.507	5246.63
554.87	5358.04
555.234	5410.01
555.597	5483.01
555.96	5626.73
556.323	5737.24
556.686	5857.01
557.05	5910.56
557.413	5984.01
557.776	5972.48
558.139	6044.57
558.502	6030.11
558.865	5937.23
559.228	5919.38
559.59	5780.62
559.953	5753.73
560.316	5709.67
560.679	5558.71
561.041	5553.06
561.404	5518.48
561.767	5480.52
562.129	5506.28
562.492	5561.65
562.854	5635.09
563.217	5734.75
563.579	5841.19
563.941	5966.61
564.304	6086.61
564.666	6239.14
565.028	6307.62
565.39	6353.27
565.753	6448.4
566.115	6454.73
566.477	6455.41
566.839	6449.08
567.201	6351.91
567.563	6310.33
567.925	6170.67
568.287	6118.7
568.648	6015.19
569.01	5950.56
569.372	5908.08
569.734	5887.74
570.095	5920.51
570.457	5964.35
570.819	6007.96
571.18	6071.92
571.542	6196.66
571.903	6372.02
572.265	6531.11
572.626	6634.61
572.987	6791.45
573.349	6949.86
573.71	7061.04
574.071	7146.69
574.432	7123.41
574.794	7202.73
575.155	7212.68
575.516	7153.7
575.877	7125.22
576.238	7046.13
576.599	6985.56
576.96	6962.97
577.32	6880.26
577.681	6904.21
578.042	6981.27
578.403	6927.94
578.763	7020.82
579.124	7195.28
579.485	7362.5
579.845	7572.89
580.206	7824.41
580.566	8083.84
580.927	8344.17
581.287	8714.56
581.648	8865.06
582.008	9215.56
582.368	9444.26
582.728	9741.42
583.089	9964.92
583.449	10123.56
583.809	10301.86
584.169	10448.3
584.529	10561.97
584.889	10728.74
585.249	10901.85
585.609	11043.31
585.969	11222.97
586.329	11477.42
586.688	11747.02
587.048	12096.62
587.408	12424.29
587.768	12788.12
588.127	13187.89
588.487	13696.8
588.846	14225.83
589.206	14563.44
589.565	15080.49
589.925	15692.68
590.284	16185.55
590.643	16717.29
591.003	17306.2
591.362	17790.7
591.721	18168.55
592.08	18640.17
592.44	19044.91
592.799	19398.12
593.158	19695.06
593.517	19978.22
593.876	20348.6
594.235	20716.96
594.593	21047.57
594.952	21305.19
595.311	21612.07
595.67	22034.43
596.029	22567.75
596.387	23000.74
596.746	23504.9
597.104	23863.99
597.463	24330.42
597.822	24993
598.18	25367.91
598.538	25868.91
598.897	26525.39
599.255	26975.77
599.613	27780.95
599.972	28196.98
600.33	28663.19
600.688	28966.68
601.046	29449.16
601.404	29957.16
601.762	30212.98
602.12	30685.28
602.478	30847.99
602.836	31238.71
603.194	31226.51
603.552	31543.79
603.91	31508.99
604.268	31911.69
604.625	32048.63
604.983	32527.49
605.341	32621.95
605.698	33152.79
606.056	33398.2
606.413	33720.68
606.771	34160.67
607.128	34658.28
607.485	34714.33
607.843	35181.21
608.2	35721.31
608.557	36249.2
608.914	36563.32
609.272	37129.86
609.629	37272.9
609.986	37702.95
610.343	37729.16
610.7	38363.5
611.057	38488.24
611.414	38491.86
611.771	38603.72
612.127	38838.29
612.484	38991.05
612.841	39046.87
613.198	38969.58
613.554	39093.65
613.911	39302.68
614.267	39289.35
614.624	39344.94
614.98	39524.37
615.337	39802.56
615.693	40026.96
616.05	40063.11
616.406	40374.07
616.762	40663.78
617.118	40873.26
617.475	41195.74
617.831	41444.09
618.187	41722.73
618.543	41928.37
618.899	42374.24
619.255	42350.28
619.611	42559.09
619.967	42871.4
620.323	43007.89
620.678	42802.25
621.034	42816.71
621.39	42733.33
621.746	42921.8
622.101	43358.62
622.457	42753.21
622.812	42981.68
623.168	42724.96
623.523	42941.23
623.879	42933.55
624.234	42563.61
624.589	42830.05
624.945	42887.22
625.3	42869.37
625.655	42924.73
626.01	43134.44
626.365	43271.16
626.72	43310.49
627.075	43485.62
627.43	43523.14
627.785	43696.92
628.14	43895.33
628.495	44112.72
628.85	44156.11
629.205	44132.84
629.559	44556.78
629.914	44250.57
630.269	44430
630.623	44421.19
630.978	44343.68
631.332	44379.38
631.687	44489.44
632.041	44086.51
632.396	44201.76
632.75	43813.3
633.104	43825.05
633.459	43609.46
633.813	43395
634.167	43344.38
634.521	43346.87
634.875	43374.21
635.229	43313.88
635.583	43100.32
635.937	43285.4
636.291	43291.28
636.645	43277.49
636.999	43304.38
637.352	43571.95
637.706	43355.23
638.06	43738.27
638.413	43724.94
638.767	43735.79
639.121	43881.77
639.474	43699.63
639.828	43842.9
640.181	43978.04
640.534	44026.4
640.888	43809.68
641.241	43616.69
641.594	43693.53
641.947	43615.34
642.301	43430.71
642.654	43423.93
643.007	43348.68
643.36	43185.07
643.713	42953.21
644.066	43079.53
644.419	42663.27
644.771	42503.28
645.124	41905.78
645.477	41828.49
645.83	41422.17
646.182	41470.76
646.535	41369.75
646.888	41502.85
647.24	41298.34
647.593	41722.73
647.945	41634.6
648.298	41570.87
648.65	41647.03
649.002	41626.24
649.355	41890.64
649.707	41744.88
650.059	42031.65
650.411	42568.13
650.763	42643.84
651.115	43182.81
651.467	42922.93
651.819	42976.71
652.171	42767.9
652.523	42524.74
652.875	42477.97
653.227	42317.97
653.578	42589.6
653.93	42184.41
654.282	42125.88
654.633	41767.7
654.985	41840.02
655.337	41854.7
655.688	41552.57
656.039	41751.2
656.391	41334.27
656.742	41312.57
657.094	41384.89
657.445	41641.6
657.796	41402.29
658.147	41299.69
658.498	41476.41
658.849	41783.29
659.2	41934.25
659.551	41894.25
659.902	42060.8
660.253	42028.26
660.604	42195.71
660.955	42129.27
661.306	42136.51
661.656	42290.63
662.007	42225.32
662.358	42206.11
662.708	42172.89
663.059	42211.76
663.409	41990.29
663.76	42081.82
664.11	41972.44
664.461	42075.26
664.811	41796.63
665.161	41715.95
665.511	41518.22
665.862	41465.79
666.212	41488.84
666.562	41334.94
666.912	41054.73
667.262	40999.81
667.612	40995.97
667.962	40956.2
668.312	40889.31
668.662	40997.1
669.011	40917.1
669.361	40987.38
669.711	41066.25
670.06	40951.23
670.41	41093.82
670.76	41069.19
671.109	41384.43
671.459	41256.53
671.808	41416.98
672.157	41541.94
672.507	41317.32
672.856	41473.92
673.205	41567.03
673.554	41740.36
673.904	41574.26
674.253	41788.04
674.602	41572.45
674.951	41013.6
675.3	40797.56
675.649	41279.35
675.998	41165.23
676.346	41159.81
676.695	41098.79
677.044	40604.12
677.393	40788.52
677.741	40666.71
678.09	40364.35
678.438	40281.64
678.787	40397.79
679.135	40180.17
679.484	39957.58
679.832	40099.95
680.181	39799.39
680.529	39947.41
680.877	39867.64
681.225	39865.15
681.573	40179.72
681.922	40022.89
682.27	39867.64
682.618	40093.62
682.966	40023.57
683.314	40253.16
683.661	40206.61
684.009	40131.13
684.357	40132.49
684.705	40161.42
685.053	40251.36
685.4	40163.45
685.748	40071.02
686.095	40013.62
686.443	39808.2
686.79	39736.57
687.138	39776.57
687.485	39591.71
687.832	39512.85
688.18	39434.2
688.527	39130.26
688.874	39059.98
689.221	38915.57
689.568	38757.61
689.915	38531.63
690.262	38418.64
690.609	38227.46
690.956	37963.28
691.303	38017.07
691.65	37732.33
691.997	37826.34
692.344	37600.35
692.69	37591.31
693.037	37667.02
693.383	37403.3
693.73	37521.26
694.077	37377.53
694.423	37392
694.769	37337.54
695.116	37440.36
695.462	37542.5
695.808	37385.44
696.155	37631.09
696.501	37232.91
696.847	37309.06
697.193	37203.3
697.539	37347.7
697.885	37126.02
698.231	37069.29
698.577	36962.4
698.923	37018.9
699.269	36809.64
699.614	36636.31
699.96	36489.87
700.306	36345.7
700.651	36219.37
700.997	35919.49
701.342	35853.51
701.688	35813.06
702.033	35595.89
702.379	35342.11
702.724	35214.43
703.069	35208.55
703.415	34719.07
703.76	34804.49
704.105	34681.11
704.45	34558.17
704.795	34340.55
705.14	34461.45
705.485	34288.35
705.83	34156.15
706.175	34267.79
706.52	34250.38
706.865	34186.88
707.209	34090.16
707.554	34114.57
707.899	34353.21
708.243	34148.01
708.588	34213.78
708.932	34022.59
709.277	34018.98
709.621	34168.58
709.966	34054.91
710.31	34092.87
710.654	33948.92
710.998	33927
711.342	33944.86
711.687	33886.55
712.031	33712.55
712.375	33543.74
712.719	33574.7
713.063	33349.17
713.407	33539.89
713.75	33240.92
714.094	33122.28
714.438	32874.6
714.782	32823.98
715.125	32557.1
715.469	32565.01
715.812	32243.66
716.156	32201.4
716.499	32026.04
716.843	32011.12
717.186	31832.82
717.53	31856.55
717.873	31865.14
718.216	31826.04
718.559	31725.25
718.902	31551.92
719.246	31649.78
719.589	31594.41
719.932	31572.26
720.275	31652.49
720.617	31483.45
720.96	31648.65
721.303	31692.49
721.646	31703.11
721.989	31598.7
722.331	31777.46
722.674	31708.3
723.016	31765.93
723.359	31710.34
723.701	31809.77
724.044	31584.92
724.386	31458.37
724.729	31598.93
725.071	31445.03
725.413	31423.79
725.755	31238.03
726.097	31276.68
726.439	31027.42
726.782	30867.42
727.124	31095.44
727.465	30768.89
727.807	30682.12
728.149	30507.43
728.491	30324.61
728.833	30450.94
729.175	30182.24
729.516	30097.05
729.858	30072.87
730.199	29912.19
730.541	29866.77
730.882	29734.57
731.224	29890.05
731.565	29640.11
731.906	29665.42
732.248	29746.32
732.589	29539.32
732.93	29491.87
733.271	29637.85
733.612	29518.08
733.953	29728.92
734.294	29557.63
734.635	29656.16
734.976	29686.44
735.317	29645.31
735.658	29732.54
735.999	29661.58
736.339	29629.26
736.68	29835.36
737.021	29734.57
737.361	29597.17
737.702	29843.95
738.042	29740.9
738.383	29745.87
738.723	29664.74
739.063	29740.45
739.404	29521.47
739.744	29548.14
740.084	29376.39
740.424	29271.08
740.764	29197.86
741.104	29324.86
741.444	29018.66
741.784	28884.88
742.124	28769.62
742.464	28702.06
742.804	28702.51
743.143	28402.85
743.483	28490.99
743.823	28290.09
744.162	28141.84
744.502	28246.25
744.841	28146.59
745.181	28045.35
745.52	27935.07
745.86	28056.2
746.199	27893.72
746.538	27880.83
746.877	28008.97
747.216	27910.21
747.556	27938.46
747.895	27964
748.234	27892.13
748.573	27839.71
748.911	27973.26
749.25	27990.89
749.589	27912.7
749.928	27904.56
750.267	28064.56
750.605	28012.13
750.944	27876.32
751.283	27747.28
751.621	27882.87
751.96	27786.6
752.298	27791.57
752.636	27729.65
752.975	27778.46
753.313	27634.06
753.651	27580.5
753.989	27458.25
754.327	27463.44
754.666	27224.35
755.004	27258.25
755.342	27157.01
755.679	27161.31
756.017	26898.94
756.355	26845.16
756.693	26701.43
757.031	26534.2
757.368	26489.23
757.706	26366.75
758.044	26245.62
758.381	26295.11
758.719	26072.97
759.056	26034.56
759.394	25819.65
759.731	25678.41
760.068	25682.47
760.405	25629.59
760.743	25467.56
