Data from red_cardboard_box_FLMS001491_00059.txt Node
Date: Wed Feb 08 11:32:47 GMT 2017
User: dcchb
Spectrometer: FLMS00149
Trigger mode: 0
Integration Time (sec): 2.000000E-2
Scans to average: 10
Electric dark correction enabled: true
Nonlinearity correction enabled: false
Boxcar width: 0
XAxis mode: Wavelengths
Number of Pixels in Spectrum: 2048
>>>>>Begin Spectral Data<<<<<
341.393	6.95
341.776	6.95
342.16	6.95
342.543	-71.69
342.927	-61.75
343.31	-64.46
343.693	-75.76
344.077	-73.73
344.46	-77.57
344.843	-59.49
345.226	-47.96
345.61	-22.43
345.993	-25.37
346.376	-14.07
346.759	28.42
347.142	15.31
347.525	51.24
347.908	71.13
348.291	89.88
348.674	102.31
349.057	102.54
349.44	124.69
349.823	142.09
350.206	158.81
350.588	196.77
350.971	227.06
351.354	240.39
351.737	241.07
352.119	267.28
352.502	268.41
352.884	285.36
353.267	275.42
353.65	310.22
354.032	308.86
354.414	319.94
354.797	321.52
355.179	306.38
355.562	326.49
355.944	333.04
356.326	347.5
356.709	335.08
357.091	314.74
357.473	337.11
357.855	349.54
358.238	344.12
358.62	336.66
359.002	354.74
359.384	344.57
359.766	331.23
360.148	354.96
360.53	329.65
360.912	333.27
361.294	339.14
361.676	342.31
362.057	333.04
362.439	326.94
362.821	333.95
363.203	323.78
363.584	314.51
363.966	318.13
364.348	310.44
364.729	310.22
365.111	333.27
365.493	319.03
365.874	317.9
366.256	342.31
366.637	345.92
367.019	291.69
367.4	323.55
367.781	322.42
368.163	321.07
368.544	294.63
368.925	316.55
369.306	322.19
369.688	314.74
370.069	312.03
370.45	321.29
370.831	321.52
371.212	316.32
371.593	305.92
371.974	314.51
372.355	336.88
372.736	324
373.117	311.35
373.498	307.28
373.879	307.05
374.26	321.97
374.641	305.25
375.021	313.16
375.402	322.87
375.783	316.32
376.163	320.16
376.544	336.88
376.925	325.13
377.305	331.01
377.686	320.84
378.066	322.65
378.447	334.62
378.827	318.35
379.208	323.78
379.588	350.22
379.968	337.79
380.349	351.12
380.729	330.33
381.109	329.2
381.489	334.17
381.87	345.25
382.25	348.41
382.63	347.05
383.01	335.75
383.39	347.5
383.77	357.67
384.15	338.47
384.53	339.37
384.91	342.31
385.29	354.74
385.67	352.25
386.049	357
386.429	358.8
386.809	355.41
387.189	336.66
387.568	351.57
387.948	354.74
388.328	357.22
388.707	366.49
389.087	356.77
389.466	353.61
389.846	339.82
390.225	358.13
390.605	369.65
390.984	361.97
391.363	375.75
391.743	358.58
392.122	378.69
392.501	367.62
392.881	352.25
393.26	364.91
393.639	378.92
394.018	369.65
394.397	388.63
394.776	374.4
395.155	363.55
395.534	352.25
395.913	349.09
396.292	369.65
396.671	372.82
397.05	368.07
397.429	369.2
397.808	364.91
398.186	359.48
398.565	379.37
398.944	374.62
399.323	381.63
399.701	381.18
400.08	373.72
400.458	381.18
400.837	401.06
401.215	381.18
401.594	385.92
401.972	402.42
402.351	398.58
402.729	401.29
403.107	399.26
403.486	377.79
403.864	393.61
404.242	390.22
404.62	409.42
404.999	420.27
405.377	391.57
405.755	402.87
406.133	396.32
406.511	401.97
406.889	423.44
407.267	396.77
407.645	422.76
408.023	410.55
408.401	406.03
408.779	413.27
409.156	417.33
409.534	418.46
409.912	426.15
410.29	421.4
410.667	433.83
411.045	422.76
411.422	440.84
411.8	414.62
412.178	431.34
412.555	440.38
412.933	426.37
413.31	450.78
413.687	460.27
414.065	446.94
414.442	437.22
414.819	459.37
415.197	446.03
415.574	442.19
415.951	442.64
416.328	468.63
416.705	455.52
417.082	475.19
417.46	460.27
417.837	433.38
418.214	479.93
418.591	483.77
418.967	479.25
419.344	493.04
419.721	467.05
420.098	478.12
420.475	502.3
420.852	490.55
421.228	486.03
421.605	508.18
421.982	489.2
422.358	499.82
422.735	505.92
423.111	505.01
423.488	502.76
423.864	496.88
424.241	507.27
424.617	503.21
424.994	498.91
425.37	490.55
425.746	518.8
426.123	479.25
426.499	510.21
426.875	507.73
427.251	536.43
427.627	518.57
428.003	537.56
428.379	545.47
428.756	515.64
429.132	540.27
429.507	550.89
429.883	543.88
430.259	547.05
430.635	568.06
431.011	542.08
431.387	568.29
431.763	586.59
432.138	561.06
432.514	561.96
432.89	554.73
433.265	554.51
433.641	589.53
434.016	564
434.392	577.56
434.767	576.65
435.143	605.13
435.518	583.43
435.894	599.25
436.269	605.8
436.644	596.76
437.02	584.33
437.395	615.29
437.77	620.72
438.145	602.41
438.52	607.16
438.895	617.55
439.271	633.83
439.646	654.62
440.021	637.89
440.395	632.02
440.77	630.21
441.145	646.25
441.52	648.06
441.895	659.59
442.27	629.53
442.645	636.08
443.019	653.49
443.394	662.3
443.769	631.11
444.143	661.4
444.518	677.44
444.892	676.54
445.267	684.45
445.641	688.51
446.016	655.52
446.39	673.15
446.764	675.41
447.139	675.86
447.513	679.25
447.887	675.86
448.262	675.41
448.636	713.37
449.01	703.43
449.384	696.87
449.758	730.77
450.132	689.42
450.506	718.34
450.88	697.78
451.254	727.61
451.628	725.35
452.002	717.44
452.376	733.03
452.75	721.28
453.123	721.28
453.497	735.52
453.871	755.18
454.244	760.6
454.618	760.83
454.992	767.61
455.365	742.75
455.739	773.26
456.112	768.96
456.486	767.15
456.859	777.78
457.232	796.08
457.606	791.34
457.979	800.37
458.352	805.57
458.725	833.37
459.099	803.76
459.472	826.59
459.845	841.05
460.218	832.01
460.591	829.07
460.964	841.28
461.337	854.16
461.71	865.46
462.083	858.45
462.456	879.69
462.829	884.67
463.201	896.19
463.574	887.15
463.947	897.55
464.32	894.16
464.692	909.98
465.065	916.76
465.438	948.39
465.81	944.55
466.183	924.89
466.555	953.36
466.928	967.38
467.3	963.08
467.672	966.7
468.045	979.13
468.417	989.3
468.789	972.57
469.161	989.75
469.534	1013.48
469.906	1019.58
470.278	1010.31
470.65	1025.45
471.022	1033.59
471.394	1067.49
471.766	1066.13
472.138	1082.85
472.51	1107.26
472.882	1071.55
473.253	1102.74
473.625	1116.98
473.997	1128.05
474.369	1148.61
474.74	1169.86
475.112	1184.09
475.484	1197.2
475.855	1222.96
476.227	1200.14
476.598	1229.97
476.97	1256.63
477.341	1261.38
477.713	1271.77
478.084	1266.58
478.455	1316.07
478.827	1312.45
479.198	1337.54
479.569	1346.35
479.94	1375.95
480.311	1370.98
480.682	1405.33
481.053	1414.37
481.424	1440.13
481.795	1432.67
482.166	1432.45
482.537	1491.43
482.908	1497.98
483.279	1530.07
483.65	1547.02
484.021	1555.61
484.391	1608.94
484.762	1606.68
485.133	1628.83
485.503	1640.13
485.874	1669.05
486.244	1655.27
486.615	1700.46
486.985	1701.37
487.356	1747.92
487.726	1752.44
488.097	1757.64
488.467	1789.95
488.837	1811.87
489.207	1822.49
489.578	1860.46
489.948	1854.81
490.318	1924.64
490.688	1903.62
491.058	1942.49
491.428	1958.08
491.798	1990.63
492.168	2013.45
492.538	2008.03
492.908	2027.23
493.278	2034.47
493.648	2053
494.017	2092.77
494.387	2087.12
494.757	2137.29
495.126	2143.16
495.496	2129.38
495.866	2162.82
496.235	2179.77
496.605	2222.03
496.974	2200.56
497.344	2245.76
497.713	2240.56
498.082	2260
498.452	2270.39
498.821	2264.74
499.19	2324.63
499.559	2329.6
499.928	2315.81
500.298	2332.76
500.667	2420.22
501.036	2389.71
501.405	2417.06
501.774	2365.08
502.143	2424.51
502.512	2433.78
502.88	2454.57
503.249	2455.47
503.618	2461.35
503.987	2493.89
504.356	2508.58
504.724	2493.66
505.093	2555.81
505.462	2537.96
505.83	2598.52
506.199	2580.67
506.567	2635.81
506.936	2630.38
507.304	2622.02
507.672	2655.47
508.041	2666.31
508.409	2722.36
508.777	2711.28
509.145	2773.66
509.514	2784.5
509.882	2771.62
510.25	2730.95
510.618	2793.32
510.986	2782.92
511.354	2836.93
511.722	2819.08
512.09	2928
512.458	2847.78
512.826	2899.3
513.193	2943.82
513.561	2947.89
513.929	2933.88
514.297	2963.26
514.664	3017.27
515.032	3028.11
515.4	3042.58
515.767	3067.43
516.135	3085.96
516.502	3113.31
516.869	3128.45
517.237	3183.59
517.604	3168.22
517.972	3194.89
518.339	3219.75
518.706	3213.87
519.073	3246.64
519.44	3261.78
519.808	3351.95
520.175	3301.33
520.542	3346.97
520.909	3403.24
521.276	3368.67
521.643	3420.87
522.009	3385.17
522.376	3435.56
522.743	3481.43
523.11	3523.01
523.477	3583.58
523.843	3552.17
524.21	3578.38
524.577	3660.86
524.943	3659.73
525.31	3653.86
525.676	3687.98
526.043	3737.02
526.409	3718.04
526.776	3784.02
527.142	3776.57
527.508	3829.22
527.874	3855.21
528.241	3887.07
528.607	3894.08
528.973	3960.52
529.339	3991.93
529.705	4001.19
530.071	4039.84
530.437	4019.5
530.803	4108.08
531.169	4066.96
531.535	4103.79
531.901	4132.26
532.267	4190.12
532.632	4187.63
532.998	4157.8
533.364	4210.68
533.73	4239.61
534.095	4249.1
534.461	4269.44
534.826	4306.27
535.192	4372.71
535.557	4364.35
535.923	4409.77
536.288	4431.01
536.653	4426.95
537.019	4417.68
537.384	4459.26
537.749	4498.58
538.114	4524.12
538.479	4521.63
538.845	4574.29
539.21	4541.07
539.575	4553.5
539.94	4615.42
540.305	4630.78
540.67	4654.74
541.034	4662.42
541.399	4740.61
541.764	4715.07
542.129	4692.48
542.494	4706.94
542.858	4727.05
543.223	4802.08
543.587	4847.05
543.952	4820.83
544.316	4822.64
544.681	4879.36
545.045	4909.19
545.41	4930.44
545.774	4941.73
546.138	4981.06
546.503	4990.77
546.867	5069.64
547.231	5079.58
547.595	5075.06
547.959	5054.05
548.324	5108.06
548.688	5140.83
549.052	5156.19
549.416	5183.76
549.779	5186.25
550.143	5221.5
550.507	5275.74
550.871	5300.14
551.235	5332.68
551.599	5358.67
551.962	5384.66
552.326	5339.46
552.689	5428.95
553.053	5464.21
553.417	5494.94
553.78	5556.63
554.143	5579.68
554.507	5577.65
554.87	5603.19
555.234	5687.25
555.597	5665.78
555.96	5741.71
556.323	5756.85
556.686	5801.37
557.05	5821.94
557.413	5825.33
557.776	5923.4
558.139	5933.8
558.502	5969.96
558.865	6068.71
559.228	6118.43
559.59	6166.11
559.953	6180.8
560.316	6227.35
560.679	6261.02
561.041	6350.74
561.404	6397.74
561.767	6448.59
562.129	6462.6
562.492	6578.53
562.854	6651.29
563.217	6639.54
563.579	6660.33
563.941	6755.92
564.304	6808.58
564.666	6895.81
565.028	6919.54
565.39	6992.75
565.753	7054.45
566.115	7134.67
566.477	7225.29
566.839	7183.48
567.201	7249.47
567.563	7357.72
567.925	7441.78
568.287	7473.87
568.648	7604.04
569.01	7601.33
569.372	7662.79
569.734	7743.24
570.095	7864.14
570.457	7931.71
570.819	8051.26
571.18	8008.77
571.542	8175.77
571.903	8199.5
572.265	8271.14
572.626	8373.28
572.987	8394.98
573.349	8493.73
573.71	8581.64
574.071	8659.38
574.432	8804.23
574.794	8916.77
575.155	8981.18
575.516	8950.44
575.877	9074.96
576.238	9182.07
576.599	9326.03
576.96	9357.21
577.32	9490.99
577.681	9597.66
578.042	9722.63
578.403	9844.88
578.763	9956.74
579.124	10016.18
579.485	10161.26
579.845	10304.53
580.206	10414.13
580.566	10548.59
580.927	10716.05
581.287	10917.17
581.648	10948.58
582.008	11118.97
582.368	11257.73
582.728	11388.57
583.089	11527.1
583.449	11709.01
583.809	11891.83
584.169	12038.5
584.529	12252.95
584.889	12479.16
585.249	12645.94
585.609	12834.63
585.969	13037.79
586.329	13127.51
586.688	13528.18
587.048	13686.82
587.408	13829.41
587.768	14108.05
588.127	14317.31
588.487	14616.28
588.846	14866.45
589.206	15064.18
589.565	15299.2
589.925	15654.67
590.284	15923.14
590.643	16183.47
591.003	16522.67
591.362	16809.45
591.721	17090.57
592.08	17389.77
592.44	17769.42
592.799	18120.6
593.158	18437.2
593.517	18724.2
593.876	19133.23
594.235	19407.34
594.593	19847.56
594.952	20262.24
595.311	20495.9
595.67	20851.6
596.029	21350.12
596.387	21746.49
596.746	22180.38
597.104	22431.44
597.463	22697.88
597.822	23258.32
598.18	23601.13
598.538	23961.35
598.897	24462.58
599.255	24714.1
599.613	25352.72
599.972	25660.74
600.33	26063.21
600.688	26373.71
601.046	26842.18
601.404	27392.22
601.762	27669.27
602.12	28255.02
602.478	28637.83
602.836	29045.73
603.194	29265.61
603.552	29744.7
603.91	30082.09
604.268	30556.2
604.625	30838.68
604.983	31522.73
605.341	31658.09
605.698	32157.97
606.056	32591.4
606.413	32864.16
606.771	33259.18
607.128	33713.41
607.485	33865.72
607.843	34215.77
608.2	34713.38
608.557	35169.41
608.914	35233.59
609.272	35876.51
609.629	36195.15
609.986	36429.04
610.343	36666.32
610.7	37095.01
611.057	37459.52
611.414	37735.67
611.771	37957.14
612.127	38311.25
612.484	38447.75
612.841	38904.68
613.198	39060.39
613.554	39273.26
613.911	39743.08
614.267	39950.98
614.624	40181.94
614.98	40334.7
615.337	40725.88
615.693	40894.69
616.05	41118.86
616.406	41452.41
616.762	41543.03
617.118	41627.78
617.475	41932.4
617.831	42174.88
618.187	42343.24
618.543	42502.55
618.899	43044.46
619.255	42943.67
619.611	43064.57
619.967	43298.24
620.323	43598.35
620.678	43536.88
621.034	43703.2
621.39	43694.61
621.746	43953.82
622.101	44531.65
622.457	44240.59
622.812	44507.93
623.168	44505.44
623.523	44662.5
623.879	44966.22
624.234	44808.26
624.589	45021.58
624.945	45169.15
625.3	45335.93
625.655	45349.03
626.01	45398.75
626.365	45615.02
626.72	45532.98
627.075	45765.97
627.43	45787.21
627.785	45654.79
628.14	45983.82
628.495	45976.36
628.85	45979.07
629.205	45938.85
629.559	46161.44
629.914	46116.02
630.269	46316.69
630.623	46215.9
630.978	46163.48
631.332	46413.64
631.687	46494.31
632.041	46377.26
632.396	46650.02
632.75	46474.43
633.104	46575.89
633.459	46369.8
633.813	46484.82
634.167	46548.78
634.521	46533.64
634.875	46674.87
635.229	46637.14
635.583	46428.55
635.937	46520.08
636.291	46540.19
636.645	46589.9
636.999	46439.4
637.352	46565.05
637.706	46457.71
638.06	46653.86
638.413	46480.53
638.767	46465.39
639.121	46645.04
639.474	46525.5
639.828	46590.58
640.181	46701.77
640.534	46651.6
640.888	46641.43
641.241	46553.97
641.594	46486.63
641.947	46722.56
642.301	46522.11
642.654	46639.62
643.007	46578.61
643.36	46639.17
643.713	46622.45
644.066	46768.88
644.419	46473.52
644.771	46395.56
645.124	45755.35
645.477	45860.88
645.83	45610.95
646.182	45576.82
646.535	45441.69
646.888	45632.64
647.24	45433.78
647.593	45598.07
647.945	45595.58
648.298	45398.75
648.65	45398.52
649.002	45363.04
649.355	45488.69
649.707	45387.68
650.059	45558.52
650.411	45991.95
650.763	46266.75
651.115	46567.53
651.467	46403.47
651.819	46485.73
652.171	46391.49
652.523	46337.03
652.875	46377.93
653.227	46278.95
653.578	46530.92
653.93	46490.7
654.282	46372.06
654.633	46220.42
654.985	46265.85
655.337	46332.51
655.688	46369.57
656.039	46515.78
656.391	46084.16
656.742	46172.74
657.094	46196.47
657.445	46407.54
657.796	46230.14
658.147	46183.59
658.498	46225.39
658.849	46233.76
659.2	46086.42
659.551	46033.54
659.902	46339.52
660.253	46064.95
660.604	46215.23
660.955	46051.39
661.306	46151.27
661.656	46203.47
662.007	46177.94
662.358	46105.17
662.708	46156.92
663.059	46145.62
663.409	45968.68
663.76	46308.1
664.11	46259.52
664.461	46283.02
664.811	46273.53
665.161	46272.17
665.511	46120.09
665.862	46103.59
666.212	46375.45
666.562	46239.86
666.912	46122.8
667.262	46063.82
667.612	46191.05
667.962	46225.17
668.312	46036.02
668.662	46382.45
669.011	46195.57
669.361	46138.17
669.711	46151.27
670.06	46241.21
670.41	45990.82
670.76	45894.33
671.109	46137.26
671.459	46076.92
671.808	45993.08
672.157	46186.3
672.507	45785.86
672.856	45890.04
673.205	45831.96
673.554	45939.75
673.904	45827.89
674.253	46112.4
674.602	45991.05
674.951	45364.17
675.3	45210.28
675.649	45965.29
675.998	45808
676.346	45779.98
676.695	45875.8
677.044	45769.36
677.393	45801.68
677.741	45759.87
678.09	45663.15
678.438	45552.64
678.787	45746.31
679.135	45577.95
679.484	45416.15
679.832	45468.58
680.181	45243.73
680.529	45441.69
680.877	45391.52
681.225	45409.37
681.573	45633.55
681.922	45284.18
682.27	45097.51
682.618	45175.03
682.966	45048.02
683.314	45124.41
683.661	44979.78
684.009	44821.36
684.357	44803.51
684.705	44674.02
685.053	44745.21
685.4	44624.76
685.748	44591.09
686.095	44502.95
686.443	44507.93
686.79	44333.69
687.138	44313.13
687.485	44384.31
687.832	44141.61
688.18	44351.32
688.527	44024.55
688.874	44007.83
689.221	43831.11
689.568	43756.53
689.915	43658.23
690.262	43757.89
690.609	43448.74
690.956	43458.24
691.303	43250.56
691.65	43196.55
691.997	43308.86
692.344	43044.24
692.69	43008.08
693.037	43132.82
693.383	42595.89
693.73	42832.49
694.077	42609.44
694.423	42607.64
694.769	42652.61
695.116	42394.31
695.462	42378.26
695.808	42164.26
696.155	42371.03
696.501	42004.04
696.847	42010.36
697.193	41561.56
697.539	41908.9
697.885	41535.8
698.231	41505.07
698.577	41555.91
698.923	41477.72
699.269	41185.08
699.614	40939.88
699.96	41085.87
700.306	41116.83
700.651	40824.63
700.997	40757.97
701.342	40698.53
701.688	40655.82
702.033	40569.95
702.379	40465.55
702.724	40247.25
703.069	40449.95
703.415	39970.42
703.76	40079.34
704.105	39957.08
704.45	39998.44
704.795	39562.07
705.14	39611.11
705.485	39544.44
705.83	39465.35
706.175	39550.32
706.52	39427.16
706.865	39401.17
707.209	39217.67
707.554	39111.01
707.899	39271.91
708.243	38919.37
708.588	38882.99
708.932	38602.32
709.277	38607.74
709.621	38702.88
709.966	38318.03
710.31	38314.19
710.654	38098.83
710.998	38210.01
711.342	38303.12
711.687	38068.55
712.031	38014.54
712.375	37895.9
712.719	38013.41
713.063	37853.41
713.407	37859.96
713.75	37677.14
714.094	37669.01
714.438	37660.2
714.782	37531.84
715.125	37532.06
715.469	37451.84
715.812	37274.67
716.156	37140.21
716.499	37222.92
716.843	37220.66
717.186	36965.3
717.53	37211.39
717.873	37114
718.216	37040.78
718.559	36818.64
718.902	36608.7
719.246	36692.99
719.589	36615.93
719.932	36375.71
720.275	36475.14
720.617	36363.28
720.96	36446.89
721.303	36451.19
721.646	36370.29
721.989	36076.51
722.331	36300.46
722.674	36080.12
723.016	36257.3
723.359	36044.42
723.701	36001.03
724.044	35896.4
724.386	35648.27
724.729	35916.97
725.071	35723.75
725.413	35615.5
725.755	35626.35
726.097	35550.87
726.439	35415.28
726.782	35367.15
727.124	35501.38
727.465	35243.76
727.807	35282.41
728.149	35266.59
728.491	35146.14
728.833	35237.21
729.175	35052.13
729.516	34960.38
729.858	35023.66
730.199	35118.79
730.541	34915.86
730.882	34977.1
731.224	34916.31
731.565	34873.15
731.906	34661.18
732.248	34742.76
732.589	34673.16
732.93	34499.38
733.271	34542.99
733.612	34531.92
733.953	34507.74
734.294	34532.37
734.635	34359.72
734.976	34534.18
735.317	34295.09
735.658	34357.91
735.999	34249.21
736.339	34135.77
736.68	34282.88
737.021	34055.77
737.361	34080.4
737.702	34032.04
738.042	33930.35
738.383	33792.73
738.723	33981.65
739.063	33739.62
739.404	33825.72
739.744	33754.31
740.084	33609
740.424	33749.79
740.764	33460.98
741.104	33669.57
741.444	33468.89
741.784	33431.83
742.124	33502.11
742.464	33537.59
742.804	33300.99
743.143	33136.93
743.483	33291.27
743.823	33195.91
744.162	33163.14
744.502	33117.49
744.841	32945.07
745.181	33134.67
745.52	33077.94
745.86	33124.95
746.199	33018.74
746.538	32877.5
746.877	33003.14
747.216	32797.05
747.556	32781.68
747.895	32774.45
748.234	32687.67
748.573	32679.08
748.911	32602.48
749.25	32609.26
749.589	32450.16
749.928	32481.12
750.267	32506.66
750.605	32416.04
750.944	32330.17
751.283	32206.55
751.621	32255.59
751.96	32098.53
752.298	32101.47
752.636	32220.34
752.975	32001.36
753.313	31904.87
753.651	31954.81
753.989	31823.74
754.327	31761.37
754.666	31693.57
755.004	31721.82
755.342	31696.96
755.679	31526.12
756.017	31440.25
756.355	31587.36
756.693	31351.89
757.031	31436.41
757.368	31133.59
757.706	31155.96
758.044	31002.97
758.381	31020.82
758.719	30982.41
759.056	31027.6
759.394	30900.37
759.731	30660.83
760.068	30702.19
760.405	30580.16
