Data from red_cardboard_box_FLMS001491_00088.txt Node
Date: Wed Feb 08 11:33:17 GMT 2017
User: dcchb
Spectrometer: FLMS00149
Trigger mode: 0
Integration Time (sec): 2.000000E-2
Scans to average: 10
Electric dark correction enabled: true
Nonlinearity correction enabled: false
Boxcar width: 0
XAxis mode: Wavelengths
Number of Pixels in Spectrum: 2048
>>>>>Begin Spectral Data<<<<<
341.393	-20.79
341.776	-20.79
342.16	-20.79
342.543	-90.62
342.927	-49.49
343.31	-69.6
343.693	-67.12
344.077	-60.34
344.46	-61.02
344.843	-57.63
345.226	-30.28
345.61	-36.84
345.993	-21.02
346.376	-17.63
346.759	5.88
347.142	34.35
347.525	35.71
347.908	68.25
348.291	92.65
348.674	80.68
349.057	103.95
349.44	144.63
349.823	148.7
350.206	164.06
350.588	213.1
350.971	216.49
351.354	220.11
351.737	235.25
352.119	254.23
352.502	262.82
352.884	281.8
353.267	296.26
353.65	287.45
354.032	305.08
354.414	284.96
354.797	311.18
355.179	312.31
355.562	326.77
355.944	323.38
356.326	319.31
356.709	334.68
357.091	335.81
357.473	340.56
357.855	342.36
358.238	346.66
358.62	377.17
359.002	357.05
359.384	335.58
359.766	335.58
360.148	350.05
360.53	348.47
360.912	322.7
361.294	331.52
361.676	293.55
362.057	329.48
362.439	343.49
362.821	342.36
363.203	352.99
363.584	320.22
363.966	340.33
364.348	313.89
364.729	312.76
365.111	323.61
365.493	301.46
365.874	322.03
366.256	327
366.637	293.55
367.019	319.77
367.4	321.8
367.781	324.06
368.163	301.69
368.544	315.92
368.925	328.58
369.306	313.66
369.688	308.01
370.069	324.96
370.45	316.6
370.831	283.83
371.212	312.08
371.593	327
371.974	294.23
372.355	286.55
372.736	319.09
373.117	328.13
373.498	321.12
373.879	319.54
374.26	301.46
374.641	329.48
375.021	316.83
375.402	333.32
375.783	308.24
376.163	308.24
376.544	313.89
376.925	343.72
377.305	325.64
377.686	332.19
378.066	327.22
378.447	326.09
378.827	327.22
379.208	339.43
379.588	336.26
379.968	346.88
380.349	331.06
380.729	310.05
381.109	327.22
381.489	334.23
381.87	317.28
382.25	341.01
382.63	334.23
383.01	323.16
383.39	346.43
383.77	318.18
384.15	340.1
384.53	317.51
384.91	336.04
385.29	323.16
385.67	336.26
386.049	342.59
386.429	344.85
386.809	363.15
387.189	352.31
387.568	350.05
387.948	349.82
388.328	358.86
388.707	344.4
389.087	340.56
389.466	341.69
389.846	345.53
390.225	354.57
390.605	359.31
390.984	342.36
391.363	338.75
391.743	371.29
392.122	348.47
392.501	355.24
392.881	355.92
393.26	362.93
393.639	361.12
394.018	371.52
394.397	374.68
394.776	379.88
395.155	350.27
395.534	352.99
395.913	369.71
396.292	381.91
396.671	367
397.05	364.28
397.429	385.07
397.808	376.71
398.186	347.56
398.565	373.55
398.944	372.65
399.323	348.69
399.701	388.01
400.08	375.58
400.458	358.86
400.837	384.62
401.215	367.22
401.594	371.29
401.972	385.75
402.351	392.31
402.729	390.72
403.107	397.73
403.486	394.79
403.864	393.44
404.242	403.15
404.62	390.27
404.999	403.83
405.377	381.68
405.755	387.11
406.133	382.81
406.511	378.07
406.889	398.18
407.267	383.04
407.645	407.67
408.023	406.54
408.401	422.14
408.779	425.75
409.156	414.45
409.534	414
409.912	398.18
410.29	400.89
410.667	420.33
411.045	413.32
411.422	433.43
411.8	430.72
412.178	436.82
412.555	437.28
412.933	435.47
413.31	413.32
413.687	455.13
414.065	415.58
414.442	453.77
414.819	448.12
415.197	437.5
415.574	455.58
415.951	454.68
416.328	442.47
416.705	447.45
417.082	441.8
417.46	454.68
417.837	451.29
418.214	463.04
418.591	466.65
418.967	491.51
419.344	471.85
419.721	462.59
420.098	480.67
420.475	464.39
420.852	473.66
421.228	471.85
421.605	485.18
421.982	484.96
422.358	486.54
422.735	483.15
423.111	490.38
423.488	479.08
423.864	508.69
424.241	475.02
424.617	512.75
424.994	512.75
425.37	494.9
425.746	526.31
426.123	509.37
426.499	510.04
426.875	503.94
427.251	527.67
427.627	497.61
428.003	534.45
428.379	548.01
428.756	534.22
429.132	509.37
429.507	535.13
429.883	532.19
430.259	552.53
430.635	538.29
431.011	541.45
431.387	547.1
431.763	556.82
432.138	560.44
432.514	565.63
432.89	556.37
433.265	546.65
433.641	569.7
434.016	576.48
434.392	589.82
434.767	595.69
435.143	581.68
435.518	601.57
435.894	586.65
436.269	616.03
436.644	594.11
437.02	597.27
437.395	609.25
437.77	604.28
438.145	625.07
438.52	606.99
438.895	621.23
439.271	601.57
439.646	630.72
440.021	647.89
440.395	614
440.77	651.51
441.145	629.81
441.52	653.09
441.895	647.89
442.27	656.25
442.645	627.78
443.019	652.64
443.394	621.45
443.769	640.21
444.143	646.99
444.518	656.48
444.892	660.77
445.267	644.05
445.641	646.99
446.016	669.36
446.39	669.36
446.764	694.45
447.139	688.34
447.513	649.25
447.887	674.78
448.262	697.61
448.636	685.63
449.01	685.86
449.384	703.03
449.758	682.02
450.132	679.53
450.506	689.7
450.88	726.53
451.254	702.81
451.628	723.37
452.002	709.59
452.376	731.28
452.75	730.83
453.123	734.44
453.497	719.98
453.871	755.01
454.244	736.03
454.618	744.61
454.992	756.82
455.365	754.56
455.739	771.96
456.112	774.67
456.486	778.74
456.859	798.62
457.232	775.57
457.606	780.77
457.979	806.98
458.352	775.8
458.725	796.36
459.099	812.63
459.472	824.39
459.845	813.99
460.218	829.81
460.591	830.03
460.964	844.72
461.337	851.28
461.71	837.72
462.083	869.13
462.456	845.18
462.829	887.66
463.201	854.89
463.574	886.08
463.947	903.93
464.32	912.07
464.692	920.2
465.065	912.74
465.438	919.52
465.81	926.08
466.183	917.49
466.555	926.53
466.928	945.96
467.3	951.39
467.672	964.49
468.045	954.78
468.417	975.12
468.789	952.74
469.161	998.17
469.534	1002.46
469.906	1011.72
470.278	1028
470.65	1027.77
471.022	1039.52
471.394	1059.86
471.766	1040.42
472.138	1051.5
472.51	1076.13
472.882	1094.66
473.253	1127.2
473.625	1094.66
473.997	1100.76
474.369	1146.18
474.74	1119.97
475.112	1174.88
475.484	1155.45
475.855	1169.01
476.227	1186.41
476.598	1217.6
476.97	1225.5
477.341	1266.18
477.713	1226.18
478.084	1283.58
478.455	1294.2
478.827	1274.32
479.198	1324.71
479.569	1345.05
479.94	1357.93
480.311	1369.46
480.682	1391.83
481.053	1395.44
481.424	1406.52
481.795	1443.8
482.166	1469.34
482.537	1497.14
482.908	1518.38
483.279	1488.55
483.65	1537.59
484.021	1527.64
484.391	1535.33
484.762	1572.84
485.133	1578.94
485.503	1595.89
485.874	1663.01
486.244	1630.24
486.615	1666.62
486.985	1677.7
487.356	1700.07
487.726	1718.82
488.097	1775.09
488.467	1767.86
488.837	1811.03
489.207	1789.56
489.578	1835.66
489.948	1823.91
490.318	1858.48
490.688	1875.2
491.058	1905.71
491.428	1901.42
491.798	1943.45
492.168	1958.82
492.538	1988.65
492.908	1992.49
493.278	2008.08
493.648	2048.08
494.017	2052.83
494.387	2072.71
494.757	2117.91
495.126	2106.16
495.496	2129.21
495.866	2118.81
496.235	2163.56
496.605	2166.04
496.974	2208.08
497.344	2211.69
497.713	2172.82
498.082	2265.25
498.452	2234.52
498.821	2239.94
499.19	2291.69
499.559	2302.54
499.928	2292.6
500.298	2324.46
500.667	2364.91
501.036	2325.81
501.405	2345.48
501.774	2364.23
502.143	2405.81
502.512	2392.93
502.88	2419.82
503.249	2425.92
503.618	2437.68
503.987	2444.91
504.356	2468.86
504.724	2505.24
505.093	2507.5
505.462	2496.66
505.83	2524
506.199	2531.46
506.567	2582.08
506.936	2584.79
507.304	2623.66
507.672	2609.65
508.041	2638.12
508.409	2654.85
508.777	2669.53
509.145	2718.57
509.514	2707.73
509.882	2726.26
510.25	2735.07
510.618	2758.12
510.986	2813.26
511.354	2792.24
511.722	2825.01
512.09	2849.19
512.458	2854.84
512.826	2885.8
513.193	2893.03
513.561	2892.58
513.929	2902.07
514.297	2971.9
514.664	2981.39
515.032	2975.74
515.4	3016.19
515.767	3004.89
516.135	3032.46
516.502	3013.48
516.869	3071.11
517.237	3114.72
517.604	3086.7
517.972	3144.78
518.339	3175.51
518.706	3204.44
519.073	3180.48
519.44	3199.46
519.808	3245.79
520.175	3283.08
520.542	3297.99
520.909	3330.53
521.276	3329.86
521.643	3379.8
522.009	3362.85
522.376	3388.84
522.743	3429.06
523.11	3483.98
523.477	3493.47
523.843	3498.89
524.21	3508.61
524.577	3594.71
524.943	3594.93
525.31	3587.02
525.676	3703.18
526.043	3639.45
526.409	3696.63
526.776	3780.69
527.142	3770.52
527.508	3789.05
527.874	3769.39
528.241	3859.56
528.607	3885.32
528.973	3885.1
529.339	3880.12
529.705	3937.75
530.071	3966.9
530.437	3953.79
530.803	4036.73
531.169	4047.13
531.535	4064.53
531.901	4036.05
532.267	4082.15
532.632	4118.99
532.998	4142.26
533.364	4180.68
533.73	4204.41
534.095	4245.76
534.461	4191.98
534.826	4271.98
535.192	4250.06
535.557	4314.91
535.923	4300.23
536.288	4363.05
536.653	4372.54
537.019	4338.64
537.384	4403.95
537.749	4408.25
538.114	4462.93
538.479	4479.2
538.845	4502.25
539.21	4475.81
539.575	4533.44
539.94	4559.88
540.305	4602.82
540.67	4622.25
541.034	4622.93
541.399	4631.06
541.764	4653.66
542.129	4646.88
542.494	4706.99
542.858	4742.47
543.223	4701.35
543.587	4805.52
543.952	4755.13
544.316	4750.38
544.681	4831.96
545.045	4822.7
545.41	4888.91
545.774	4864.73
546.138	4910.83
546.503	4911.96
546.867	4912.64
547.231	5029.92
547.595	4976.82
547.959	5060.21
548.324	5056.82
548.688	5077.83
549.052	5094.1
549.416	5111.73
549.779	5168.23
550.143	5189.24
550.507	5268.79
550.871	5249.58
551.235	5260.88
551.599	5313.53
551.962	5295.91
552.326	5398.28
552.689	5407.77
553.053	5441.21
553.417	5391.95
553.78	5477.82
554.143	5489.35
554.507	5532.74
554.87	5517.82
555.234	5603.02
555.597	5627.87
555.96	5657.7
556.323	5743.13
556.686	5755.33
557.05	5771.37
557.413	5781.54
557.776	5845.04
558.139	5918.94
558.502	5923.01
558.865	5987.87
559.228	6059.5
559.59	6062.44
559.953	6108.31
560.316	6170.46
560.679	6233.51
561.041	6250.23
561.404	6336.33
561.767	6349.44
562.129	6344.24
562.492	6470.79
562.854	6486.61
563.217	6557.57
563.579	6610.45
563.941	6664.68
564.304	6692.48
564.666	6750.33
565.028	6795.3
565.39	6885.02
565.753	6928.63
566.115	6999.14
566.477	7064.45
566.839	7175.18
567.201	7234.39
567.563	7284.78
567.925	7330.88
568.287	7385.12
568.648	7449.75
569.01	7510.54
569.372	7549.86
569.734	7610.65
570.095	7745.56
570.457	7781.94
570.819	7921.15
571.18	7987.36
571.542	8007.25
571.903	8062.84
572.265	8164.76
572.626	8228.94
572.987	8281.14
573.349	8395.03
573.71	8515.03
574.071	8630.06
574.432	8672.99
574.794	8788.47
575.155	8852.65
575.516	8904.17
575.877	9010.38
576.238	9138.29
576.599	9235.69
576.96	9285.18
577.32	9424.84
577.681	9516.81
578.042	9626.64
578.403	9682.01
578.763	9802.45
579.124	9905.5
579.485	10049.91
579.845	10168.77
580.206	10330.12
580.566	10471.14
580.927	10533.73
581.287	10736.44
581.648	10805.82
582.008	11049.43
582.368	11140.27
582.728	11309.31
583.089	11435.18
583.449	11539.58
583.809	11815.06
584.169	11928.5
584.529	12036.29
584.889	12377.3
585.249	12472.21
585.609	12618.2
585.969	12909.94
586.329	13059.32
586.688	13374.79
587.048	13470.61
587.408	13793.31
587.768	13982.46
588.127	14175.45
588.487	14398.49
588.846	14841.19
589.206	14860.4
589.565	15265.14
589.925	15510.33
590.284	15689.53
590.643	16058.56
591.003	16312.79
591.362	16659
591.721	16877.07
592.08	17228.02
592.44	17589.37
592.799	17938.29
593.158	18118.17
593.517	18443.36
593.876	18773.74
594.235	19121.98
594.593	19477.68
594.952	19816.43
595.311	20074.27
595.67	20507.94
596.029	20915.16
596.387	21264.3
596.746	21677.85
597.104	21979.99
597.463	22256.14
597.822	22693.19
598.18	23011.82
598.538	23419.05
598.897	23824.46
599.255	24020.84
599.613	24745.34
599.972	24942.85
600.33	25423.06
600.688	25579.21
601.046	26072.53
601.404	26628.45
601.762	26887.43
602.12	27308.43
602.478	27619.61
602.836	27957.01
603.194	28187.51
603.552	28585.46
603.91	28978.9
604.268	29279.46
604.625	29698.2
604.983	30186.1
605.341	30321.91
605.698	30791.05
606.056	31090.48
606.413	31278.5
606.771	31861.99
607.128	32203
607.485	32271.24
607.843	32585.36
608.2	33019.24
608.557	33511.21
608.914	33463.98
609.272	34115.04
609.629	34381.47
609.986	34653.1
610.343	34792.53
610.7	35250.15
611.057	35458.28
611.414	35740.76
611.771	36037.7
612.127	36267.75
612.484	36566.95
612.841	36714.74
613.198	36822.99
613.554	37174.84
613.911	37511.56
614.267	37673.59
614.624	37795.62
614.98	38070.41
615.337	38367.8
615.693	38294.13
616.05	38693.45
616.406	39104.51
616.762	39066.32
617.118	39324.16
617.475	39483.71
617.831	39795.79
618.187	39822
618.543	40121.2
618.899	40429.22
619.255	40458.37
619.611	40522.78
619.967	40998.02
620.323	41110.56
620.678	40979.49
621.034	41118.01
621.39	41206.83
621.746	41331.57
622.101	41706.25
622.457	41642.75
622.812	41823.99
623.168	41957.54
623.523	41981.04
623.879	42223.07
624.234	42011.78
624.589	42286.35
624.945	42444.99
625.3	42614.7
625.655	42481.82
626.01	42667.8
626.365	42709.84
626.72	42880.23
627.075	42929.27
627.43	42955.71
627.785	42885.2
628.14	43095.14
628.495	43207.9
628.85	43263.04
629.205	43111.41
629.559	43312.99
629.914	43262.14
630.269	43449.25
630.623	43380.55
630.978	43233.44
631.332	43582.58
631.687	43789.81
632.041	43583.26
632.396	43654.45
632.75	43562.02
633.104	43565.63
633.459	43639.08
633.813	43590.94
634.167	43638.17
634.521	43610.15
634.875	43747.1
635.229	43631.17
635.583	43543.04
635.937	43509.14
636.291	43586.88
636.645	43644.28
636.999	43480.21
637.352	43669.81
637.706	43710.72
638.06	43686.53
638.413	43560.44
638.767	43581.23
639.121	43689.02
639.474	43530.61
639.828	43622.58
640.181	43726.53
640.534	43725.63
640.888	43570.15
641.241	43478.86
641.594	43577.84
641.947	43820.32
642.301	43557.95
642.654	43540.55
643.007	43693.31
643.36	43757.04
643.713	43664.39
644.066	43793.42
644.419	43493.32
644.771	43305.75
645.124	42902.37
645.477	42710.52
645.83	42591.42
646.182	42462.84
646.535	42540.35
646.888	42548.49
647.24	42435.27
647.593	42573.8
647.945	42645.88
648.298	42502.39
648.65	42404.99
649.002	42407.7
649.355	42541.93
649.707	42440.92
650.059	42560.01
650.411	43042.94
650.763	43098.75
651.115	43434.79
651.467	43369.93
651.819	43424.39
652.171	43293.32
652.523	43293.78
652.875	43363.38
653.227	43170.16
653.578	43487.67
653.93	43350.27
654.282	43026.21
654.633	43062.14
654.985	43240.67
655.337	43166.55
655.688	43323.15
656.039	43379.65
656.391	42959.77
656.742	43142.59
657.094	43168.58
657.445	43212.42
657.796	43247
658.147	43082.71
658.498	43116.61
658.849	43108.47
659.2	43159.54
659.551	43057.4
659.902	43219.88
660.253	43049.72
660.604	43115.48
660.955	42986.44
661.306	43252.42
661.656	43131.75
662.007	43054.69
662.358	43094.01
662.708	43131.07
663.059	43114.35
663.409	42774.02
663.76	43179.43
664.11	43147.34
664.461	43299.65
664.811	43107.34
665.161	43191.86
665.511	42979.89
665.862	43101.47
666.212	43149.37
666.562	43170.84
666.912	43011.98
667.262	42986.21
667.612	43092.2
667.962	43151.18
668.312	43057.85
668.662	43103.5
669.011	43021.69
669.361	43010.17
669.711	43059.88
670.06	43004.52
670.41	42898.31
670.76	42822.6
671.109	43020.11
671.459	42913.45
671.808	42814.92
672.157	43085.19
672.507	42810.63
672.856	42691.76
673.205	42795.71
673.554	42889.49
673.904	42721.36
674.253	42928.59
674.602	42784.19
674.951	42268.49
675.3	42095.39
675.649	42779.67
675.998	42738.76
676.346	42748.48
676.695	42840.46
677.044	42538.54
677.393	42676.84
677.741	42668.48
678.09	42416.06
678.438	42369.28
678.787	42487.47
679.135	42427.36
679.484	42101.27
679.832	42434.82
680.181	42305.33
680.529	42411.99
680.877	42196.86
681.225	42220.81
681.573	42419.22
681.922	42089.06
682.27	41991.44
682.618	42040.7
682.966	41962.29
683.314	42084.54
683.661	41929.74
684.009	41762.74
684.357	41598
684.705	41633.03
685.053	41567.72
685.4	41663.09
685.748	41340.16
686.095	41406.82
686.443	41366.14
686.79	41147.17
687.138	41307.61
687.485	41188.97
687.832	41008.87
688.18	41105.81
688.527	40974.74
688.874	41056.77
689.221	40868.3
689.568	40620.85
689.915	40574.3
690.262	40497.01
690.609	40493.85
690.956	40355.32
691.303	40241.2
691.65	40158.04
691.997	40227.64
692.344	39974.09
692.69	39974.99
693.037	40043.92
693.383	39639.41
693.73	39755.11
694.077	39448.68
694.423	39497.94
694.769	39618.85
695.116	39422.01
695.462	39437.83
695.808	39193.09
696.155	39268.35
696.501	38900.9
696.847	38893.44
697.193	38732.31
697.539	38807.57
697.885	38517.41
698.231	38472.89
698.577	38325.32
698.923	38272.67
699.269	38121.71
699.614	37955.61
699.96	37869.06
700.306	38033.12
700.651	37829.97
700.997	37693.47
701.342	37609.86
701.688	37750.19
702.033	37433.37
702.379	37523.08
702.724	37379.13
703.069	37389.53
703.415	37071.79
703.76	36967.39
704.105	37030.66
704.45	37049.65
704.795	36834.06
705.14	36633.16
705.485	36614.86
705.83	36526.27
706.175	36608.53
706.52	36498.48
706.865	36279.5
707.209	36232.95
707.554	36083.8
707.899	36243.34
708.243	36083.8
708.588	36042.44
708.932	35618.05
709.277	35719.29
709.621	35826.4
709.966	35562.23
710.31	35636.35
710.654	35271.16
710.998	35499.63
711.342	35488.11
711.687	35365.17
712.031	35100.77
712.375	35138.29
712.719	35010.6
713.063	35052.41
713.407	35167.21
713.75	34917.05
714.094	34930.61
714.438	34768.58
714.782	34843.6
715.125	34652.2
715.469	34693.1
715.812	34527.68
716.156	34286.1
716.499	34303.28
716.843	34403.62
717.186	34198.65
717.53	34360.23
717.873	34305.54
718.216	34293.79
718.559	33944.87
718.902	33798.21
719.246	33917.53
719.589	33867.58
719.932	33654.48
720.275	33735.61
720.617	33665.78
720.96	33658.1
721.303	33640.47
721.646	33525.9
721.989	33397.77
722.331	33506.92
722.674	33511.21
723.016	33433.47
723.359	33397.31
723.701	33419.91
724.044	33071.22
724.386	33027.38
724.729	33170.65
725.071	32967.95
725.413	33109.41
725.755	33005.69
726.097	32764.56
726.439	32791
726.782	32610.67
727.124	32835.07
727.465	32710.33
727.807	32673.49
728.149	32702.87
728.491	32522.31
728.833	32570.89
729.175	32399.15
729.516	32341.52
729.858	32323.67
730.199	32410
730.541	32345.14
730.882	32212.03
731.224	32360.51
731.565	31989.22
731.906	32133.84
732.248	32110.34
732.589	31994.64
732.93	31821.99
733.271	31892.27
733.612	31942.89
733.953	31927.75
734.294	31782.89
734.635	31736.34
734.976	31817.02
735.317	31661.31
735.658	31637.13
735.999	31676.68
736.339	31501.77
736.68	31730.47
737.021	31513.07
737.361	31501.77
737.702	31590.36
738.042	31492.28
738.383	31234.66
738.723	31375.45
739.063	31254.32
739.404	31369.34
739.744	31150.82
740.084	31194.89
740.424	31302.91
740.764	31069.01
741.104	31258.39
741.444	30950.82
741.784	30894.78
742.124	31042.12
742.464	30894.78
742.804	30933.2
743.143	30799.64
743.483	30871.5
743.823	30588.8
744.162	30660.44
744.502	30770.94
744.841	30644.39
745.181	30738.4
745.52	30524.17
745.86	30591.51
746.199	30526.2
746.538	30448.46
746.877	30452.76
747.216	30512.42
747.556	30318.75
747.895	30395.81
748.234	30206.44
748.573	30129.83
748.911	30032.88
749.25	30138.42
749.589	29923.28
749.928	30048.25
750.267	30042.37
750.605	29935.94
750.944	29846.45
751.283	29764.87
751.621	29862.94
751.96	29742.04
752.298	29805.09
752.636	29770.06
752.975	29619.79
753.313	29453.01
753.651	29592.89
753.989	29422.05
754.327	29288.95
754.666	29267.03
755.004	29353.58
755.342	29232
755.679	29326.01
756.017	29186.8
756.355	29236.52
756.693	29067.71
757.031	29111.32
757.368	28962.18
757.706	28973.25
758.044	28839.69
758.381	28751.79
758.719	28632.24
759.056	28717.44
759.394	28608.29
759.731	28526.48
760.068	28414.62
760.405	28329.2
760.743	28266.6
761.08	28356.54
