Data from red_cardboard_box_FLMS001491_00089.txt Node
Date: Wed Feb 08 11:33:17 GMT 2017
User: dcchb
Spectrometer: FLMS00149
Trigger mode: 0
Integration Time (sec): 2.000000E-2
Scans to average: 10
Electric dark correction enabled: true
Nonlinearity correction enabled: false
Boxcar width: 0
XAxis mode: Wavelengths
Number of Pixels in Spectrum: 2048
>>>>>Begin Spectral Data<<<<<
341.393	-13.87
341.776	-13.87
342.16	-13.87
342.543	-44.15
342.927	-60.2
343.31	-52.06
343.693	-67.65
344.077	-77.6
344.46	-70.59
344.843	-63.81
345.226	-17.49
345.61	-27.65
345.993	-39.18
346.376	3.98
346.759	12.12
347.142	34.26
347.525	55.96
347.908	48.5
348.291	57.09
348.674	77.65
349.057	126.47
349.44	96.41
349.823	119.46
350.206	160.36
350.588	200.81
350.971	209.63
351.354	238.78
351.737	238.55
352.119	267.03
352.502	264.54
352.884	273.35
353.267	282.17
353.65	300.92
354.032	303.64
354.414	309.74
354.797	310.19
355.179	327.59
355.562	334.6
355.944	335.73
356.326	349.06
356.709	342.28
357.091	324.88
357.473	354.03
357.855	345.22
358.238	340.92
358.62	346.57
359.002	346.12
359.384	344.99
359.766	349.96
360.148	338.66
360.53	339.34
360.912	344.31
361.294	339.34
361.676	316.52
362.057	335.95
362.439	323.07
362.821	346.57
363.203	321.49
363.584	318.55
363.966	312.22
364.348	332.79
364.729	330.53
365.111	327.14
365.493	327.59
365.874	324.43
366.256	331.88
366.637	309.29
367.019	323.75
367.4	342.51
367.781	298.21
368.163	298.44
368.544	301.6
368.925	318.78
369.306	340.02
369.688	322.84
370.069	324.2
370.45	319.68
370.831	321.71
371.212	321.49
371.593	315.84
371.974	330.75
372.355	338.44
372.736	320.36
373.117	306.57
373.498	315.84
373.879	320.13
374.26	312.9
374.641	325.1
375.021	316.97
375.402	313.35
375.783	314.26
376.163	330.53
376.544	316.74
376.925	320.58
377.305	334.6
377.686	337.99
378.066	315.39
378.447	323.52
378.827	316.29
379.208	313.35
379.588	337.08
379.968	332.34
380.349	342.51
380.729	320.13
381.109	309.96
381.489	325.1
381.87	352.45
382.25	358.1
382.63	333.47
383.01	345.89
383.39	333.92
383.77	351.54
384.15	327.14
384.53	328.04
384.91	339.57
385.29	357.42
385.67	353.35
386.049	351.09
386.429	366.23
386.809	331.43
387.189	338.89
387.568	357.65
387.948	327.14
388.328	340.02
388.707	340.47
389.087	338.66
389.466	360.81
389.846	363.52
390.225	364.43
390.605	370.75
390.984	355.39
391.363	342.73
391.743	339.12
392.122	352
392.501	341.38
392.881	361.49
393.26	382.96
393.639	356.52
394.018	363.75
394.397	360.81
394.776	353.13
395.155	367.14
395.534	373.69
395.913	353.8
396.292	363.97
396.671	368.95
397.05	384.54
397.429	392.9
397.808	383.18
398.186	377.31
398.565	363.3
398.944	383.63
399.323	391.77
399.701	381.37
400.08	398.1
400.458	387.93
400.837	373.24
401.215	390.64
401.594	357.65
401.972	376.63
402.351	408.49
402.729	387.25
403.107	382.05
403.486	381.15
403.864	398.77
404.242	386.57
404.62	391.77
404.999	398.77
405.377	404.88
405.755	405.78
406.133	404.65
406.511	403.97
406.889	396.97
407.267	417.53
407.645	420.7
408.023	427.02
408.401	403.07
408.779	415.95
409.156	398.1
409.534	424.08
409.912	431.99
410.29	423.63
410.667	427.25
411.045	452.56
411.422	427.93
411.8	422.28
412.178	449.85
412.555	431.99
412.933	423.63
413.31	438.77
413.687	444.42
414.065	443.75
414.442	433.8
414.819	438.32
415.197	458.89
415.574	448.94
415.951	441.94
416.328	471.54
416.705	441.03
417.082	464.31
417.46	475.83
417.837	459.79
418.214	456.63
418.591	476.96
418.967	455.95
419.344	481.94
419.721	479.68
420.098	474.48
420.475	479.9
420.852	489.85
421.228	473.58
421.605	476.96
421.982	482.39
422.358	481.03
422.735	488.49
423.111	490.07
423.488	504.99
423.864	502.73
424.241	511.09
424.617	484.42
424.994	492.33
425.37	510.86
425.746	500.47
426.123	516.29
426.499	492.56
426.875	495.04
427.251	509.96
427.627	534.14
428.003	527.81
428.379	534.59
428.756	523.07
429.132	541.6
429.507	537.3
429.883	537.08
430.259	526.23
430.635	553.8
431.011	537.98
431.387	552.22
431.763	557.64
432.138	562.39
432.514	563.74
432.89	552.9
433.265	582.95
433.641	566.45
434.016	584.08
434.392	583.4
434.767	580.92
435.143	566.68
435.518	573.91
435.894	594.25
436.269	595.83
436.644	596.28
437.02	600.35
437.395	594.48
437.77	619.56
438.145	618.2
438.52	612.78
438.895	631.09
439.271	646.68
439.646	621.59
440.021	655.04
440.395	626.79
440.77	613.01
441.145	638.32
441.52	641.93
441.895	634.47
442.27	662.95
442.645	664.76
443.019	634.93
443.394	674.02
443.769	662.5
444.143	657.3
444.518	669.05
444.892	661.82
445.267	674.02
445.641	674.25
446.016	664.08
446.39	678.54
446.764	665.43
447.139	677.19
447.513	700.91
447.887	670.41
448.262	671.54
448.636	677.86
449.01	686.45
449.384	733.91
449.758	693
450.132	703.4
450.506	712.44
450.88	716.51
451.254	728.94
451.628	713.34
452.002	731.2
452.376	736.39
452.75	737.97
453.123	724.64
453.497	739.33
453.871	740.91
454.244	772.32
454.618	766
454.992	758.54
455.365	735.26
455.739	752.66
456.112	780.91
456.486	762.16
456.859	780.01
457.232	793.79
457.606	761.48
457.979	782.49
458.352	791.08
458.725	815.49
459.099	808.03
459.472	837.63
459.845	823.85
460.218	834.02
460.591	857.07
460.964	840.8
461.337	856.62
461.71	855.26
462.083	883.28
462.456	861.14
462.829	881.25
463.201	873.11
463.574	893
463.947	900
464.32	923.05
464.692	909.04
465.065	898.2
465.438	895.94
465.81	933.45
466.183	953.79
466.555	960.34
466.928	950.62
467.3	956.5
467.672	960.79
468.045	983.62
468.417	984.97
468.789	998.76
469.161	980.45
469.534	1004.18
469.906	1030.85
470.278	1030.4
470.65	1010.51
471.022	1055.03
471.394	1057.74
471.766	1086.21
472.138	1083.5
472.51	1074.92
472.882	1121.92
473.253	1086.44
473.625	1104.52
473.997	1126.67
474.369	1113.11
474.74	1152.2
475.112	1156.5
475.484	1194.46
475.855	1198.53
476.227	1194.01
476.598	1206.21
476.97	1251.86
477.341	1243.72
477.713	1226.78
478.084	1277.17
478.455	1280.11
478.827	1300.67
479.198	1327.11
479.569	1332.08
479.94	1375.92
480.311	1362.59
480.682	1379.77
481.053	1405.53
481.424	1422.02
481.795	1445.53
482.166	1450.05
482.537	1488.24
482.908	1502.93
483.279	1500.89
483.65	1514
484.021	1589.7
484.391	1573.66
484.762	1597.16
485.133	1599.42
485.503	1625.64
485.874	1648.01
486.244	1655.01
486.615	1662.02
486.985	1687.33
487.356	1732.07
487.726	1722.36
488.097	1734.78
488.467	1762.81
488.837	1786.76
489.207	1825.63
489.578	1850.04
489.948	1840.54
490.318	1851.84
490.688	1857.72
491.058	1906.31
491.428	1908.34
491.798	1924.38
492.168	1981.78
492.538	2007.09
492.908	2017.04
493.278	2035.34
493.648	2016.13
494.017	2067.88
494.387	2086.64
494.757	2085.96
495.126	2138.16
495.496	2157.37
495.866	2138.39
496.235	2144.94
496.605	2171.16
496.974	2187.65
497.344	2192.85
497.713	2199.63
498.082	2221.33
498.452	2223.59
498.821	2265.62
499.19	2270.36
499.559	2293.19
499.928	2296.58
500.298	2334.77
500.667	2331.38
501.036	2358.72
501.405	2372.96
501.774	2380.87
502.143	2391.49
502.512	2410.47
502.88	2410.93
503.249	2424.48
503.618	2419.96
503.987	2467.65
504.356	2463.13
504.724	2495.44
505.093	2521.88
505.462	2515.1
505.83	2554.88
506.199	2557.81
506.567	2571.6
506.936	2570.24
507.304	2589.45
507.672	2642.11
508.041	2656.34
508.409	2673.07
508.777	2652.27
509.145	2704.25
509.514	2698.38
509.882	2733.18
510.25	2752.61
510.618	2745.61
510.986	2764.81
511.354	2831.03
511.722	2822.44
512.09	2843
512.458	2903.12
512.826	2891.59
513.193	2874.42
513.561	2876.68
513.929	2921.65
514.297	2955.09
514.664	2984.7
515.032	3009.55
515.4	3015.88
515.767	3066.95
516.135	3019.27
516.502	3047.52
516.869	3092.04
517.237	3092.72
517.604	3152.83
517.972	3125.26
518.339	3202.99
518.706	3191.47
519.073	3226.05
519.44	3202.77
519.808	3263.56
520.175	3254.52
520.542	3313.5
520.909	3294.29
521.276	3321.18
521.643	3376.78
522.009	3393.95
522.376	3436.44
522.743	3417.23
523.11	3438.69
523.477	3468.52
523.843	3522.99
524.21	3586.49
524.577	3590.33
524.943	3620.39
525.31	3636.2
525.676	3688.41
526.043	3642.98
526.409	3695.19
526.776	3731.57
527.142	3758.46
527.508	3742.42
527.874	3839.14
528.241	3832.58
528.607	3832.58
528.973	3894.95
529.339	3890.66
529.705	3972.69
530.071	3986.03
530.437	3995.74
530.803	4016.31
531.169	4055.85
531.535	4067.15
531.901	4030.09
532.267	4077.1
532.632	4153.7
532.998	4169.98
533.364	4186.92
533.73	4196.87
534.095	4226.7
534.461	4236.41
534.826	4248.17
535.192	4318.22
535.557	4282.97
535.923	4349.63
536.288	4335.62
536.653	4344.43
537.019	4334.49
537.384	4411.78
537.749	4419.69
538.114	4468.72
538.479	4527.03
538.845	4472.79
539.21	4531.1
539.575	4537.65
539.94	4517.99
540.305	4569.74
540.67	4590.3
541.034	4613.35
541.399	4630.75
541.764	4643.63
542.129	4630.98
542.494	4656.74
542.858	4735.38
543.223	4713.69
543.587	4730.64
543.952	4768.38
544.316	4858.32
544.681	4760.02
545.045	4852.89
545.41	4861.48
545.774	4867.36
546.138	4899.22
546.503	4918.2
546.867	4945.1
547.231	4968.82
547.595	4958.65
547.959	5038.43
548.324	5025.55
548.688	5050.86
549.052	5114.36
549.416	5085.88
549.779	5141.02
550.143	5157.75
550.507	5151.19
550.871	5228.25
551.235	5240.46
551.599	5271.87
551.962	5309.61
552.326	5347.12
552.689	5392.32
553.053	5374.24
553.417	5421.24
553.78	5491.97
554.143	5460.34
554.507	5518.64
554.87	5544.63
555.234	5618.3
555.597	5578.75
555.96	5664.63
556.323	5718.41
556.686	5707.79
557.05	5797.73
557.413	5776.26
557.776	5862.59
558.139	5922.47
558.502	5901.45
558.865	5987.1
559.228	5998.4
559.59	6046.76
559.953	6110.94
560.316	6175.57
560.679	6213.31
561.041	6272.29
561.404	6322.01
561.767	6390.48
562.129	6342.12
562.492	6495.34
562.854	6524.72
563.217	6501.21
563.579	6553.42
563.941	6653.07
564.304	6718.16
564.666	6715.9
565.028	6842.9
565.39	6844.48
565.753	6969.9
566.115	7011.26
566.477	7108.88
566.839	7137.58
567.201	7205.6
567.563	7217.13
567.925	7361.53
568.287	7352.49
568.648	7389.78
569.01	7520.62
569.372	7627.29
569.734	7634.06
570.095	7681.75
570.457	7845.36
570.819	7855.98
571.18	7936.88
571.542	7992.25
571.903	8040.83
572.265	8176.42
572.626	8263.88
572.987	8350.43
573.349	8442.41
573.71	8448.51
574.071	8581.16
574.432	8657.31
574.794	8782.51
575.155	8874.71
575.516	8861.38
575.877	9024.08
576.238	9036.51
576.599	9182.95
576.96	9283.29
577.32	9405.77
577.681	9504.07
578.042	9598.08
578.403	9664.52
578.763	9853.67
579.124	9990.39
579.485	10081.01
579.845	10210.72
580.206	10340.89
580.566	10453.43
580.927	10620.65
581.287	10712.63
581.648	10745.17
582.008	11050.7
582.368	11156.46
582.728	11296.79
583.089	11434.87
583.449	11521.65
583.809	11813.16
584.169	11928.64
584.529	12111.01
584.889	12369.08
585.249	12424.45
585.609	12600.04
585.969	12901.5
586.329	13110.76
586.688	13339.45
587.048	13497.41
587.408	13744.41
587.768	13928.59
588.127	14145.76
588.487	14356.15
588.846	14767.44
589.206	14839.53
589.565	15106.18
589.925	15462.33
590.284	15665.94
590.643	16031.36
591.003	16344.8
591.362	16591.57
591.721	16814.16
592.08	17159.01
592.44	17494.6
592.799	17796.06
593.158	18159.89
593.517	18370.96
593.876	18775.01
594.235	19113.76
594.593	19501.78
594.952	19733.41
595.311	20122.32
595.67	20491.35
596.029	20981.28
596.387	21327.94
596.746	21691.55
597.104	21911.2
597.463	22266.67
597.822	22765.64
598.18	23030.04
598.538	23348.91
598.897	23856.69
599.255	24026.4
599.613	24677.68
599.972	24820.73
600.33	25380.94
600.688	25511.33
601.046	26014.82
601.404	26558.31
601.762	26838.53
602.12	27344.06
602.478	27673.31
602.836	27941.1
603.194	28238.49
603.552	28638.48
603.91	28789.67
604.268	29386.04
604.625	29731.79
604.983	30109.63
605.341	30375.16
605.698	30790.29
606.056	31101.24
606.413	31336.27
606.771	31790.72
607.128	32186.41
607.485	32401.78
607.843	32672.05
608.2	33136.67
608.557	33523.33
608.914	33595.42
609.272	34103.43
609.629	34383.42
609.986	34719.45
610.343	34656.63
610.7	35308.59
611.057	35572.31
611.414	35730.73
611.771	35990.61
612.127	36376.36
612.484	36564.83
612.841	36771.6
613.198	36866.52
613.554	37126.17
613.911	37523.45
614.267	37753.27
614.624	37862.65
614.98	38064.9
615.337	38429.41
615.693	38588.73
616.05	38760.25
616.406	39022.39
616.762	39020.36
617.118	39324.08
617.475	39355.72
617.831	39661.25
618.187	39902.14
618.543	40007.9
618.899	40420.55
619.255	40480.43
619.611	40590.03
619.967	40888.33
620.323	41092.39
620.678	40997.26
621.034	41058.95
621.39	41337.59
621.746	41281.32
622.101	41933.28
622.457	41660.97
622.812	41882.2
623.168	42068.41
623.523	42193.38
623.879	42177.11
624.234	41964.01
624.589	42383.43
624.945	42422.98
625.3	42463.21
625.655	42561.06
626.01	42611.22
626.365	42741.39
626.72	42816.87
627.075	43050.31
627.43	42861.61
627.785	42937.54
628.14	43101.61
628.495	43191.1
628.85	43258.21
629.205	43109.97
629.559	43427.7
629.914	43291.21
630.269	43479.22
630.623	43355.39
630.978	43366.91
631.332	43591.99
631.687	43654.13
632.041	43551.31
632.396	43612.1
632.75	43665.21
633.104	43812.32
633.459	43540.92
633.813	43602.16
634.167	43692.1
634.521	43757.41
634.875	43673.12
635.229	43706.34
635.583	43570.75
635.937	43628.82
636.291	43805.32
636.645	43710.18
636.999	43543.86
637.352	43697.98
637.706	43579.33
638.06	43789.5
638.413	43708.14
638.767	43747.24
639.121	43746.79
639.474	43462.73
639.828	43625.89
640.181	43686.68
640.534	43680.8
640.888	43687.58
641.241	43508.15
641.594	43733.23
641.947	43815.26
642.301	43664.76
642.654	43673.8
643.007	43717.41
643.36	43777.75
643.713	43624.08
644.066	43724.42
644.419	43520.8
644.771	43149.06
645.124	42801.73
645.477	42799.02
645.83	42716.31
646.182	42577.55
646.535	42578.46
646.888	42721.73
647.24	42417.78
647.593	42688.74
647.945	42624.78
648.298	42451.91
648.65	42453.26
649.002	42375.75
649.355	42475.63
649.707	42400.38
650.059	42510.66
650.411	43043.98
650.763	43082.85
651.115	43494.36
651.467	43393.12
651.819	43396.06
652.171	43336.85
652.523	43289.62
652.875	43276.29
653.227	43005.34
653.578	43350.41
653.93	43267.93
654.282	43247.59
654.633	43137.31
654.985	43104.54
655.337	43272.9
655.688	43250.53
656.039	43356.29
656.391	43009.41
656.742	43120.14
657.094	43143.87
657.445	43356.52
657.796	43142.96
658.147	43225.22
658.498	43253.47
658.849	43269.51
659.2	43057.54
659.551	42964.21
659.902	43156.97
660.253	43077.65
660.604	43144.54
660.955	42948.16
661.306	43174.15
661.656	43033.59
662.007	43056.41
662.358	43136.18
662.708	43120.36
663.059	43214.15
663.409	42858.22
663.76	43220.02
664.11	43219.57
664.461	43251.89
664.811	43159.91
665.161	43162.17
665.511	42929.18
665.862	43002.63
666.212	43335.27
666.562	43134.6
666.912	43187.48
667.262	43117.43
667.612	43206.46
667.962	43060.25
668.312	43098.44
668.662	43271.55
669.011	43169.63
669.361	43053.02
669.711	43086.92
670.06	42935.28
670.41	42858.9
670.76	42912.69
671.109	42995.39
671.459	42886.25
671.808	42881.5
672.157	43096.64
672.507	42647.83
672.856	42704.78
673.205	42815.51
673.554	42865.23
673.904	42707.94
674.253	43053.47
674.602	42892.8
674.951	42239.71
675.3	42109.99
675.649	42747.04
675.998	42678.12
676.346	42799.69
676.695	42924.44
677.044	42608.74
677.393	42710.43
677.741	42710.88
678.09	42502.07
678.438	42463.21
678.787	42539.81
679.135	42534.16
679.484	42304.34
679.832	42449.87
680.181	42277.9
680.529	42373.94
680.877	42244.68
681.225	42260.05
681.573	42340.95
681.922	42157.22
682.27	42021.41
682.618	42052.14
682.966	41950.22
683.314	42039.26
683.661	41860.96
684.009	41794.52
684.357	41712.04
684.705	41621.19
685.053	41727.41
685.4	41626.17
685.748	41473.63
686.095	41401.76
686.443	41207.65
686.79	41275.21
687.138	41214.88
687.485	41152.73
687.832	40924.94
688.18	41070.02
688.527	40950.25
688.874	40931.04
689.221	40909.57
689.568	40657.6
689.915	40570.15
690.262	40609.92
690.609	40519.53
690.956	40255.81
691.303	40430.04
691.65	40294.22
691.997	40296.26
692.344	39997.28
692.69	39929.03
693.037	40044.51
693.383	39656.95
693.73	39844.52
694.077	39426.22
694.423	39530.18
694.769	39451.31
695.116	39386.22
695.462	39461.48
695.808	39293.12
696.155	39222.39
696.501	38943.3
696.847	38973.35
697.193	38731.33
697.539	38874.15
697.885	38548.05
698.231	38479.13
698.577	38446.59
698.923	38324.33
699.269	38175.41
699.614	38125.24
699.96	38021.74
700.306	38012.02
700.651	37723.67
700.997	37746.72
701.342	37672.6
701.688	37617.01
702.033	37566.16
702.379	37502.21
702.724	37377.24
703.069	37492.71
703.415	37105.83
703.76	37055.44
704.105	37102.89
704.45	37014.31
704.795	36860.64
705.14	36702.23
705.485	36680.98
705.83	36582.46
706.175	36610.93
706.52	36486.64
706.865	36399.41
707.209	36403.93
707.554	36164.16
707.899	36267.21
708.243	35966.2
708.588	36042.58
708.932	35696.6
709.277	35755.36
709.621	35842.81
709.966	35458.42
710.31	35526.89
710.654	35232.21
710.998	35453.9
711.342	35351.3
711.687	35223.62
712.031	35163.51
712.375	35007.81
712.719	35153.12
713.063	34916.29
713.407	35102.04
713.75	34905.66
714.094	34953.12
714.438	34606.46
714.782	34913.8
715.125	34679
715.469	34612.11
715.812	34579.12
716.156	34333.02
716.499	34336.41
716.843	34349.52
717.186	34262.52
717.53	34225.91
717.873	34294.83
718.216	34107.94
718.559	34037.44
718.902	33834.28
719.246	34087.15
719.589	33843.77
719.932	33641.97
720.275	33790.21
720.617	33659.14
720.96	33541.41
721.303	33614.17
721.646	33627.73
721.989	33491.24
722.331	33564.23
722.674	33387.74
723.016	33501.18
723.359	33407.62
723.701	33365.59
724.044	33149.78
724.386	33006.51
724.729	33121.76
725.071	33098.48
725.413	33148.42
725.755	33054.41
726.097	32847.87
726.439	32776.45
726.782	32770.58
727.124	32832.72
727.465	32611.26
727.807	32583.47
728.149	32548.44
728.491	32534.88
728.833	32574.65
729.175	32467.54
729.516	32515.67
729.858	32384.83
730.199	32372.4
730.541	32318.61
730.882	32235.68
731.224	32276.58
731.565	32074.78
731.906	32155.23
732.248	32155.68
732.589	31927.44
732.93	32048.34
733.271	31970.6
733.612	31831.17
733.953	31919.98
734.294	31931.28
734.635	31794.11
734.976	31775.12
735.317	31724.73
735.658	31669.59
735.999	31714.79
736.339	31505.3
736.68	31708.91
737.021	31596.6
737.361	31401.12
737.702	31687.9
738.042	31355.93
738.383	31345.08
738.723	31314.8
739.063	31276.16
739.404	31289.49
739.744	31278.41
740.084	31174.69
740.424	31192.54
740.764	31062.38
741.104	31210.85
741.444	30948.25
741.784	30896.73
742.124	30780.57
742.464	31024.86
742.804	30819.44
743.143	30864.41
743.483	30832.32
743.823	30754.13
744.162	30579.45
744.502	30719.33
744.841	30548.94
745.181	30630.75
745.52	30576.51
745.86	30525.21
746.199	30534.93
746.538	30404.31
746.877	30534.71
747.216	30447.7
747.556	30275.05
747.895	30285.45
748.234	30258.1
748.573	30203.41
748.911	30158.9
749.25	30180.14
749.589	29967.94
749.928	29976.3
750.267	30177.2
750.605	29884.1
750.944	29879.81
751.283	29833.93
751.621	29914.38
751.96	29738.79
752.298	29727.95
752.636	29735.86
752.975	29573.37
753.313	29520.27
753.651	29434.62
753.989	29507.84
754.327	29499.7
754.666	29198.24
755.004	29359.6
755.342	29292.03
755.679	29177.23
756.017	29108.53
756.355	29230.79
756.693	28978.36
757.031	29046.84
757.368	28899.49
757.706	28821.53
758.044	28829.67
758.381	28834.64
758.719	28671.48
759.056	28688.88
759.394	28607.52
759.731	28352.39
760.068	28471.48
760.405	28300.19
760.743	28246.63
