Data from red_cardboard_box_FLMS001491_00035.txt Node
Date: Wed Feb 08 11:32:05 GMT 2017
User: dcchb
Spectrometer: FLMS00149
Trigger mode: 0
Integration Time (sec): 2.000000E-2
Scans to average: 10
Electric dark correction enabled: true
Nonlinearity correction enabled: false
Boxcar width: 0
XAxis mode: Wavelengths
Number of Pixels in Spectrum: 2048
>>>>>Begin Spectral Data<<<<<
341.393	-7.74
341.776	-7.74
342.16	-7.74
342.543	-50
342.927	-64.24
343.31	-90
343.693	-67.63
344.077	-82.31
344.46	-75.76
344.843	-60.62
345.226	-40.96
345.61	-26.04
345.993	-29.66
346.376	2.66
346.759	9.66
347.142	39.94
347.525	44.24
347.908	89.66
348.291	90.56
348.674	96.21
349.057	100.05
349.44	107.51
349.823	136.44
350.206	157.23
350.588	179.15
350.971	202.88
351.354	245.81
351.737	244.68
352.119	237
352.502	266.83
352.884	256.66
353.267	267.51
353.65	268.41
354.032	307.05
354.414	305.92
354.797	313.61
355.179	339.14
355.562	327.39
355.944	313.38
356.326	351.8
356.709	335.53
357.091	336.88
357.473	334.62
357.855	326.71
358.238	341.86
358.62	316.32
359.002	344.79
359.384	342.31
359.766	340.05
360.148	317.45
360.53	344.79
360.912	338.92
361.294	340.73
361.676	347.96
362.057	325.36
362.439	330.33
362.821	319.26
363.203	326.94
363.584	313.83
363.966	318.58
364.348	318.13
364.729	327.39
365.111	313.83
365.493	306.6
365.874	305.25
366.256	305.02
366.637	302.99
367.019	294.17
367.4	312.48
367.781	298.92
368.163	310.44
368.544	314.51
368.925	300.95
369.306	305.92
369.688	315.87
370.069	328.3
370.45	295.75
370.831	293.04
371.212	305.47
371.593	311.35
371.974	314.96
372.355	302.76
372.736	316.77
373.117	291.69
373.498	302.76
373.879	330.33
374.26	306.6
374.641	297.79
375.021	300.73
375.402	315.87
375.783	322.19
376.163	330.56
376.544	317.45
376.925	330.33
377.305	321.29
377.686	333.27
378.066	326.04
378.447	313.16
378.827	321.29
379.208	307.73
379.588	331.23
379.968	330.78
380.349	328.07
380.729	329.65
381.109	326.49
381.489	333.04
381.87	331.91
382.25	329.2
382.63	327.39
383.01	333.27
383.39	324.91
383.77	331.69
384.15	335.53
384.53	306.15
384.91	345.7
385.29	316.55
385.67	320.84
386.049	360.39
386.429	337.11
386.809	340.05
387.189	342.99
387.568	329.43
387.948	317
388.328	335.53
388.707	321.52
389.087	321.74
389.466	320.39
389.846	341.4
390.225	335.08
390.605	341.86
390.984	352.93
391.363	340.5
391.743	339.37
392.122	359.26
392.501	365.36
392.881	346.6
393.26	333.72
393.639	354.96
394.018	371.46
394.397	344.34
394.776	346.6
395.155	359.26
395.534	364.68
395.913	361.74
396.292	347.28
396.671	353.83
397.05	360.16
397.429	375.53
397.808	372.36
398.186	369.88
398.565	368.75
398.944	356.09
399.323	359.26
399.701	383.44
400.08	372.82
400.458	374.85
400.837	360.84
401.215	370.33
401.594	367.84
401.972	363.55
402.351	388.86
402.729	380.05
403.107	371.01
403.486	387.96
403.864	387.5
404.242	390.89
404.62	390.89
404.999	393.38
405.377	359.71
405.755	377.33
406.133	385.24
406.511	395.41
406.889	375.3
407.267	401.51
407.645	388.18
408.023	410.78
408.401	385.7
408.779	400.38
409.156	387.96
409.534	395.87
409.912	402.64
410.29	401.06
410.667	407.39
411.045	405.13
411.422	397.22
411.8	406.94
412.178	397.22
412.555	406.03
412.933	401.29
413.31	425.92
413.687	417.79
414.065	438.58
414.442	422.31
414.819	420.5
415.197	422.08
415.574	424.11
415.951	432.25
416.328	416.66
416.705	406.49
417.082	444.45
417.46	425.24
417.837	434.28
418.214	436.77
418.591	442.19
418.967	423.89
419.344	446.49
419.721	437.9
420.098	438.58
420.475	444.68
420.852	438.8
421.228	440.16
421.605	435.64
421.982	449.42
422.358	450.55
422.735	473.38
423.111	458.91
423.488	485.81
423.864	440.84
424.241	466.6
424.617	469.31
424.994	455.75
425.37	485.13
425.746	468.41
426.123	450.55
426.499	446.26
426.875	475.86
427.251	467.5
427.627	492.13
428.003	471.8
428.379	481.29
428.756	489.2
429.132	483.77
429.507	494.85
429.883	510.89
430.259	510.66
430.635	513.15
431.011	497.11
431.387	501.85
431.763	520.38
432.138	518.12
432.514	504.11
432.89	522.42
433.265	533.49
433.641	511.34
434.016	525.81
434.392	540.95
434.767	551.57
435.143	552.25
435.518	550.44
435.894	539.59
436.269	546.6
436.644	527.39
437.02	548.18
437.395	545.47
437.77	546.6
438.145	580.95
438.52	575.75
438.895	523.77
439.271	564.45
439.646	572.58
440.021	570.55
440.395	575.75
440.77	592.24
441.145	576.65
441.52	577.33
441.895	577.33
442.27	588.4
442.645	567.16
443.019	572.81
443.394	592.92
443.769	588.63
444.143	590.21
444.518	602.87
444.892	582.3
445.267	611.68
445.641	606.48
446.016	589.76
446.39	599.25
446.764	599.48
447.139	614.62
447.513	613.71
447.887	599.48
448.262	621.4
448.636	619.36
449.01	620.94
449.384	626.37
449.758	633.6
450.132	629.31
450.506	642.86
450.88	633.15
451.254	636.08
451.628	652.36
452.002	658.01
452.376	664.33
452.75	651.45
453.123	664.11
453.497	657.55
453.871	665.01
454.244	676.08
454.618	674.28
454.992	671.11
455.365	662.3
455.739	688.51
456.112	679.02
456.486	700.72
456.859	696.42
457.232	680.6
457.606	707.5
457.979	702.75
458.352	698.23
458.725	714.5
459.099	754.05
459.472	719.7
459.845	727.38
460.218	748.62
460.591	725.35
460.964	732.35
461.337	767.38
461.71	780.26
462.083	762.18
462.456	750.21
462.829	757.21
463.201	753.37
463.574	770.09
463.947	768.28
464.32	797.66
464.692	792.47
465.065	814.39
465.438	788.17
465.81	795.63
466.183	819.13
466.555	811.9
466.928	833.37
467.3	845.12
467.672	811.67
468.045	842.41
468.417	875.63
468.789	841.96
469.161	866.14
469.534	874.5
469.906	911.56
470.278	883.31
470.65	915.85
471.022	905.91
471.394	910.2
471.766	911.33
472.138	931.9
472.51	944.33
472.882	955.85
473.253	963.76
473.625	972.8
473.997	993.14
474.369	959.47
474.74	987.94
475.112	990.65
475.484	1044.89
475.855	1014.15
476.227	1037.43
476.598	1066.58
476.97	1065.45
477.341	1061.16
477.713	1113.13
478.084	1111.1
478.455	1126.92
478.827	1114.49
479.198	1148.39
479.569	1125.34
479.94	1164.88
480.311	1159.24
480.682	1199.91
481.053	1231.1
481.424	1236.52
481.795	1213.7
482.166	1236.07
482.537	1294.82
482.908	1288.95
483.279	1300.7
483.65	1271.55
484.021	1328.5
484.391	1327.37
484.762	1337.99
485.133	1358.55
485.503	1392.45
485.874	1387.25
486.244	1384.99
486.615	1404.65
486.985	1427.48
487.356	1442.17
487.726	1430.87
488.097	1477.87
488.467	1509.73
488.837	1524.65
489.207	1565.1
489.578	1552.67
489.948	1569.62
490.318	1600.58
490.688	1591.54
491.058	1614.82
491.428	1617.75
491.798	1619.79
492.168	1656.85
492.538	1675.15
492.908	1692.78
493.278	1697.98
493.648	1741.14
494.017	1772.33
494.387	1763.06
494.757	1743.85
495.126	1796.73
495.496	1771.65
495.866	1838.31
496.235	1824.08
496.605	1830.86
496.974	1824.53
497.344	1863.17
497.713	1875.83
498.082	1905.43
498.452	1905.43
498.821	1932.77
499.19	1930.51
499.559	1938.2
499.928	1918.09
500.298	1991.08
500.667	1982.94
501.036	1928.93
501.405	1998.31
501.774	2005.09
502.143	1976.61
502.512	2001.47
502.88	2036.73
503.249	2044.86
503.618	2044.86
503.987	2096.39
504.356	2079.44
504.724	2064.3
505.093	2110.17
505.462	2115.59
505.83	2138.64
506.199	2162.82
506.567	2121.92
506.936	2182.26
507.304	2188.81
507.672	2194.69
508.041	2243.95
508.409	2231.52
508.777	2225.2
509.145	2265.42
509.514	2264.06
509.882	2267.68
510.25	2271.52
510.618	2321.92
510.986	2283.5
511.354	2313.33
511.722	2339.09
512.09	2355.81
512.458	2373.21
512.826	2373.44
513.193	2418.41
513.561	2434
513.929	2444.17
514.297	2466.32
514.664	2455.25
515.032	2450.05
515.4	2502.02
515.767	2515.81
516.135	2530.95
516.502	2494.34
516.869	2577.05
517.237	2531.85
517.604	2561.01
517.972	2594.9
518.339	2605.07
518.706	2626.99
519.073	2601.68
519.44	2636.71
519.808	2680.78
520.175	2698.4
520.542	2704.51
520.909	2716.93
521.276	2746.09
521.643	2762.36
522.009	2803.03
522.376	2834.45
522.743	2825.41
523.11	2849.81
523.477	2891.39
523.843	2883.71
524.21	2888.68
524.577	2966.42
524.943	2944.95
525.31	2970.03
525.676	3032.18
526.043	3014.1
526.409	3001.22
526.776	3051.84
527.142	3029.69
527.508	3080.77
527.874	3109.24
528.241	3121.44
528.607	3153.53
528.973	3182.46
529.339	3178.17
529.705	3203.7
530.071	3223.81
530.437	3272.17
530.803	3285.73
531.169	3286.64
531.535	3290.03
531.901	3343.36
532.267	3326.64
532.632	3388.55
532.998	3383.81
533.364	3363.24
533.73	3421.32
534.095	3433.75
534.461	3431.94
534.826	3456.12
535.192	3465.62
535.557	3487.08
535.923	3549
536.288	3514.65
536.653	3559.4
537.019	3576.57
537.384	3583.58
537.749	3568.44
538.114	3600.75
538.479	3604.14
538.845	3630.13
539.21	3658.83
539.575	3669
539.94	3676.68
540.305	3735.44
540.67	3706.29
541.034	3753.97
541.399	3730.24
541.764	3768.88
542.129	3808.66
542.494	3833.74
542.858	3828.32
543.223	3826.74
543.587	3869.9
543.952	3870.12
544.316	3859.28
544.681	3846.4
545.045	3888.43
545.41	3912.16
545.774	3918.26
546.138	3960.07
546.503	4008.88
546.867	3976.79
547.231	4020.63
547.595	4045.94
547.959	4056.11
548.324	4073.96
548.688	4094.3
549.052	4126.16
549.416	4130.91
549.779	4125.48
550.143	4136.11
550.507	4196.22
550.871	4175.65
551.235	4224.24
551.599	4257.23
551.962	4278.25
552.326	4243.67
552.689	4292.94
553.053	4287.74
553.417	4344.91
553.78	4400.51
554.143	4364.12
554.507	4406.83
554.87	4404.8
555.234	4456.1
555.597	4497.68
555.96	4518.24
556.323	4548.75
556.686	4583.55
557.05	4576.77
557.413	4607.96
557.776	4645.02
558.139	4689.31
558.502	4702.64
558.865	4745.36
559.228	4779.25
559.59	4782.87
559.953	4820.83
560.316	4893.15
560.679	4927.95
561.041	4916.2
561.404	4996.65
561.767	5041.84
562.129	5036.87
562.492	5094.27
562.854	5098.11
563.217	5104.44
563.579	5198.22
563.941	5233.03
564.304	5291.33
564.666	5289.97
565.028	5373.36
565.39	5342.85
565.753	5475.28
566.115	5475.28
566.477	5537.43
566.839	5550.31
567.201	5618.55
567.563	5597.08
567.925	5713.01
568.287	5706.69
568.648	5776.74
569.01	5848.6
569.372	5889.28
569.734	5913.23
570.095	6032.1
570.457	6073.23
570.819	6089.73
571.18	6129.95
571.542	6279.33
571.903	6272.77
572.265	6297.63
572.626	6324.07
572.987	6437.29
573.349	6473.67
573.71	6561.8
574.071	6657.4
574.432	6666.89
574.794	6758.86
575.155	6776.49
575.516	6842.93
575.877	6884.51
576.238	7007.89
576.599	7064.16
576.96	7138.06
577.32	7231.62
577.681	7255.57
578.042	7361.33
578.403	7451.72
578.763	7531.04
579.124	7581.21
579.485	7681.32
579.845	7825.5
580.206	7863.01
580.566	7963.35
580.927	8120.18
581.287	8166.96
581.648	8295.54
582.008	8342.1
582.368	8518.14
582.728	8542.32
583.089	8684.01
583.449	8804.23
583.809	8950.89
584.169	9039.48
584.529	9225.46
584.889	9371.22
585.249	9412.35
585.609	9535.06
585.969	9774.83
586.329	9874.26
586.688	10033.58
587.048	10138.43
587.408	10366.45
587.768	10550.63
588.127	10717.85
588.487	10825.65
588.846	11080.1
589.206	11163.49
589.565	11413.65
589.925	11663.14
590.284	11770.71
590.643	12067.2
591.003	12341.77
591.362	12510.12
591.721	12650.68
592.08	12849.78
592.44	13120.28
592.799	13404.56
593.158	13572.24
593.517	13759.81
593.876	14124.54
594.235	14294.93
594.593	14527.25
594.952	14759.78
595.311	15116.61
595.67	15327.22
596.029	15732.19
596.387	15984.38
596.746	16250.82
597.104	16402
597.463	16709.33
597.822	17072.71
598.18	17291.24
598.538	17585.24
598.897	17971
599.255	18078.79
599.613	18674.48
599.972	18777.08
600.33	19086.67
600.688	19337.06
601.046	19659.54
601.404	20001.9
601.762	20359.86
602.12	20620.64
602.478	20942.44
602.836	21253.17
603.194	21445.93
603.552	21689.54
603.91	21882.76
604.268	22427.15
604.625	22589.18
604.983	22919.79
605.341	23143.97
605.698	23483.62
606.056	23678.87
606.413	24092.19
606.771	24361.34
607.128	24600.43
607.485	24774.66
607.843	24973.3
608.2	25402.44
608.557	25641.98
608.914	25842.88
609.272	26185.7
609.629	26402.64
609.986	26764.44
610.343	26860.93
610.7	27254.82
611.057	27293.46
611.414	27583.63
611.771	27733.68
612.127	28159.43
612.484	28238.75
612.841	28482.81
613.198	28611.85
613.554	28669.25
613.911	29153.53
614.267	29094.55
614.624	29352.17
614.98	29626.96
615.337	29839.84
615.693	29934.75
616.05	30066.95
616.406	30461.29
616.762	30474.85
617.118	30677.78
617.475	30795.29
617.831	30955.29
618.187	31159.12
618.543	31451.77
618.899	31694.93
619.255	31607.93
619.611	31844.53
619.967	32061.25
620.323	32112.55
620.678	32188.93
621.034	32162.04
621.39	32294.69
621.746	32356.38
622.101	32787.56
622.457	32634.34
622.812	32790.04
623.168	33041.11
623.523	33073.2
623.879	33365.39
624.234	33089.47
624.589	33331.72
624.945	33446.75
625.3	33668.44
625.655	33586.18
626.01	33591.15
626.365	33637.03
626.72	33781.65
627.075	33870.47
627.43	33877.7
627.785	34001.31
628.14	34136.45
628.495	34283.11
628.85	34187.75
629.205	34164.24
629.559	34424.8
629.914	34247.86
630.269	34443.33
630.623	34255.77
630.978	34278.14
631.332	34693.04
631.687	34690.78
632.041	34526.27
632.396	34662.31
632.75	34547.51
633.104	34782.53
633.459	34613.04
633.813	34543.67
634.167	34629.99
634.521	34674.29
634.875	34762.19
635.229	34658.02
635.583	34580.5
635.937	34637.22
636.291	34588.64
636.645	34619.15
636.999	34651.69
637.352	34697.79
637.706	34529.88
638.06	34735.3
638.413	34648.75
638.767	34491.92
639.121	34736.66
639.474	34568.53
639.828	34651.01
640.181	34671.35
640.534	34830.89
640.888	34823.21
641.241	34635.64
641.594	34672.48
641.947	34780.05
642.301	34720.39
642.654	34812.59
643.007	34919.48
643.36	34681.97
643.713	34677.45
644.066	34901.62
644.419	34623.67
644.771	34411.47
645.124	33961.54
645.477	34122.89
645.83	33898.49
646.182	33831.37
646.535	33791.37
646.888	33990.69
647.24	33870.24
647.593	34006.06
647.945	33833.63
648.298	33766.74
648.65	33698.72
649.002	33613.3
649.355	33879.73
649.707	33690.36
650.059	33844.03
650.411	34208.99
650.763	34114.3
651.115	34825.92
651.467	34527.17
651.819	34667.51
652.171	34638.35
652.523	34497.12
652.875	34481.07
653.227	34401.52
653.578	34625.25
653.93	34637.45
654.282	34490.79
654.633	34425.93
654.985	34585.02
655.337	34538.02
655.688	34424.8
656.039	34633.84
656.391	34299.38
656.742	34431.58
657.094	34461.18
657.445	34549.54
657.796	34315.88
658.147	34523.78
658.498	34347.74
658.849	34405.82
659.2	34284.92
659.551	34207.18
659.902	34477.46
660.253	34433.39
660.604	34340.28
660.955	34223.45
661.306	34479.04
661.656	34469.77
662.007	34461.41
662.358	34351.81
662.708	34359.49
663.059	34428.42
663.409	34205.6
663.76	34502.77
664.11	34502.77
664.461	34565.59
664.811	34411.92
665.161	34445.14
665.511	34234.75
665.862	34358.81
666.212	34476.33
666.562	34504.57
666.912	34457.79
667.262	34433.61
667.612	34373.73
667.962	34413.5
668.312	34389.1
668.662	34548.41
669.011	34461.64
669.361	34412.6
669.711	34452.37
670.06	34263.45
670.41	34215.32
670.76	34142.1
671.109	34360.17
671.459	34318.82
671.808	34268.42
672.157	34367.85
672.507	34081.08
672.856	34118.37
673.205	34261.87
673.554	34220.51
673.904	34177.35
674.253	34435.87
674.602	34223
674.951	33800.18
675.3	33591.38
675.649	34059.84
675.998	34211.47
676.346	34189.33
676.695	34193.85
677.044	34046.73
677.393	34162.21
677.741	34092.61
678.09	33946.62
678.438	33748.66
678.787	33985.26
679.135	33988.43
679.484	33710.7
679.832	33944.14
680.181	33613.3
680.529	33851.48
680.877	33779.85
681.225	33681.77
681.573	33954.3
681.922	33525.62
682.27	33527.65
682.618	33596.35
682.966	33431.38
683.314	33570.81
683.661	33398.61
684.009	33276.13
684.357	33129.47
684.705	33128.11
685.053	33268
685.4	33226.87
685.748	32980.32
686.095	33071.84
686.443	32766.99
686.79	32816.71
687.138	32929.93
687.485	32896.93
687.832	32715.24
688.18	32797.27
688.527	32703.26
688.874	32586.21
689.221	32570.39
689.568	32331.75
689.915	32420.56
690.262	32345.99
690.609	32297.85
690.956	32133.34
691.303	32137.4
691.65	31901.93
691.997	31887.47
692.344	31750.52
692.69	31869.16
693.037	31805.21
693.383	31542.84
693.73	31614.25
694.077	31402.96
694.423	31444.31
694.769	31404.09
695.116	31349.18
695.462	31242.96
695.808	31159.8
696.155	31182.4
696.501	30927.94
696.847	31005.91
697.193	30830.55
697.539	30974.5
697.885	30704.22
698.231	30809.75
698.577	30611.12
698.923	30522.98
699.269	30365.02
699.614	30171.58
699.96	30330.67
700.306	30267.17
700.651	30098.81
700.997	29903.34
701.342	29951.02
701.688	29879.16
702.033	29731.37
702.379	29720.52
702.724	29837.13
703.069	29795.32
703.415	29402.56
703.76	29533.4
704.105	29504.48
704.45	29411.15
704.795	29272.85
705.14	29207.54
705.485	29177.48
705.83	29118.95
706.175	29189.01
706.52	29028.11
706.865	28975.23
707.209	28910.37
707.554	28813.65
707.899	28859.75
708.243	28772.75
708.588	28588.57
708.932	28493.66
709.277	28560.77
709.621	28527.55
709.966	28430.16
710.31	28292.31
710.654	28102.26
710.998	28224.29
711.342	28175.25
711.687	28102.71
712.031	28054.57
712.375	27888.48
712.719	28024.29
713.063	27939.77
713.407	28033.1
713.75	27808.7
714.094	27662.04
714.438	27661.82
714.782	27742.04
715.125	27498.43
715.469	27697.75
715.812	27386.34
716.156	27350.41
716.499	27377.08
716.843	27432.22
717.186	27297.08
717.53	27358.32
717.873	27330.07
718.216	27159.23
718.559	26966.47
718.902	26874.94
719.246	26917.88
719.589	26877.88
719.932	26822.29
720.275	26886.92
720.617	26831.1
720.96	26728.05
721.303	26654.38
721.646	26798.33
721.989	26534.84
722.331	26774.38
722.674	26513.82
723.016	26787.94
723.359	26454.62
723.701	26545.69
724.044	26445.8
724.386	26236.99
724.729	26420.27
725.071	26352.24
725.413	26347.5
725.755	26154.51
726.097	26150.44
726.439	26059.15
726.782	26006.72
727.124	26117.45
727.465	25954.97
727.807	25955.87
728.149	25915.65
728.491	25775.08
728.833	25915.19
729.175	25902.54
729.516	25726.72
729.858	25651.25
730.199	25736.67
730.541	25723.79
730.882	25605.15
731.224	25692.83
731.565	25576.45
731.906	25559.5
732.248	25507.07
732.589	25546.62
732.93	25346.17
733.271	25435.43
733.612	25359.28
733.953	25430.91
734.294	25381.2
734.635	25257.81
734.976	25366.06
735.317	25214.2
735.658	25205.16
735.999	25114.09
736.339	25137.59
736.68	25236.57
737.021	25161.09
737.361	24991.6
737.702	25147.53
738.042	25006.74
738.383	24933.3
738.723	25105.5
739.063	24790.03
739.404	24906.18
739.744	24809.01
740.084	24779.18
740.424	24814.88
740.764	24692.18
741.104	24878.84
741.444	24575.12
741.784	24632.74
742.124	24621.67
742.464	24710.25
742.804	24606.75
743.143	24558.39
743.483	24567.89
743.823	24385.29
744.162	24330.6
744.502	24443.37
744.841	24311.85
745.181	24366.53
745.52	24257.38
745.86	24380.09
746.199	24290.15
746.538	24211.28
746.877	24264.39
747.216	24206.09
747.556	24173.09
747.895	24215.13
748.234	24161.57
748.573	24016.49
748.911	23989.82
749.25	23962.7
749.589	23944.4
749.928	23969.71
750.267	23945.53
750.605	23860.79
750.944	23818.3
751.283	23746.44
751.621	23852.65
751.96	23729.94
752.298	23654.91
752.636	23673.45
752.975	23535.6
753.313	23492.89
753.651	23576.5
753.989	23423.28
754.327	23328.37
754.666	23264.19
755.004	23278.43
755.342	23343.74
755.679	23245.43
756.017	23180.35
756.355	23183.97
756.693	23098.77
757.031	23037.08
757.368	23066
757.706	22935.61
758.044	22924.31
758.381	22929.74
758.719	22907.82
759.056	22841.15
759.394	22820.13
759.731	22616.75
760.068	22680.03
760.405	22438.45
760.743	22530.88
761.08	22549.41
761.417	22410.65
761.754	22316.42
