Data from red_shiny_book_FLMS001491_00082.txt Node
Date: Wed Feb 08 15:25:29 GMT 2017
User: dcchb
Spectrometer: FLMS00149
Trigger mode: 0
Integration Time (sec): 2.000000E-2
Scans to average: 10
Electric dark correction enabled: true
Nonlinearity correction enabled: false
Boxcar width: 0
XAxis mode: Wavelengths
Number of Pixels in Spectrum: 2048
>>>>>Begin Spectral Data<<<<<
341.393	-10.89
341.776	-10.89
342.16	-10.89
342.543	-58.57
342.927	-68.74
343.31	-70.55
343.693	-61.74
344.077	-73.94
344.46	-54.28
344.843	-42.08
345.226	-41.17
345.61	-28.29
345.993	-49.76
346.376	4.48
346.759	16.45
347.142	30.24
347.525	46.51
347.908	49
348.291	76.11
348.674	94.42
349.057	104.59
349.44	124.47
349.823	151.82
350.206	169.9
350.588	190.46
350.971	210.35
351.354	227.97
351.737	268.88
352.119	264.36
352.502	272.27
352.884	285.15
353.267	302.1
353.65	297.58
354.032	298.03
354.414	312.27
354.797	328.54
355.179	346.16
355.562	339.38
355.944	316.33
356.326	323.56
356.709	356.33
357.091	348.88
357.473	357.01
357.855	338.48
358.238	333.06
358.62	343.23
359.002	341.64
359.384	348.65
359.766	354.07
360.148	371.25
360.53	354.52
360.912	340.74
361.294	335.32
361.676	329.21
362.057	346.62
362.439	316.56
362.821	340.51
363.203	331.02
363.584	314.75
363.966	316.79
364.348	323.56
364.729	328.54
365.111	345.03
365.493	322.66
365.874	312.27
366.256	325.6
366.637	332.15
367.019	318.37
367.4	316.33
367.781	326.05
368.163	285.6
368.544	298.93
368.925	319.5
369.306	332.38
369.688	335.09
370.069	324.92
370.45	319.5
370.831	341.42
371.212	328.54
371.593	289.89
371.974	309.55
372.355	327.86
372.736	324.24
373.117	325.6
373.498	325.6
373.879	330.34
374.26	337.12
374.641	315.88
375.021	329.44
375.402	340.06
375.783	309.33
376.163	350.46
376.544	337.35
376.925	343.23
377.305	336.9
377.686	346.39
378.066	348.42
378.447	331.25
378.827	330.12
379.208	338.48
379.588	338.03
379.968	325.15
380.349	352.72
380.729	357.24
381.109	343.9
381.489	345.49
381.87	356.56
382.25	363.11
382.63	354.07
383.01	356.33
383.39	363.34
383.77	349.55
384.15	342.32
384.53	359.5
384.91	340.74
385.29	355.65
385.67	339.84
386.049	351.59
386.429	368.99
386.809	355.88
387.189	373.28
387.568	353.39
387.948	376.44
388.328	361.53
388.707	366.28
389.087	356.33
389.466	361.76
389.846	365.15
390.225	399.72
390.605	369.89
390.984	399.5
391.363	370.34
391.743	379.38
392.122	373.28
392.501	374.19
392.881	386.61
393.26	378.48
393.639	394.3
394.018	372.15
394.397	398.59
394.776	381.64
395.155	386.61
395.534	406.73
395.913	399.72
396.292	378.93
396.671	374.64
397.05	380.74
397.429	401.53
397.808	378.48
398.186	406.95
398.565	393.62
398.944	410.34
399.323	418.48
399.701	396.78
400.08	416.67
400.458	408.53
400.837	405.6
401.215	412.6
401.594	431.81
401.972	398.82
402.351	416.22
402.729	437.69
403.107	403.11
403.486	421.64
403.864	429.32
404.242	422.55
404.62	417.57
404.999	438.82
405.377	427.07
405.755	466.84
406.133	443.11
406.511	456.89
406.889	436.78
407.267	468.42
407.645	457.57
408.023	438.36
408.401	460.96
408.779	458.25
409.156	447.63
409.534	455.99
409.912	475.65
410.29	479.04
410.667	466.84
411.045	486.27
411.422	467.52
411.8	474.07
412.178	485.14
412.555	502.54
412.933	471.36
413.31	507.97
413.687	494.41
414.065	519.72
414.442	520.4
414.819	507.51
415.197	509.55
415.574	486.27
415.951	511.36
416.328	509.1
416.705	501.41
417.082	531.24
417.46	539.83
417.837	546.38
418.214	524.46
418.591	554.75
418.967	542.32
419.344	553.84
419.721	569.21
420.098	552.26
420.475	560.62
420.852	561.07
421.228	559.49
421.605	558.36
421.982	576.67
422.358	582.99
422.735	592.71
423.111	592.94
423.488	604.01
423.864	588.19
424.241	590.9
424.617	577.57
424.994	593.61
425.37	582.54
425.746	603.33
426.123	594.52
426.499	619.15
426.875	597.46
427.251	662.99
427.627	630.9
428.003	633.61
428.379	623.22
428.756	620.05
429.132	648.98
429.507	639.49
429.883	652.14
430.259	662.31
430.635	665.7
431.011	643.1
431.387	668.41
431.763	684.46
432.138	704.12
432.514	713.39
432.89	701.63
433.265	673.39
433.641	693.05
434.016	679.71
434.392	693.72
434.767	691.01
435.143	718.58
435.518	716.55
435.894	751.58
436.269	754.74
436.644	766.49
437.02	769.2
437.395	774.63
437.77	736.66
438.145	745.25
438.52	728.3
438.895	730.79
439.271	744.8
439.646	768.52
440.021	782.99
440.395	785.47
440.77	801.97
441.145	852.36
441.52	836.09
441.895	799.03
442.27	817.79
442.645	817.11
443.019	781.18
443.394	802.65
443.769	778.92
444.143	806.72
444.518	822.08
444.892	822.76
445.267	849.65
445.641	847.39
446.016	869.09
446.39	879.03
446.764	867.96
447.139	845.13
447.513	843.33
447.887	859.6
448.262	813.27
448.636	815.76
449.01	852.82
449.384	861.18
449.758	867.28
450.132	891.46
450.506	904.57
450.88	891.69
451.254	895.98
451.628	908.18
452.002	899.14
452.376	884.68
452.75	896.21
453.123	879.93
453.497	863.21
453.871	883.55
454.244	928.52
454.618	894.85
454.992	932.14
455.365	946.83
455.739	951.35
456.112	975.53
456.486	989.99
456.859	991.12
457.232	954.96
457.606	952.7
457.979	912.48
458.352	950.67
458.725	950.44
459.099	949.99
459.472	985.69
459.845	989.31
460.218	997.67
460.591	1038.57
460.964	1047.84
461.337	1048.74
461.71	1044.68
462.083	1056.65
462.456	1044.22
462.829	1025.92
463.201	1033.38
463.574	1004
463.947	1019.14
464.32	1039.93
464.692	1068.18
465.065	1063.43
465.438	1099.36
465.81	1126.03
466.183	1137.55
466.555	1139.14
466.928	1131.68
467.3	1140.72
467.672	1143.66
468.045	1116.31
468.417	1110.66
468.789	1123.54
469.161	1101.17
469.534	1127.16
469.906	1138.68
470.278	1167.61
470.65	1213.94
471.022	1253.94
471.394	1276.99
471.766	1296.19
472.138	1306.14
472.51	1322.63
472.882	1299.36
473.253	1265.01
473.625	1281.51
473.997	1304.33
474.369	1264.11
474.74	1258.23
475.112	1295.06
475.484	1343.65
475.855	1364.44
476.227	1391.56
476.598	1444.21
476.97	1502.07
477.341	1502.07
477.713	1522.4
478.084	1555.85
478.455	1534.38
478.827	1505
479.198	1531.22
479.569	1507.71
479.94	1471.56
480.311	1501.61
480.682	1539.35
481.053	1584.1
481.424	1615.73
481.795	1678.11
482.166	1728.27
482.537	1758.56
482.908	1827.03
483.279	1839.68
483.65	1897.76
484.021	1889.63
484.391	1842.85
484.762	1832.9
485.133	1826.58
485.503	1815.73
485.874	1847.14
486.244	1801.49
486.615	1869.96
486.985	1912
487.356	1986.57
487.726	2031.99
488.097	2085.78
488.467	2140.69
488.837	2205.1
489.207	2237.19
489.578	2241.03
489.948	2251.65
490.318	2219.11
490.688	2206
491.058	2181.82
491.428	2153.8
491.798	2161.71
492.168	2209.39
492.538	2223.18
492.908	2311.08
493.278	2350.4
493.648	2401.7
494.017	2485.99
494.387	2529.38
494.757	2571.64
495.126	2584.97
495.496	2609.83
495.866	2632.43
496.235	2583.62
496.605	2549.04
496.974	2518.31
497.344	2492.1
497.713	2440.12
498.082	2443.28
498.452	2504.3
498.821	2509.95
499.19	2556.95
499.559	2624.3
499.928	2689.6
500.298	2767.79
500.667	2840.33
501.036	2811.41
501.405	2877.17
501.774	2858.19
502.143	2862.71
502.512	2797.62
502.88	2789.49
503.249	2737.96
503.618	2676.95
503.987	2647.8
504.356	2640.34
504.724	2683.95
505.093	2652.77
505.462	2720.11
505.83	2816.61
506.199	2899.77
506.567	2963.04
506.936	3009.82
507.304	3092.08
507.672	3052.31
508.041	3061.35
508.409	3047.34
508.777	3019.54
509.145	2963.72
509.514	2892.08
509.882	2845.31
510.25	2804.63
510.618	2814.8
510.986	2814.35
511.354	2838.3
511.722	2868.13
512.09	2961.91
512.458	3030.84
512.826	3041.91
513.193	3146.54
513.561	3157.61
513.929	3225.86
514.297	3234.9
514.664	3238.97
515.032	3191.51
515.4	3144.06
515.767	3118.75
516.135	3038.97
516.502	2969.37
516.869	2982.7
517.237	2956.72
517.604	2897.73
517.972	2958.75
518.339	2992.87
518.706	3058.86
519.073	3142.7
519.44	3255.24
519.808	3287.55
520.175	3331.17
520.542	3405.07
520.909	3431.51
521.276	3380.89
521.643	3413.88
522.009	3339.08
522.376	3290.94
522.743	3241
523.11	3208.91
523.477	3132.08
523.843	3115.36
524.21	3096.6
524.577	3138.18
524.943	3153.77
525.31	3250.95
525.676	3338.4
526.043	3422.69
526.409	3526.19
526.776	3604.61
527.142	3709.69
527.508	3732.06
527.874	3790.14
528.241	3783.81
528.607	3747.88
528.973	3705.85
529.339	3627.43
529.705	3586.53
530.071	3549.47
530.437	3441.22
530.803	3490.71
531.169	3453.43
531.535	3445.06
531.901	3504.5
532.267	3589.24
532.632	3702.69
532.998	3804.6
533.364	3921.44
533.73	4026.97
534.095	4129.11
534.461	4109.23
534.826	4196.91
535.192	4189.68
535.557	4200.75
535.923	4132.05
536.288	4099.74
536.653	4017.03
537.019	3943.13
537.384	3856.13
537.749	3800.54
538.114	3823.13
538.479	3794.21
538.845	3866.97
539.21	3911.04
539.575	3984.26
539.94	4149.68
540.305	4238.72
540.67	4350.13
541.034	4432.38
541.399	4545.83
541.764	4635.99
542.129	4667.86
542.494	4645.94
542.858	4618.59
543.223	4557.13
543.587	4477.81
543.952	4447.98
544.316	4350.13
544.681	4252.28
545.045	4196.46
545.41	4216.8
545.774	4190.58
546.138	4203.46
546.503	4299.51
546.867	4332.95
547.231	4461.99
547.595	4526.17
547.959	4682.09
548.324	4782.2
548.688	4819.04
549.052	4878.25
549.416	4943.78
549.779	4942.88
550.143	4939.94
550.507	4928.42
550.871	4845.71
551.235	4759.15
551.599	4701.75
551.962	4636.45
552.326	4491.14
552.689	4483.91
553.053	4396
553.417	4387.19
553.78	4410.46
554.143	4435.32
554.507	4560.74
554.87	4600.06
555.234	4778.14
555.597	4854.75
555.96	4972.71
556.323	5052.25
556.686	5144.23
557.05	5265.81
557.413	5282.76
557.776	5245.47
558.139	5200.05
558.502	5142.87
558.865	5065.14
559.228	4934.07
559.59	4897.68
559.953	4794.86
560.316	4732.49
560.679	4632.15
561.041	4656.56
561.404	4676.9
561.767	4683.45
562.129	4712.6
562.492	4884.35
562.854	4931.13
563.217	5006.15
563.579	5199.14
563.941	5312.59
564.304	5456.76
564.666	5534.5
565.028	5595.06
565.39	5626.02
565.753	5604.33
566.115	5594.61
566.477	5491.11
566.839	5427.61
567.201	5361.85
567.563	5227.62
567.925	5144.68
568.287	5110.78
568.648	4957.79
569.01	5005.48
569.372	4973.39
569.734	4982.2
570.095	5062.42
570.457	5154.62
570.819	5260.38
571.18	5376.31
571.542	5572.47
571.903	5716.87
572.265	5853.36
572.626	5927.49
572.987	6069.85
573.349	6105.33
573.71	6162.28
574.071	6201.83
574.432	6119.34
574.794	6135.84
575.155	6058.56
575.516	5965.45
575.877	5876.87
576.238	5820.14
576.599	5790.54
576.96	5770.2
577.32	5766.13
577.681	5854.27
578.042	5946.47
578.403	6083.87
578.763	6188.5
579.124	6364.76
579.485	6594.81
579.845	6821.47
580.206	7040.9
580.566	7366.32
580.927	7542.36
581.287	7810.15
581.648	7965.62
582.008	8163.81
582.368	8442.22
582.728	8587.08
583.089	8613.52
583.449	8715.89
583.809	8891.93
584.169	9018.25
584.529	9095.76
584.889	9345.7
585.249	9502.76
585.609	9652.13
585.969	9932.8
586.329	10175.51
586.688	10590.64
587.048	10963.06
587.408	11313.33
587.768	11768.46
588.127	12278.05
588.487	12839.39
588.846	13367.74
589.206	13732.93
589.565	14199.36
589.925	14728.61
590.284	15160.91
590.643	15635.7
591.003	16046.99
591.362	16414.22
591.721	16867.54
592.08	17135.1
592.44	17489.89
592.799	17746.38
593.158	18137.79
593.517	18460.49
593.876	18761.05
594.235	19060.02
594.593	19464.53
594.952	19926.44
595.311	20311.06
595.67	20837.83
596.029	21462.22
596.387	21984.69
596.746	22631
597.104	22974.72
597.463	23522.95
597.822	24197.29
598.18	24646.77
598.538	25172.63
598.897	25775.1
599.255	25996.56
599.613	26846.48
599.972	27132.13
600.33	27645.78
600.688	27760.81
601.046	28285.09
601.404	28584.74
601.762	28817.73
602.12	29250.49
602.478	29452.06
602.836	29797.82
603.194	29916.01
603.552	30161.2
603.91	30351.7
604.268	31007.5
604.625	31194.39
604.983	31628.28
605.341	31843.41
605.698	32452.66
606.056	32921.35
606.413	33238.41
606.771	33628.45
607.128	34226.18
607.485	34506.85
607.843	35055.99
608.2	35462.08
608.557	35870.65
608.914	36070.87
609.272	36449.39
609.629	36768.03
609.986	37077.85
610.343	36982.49
610.7	37429.26
611.057	37314.91
611.414	37481.46
611.771	37756.93
612.127	37781.56
612.484	37874.67
612.841	38222.91
613.198	38078.73
613.554	38163.93
613.911	38605.04
614.267	38714.65
614.624	38938.82
614.98	39226.95
615.337	39568.41
615.693	39694.06
616.05	40018.57
616.406	40633.24
616.762	40623.75
617.118	40859.22
617.475	41088.82
617.831	41405.87
618.187	41644.29
618.543	41817.62
618.899	42034.78
619.255	42091.51
619.611	42009.25
619.967	42257.15
620.323	42259.64
620.678	42162.92
621.034	41992.3
621.39	42121.79
621.746	42035.24
622.101	42444.04
622.457	42004.5
622.812	42097.38
623.168	42180.09
623.523	42281.33
623.879	42569.46
624.234	42342.35
624.589	42581.44
624.945	42646.52
625.3	43006.74
625.655	43081.54
626.01	43272.94
626.365	43458.93
626.72	43513.16
627.075	43710.67
627.43	43847.39
627.785	43760.16
628.14	44010.1
628.495	44197.21
628.85	44042.19
629.205	43925.58
629.559	44380.03
629.914	43847.17
630.269	44018.91
630.623	43775.3
630.978	43579.83
631.332	43694.4
631.687	43639.26
632.041	43386.84
632.396	43438.82
632.75	43111.82
633.104	43310.46
633.459	43115.89
633.813	43079.05
634.167	43054.87
634.521	43270.23
634.875	43352.26
635.229	43401.98
635.583	43167.41
635.937	43487.4
636.291	43574.41
636.645	43669.32
636.999	43643.56
637.352	43741.86
637.706	43628.41
638.06	43935.3
638.413	43866.37
638.767	43772.14
639.121	43827.05
639.474	43579.38
639.828	43682.88
640.181	43485.59
640.534	43545.03
640.888	43376.44
641.241	43071.14
641.594	43018.26
641.947	43047.19
642.301	42828.89
642.654	42731.26
643.007	42824.59
643.36	42685.61
643.713	42533.98
644.066	42700.08
644.419	42468.22
644.771	42314.55
645.124	41863.49
645.477	41806.99
645.83	41792.98
646.182	41657.85
646.535	41620.56
646.888	41888.35
647.24	41823.49
647.593	42071.39
647.945	42098.06
648.298	41960.89
648.65	41930.61
649.002	41900.32
649.355	42150.49
649.707	41905.52
650.059	41959.98
650.411	42328.34
650.763	42377.37
651.115	42681.77
651.467	42424.38
651.819	42314.1
652.171	42195.01
652.523	41937.16
652.875	41873.66
653.227	41516.15
653.578	41660.33
653.93	41749.37
654.282	41487
654.633	41470.51
654.985	41413.78
655.337	41515.48
655.688	41563.61
656.039	41678.86
656.391	41491.52
656.742	41658.75
657.094	41899.65
657.445	41940.32
657.796	41973.54
658.147	41958.85
658.498	42129.92
658.849	42259.19
659.2	42192.07
659.551	42088.79
659.902	42235.68
660.253	42166.53
660.604	42289.69
660.955	42137.61
661.306	42110.26
661.656	41935.58
662.007	41800.21
662.358	41863.26
662.708	41640.67
663.059	41504.86
663.409	41153.68
663.76	41351.86
664.11	41268.93
664.461	41304.86
664.811	41188.25
665.161	41116.16
665.511	40986.22
665.862	40977.86
666.212	41067.13
666.562	41140.57
666.912	41054.25
667.262	41011.76
667.612	41101.25
667.962	41321.58
668.312	41173.34
668.662	41425.31
669.011	41444.07
669.361	41463.05
669.711	41590.95
670.06	41625.3
670.41	41453.56
670.76	41501.47
671.109	41648.13
671.459	41665.75
671.808	41534.23
672.157	41714.34
672.507	41452.43
672.856	41368.81
673.205	41389.15
673.554	41288.59
673.904	41161.59
674.253	41201.36
674.602	40915.49
674.951	40372
675.3	40056.31
675.649	40441.61
675.998	40286.13
676.346	40381.72
676.695	40523.64
677.044	40063.99
677.393	40221.5
677.741	40306.69
678.09	40159.35
678.438	40301.72
678.787	40452.91
679.135	40361.16
679.484	40215.17
679.832	40434.83
680.181	40176.53
680.529	40378.1
680.877	40357.09
681.225	40478.22
681.573	40523.41
681.922	40481.83
682.27	40469.63
682.618	40617.19
682.966	40464.66
683.314	40649.06
683.661	40381.27
684.009	40184.66
684.357	40106.7
684.705	39976.08
685.053	39925.01
685.4	39827.16
685.748	39521.18
686.095	39513.72
686.443	39154.41
686.79	38967.75
687.138	39148.98
687.485	38811.14
687.832	38749
688.18	38585.84
688.527	38511.94
688.874	38402.34
689.221	38369.8
689.568	38211.83
689.915	38088.45
690.262	38179.07
690.609	38196.92
690.956	38121.44
691.303	38169.35
691.65	37993.76
691.997	38216.81
692.344	37903.37
692.69	38126.19
693.037	38020.88
693.383	37916.02
693.73	38034.66
694.077	37818.4
694.423	37911.05
694.769	37870.6
695.116	37717.16
695.462	37682.58
695.808	37668.57
696.155	37732.3
696.501	37287.11
696.847	37081.92
697.193	36877.63
697.539	36951.08
697.885	36718.09
698.231	36430.64
698.577	36443.29
698.923	36262.28
699.269	35973.93
699.614	35876.53
699.96	35578.01
700.306	35648.74
700.651	35376.88
700.997	35323.32
701.342	35184.34
701.688	35224.34
702.033	35207.62
702.379	35163.78
702.724	34962.65
703.069	35130.11
703.415	34753.85
703.76	34900.06
704.105	34941.41
704.45	34906.61
704.795	34841.08
705.14	34810.57
705.485	34696.9
705.83	34759.72
706.175	34802.88
706.52	34695.32
706.865	34712.49
707.209	34640.85
707.554	34573.06
707.899	34583.68
708.243	34440.41
708.588	34408.77
708.932	34149.79
709.277	33923.36
709.621	33949.35
709.966	33876.81
710.31	33671.84
710.654	33325.41
710.998	33352.75
711.342	33329.02
711.687	33144.62
712.031	32963.61
712.375	32737.4
712.719	32865.76
713.063	32687.91
713.407	32618.76
713.75	32528.82
714.094	32433.68
714.438	32331.08
714.782	32273.69
715.125	32256.96
715.469	32353.91
715.812	32190.52
716.156	32012.9
716.499	32094.48
716.843	32232.33
717.186	32118.21
717.53	32270.75
717.873	32283.63
718.216	32285.44
718.559	32251.54
718.902	32042.73
719.246	32175.83
719.589	32145.55
719.932	31952.11
720.275	32040.7
720.617	31983.3
720.96	32006.57
721.303	31941.49
721.646	31948.72
721.989	31781.04
722.331	31815.39
722.674	31631.67
723.016	31526.59
723.359	31432.8
723.701	31428.74
724.044	31073.94
724.386	30954.4
724.729	30950.1
725.071	30764.8
725.413	30694.52
725.755	30584.92
726.097	30395.32
726.439	30283.46
726.782	30271.03
727.124	30396.22
727.465	30179.73
727.807	30158.26
728.149	30033.97
728.491	30005.72
728.833	30134.08
729.175	30012.95
729.516	30019.06
729.858	30000.98
730.199	30060.86
730.541	30029
730.882	30037.81
731.224	30287.52
731.565	29982.22
731.906	30069.9
732.248	30341.31
732.589	30207.98
732.93	30047.53
733.271	30112.16
733.612	30162.1
733.953	30180.18
734.294	30039.62
734.635	29955.78
734.976	30022.45
735.317	29748.1
735.658	29820.42
735.999	29697.71
736.339	29638.27
736.68	29670.36
737.021	29516.7
737.361	29232.86
737.702	29386.3
738.042	29166.65
738.383	29049.36
738.723	29139.76
739.063	28846.43
739.404	28897.28
739.744	28752.65
740.084	28643.05
740.424	28688.69
740.764	28503.16
741.104	28628.58
741.444	28500.23
741.784	28265.66
742.124	28415.26
742.464	28283.51
742.804	28271.3
743.143	28240.35
743.483	28370.06
743.823	28225.66
744.162	28250.97
744.502	28383.62
744.841	28245.99
745.181	28458.64
745.52	28449.15
745.86	28399.21
746.199	28301.81
746.538	28463.16
746.877	28480.34
747.216	28450.96
747.556	28363.51
747.895	28351.53
748.234	28246.9
748.573	28295.26
748.911	28211.65
749.25	28156.73
749.589	27974.36
749.928	27918.55
750.267	27989.05
750.605	27737.53
750.944	27734.14
751.283	27569.4
751.621	27650.98
751.96	27389.07
752.298	27250.31
752.636	27213.93
752.975	26990.89
753.313	26889.19
753.651	27003.99
753.989	26899.59
754.327	26700.5
754.666	26611.69
755.004	26567.17
755.342	26478.36
755.679	26431.58
756.017	26249.21
756.355	26361.98
756.693	26386.83
757.031	26283.56
757.368	26125.6
757.706	26138.03
758.044	26048.54
758.381	26152.04
758.719	25985.04
759.056	26004.02
759.394	26010.35
759.731	25845.61
760.068	26012.38
760.405	25865.04
760.743	25881.76
761.08	25989.1
