Data from red_cardboard_box_FLMS001491_00046.txt Node
Date: Wed Feb 08 11:32:27 GMT 2017
User: dcchb
Spectrometer: FLMS00149
Trigger mode: 0
Integration Time (sec): 2.000000E-2
Scans to average: 10
Electric dark correction enabled: true
Nonlinearity correction enabled: false
Boxcar width: 0
XAxis mode: Wavelengths
Number of Pixels in Spectrum: 2048
>>>>>Begin Spectral Data<<<<<
341.393	-4.18
341.776	-4.18
342.16	-4.18
342.543	-55.93
342.927	-78.98
343.31	-62.48
343.693	-60
344.077	-66.78
344.46	-52.99
344.843	-47.8
345.226	-41.24
345.61	-50.96
345.993	-27.68
346.376	-9.83
346.759	21.36
347.142	46.44
347.525	16.84
347.908	72.88
348.291	66.33
348.674	77.85
349.057	118.08
349.44	139.77
349.823	158.98
350.206	148.36
350.588	174.35
350.971	216.83
351.354	234.68
351.737	232.88
352.119	256.38
352.502	278.52
352.884	266.77
353.267	283.04
353.65	301.35
354.032	322.59
354.414	315.36
354.797	306.77
355.179	327.79
355.562	339.54
355.944	315.13
356.326	346.77
356.709	348.58
357.091	335.02
357.473	339.09
357.855	336.15
358.238	359.2
358.62	344.96
359.002	318.07
359.384	343.61
359.766	330.5
360.148	350.61
360.53	333.89
360.912	350.39
361.294	357.62
361.676	353.1
362.057	340.67
362.439	322.14
362.821	324.85
363.203	350.84
363.584	337.05
363.966	286.43
364.348	326.66
364.729	312.42
365.111	321.01
365.493	341.35
365.874	333.21
366.256	310.39
366.637	306.77
367.019	312.42
367.4	305.19
367.781	312.2
368.163	293.89
368.544	300.22
368.925	306.77
369.306	302.03
369.688	303.61
370.069	320.33
370.45	318.07
370.831	298.64
371.212	323.04
371.593	326.21
371.974	305.64
372.355	298.41
372.736	292.76
373.117	313.1
373.498	338.41
373.879	312.2
374.26	298.41
374.641	301.35
375.021	314.91
375.402	313.78
375.783	339.77
376.163	317.39
376.544	313.78
376.925	319.2
377.305	340.44
377.686	316.49
378.066	334.34
378.447	310.16
378.827	311.29
379.208	323.27
379.588	343.61
379.968	321.91
380.349	326.21
380.729	354.68
381.109	334.12
381.489	316.71
381.87	323.95
382.25	328.69
382.63	332.08
383.01	339.54
383.39	340.89
383.77	340.89
384.15	338.64
384.53	337.96
384.91	332.31
385.29	333.89
385.67	344.96
386.049	345.41
386.429	333.89
386.809	339.99
387.189	369.14
387.568	352.42
387.948	336.83
388.328	328.01
388.707	348.35
389.087	343.38
389.466	364.85
389.846	351.29
390.225	356.26
390.605	334.12
390.984	356.71
391.363	339.77
391.743	357.62
392.122	361.01
392.501	356.71
392.881	375.47
393.26	390.61
393.639	374.57
394.018	372.31
394.397	367.11
394.776	372.08
395.155	383.83
395.534	354.68
395.913	378.41
396.292	374.79
396.671	389.26
397.05	382.02
397.429	378.63
397.808	404.85
398.186	373.66
398.565	379.99
398.944	368.01
399.323	361.69
399.701	383.15
400.08	392.42
400.458	355.13
400.837	384.06
401.215	384.96
401.594	366.43
401.972	394.9
402.351	375.7
402.729	387.9
403.107	382.25
403.486	396.71
403.864	391.29
404.242	410.5
404.62	379.31
404.999	394.9
405.377	401.91
405.755	394
406.133	405.75
406.511	396.26
406.889	392.87
407.267	416.6
407.645	416.15
408.023	402.81
408.401	404.17
408.779	402.59
409.156	413.66
409.534	401.68
409.912	427.22
410.29	429.48
410.667	420.67
411.045	436.49
411.422	437.16
411.8	420.21
412.178	447.78
412.555	436.94
412.933	443.27
413.31	448.46
413.687	443.49
414.065	431.06
414.442	429.48
414.819	446.88
415.197	454.56
415.574	452.53
415.951	446.2
416.328	444.4
416.705	444.17
417.082	448.01
417.46	434.9
417.837	457.73
418.214	453.21
418.591	452.53
418.967	446.2
419.344	464.51
419.721	479.2
420.098	471.06
420.475	473.77
420.852	471.74
421.228	471.06
421.605	457.28
421.982	464.06
422.358	467.9
422.735	483.26
423.111	461.8
423.488	473.32
423.864	479.2
424.241	491.17
424.617	498.4
424.994	498.86
425.37	500.89
425.746	511.74
426.123	513.09
426.499	500.21
426.875	529.82
427.251	516.94
427.627	505.86
428.003	505.86
428.379	538.4
428.756	511.06
429.132	539.99
429.507	525.3
429.883	549.03
430.259	537.95
430.635	532.53
431.011	564.84
431.387	566.43
431.763	544.73
432.138	548.8
432.514	555.58
432.89	571.17
433.265	576.6
433.641	545.41
434.016	554.9
434.392	587.89
434.767	596.03
435.143	572.75
435.518	607.33
435.894	601.45
436.269	578.63
436.644	610.49
437.02	612.75
437.395	615.46
437.77	598.97
438.145	624.73
438.52	621.79
438.895	621.57
439.271	623.37
439.646	607.55
440.021	641.9
440.395	647.1
440.77	655.46
441.145	620.89
441.52	657.95
441.895	648.91
442.27	642.81
442.645	613.88
443.019	655.01
443.394	632.64
443.769	627.44
444.143	646.88
444.518	646.88
444.892	657.72
445.267	665.86
445.641	658.85
446.016	663.82
446.39	675.58
446.764	667.21
447.139	673.09
447.513	677.16
447.887	651.17
448.262	693.88
448.636	681
449.01	675.8
449.384	693.65
449.758	673.99
450.132	677.84
450.506	678.74
450.88	713.54
451.254	679.19
451.628	693.65
452.002	698.85
452.376	715.12
452.75	702.24
453.123	715.12
453.497	730.94
453.871	736.59
454.244	728
454.618	749.7
454.992	742.47
455.365	742.01
455.739	750.6
456.112	776.36
456.486	767.55
456.859	784.95
457.232	798.96
457.606	779.08
457.979	779.53
458.352	803.48
458.725	806.87
459.099	797.15
459.472	805.52
459.845	808.68
460.218	842.8
460.591	826.08
460.964	837.15
461.337	833.54
461.71	853.88
462.083	849.81
462.456	863.14
462.829	865.4
463.201	867.43
463.574	883.25
463.947	893.65
464.32	880.99
464.692	920.54
465.065	899.07
465.438	929.81
465.81	910.6
466.183	926.64
466.555	925.74
466.928	943.59
467.3	936.13
467.672	935.46
468.045	949.69
468.417	966.42
468.789	984.27
469.161	977.26
469.534	1013.19
469.906	988.79
470.278	972.29
470.65	1040.76
471.022	1015.45
471.394	1031.05
471.766	1039.86
472.138	1048
472.51	1071.27
472.882	1062.46
473.253	1101.1
473.625	1099.29
473.997	1122.34
474.369	1139.52
474.74	1116.02
475.112	1157.6
475.484	1162.12
475.855	1173.19
476.227	1175.45
476.598	1208.67
476.97	1203.7
477.341	1249.8
477.713	1252.28
478.084	1261.1
478.455	1296.8
478.827	1308.1
479.198	1317.59
479.569	1315.33
479.94	1358.72
480.311	1349.68
480.682	1354.65
481.053	1391.71
481.424	1415.89
481.795	1434.2
482.166	1439.4
482.537	1472.16
482.908	1469.9
483.279	1508.32
483.65	1539.96
484.021	1539.28
484.391	1527.08
484.762	1555.78
485.133	1560.98
485.503	1592.16
485.874	1651.37
486.244	1622.22
486.615	1666.06
486.985	1658.6
487.356	1717.13
487.726	1713.51
488.097	1760.97
488.467	1763.68
488.837	1785.83
489.207	1811.14
489.578	1797.35
489.948	1804.81
490.318	1846.17
490.688	1861.53
491.058	1897.46
491.428	1916.22
491.798	1946.28
492.168	1985.37
492.538	1955.99
492.908	1987.41
493.278	1981.98
493.648	2018.14
494.017	2031.02
494.387	2070.34
494.757	2069.89
495.126	2096.33
495.496	2078.25
495.866	2120.28
496.235	2132.26
496.605	2183.11
496.974	2161.41
497.344	2196.21
497.713	2191.02
498.082	2216.55
498.452	2236.21
498.821	2227.4
499.19	2258.13
499.559	2238.25
499.928	2323.44
500.298	2290.9
500.667	2344.91
501.036	2363.89
501.405	2388.98
501.774	2333.38
502.143	2386.26
502.512	2394.85
502.88	2427.85
503.249	2391.24
503.618	2438.24
503.987	2454.06
504.356	2442.31
504.724	2502.65
505.093	2488.18
505.462	2490.22
505.83	2546.71
506.199	2564.57
506.567	2597.78
506.936	2549.42
507.304	2582.64
507.672	2633.04
508.041	2638.46
508.409	2640.27
508.777	2675.75
509.145	2682.3
509.514	2664.9
509.882	2718.91
510.25	2692.7
510.618	2726.82
510.986	2758.46
511.354	2785.12
511.722	2809.08
512.09	2780.6
512.458	2846.59
512.826	2847.72
513.193	2873.48
513.561	2874.16
513.929	2917.32
514.297	2937.89
514.664	2930.21
515.032	2979.92
515.4	3045
515.767	3005.68
516.135	3044.55
516.502	3031.22
516.869	3074.61
517.237	3117.32
517.604	3053.82
517.972	3127.49
518.339	3140.37
518.706	3163.42
519.073	3176.3
519.44	3219.24
519.808	3242.06
520.175	3235.28
520.542	3285.45
520.909	3303.3
521.276	3275.73
521.643	3337.43
522.009	3373.13
522.376	3425.33
522.743	3420.14
523.11	3423.98
523.477	3493.35
523.843	3482.06
524.21	3510.98
524.577	3582.17
524.943	3588.95
525.31	3582.84
525.676	3619.45
526.043	3663.75
526.409	3694.03
526.776	3734.48
527.142	3701.26
527.508	3737.64
527.874	3787.13
528.241	3783.29
528.607	3785.55
528.973	3849.28
529.339	3877.3
529.705	3906.9
530.071	3927.02
530.437	3981.93
530.803	4006.79
531.169	4017.86
531.535	3984.87
531.901	3997.75
532.267	4029.61
532.632	4033.23
532.998	4080.68
533.364	4150.51
533.73	4133.56
534.095	4159.78
534.461	4172.21
534.826	4218.53
535.192	4228.7
535.557	4294.46
535.923	4245.65
536.288	4289.49
536.653	4349.38
537.019	4312.54
537.384	4338.08
537.749	4398.87
538.114	4437.06
538.479	4398.87
538.845	4428.47
539.21	4402.71
539.575	4432.76
539.94	4498.98
540.305	4520.67
540.67	4524.29
541.034	4585.98
541.399	4592.76
541.764	4610.16
542.129	4600.67
542.494	4627.34
542.858	4656.71
543.223	4624.85
543.587	4676.83
543.952	4669.82
544.316	4740.55
544.681	4736.49
545.045	4820.78
545.41	4829.59
545.774	4816.48
546.138	4814.68
546.503	4866.65
546.867	4896.48
547.231	4930.15
547.595	4931.51
547.959	4985.29
548.324	5000.66
548.688	4995.91
549.052	5076.82
549.416	5026.2
549.779	5067.55
550.143	5160.88
550.507	5157.27
550.871	5181.45
551.235	5169.02
551.599	5283.82
551.962	5260.99
552.326	5288.56
552.689	5298.96
553.053	5322.91
553.417	5331.5
553.78	5422.8
554.143	5418.05
554.507	5434.09
554.87	5502.79
555.234	5545.05
555.597	5531.49
555.96	5590.25
556.323	5624.82
556.686	5623.69
557.05	5704.14
557.413	5730.81
557.776	5779.17
558.139	5799.73
558.502	5844.03
558.865	5884.7
559.228	5937.13
559.59	5968.77
559.953	5998.6
560.316	6052.61
560.679	6123.57
561.041	6179.39
561.404	6245.82
561.767	6235.43
562.129	6304.81
562.492	6380.06
562.854	6371.92
563.217	6363.79
563.579	6451.24
563.941	6517.23
564.304	6599.04
564.666	6702.76
565.028	6702.31
565.39	6755.87
565.753	6856.88
566.115	6889.2
566.477	6987.27
566.839	6961.96
567.201	7017.78
567.563	7043.09
567.925	7101.4
568.287	7205.57
568.648	7232.24
569.01	7352.69
569.372	7373.25
569.734	7446.47
570.095	7615.51
570.457	7567.82
570.819	7684.43
571.18	7750.19
571.542	7838.32
571.903	7921.94
572.265	7982.05
572.626	8052.56
572.987	8129.39
573.349	8192.44
573.71	8261.14
574.071	8347.24
574.432	8454.58
574.794	8510.4
575.155	8647.34
575.516	8593.11
575.877	8768.02
576.238	8830.39
576.599	8868.81
576.96	8967.56
577.32	9033.55
577.681	9226.54
578.042	9353.77
578.403	9424.72
578.763	9476.7
579.124	9590.82
579.485	9729.8
579.845	9853.64
580.206	9952.39
580.566	10014.31
580.927	10163.91
581.287	10305.15
581.648	10480.06
582.008	10547.18
582.368	10684.58
582.728	10881.41
583.089	10958.47
583.449	11104.68
583.809	11284.79
584.169	11455.63
584.529	11629.64
584.889	11861.27
585.249	11941.27
585.609	12085.9
585.969	12355.27
586.329	12547.81
586.688	12685.66
587.048	12922.94
587.408	13093.55
587.768	13262.59
588.127	13539.19
588.487	13756.81
588.846	14132.85
589.206	14168.1
589.565	14466.4
589.925	14773.06
590.284	14940.96
590.643	15247.62
591.003	15614.62
591.362	15736.42
591.721	16074.49
592.08	16386.57
592.44	16699.56
592.799	17019.55
593.158	17297.96
593.517	17609.37
593.876	17926.42
594.235	18269.46
594.593	18537.48
594.952	19043.23
595.311	19291.13
595.67	19637.79
596.029	20054.05
596.387	20422.4
596.746	20887.47
597.104	21102.61
597.463	21430.96
597.822	21845.19
598.18	22116.14
598.538	22537.6
598.897	22958.61
599.255	23050.81
599.613	23755.19
599.972	24032.02
600.33	24416.19
600.688	24693.25
601.046	25070.41
601.404	25519.44
601.762	25930.96
602.12	26446.2
602.478	26681.67
602.836	26979.29
603.194	27221.32
603.552	27651.14
603.91	27970.68
604.268	28398.46
604.625	28659.25
604.983	29111.21
605.341	29383.52
605.698	29696.96
606.056	30109.38
606.413	30502.59
606.771	30815.35
607.128	31201.55
607.485	31372.85
607.843	31646.74
608.2	31994.75
608.557	32449.2
608.914	32628.18
609.272	32960.6
609.629	33321.5
609.986	33601.49
610.343	33683.07
610.7	34164.41
611.057	34412.77
611.414	34646.89
611.771	34847.78
612.127	35260.43
612.484	35504.04
612.841	35809.11
613.198	35838.04
613.554	36155.55
613.911	36438.7
614.267	36554.18
614.624	36777.68
614.98	37029.42
615.337	37402.75
615.693	37494.04
616.05	37621.72
616.406	37988.49
616.762	37978.55
617.118	38110.3
617.475	38442.49
617.831	38648.36
618.187	38721.58
618.543	38869.6
618.899	39325.18
619.255	39386.42
619.611	39407.89
619.967	39702.8
620.323	39868.67
620.678	39882.45
621.034	39844.49
621.39	40133.97
621.746	40151.83
622.101	40671.36
622.457	40479.27
622.812	40520.18
623.168	40889.21
623.523	40776.89
623.879	41226.37
624.234	40910.68
624.589	41173.27
624.945	41174.62
625.3	41506.59
625.655	41445.35
626.01	41704.1
626.365	41559.7
626.72	41593.37
627.075	41698.9
627.43	41796.08
627.785	41682.41
628.14	41961.04
628.495	42010.31
628.85	42129.4
629.205	41947.94
629.559	42362.39
629.914	42160.59
630.269	42277.42
630.623	42394.93
630.978	42149.97
631.332	42421.82
631.687	42515.38
632.041	42380.69
632.396	42614.59
632.75	42494.59
633.104	42599.44
633.459	42436.51
633.813	42423.18
634.167	42409.62
634.521	42393.35
634.875	42492.33
635.229	42368.26
635.583	42401.26
635.937	42434.7
636.291	42340.69
636.645	42404.87
636.999	42406.23
637.352	42582.95
637.706	42343.41
638.06	42526.9
638.413	42493.91
638.767	42382.05
639.121	42571.42
639.474	42300.24
639.828	42326.46
640.181	42506.79
640.534	42569.39
640.888	42468.6
641.241	42337.08
641.594	42399.45
641.947	42511.09
642.301	42440.35
642.654	42592.89
643.007	42500.46
643.36	42613.91
643.713	42478.77
644.066	42523.74
644.419	42307.7
644.771	41967.37
645.124	41754.5
645.477	41590.43
645.83	41502.3
646.182	41281.29
646.535	41250.78
646.888	41424.79
647.24	41216.88
647.593	41600.83
647.945	41417.78
648.298	41356.99
648.65	41112.48
649.002	41242.19
649.355	41405.13
649.707	41210.78
650.059	41344.79
650.411	41826.36
650.763	41983.87
651.115	42446.91
651.467	42223.41
651.819	42267.7
652.171	42118.55
652.523	42054.37
652.875	42246.23
653.227	42003.53
653.578	42267.48
653.93	42180.7
654.282	42005.11
654.633	41964.89
654.985	42117.65
655.337	42061.15
655.688	42053.92
656.039	42223.18
656.391	41876.3
656.742	42004.21
657.094	41941.84
657.445	42053.47
657.796	41909.52
658.147	41932.12
658.498	41930.54
658.849	42025.45
659.2	41866.81
659.551	41828.62
659.902	42053.47
660.253	41934.83
660.604	41862.74
660.955	41794.95
661.306	41977.09
661.656	41796.98
662.007	41805.79
662.358	41897.54
662.708	41902.97
663.059	41798.79
663.409	41743.2
663.76	42025
664.11	41838.56
664.461	42008.05
664.811	41882.18
665.161	41951.1
665.511	41800.82
665.862	41968.95
666.212	41930.31
666.562	41812.57
666.912	41892.12
667.262	41768.73
667.612	41826.36
667.962	41942.74
668.312	41752.01
668.662	42007.14
669.011	41954.04
669.361	41915.17
669.711	41801.95
670.06	41872.46
670.41	41830.2
670.76	41686.02
671.109	41755.17
671.459	41801.05
671.808	41659.58
672.157	41804.21
672.507	41538.91
672.856	41445.35
673.205	41730.77
673.554	41596.31
673.904	41528.96
674.253	41734.61
674.602	41648.74
674.951	41084.91
675.3	41000.84
675.649	41427.27
675.998	41505.46
676.346	41440.38
676.695	41662.75
677.044	41221.18
677.393	41416.43
677.741	41453.71
678.09	41357.22
678.438	41351.12
678.787	41460.04
679.135	41342.98
679.484	41034.29
679.832	41219.59
680.181	40907.06
680.529	41209.42
680.877	40928.98
681.225	41005.59
681.573	41270.44
681.922	40794.75
682.27	40822.54
682.618	40968.75
682.966	40725.14
683.314	40832.03
683.661	40786.61
684.009	40422.33
684.357	40476.79
684.705	40319.96
685.053	40486.28
685.4	40432.27
685.748	40301.88
686.095	40218.49
686.443	40081.77
686.79	39991.6
687.138	40200.64
687.485	40102.56
687.832	39953.19
688.18	39981.66
688.527	39646.08
688.874	39697.6
689.221	39624.83
689.568	39486.53
689.915	39429.58
690.262	39428.91
690.609	39359.53
690.956	39348.68
691.303	39137.16
691.65	38973.1
691.997	38955.02
692.344	38782.6
692.69	38734.69
693.037	38938.52
693.383	38503.96
693.73	38661.02
694.077	38334.25
694.423	38362.72
694.769	38304.42
695.116	38212.44
695.462	38171.31
695.808	38084.31
696.155	38089.96
696.501	37793.24
696.847	37791.44
697.193	37478.9
697.539	37711.66
697.885	37494.04
698.231	37266.03
698.577	37411.56
698.923	37282.52
699.269	37131.79
699.614	37019.25
699.96	36886.6
700.306	36811.57
700.651	36809.77
700.997	36597.79
701.342	36546.04
701.688	36433.96
702.033	36456.33
702.379	36323.23
702.724	36252.95
703.069	36398.03
703.415	35897.47
703.76	36019.05
704.105	35871.49
704.45	35806.63
704.795	35675.56
705.14	35680.3
705.485	35624.49
705.83	35397.6
706.175	35537.71
706.52	35502.91
706.865	35284.16
707.209	35258.85
707.554	35034.22
707.899	35133.88
708.243	34947.22
708.588	34994.9
708.932	34673.33
709.277	34797.62
709.621	34732.76
709.966	34536.15
710.31	34635.81
710.654	34208.93
710.998	34259.1
711.342	34227.24
711.687	34345.88
712.031	34102.72
712.375	33993.34
712.719	34124.41
713.063	33948.15
713.407	34107.69
713.75	33871.09
714.094	33829.73
714.438	33811.65
714.782	33816.17
715.125	33555.84
715.469	33767.13
715.812	33331.44
716.156	33417.99
716.499	33359.24
716.843	33447.82
717.186	33206.02
717.53	33393.81
717.873	33357.43
718.216	33174.83
718.559	33049.64
718.902	32831.79
719.246	33056.87
719.589	32890.55
719.932	32747.5
720.275	32735.98
720.617	32810.55
720.96	32656.43
721.303	32617.33
721.646	32552.03
721.989	32415.08
722.331	32541.4
722.674	32387.06
723.016	32631.35
723.359	32338.92
723.701	32380.73
724.044	32135.99
724.386	32067.74
724.729	32283.56
725.071	32108.87
725.413	32018.71
725.755	31944.58
726.097	32005.83
726.439	31834.3
726.782	31757.92
727.124	31950.46
727.465	31543.01
727.807	31831.14
728.149	31643.12
728.491	31605.84
728.833	31610.81
729.175	31495.78
729.516	31387.31
729.858	31495.33
730.199	31432.05
730.541	31384.37
730.882	31260.31
731.224	31425.28
731.565	31255.34
731.906	31312.28
732.248	31331.72
732.589	31051.95
732.93	30961.78
733.271	31114.78
733.612	31108
733.953	31110.71
734.294	30851.28
734.635	30896.25
734.976	30994.78
735.317	30813.31
735.658	30846.31
735.999	30736.48
736.339	30653.54
736.68	30704.84
737.021	30622.81
737.361	30440.67
737.702	30779.42
738.042	30527.9
738.383	30463.49
738.723	30543.04
739.063	30360.22
739.404	30526.32
739.744	30270.96
740.084	30325.19
740.424	30212.43
740.764	30169.72
741.104	30327
741.444	30154.12
741.784	30063.05
742.124	30068.7
742.464	30134.24
742.804	29990.74
743.143	29910.51
743.483	29943.96
743.823	29825.54
744.162	29720.46
744.502	29896.95
744.841	29634.59
745.181	29765.21
745.52	29647.7
745.86	29764.08
746.199	29717.3
746.538	29658.09
746.877	29717.3
747.216	29658.54
747.556	29442.28
747.895	29458.1
748.234	29282.51
748.573	29339
748.911	29282.96
749.25	29275.73
749.589	29282.73
749.928	29230.98
750.267	29272.56
750.605	29172.23
750.944	29121.61
751.283	28909.41
751.621	29113.25
751.96	28954.38
752.298	28946.47
752.636	29014.04
752.975	28826.7
753.313	28700.15
753.651	28939.92
753.989	28702.18
754.327	28666.25
754.666	28501.06
755.004	28615.63
755.342	28512.58
755.679	28349.2
756.017	28265.36
756.355	28424.45
756.693	28308.52
757.031	28189.43
757.368	28166.15
757.706	28167.51
758.044	27977.46
758.381	28139.94
758.719	27846.39
759.056	27925.03
759.394	27931.58
759.731	27716.45
760.068	27641.65
760.405	27608.65
760.743	27469.22
761.08	27621.53
761.417	27457.24
