Data from red_cardboard_box_FLMS001491_00006.txt Node
Date: Wed Feb 08 11:31:24 GMT 2017
User: dcchb
Spectrometer: FLMS00149
Trigger mode: 0
Integration Time (sec): 2.000000E-2
Scans to average: 10
Electric dark correction enabled: true
Nonlinearity correction enabled: false
Boxcar width: 0
XAxis mode: Wavelengths
Number of Pixels in Spectrum: 2048
>>>>>Begin Spectral Data<<<<<
341.393	-34.1
341.776	-34.1
342.16	-34.1
342.543	-60.08
342.927	-59.41
343.31	-56.92
343.693	-61.44
344.077	-53.53
344.46	-63.25
344.843	-60.31
345.226	-43.81
345.61	-34.55
345.993	-32.29
346.376	-16.47
346.759	23.76
347.142	37.77
347.525	44.55
347.908	57.43
348.291	50.42
348.674	94.94
349.057	113.7
349.44	102.17
349.823	134.49
350.206	152.11
350.588	205.22
350.971	198.44
351.354	244.32
351.737	251.77
352.119	242.96
352.502	257.42
352.884	269.63
353.267	291.09
353.65	301.49
354.032	311.43
354.414	300.81
354.797	324.09
355.179	326.12
355.562	331.09
355.944	316.63
356.326	349.4
356.709	332.45
357.091	352.56
357.473	334.03
357.855	352.11
358.238	352.11
358.62	335.16
359.002	333.35
359.384	343.97
359.766	332.9
360.148	350.98
360.53	333.13
360.912	339.68
361.294	333.13
361.676	328.61
362.057	326.8
362.439	320.92
362.821	325.44
363.203	325.22
363.584	343.97
363.966	323.86
364.348	333.13
364.729	312.34
365.111	340.58
365.493	313.24
365.874	316.18
366.256	321.83
366.637	304.43
367.019	287.93
367.4	309.17
367.781	309.85
368.163	312.11
368.544	317.08
368.925	320.7
369.306	320.25
369.688	296.52
370.069	326.12
370.45	300.59
370.831	322.51
371.212	311.21
371.593	317.31
371.974	302.17
372.355	317.76
372.736	322.73
373.117	328.38
373.498	285.44
373.879	297.65
374.26	330.42
374.641	316.4
375.021	310.98
375.402	310.53
375.783	322.51
376.163	307.59
376.544	328.61
376.925	321.83
377.305	306.69
377.686	318.44
378.066	321.83
378.447	324.31
378.827	321.38
379.208	347.14
379.588	320.7
379.968	327.93
380.349	336.06
380.729	328.16
381.109	322.96
381.489	347.82
381.87	351.21
382.25	348.95
382.63	338.1
383.01	337.19
383.39	334.93
383.77	310.75
384.15	362.05
384.53	329.51
384.91	327.03
385.29	348.04
385.67	348.27
386.049	353.01
386.429	336.52
386.809	332
387.189	351.66
387.568	342.84
387.948	351.43
388.328	334.03
388.707	359.79
389.087	345.33
389.466	356.4
389.846	335.16
390.225	341.49
390.605	355.27
390.984	343.07
391.363	356.86
391.743	367.25
392.122	357.98
392.501	365.89
392.881	361.37
393.26	364.99
393.639	378.1
394.018	343.07
394.397	379.23
394.776	359.34
395.155	372.67
395.534	348.72
395.913	360.47
396.292	358.66
396.671	386.23
397.05	359.34
397.429	359.34
397.808	369.74
398.186	377.42
398.565	360.7
398.944	365.22
399.323	377.42
399.701	381.26
400.08	383.3
400.458	372.22
400.837	355.5
401.215	376.74
401.594	367.02
401.972	378.55
402.351	399.11
402.729	357.98
403.107	372
403.486	371.54
403.864	386.91
404.242	379.23
404.62	383.07
404.999	402.05
405.377	401.37
405.755	406.8
406.133	406.8
406.511	363.18
406.889	408.83
407.267	405.67
407.645	398.44
408.023	404.09
408.401	403.41
408.779	406.35
409.156	422.84
409.534	404.99
409.912	385.1
410.29	399.34
410.667	400.92
411.045	416.06
411.422	444.76
411.8	419.23
412.178	434.14
412.555	407.48
412.933	427.14
413.31	431.66
413.687	446.34
414.065	444.76
414.442	461.49
414.819	438.43
415.197	425.33
415.574	465.1
415.951	426.46
416.328	409.51
416.705	458.1
417.082	451.99
417.46	462.39
417.837	451.99
418.214	454.93
418.591	445.89
418.967	448.15
419.344	434.82
419.721	463.29
420.098	465.55
420.475	459.45
420.852	475.04
421.228	474.14
421.605	488.15
421.982	461.26
422.358	447.25
422.735	472.11
423.111	481.37
423.488	478.43
423.864	506
424.241	501.26
424.617	490.18
424.994	521.6
425.37	493.12
425.746	503.74
426.123	496.29
426.499	496.29
426.875	506.68
427.251	504.42
427.627	508.94
428.003	508.04
428.379	521.14
428.756	510.75
429.132	513.24
429.507	510.52
429.883	526.12
430.259	546.45
430.635	553.23
431.011	547.81
431.387	545.1
431.763	564.76
432.138	548.04
432.514	532.22
432.89	547.58
433.265	560.47
433.641	556.62
434.016	563.86
434.392	560.24
434.767	589.62
435.143	558.21
435.518	574.7
435.894	594.14
436.269	552.1
436.644	557.53
437.02	592.78
437.395	581.26
437.77	589.39
438.145	585.1
438.52	602.95
438.895	577.64
439.271	595.94
439.646	620.8
440.021	594.36
440.395	619.22
440.77	626.9
441.145	613.12
441.52	628.71
441.895	608.6
442.27	653.34
442.645	617.41
443.019	650.18
443.394	627.81
443.769	639.79
444.143	629.39
444.518	632.33
444.892	641.59
445.267	661.03
445.641	667.58
446.016	654.93
446.39	650.18
446.764	655.15
447.139	662.84
447.513	667.36
447.887	645.44
448.262	669.62
448.636	670.29
449.01	654.93
449.384	649.5
449.758	644.76
450.132	676.17
450.506	677.75
450.88	703.06
451.254	686.34
451.628	688.82
452.002	706
452.376	703.51
452.75	703.96
453.123	705.32
453.497	702.16
453.871	701.7
454.244	732.21
454.618	741.93
454.992	723.17
455.365	749.84
455.739	735.15
456.112	755.71
456.486	743.74
456.859	759.78
457.232	766.79
457.606	767.01
457.979	763.85
458.352	763.62
458.725	763.85
459.099	789.84
459.472	778.76
459.845	790.97
460.218	817.63
460.591	795.26
460.964	809.05
461.337	831.64
461.71	830.51
462.083	820.57
462.456	837.97
462.829	826
463.201	851.98
463.574	868.48
463.947	866.67
464.32	862.6
464.692	867.35
465.065	876.39
465.438	893.56
465.81	886.33
466.183	879.78
466.555	931.3
466.928	907.8
467.3	917.52
467.672	929.27
468.045	943.05
468.417	937.86
468.789	943.73
469.161	951.64
469.534	969.72
469.906	946.67
470.278	1005.65
470.65	976.95
471.022	966.56
471.394	1028.7
471.766	1034.13
472.138	1037.97
472.51	1054.92
472.882	1058.98
473.253	1058.53
473.625	1068.93
473.997	1109.83
474.369	1091.98
474.74	1075.71
475.112	1125.87
475.484	1122.26
475.855	1129.49
476.227	1152.77
476.598	1170.84
476.97	1167.68
477.341	1198.41
477.713	1183.27
478.084	1191.41
478.455	1209.04
478.827	1244.06
479.198	1296.04
479.569	1251.75
479.94	1296.72
480.311	1276.6
480.682	1341.24
481.053	1336.72
481.424	1357.28
481.795	1360.67
482.166	1372.2
482.537	1418.97
482.908	1437.96
483.279	1475.24
483.65	1450.61
484.021	1470.5
484.391	1516.82
484.762	1496.94
485.133	1501.46
485.503	1493.55
485.874	1559.76
486.244	1562.47
486.615	1605.41
486.985	1582.36
487.356	1651.51
487.726	1634.34
488.097	1670.49
488.467	1638.63
488.837	1711.85
489.207	1703.94
489.578	1768.12
489.948	1739.87
490.318	1778.06
490.688	1763.6
491.058	1808.12
491.428	1861.9
491.798	1834.78
492.168	1863.71
492.538	1842.92
492.908	1903.71
493.278	1907.77
493.648	1915.01
494.017	1946.87
494.387	1984.83
494.757	1994.1
495.126	1997.49
495.496	2017.83
495.866	2018.28
496.235	2043.14
496.605	2048.34
496.974	2053.31
497.344	2075.68
497.713	2096.7
498.082	2126.3
498.452	2149.8
498.821	2171.5
499.19	2155.68
499.559	2176.24
499.928	2209.69
500.298	2208.11
500.667	2248.33
501.036	2228.22
501.405	2239.07
501.774	2282.45
502.143	2286.97
502.512	2250.82
502.88	2300.31
503.249	2304.83
503.618	2339.63
503.987	2354.77
504.356	2356.8
504.724	2356.12
505.093	2370.59
505.462	2400.64
505.83	2403.35
506.199	2429.79
506.567	2444.03
506.936	2468.66
507.304	2463.92
507.672	2480.87
508.041	2512.5
508.409	2508.66
508.777	2539.62
509.145	2560.19
509.514	2544.14
509.882	2584.37
510.25	2597.7
510.618	2580.98
510.986	2606.97
511.354	2688.77
511.722	2669.79
512.09	2681.54
512.458	2665.95
512.826	2725.38
513.193	2708.43
513.561	2736.45
513.929	2771.03
514.297	2817.81
514.664	2796.11
515.032	2826.62
515.4	2874.53
515.767	2852.38
516.135	2875.21
516.502	2881.99
516.869	2912.27
517.237	2927.41
517.604	2964.47
517.972	2961.98
518.339	2986.84
518.706	3020.06
519.073	3065.48
519.44	3014.19
519.808	3070.68
520.175	3080.85
520.542	3107.74
520.909	3117.01
521.276	3131.7
521.643	3172.15
522.009	3175.31
522.376	3240.4
522.743	3213.73
523.11	3271.58
523.477	3270.9
523.843	3311.13
524.21	3338.7
524.577	3366.72
524.943	3386.15
525.31	3427.28
525.676	3451.69
526.043	3461.41
526.409	3505.47
526.776	3528.75
527.142	3559.03
527.508	3554.29
527.874	3588.41
528.241	3593.38
528.607	3622.31
528.973	3680.84
529.339	3682.19
529.705	3716.99
530.071	3727.16
530.437	3750.89
530.803	3756.09
531.169	3802.64
531.535	3801.51
531.901	3806.48
532.267	3911.79
532.632	3867.27
532.998	3898.91
533.364	3904.78
533.73	3926.93
534.095	3930.32
534.461	3961.28
534.826	4024.78
535.192	4006.93
535.557	4044.44
535.923	4046.7
536.288	4088.28
536.653	4086.25
537.019	4073.59
537.384	4106.59
537.749	4112.01
538.114	4147.26
538.479	4206.7
538.845	4166.7
539.21	4238.33
539.575	4242.85
539.94	4274.27
540.305	4312.23
540.67	4288.73
541.034	4348.39
541.399	4346.13
541.764	4351.78
542.129	4389.07
542.494	4397.43
542.858	4380.93
543.223	4418.9
543.587	4500.93
543.952	4449.18
544.316	4481.49
544.681	4471.32
545.045	4542.28
545.41	4540.93
545.774	4590.87
546.138	4556.97
546.503	4652.56
546.867	4601.26
547.231	4687.36
547.595	4654.14
547.959	4698.44
548.324	4656.18
548.688	4707.25
549.052	4777.08
549.416	4800.13
549.779	4855.04
550.143	4773.46
550.507	4824.76
550.871	4854.14
551.235	4896.85
551.599	4947.47
551.962	4988.6
552.326	4974.36
552.689	5006.9
553.053	5013
553.417	5081.02
553.78	5149.72
554.143	5108.14
554.507	5194.24
554.87	5202.83
555.234	5230.17
555.597	5239.21
555.96	5338.42
556.323	5319.44
556.686	5325.09
557.05	5403.05
557.413	5434.91
557.776	5452.77
558.139	5459.09
558.502	5567.79
558.865	5544.97
559.228	5656.15
559.59	5627.9
559.953	5664.96
560.316	5692.08
560.679	5770.72
561.041	5818.86
561.404	5851.4
561.767	5877.61
562.129	5933.88
562.492	6024.28
562.854	5974.11
563.217	6058.4
563.579	6138.62
563.941	6142.92
564.304	6274.67
564.666	6354.44
565.028	6301.56
565.39	6370.48
565.753	6419.75
566.115	6478.28
566.477	6507.65
566.839	6587.2
567.201	6642.34
567.563	6681.66
567.925	6755.1
568.287	6783.58
568.648	6844.82
569.01	6971.6
569.372	7028.09
569.734	7075.55
570.095	7130.24
570.457	7161.42
570.819	7240.97
571.18	7279.84
571.542	7413.39
571.903	7504.92
572.265	7459.72
572.626	7564.12
572.987	7643.9
573.349	7741.97
573.71	7744.46
574.071	7903.32
574.432	7947.84
574.794	8132.7
575.155	8102.64
575.516	8200.72
575.877	8320.71
576.238	8398.45
576.599	8466.92
576.96	8535.62
577.32	8659.91
577.681	8708.5
578.042	8779.68
578.403	8966.8
578.763	9028.72
579.124	9126.79
579.485	9240.92
579.845	9388.03
580.206	9431.42
580.566	9543.73
580.927	9716.83
581.287	9796.83
581.648	9930.84
582.008	10091.74
582.368	10202.7
582.728	10310.04
583.089	10442.01
583.449	10619.41
583.809	10754.32
584.169	10924.03
584.529	11035.44
584.889	11239.51
585.249	11328.54
585.609	11507.97
585.969	11734.63
586.329	11918.13
586.688	12112.7
587.048	12311.79
587.408	12417.33
587.768	12601.05
588.127	12901.61
588.487	13048.05
588.846	13359.68
589.206	13481.71
589.565	13713.57
589.925	13989.26
590.284	14224.96
590.643	14421.12
591.003	14743.82
591.362	15055.68
591.721	15198.95
592.08	15474.88
592.44	15757.35
592.799	16121.64
593.158	16247.96
593.517	16618.35
593.876	16936.98
594.235	17118.22
594.593	17476.4
594.952	17823.51
595.311	18050.18
595.67	18351.18
596.029	18786.2
596.387	19074.78
596.746	19386.64
597.104	19620.3
597.463	20045.6
597.822	20285.37
598.18	20594.74
598.538	20811.23
598.897	21272.69
599.255	21431.56
599.613	22066.57
599.972	22242.16
600.33	22665.2
600.688	22911.06
601.046	23306.99
601.404	23678.28
601.762	24011.83
602.12	24544.92
602.478	24599.16
602.836	25002.76
603.194	25265.58
603.552	25602.52
603.91	25876.64
604.268	26348.04
604.625	26616.05
604.983	26917.29
605.341	27211.74
605.698	27627.32
606.056	27957.49
606.413	28206.97
606.771	28632.95
607.128	28886.05
607.485	29193.84
607.843	29390.22
608.2	29771
608.557	30048.05
608.914	30168.05
609.272	30620.69
609.629	30958.76
609.986	31327.79
610.343	31343.84
610.7	31757.39
611.057	31835.12
611.414	32106.98
611.771	32399.63
612.127	32857.24
612.484	32953.29
612.841	33244.35
613.198	33348.53
613.554	33428.75
613.911	33841.85
614.267	34039.59
614.624	34246.59
614.98	34556.41
615.337	34805.44
615.693	34897.64
616.05	34893.35
616.406	35439.77
616.762	35371.98
617.118	35604.74
617.475	35773.32
617.831	36006.99
618.187	36189.13
618.543	36311.62
618.899	36641.78
619.255	36789.12
619.611	36718.38
619.967	37018.72
620.323	37289.44
620.678	37253.51
621.034	37176.68
621.39	37553.17
621.746	37524.69
622.101	38044.45
622.457	37789.77
622.812	37997.45
623.168	38064.11
623.523	38295.07
623.879	38532.35
624.234	38217.33
624.589	38539.58
624.945	38697.09
625.3	38789.74
625.655	38876.07
626.01	38843.98
626.365	38994.03
626.72	39025.44
627.075	39085.55
627.43	39140.02
627.785	39229.05
628.14	39346.56
628.495	39443.28
628.85	39382.04
629.205	39396.05
629.559	39702.71
629.914	39594.69
630.269	39614.35
630.623	39551.3
630.978	39615.71
631.332	39732.09
631.687	39839.43
632.041	39789.49
632.396	39944.06
632.75	39693.45
633.104	39995.36
633.459	39781.58
633.813	39912.88
634.167	39911.97
634.521	39873.33
634.875	40035.13
635.229	39983.38
635.583	39951.07
635.937	39905.42
636.291	39935.93
636.645	40069.94
636.999	39872.43
637.352	40110.84
637.706	39819.09
638.06	39988.81
638.413	40009.6
638.767	39836.72
639.121	40102.48
639.474	39900.45
639.828	39852.09
640.181	39929.15
640.534	40049.37
640.888	39943.38
641.241	39918.07
641.594	39947.9
641.947	39996.26
642.301	39976.6
642.654	40006.21
643.007	39959.43
643.36	40058.86
643.713	40015.93
644.066	40157.84
644.419	39782.71
644.771	39446.9
645.124	39138.66
645.477	39104.76
645.83	38982.51
646.182	39022.05
646.535	38846.24
646.888	39058.89
647.24	38883.98
647.593	39180.69
647.945	39011.88
648.298	38949.96
648.65	38756.3
649.002	38811.66
649.355	38973.47
649.707	38870.19
650.059	39062.5
650.411	39457.3
650.763	39558.31
651.115	39931.86
651.467	39818.19
651.819	39795.37
652.171	39743.39
652.523	39776.38
652.875	39661.13
653.227	39629.04
653.578	39776.16
653.93	39764.18
654.282	39723.5
654.633	39636.73
654.985	39758.08
655.337	39771.41
655.688	39692.32
656.039	39748.36
656.391	39497.07
656.742	39545.43
657.094	39513.34
657.445	39742.49
657.796	39689.15
658.147	39536.16
658.498	39669.04
658.849	39664.97
659.2	39456.17
659.551	39406.45
659.902	39606.9
660.253	39526.22
660.604	39558.08
660.955	39328.03
661.306	39425.88
661.656	39452.32
662.007	39560.34
662.358	39568.25
662.708	39545.66
663.059	39524.64
663.409	39301.37
663.76	39582.26
664.11	39636.73
664.461	39518.76
664.811	39517.41
665.161	39563.96
665.511	39546.33
665.862	39568.71
666.212	39585.43
666.562	39609.38
666.912	39526.45
667.262	39457.75
667.612	39434.02
667.962	39442.83
668.312	39509.5
668.662	39558.99
669.011	39525.99
669.361	39489.39
669.711	39368.26
670.06	39293.68
670.41	39243.74
670.76	39371.42
671.109	39538.42
671.459	39319.9
671.808	39312.67
672.157	39464.53
672.507	38961.72
672.856	39205.1
673.205	39184.31
673.554	39436.73
673.904	39102.28
674.253	39310.63
674.602	39211.2
674.951	38713.13
675.3	38554.27
675.649	39147.7
675.998	39161.03
676.346	39121.71
676.695	39142.73
677.044	38972.11
677.393	39096.63
677.741	39109.28
678.09	38951.32
678.438	38960.13
678.787	39119.45
679.135	39117.19
679.484	38608.96
679.832	38790.42
680.181	38669.29
680.529	38741.83
680.877	38681.27
681.225	38629.3
681.573	38763.3
681.922	38568.51
682.27	38448.06
682.618	38468.4
682.966	38400.37
683.314	38526.47
683.661	38357.21
684.009	38185.24
684.357	38107.73
684.705	38085.58
685.053	38134.62
685.4	38040.84
685.748	37912.93
686.095	37913.38
686.443	37803.78
686.79	37759.26
687.138	37856.89
687.485	37837.9
687.832	37663.44
688.18	37672.03
688.527	37530.34
688.874	37458.03
689.221	37480.17
689.568	37352.72
689.915	37140.97
690.262	37165.6
690.609	36982.78
690.956	37112.27
691.303	36856.23
691.65	36728.78
691.997	36836.57
692.344	36569.69
692.69	36573.3
693.037	36665.5
693.383	36153.43
693.73	36456.02
694.077	36197.49
694.423	36219.41
694.769	36170.6
695.116	36017.61
695.462	36031.4
695.808	35886.32
696.155	35844.51
696.501	35595.02
696.847	35544.86
697.193	35456.5
697.539	35561.58
697.885	35330.4
698.231	35269.61
698.577	35242.94
698.923	35217.63
699.269	34954.36
699.614	34882.5
699.96	34781.71
700.306	34791.66
700.651	34746.69
700.997	34506.92
701.342	34475.51
701.688	34505.34
702.033	34367.26
702.379	34258.11
702.724	34189.19
703.069	34324.78
703.415	33877.78
703.76	33915.75
704.105	33839.14
704.45	33840.49
704.795	33762.76
705.14	33586.26
705.485	33548.98
705.83	33527.73
706.175	33522.54
706.52	33458.58
706.865	33263.79
707.209	33217.69
707.554	33191.47
707.899	33215.2
708.243	32932.5
708.588	33000.97
708.932	32774.76
709.277	32710.35
709.621	32742.44
709.966	32462.68
710.31	32531.15
710.654	32388.56
710.998	32433.98
711.342	32450.93
711.687	32255.45
712.031	32236.47
712.375	32008.68
712.719	32100.43
713.063	32083.48
713.407	32200.54
713.75	31978.17
714.094	31951.05
714.438	31690.27
714.782	31870.83
715.125	31660.89
715.469	31713.54
715.812	31637.84
716.156	31426.09
716.499	31384.51
716.843	31633.55
717.186	31406.89
717.53	31342.48
717.873	31313.1
718.216	31200.34
718.559	31135.93
718.902	30905.43
719.246	31011.19
719.589	30863.17
719.932	30837.64
720.275	30950.4
720.617	30734.59
720.96	30678.54
721.303	30762.61
721.646	30766.9
721.989	30633.12
722.331	30680.35
722.674	30602.84
723.016	30715.6
723.359	30560.58
723.701	30492.79
724.044	30281.94
724.386	30185.45
724.729	30239.69
725.071	30217.76
725.413	30135.06
725.755	30238.1
726.097	29950.65
726.439	29966.92
726.782	29916.08
727.124	29997.43
727.465	29948.39
727.807	29807.61
728.149	29853.25
728.491	29730.55
728.833	29780.94
729.175	29743.43
729.516	29589.76
729.858	29661.85
730.199	29533.49
730.541	29524.22
730.882	29490.1
731.224	29516.09
731.565	29324.45
731.906	29442.64
732.248	29280.84
732.589	29248.3
732.93	29236.77
733.271	29175.76
733.612	29219.82
733.953	29183.22
734.294	29018.93
734.635	28996.78
734.976	29196.32
735.317	28946.39
735.658	28898.03
735.999	28882.66
736.339	28818.03
736.68	28940.96
737.021	28748.65
737.361	28688.99
737.702	28794.3
738.042	28780.97
738.383	28630.46
738.723	28653.29
739.063	28625.94
739.404	28663.91
739.744	28498.26
740.084	28430.47
740.424	28518.6
740.764	28467.08
741.104	28442.9
741.444	28362.67
741.784	28186.18
742.124	28424.14
742.464	28293.3
742.804	28090.14
743.143	28132.62
743.483	28242.68
743.823	27984.6
744.162	28003.13
744.502	28044.49
744.841	28040.87
745.181	28124.49
745.52	27992.06
745.86	28007.43
746.199	27835.91
746.538	27853.53
746.877	27891.5
747.216	27871.61
747.556	27910.25
747.895	27747.55
748.234	27695.8
748.573	27637.72
748.911	27643.37
749.25	27539.19
749.589	27457.84
749.928	27467.33
750.267	27508.01
750.605	27392.98
750.944	27412.87
751.283	27244.06
751.621	27380.1
751.96	27236.83
752.298	27278.86
752.636	27172.2
752.975	27015.14
753.313	27022.82
753.651	27051.07
753.989	26774.47
754.327	26935.37
754.666	26751.64
755.004	26823.28
755.342	26875.25
755.679	26752.09
756.017	26656.28
756.355	26591.87
756.693	26528.14
757.031	26585.32
757.368	26329.28
757.706	26312.78
758.044	26347.81
758.381	26308.04
758.719	26239.56
759.056	26349.17
759.394	26143.07
759.731	25961.15
760.068	25941.27
760.405	25780.14
760.743	25799.12
761.08	25913.25
761.417	25652.69
