Data from red_cardboard_box_FLMS001491_00027.txt Node
Date: Wed Feb 08 11:31:46 GMT 2017
User: dcchb
Spectrometer: FLMS00149
Trigger mode: 0
Integration Time (sec): 2.000000E-2
Scans to average: 10
Electric dark correction enabled: true
Nonlinearity correction enabled: false
Boxcar width: 0
XAxis mode: Wavelengths
Number of Pixels in Spectrum: 2048
>>>>>Begin Spectral Data<<<<<
341.393	1.1
341.776	1.1
342.16	1.1
342.543	-60.82
342.927	-67.37
343.31	-79.12
343.693	-69.4
344.077	-73.02
344.46	-50.87
344.843	-46.58
345.226	-38.22
345.61	-44.32
345.993	-24.89
346.376	-10.42
346.759	19.41
347.142	36.58
347.525	41.55
347.908	65.51
348.291	83.81
348.674	89.69
349.057	100.31
349.44	118.39
349.823	155.22
350.206	168.78
350.588	197.71
350.971	206.07
351.354	239.74
351.737	250.36
352.119	254.43
352.502	284.48
352.884	261.43
353.267	285.39
353.65	305.5
354.032	305.27
354.414	320.87
354.797	331.04
355.179	320.42
355.562	329.45
355.944	324.03
356.326	347.99
356.709	347.76
357.091	346.4
357.473	343.92
357.855	369.45
358.238	357.48
358.62	343.69
359.002	326.97
359.384	349.12
359.766	329
360.148	330.13
360.53	355.67
360.912	361.09
361.294	336.46
361.676	357.25
362.057	323.81
362.439	319.96
362.821	310.7
363.203	346.4
363.584	342.34
363.966	336.23
364.348	331.49
364.729	313.64
365.111	326.52
365.493	339.62
365.874	321.77
366.256	314.09
366.637	336.46
367.019	315.67
367.4	321.32
367.781	342.34
368.163	316.12
368.544	326.29
368.925	317.93
369.306	328.1
369.688	333.97
370.069	335.56
370.45	313.86
370.831	311.15
371.212	317.25
371.593	323.58
371.974	314.77
372.355	296.24
372.736	310.92
373.117	303.47
373.498	335.1
373.879	320.42
374.26	319.96
374.641	317.48
375.021	308.21
375.402	317.03
375.783	314.09
376.163	336.23
376.544	319.51
376.925	309.57
377.305	317.25
377.686	325.16
378.066	319.51
378.447	350.25
378.827	321.09
379.208	335.1
379.588	346.4
379.968	334.65
380.349	338.04
380.729	350.92
381.109	323.58
381.489	347.53
381.87	322.22
382.25	335.33
382.63	358.15
383.01	338.49
383.39	325.84
383.77	340.53
384.15	340.98
384.53	348.89
384.91	341.43
385.29	345.27
385.67	370.13
386.049	343.69
386.429	338.95
386.809	374.2
387.189	368.32
387.568	344.14
387.948	342.34
388.328	339.85
388.707	361.77
389.087	354.76
389.466	357.7
389.846	348.44
390.225	359.96
390.605	358.83
390.984	357.25
391.363	380.53
391.743	361.09
392.122	353.86
392.501	386.63
392.881	383.24
393.26	369.23
393.639	339.17
394.018	382.79
394.397	371.04
394.776	364.71
395.155	383.24
395.534	383.46
395.913	373.07
396.292	383.01
396.671	381.88
397.05	366.52
397.429	379.85
397.808	370.36
398.186	359.51
398.565	393.86
398.944	396.57
399.323	377.14
399.701	371.71
400.08	372.39
400.458	421.43
400.837	401.09
401.215	395.89
401.594	415.33
401.972	386.4
402.351	399.51
402.729	408.1
403.107	397.02
403.486	393.63
403.864	385.72
404.242	392.5
404.62	411.49
404.999	401.54
405.377	391.15
405.755	414.88
406.133	416.01
406.511	420.53
406.889	421.2
407.267	432.5
407.645	435.67
408.023	437.47
408.401	425.5
408.779	421.66
409.156	420.3
409.534	430.24
409.912	446.74
410.29	426.85
410.667	437.02
411.045	435.67
411.422	449.45
411.8	465.95
412.178	458.49
412.555	464.14
412.933	467.53
413.31	467.76
413.687	455.1
414.065	467.98
414.442	465.04
414.819	485.38
415.197	456
415.574	467.08
415.951	479.28
416.328	473.63
416.705	476.57
417.082	492.61
417.46	488.09
417.837	472.05
418.214	481.09
418.591	473.86
418.967	496.68
419.344	481.99
419.721	491.26
420.098	491.26
420.475	495.55
420.852	492.39
421.228	487.87
421.605	502.78
421.982	517.02
422.358	503.01
422.735	506.17
423.111	525.61
423.488	525.38
423.864	516.34
424.241	514.08
424.617	517.47
424.994	525.16
425.37	530.81
425.746	525.61
426.123	526.06
426.499	545.27
426.875	542.56
427.251	549.79
427.627	566.74
428.003	572.84
428.379	554.99
428.756	563.57
429.132	543.91
429.507	564.7
429.883	565.38
430.259	594.53
430.635	566.96
431.011	597.24
431.387	573.97
431.763	585.04
432.138	588.66
432.514	597.24
432.89	586.85
433.265	592.72
433.641	620.52
434.016	618.26
434.392	604.7
434.767	626.4
435.143	630.24
435.518	632.5
435.894	636.57
436.269	638.15
436.644	633.85
437.02	634.53
437.395	632.72
437.77	648.77
438.145	666.62
438.52	667.07
438.895	671.59
439.271	674.98
439.646	673.63
440.021	667.98
440.395	679.28
440.77	666.85
441.145	660.75
441.52	707.75
441.895	696.22
442.27	686.73
442.645	692.16
443.019	699.61
443.394	695.32
443.769	700.74
444.143	706.62
444.518	703
444.892	721.76
445.267	697.58
445.641	723.57
446.016	708.65
446.39	723.57
446.764	730.8
447.139	745.04
447.513	738.71
447.887	750.91
448.262	724.47
448.636	723.79
449.01	742.1
449.384	752.49
449.758	747.07
450.132	773.28
450.506	759.95
450.88	747.3
451.254	766.28
451.628	786.39
452.002	762.89
452.376	778.03
452.75	797.69
453.123	792.95
453.497	803.11
453.871	767.64
454.244	808.99
454.618	798.82
454.992	836.11
455.365	818.26
455.739	817.35
456.112	820.52
456.486	853.06
456.859	841.98
457.232	869.33
457.606	837.46
457.979	854.41
458.352	870.91
458.725	859.84
459.099	876.11
459.472	911.36
459.845	922.66
460.218	881.53
460.591	898.93
460.964	868.2
461.337	928.99
461.71	908.2
462.083	917.24
462.456	948.87
462.829	948.87
463.201	968.76
463.574	976.44
463.947	975.31
464.32	996.78
464.692	986.61
465.065	985.48
465.438	1019.15
465.81	985.48
466.183	1019.83
466.555	1050.57
466.928	1056.44
467.3	1030
467.672	1034.29
468.045	1056.22
468.417	1061.64
468.789	1045.14
469.161	1093.5
469.534	1080.17
469.906	1093.05
470.278	1129.21
470.65	1128.53
471.022	1146.61
471.394	1148.87
471.766	1169.21
472.138	1197
472.51	1197.68
472.882	1188.87
473.253	1201.07
473.625	1218.7
473.997	1230
474.369	1244.23
474.74	1270.22
475.112	1305.7
475.484	1291.46
475.855	1332.82
476.227	1303.21
476.598	1369.43
476.97	1345.47
477.341	1383.21
477.713	1408.3
478.084	1358.58
478.455	1445.36
478.827	1443.1
479.198	1461.85
479.569	1482.64
479.94	1512.7
480.311	1498.92
480.682	1569.65
481.053	1576.65
481.424	1559.25
481.795	1581.63
482.166	1598.12
482.537	1616.43
482.908	1661.85
483.279	1654.84
483.65	1718.12
484.021	1729.87
484.391	1776.42
484.762	1769.19
485.133	1768.96
485.503	1810.09
485.874	1861.17
486.244	1840.38
486.615	1871.79
486.985	1867.49
487.356	1892.58
487.726	1967.6
488.097	1968.73
488.467	1977.32
488.837	2029.52
489.207	2029.97
489.578	2066.13
489.948	2059.35
490.318	2076.98
490.688	2122.63
491.058	2135.73
491.428	2181.84
491.798	2167.6
492.168	2212.57
492.538	2198.78
492.908	2218.22
493.278	2255.05
493.648	2291.21
494.017	2294.37
494.387	2315.84
494.757	2328.72
495.126	2366.92
495.496	2352.23
495.866	2385.9
496.235	2418.89
496.605	2450.75
496.974	2419.34
497.344	2472.9
497.713	2488.72
498.082	2484.43
498.452	2515.61
498.821	2543.63
499.19	2578.89
499.559	2559
499.928	2590.41
500.298	2593.8
500.667	2636.96
501.036	2603.75
501.405	2680.58
501.774	2660.01
502.143	2693.01
502.512	2658.66
502.88	2692.78
503.249	2716.06
503.618	2772.1
503.987	2752.67
504.356	2825.66
504.724	2806.23
505.093	2801.71
505.462	2816.39
505.83	2841.93
506.199	2877.18
506.567	2888.71
506.936	2894.58
507.304	2954.92
507.672	2944.53
508.041	2998.09
508.409	3002.38
508.777	2993.57
509.145	3059.55
509.514	3066.11
509.882	3062.94
510.25	3125.99
510.618	3138.19
510.986	3149.95
511.354	3179.1
511.722	3201.7
512.09	3217.29
512.458	3224.52
512.826	3246.67
513.193	3241.24
513.561	3279.66
513.929	3317.4
514.297	3314.69
514.664	3344.97
515.032	3369.6
515.4	3430.84
515.767	3418.41
516.135	3414.57
516.502	3436.72
516.869	3493.44
517.237	3498.64
517.604	3507.68
517.972	3558.52
518.339	3600.78
518.706	3575.24
519.073	3568.92
519.44	3607.79
519.808	3668.35
520.175	3683.94
520.542	3716.71
520.909	3736.14
521.276	3753.09
521.643	3824.05
522.009	3808.91
522.376	3885.75
522.743	3908.8
523.11	3917.38
523.477	3983.14
523.843	3976.14
524.21	4052.97
524.577	4064.05
524.943	4077.15
525.31	4080.32
525.676	4149.02
526.043	4210.03
526.409	4221.78
526.776	4221.56
527.142	4243.48
527.508	4287.09
527.874	4325.28
528.241	4339.97
528.607	4384.94
528.973	4376.81
529.339	4388.56
529.705	4480.98
530.071	4521.89
530.437	4462
530.803	4547.87
531.169	4553.52
531.535	4587.2
531.901	4653.41
532.267	4635.78
532.632	4636.69
532.998	4698.38
533.364	4689.79
533.73	4712.16
534.095	4784.03
534.461	4765.5
534.826	4817.25
535.192	4867.19
535.557	4931.14
535.923	4909.9
536.288	4931.14
536.653	4924.36
537.019	4967.52
537.384	4955.55
537.749	5005.72
538.114	5017.24
538.479	5034.19
538.845	5072.38
539.21	5047.07
539.575	5077.8
539.94	5180.17
540.305	5167.75
540.67	5180.17
541.034	5200.06
541.399	5278.7
541.764	5227.86
542.129	5255.2
542.494	5336.55
542.858	5327.52
543.223	5341.3
543.587	5398.02
543.952	5395.54
544.316	5394.86
544.681	5459.72
545.045	5439.6
545.41	5461.52
545.774	5559.6
546.138	5531.58
546.503	5536.1
546.867	5567.06
547.231	5667.62
547.595	5667.85
547.959	5679.6
548.324	5727.28
548.688	5753.27
549.052	5808.63
549.416	5790.78
549.779	5808.41
550.143	5847.5
550.507	5902.64
550.871	5928.18
551.235	5974.73
551.599	6007.05
551.962	6000.04
552.326	6000.49
552.689	6072.35
553.053	6085.46
553.417	6075.52
553.78	6197.32
554.143	6209.3
554.507	6252.46
554.87	6284.33
555.234	6327.49
555.597	6343.53
555.96	6413.81
556.323	6433.7
556.686	6482.06
557.05	6559.12
557.413	6548.27
557.776	6605.9
558.139	6647.48
558.502	6682.96
558.865	6731.09
559.228	6839.79
559.59	6879.79
559.953	6896.51
560.316	6974.7
560.679	6986.68
561.041	7068.71
561.404	7128.82
561.767	7254.24
562.129	7191.2
562.492	7292.66
562.854	7338.76
563.217	7374.92
563.579	7429.61
563.941	7584.18
564.304	7592.54
564.666	7658.3
565.028	7739.66
565.39	7788.47
565.753	7922.02
566.115	7871.18
566.477	7968.58
566.839	8088.35
567.201	8158.63
567.563	8211.51
567.925	8253.77
568.287	8380.54
568.648	8385.06
569.01	8517.26
569.372	8584.15
569.734	8658.28
570.095	8792.96
570.457	8864.15
570.819	8931.26
571.18	9004.71
571.542	9051.03
571.903	9128.77
572.265	9256
572.626	9301.42
572.987	9405.83
573.349	9477.91
573.71	9617.57
574.071	9714.97
574.432	9792.03
574.794	9926.04
575.155	9982.53
575.516	10021.63
575.877	10206.26
576.238	10282.19
576.599	10383.88
576.96	10520.83
577.32	10680.59
577.681	10754.27
578.042	10867.48
578.403	11005.11
578.763	11202.39
579.124	11231.99
579.485	11462.5
579.845	11525.09
580.206	11646.67
580.566	11778.19
580.927	11911.52
581.287	12099.54
581.648	12303.15
582.008	12499.53
582.368	12599.41
582.728	12816.58
583.089	12946.52
583.449	13115.56
583.809	13293.63
584.169	13511.48
584.529	13646.39
584.889	13992.37
585.249	13952.83
585.609	14240.28
585.969	14585.8
586.329	14720.94
586.688	15038.45
587.048	15237.31
587.408	15341.94
587.768	15678.66
588.127	15976.27
588.487	16305.31
588.846	16581.68
589.206	16679.76
589.565	17127.43
589.925	17469.34
590.284	17778.04
590.643	17990.91
591.003	18368.75
591.362	18733.04
591.721	18944.33
592.08	19304.77
592.44	19602.85
592.799	19908.6
593.158	20314.24
593.517	20660.67
593.876	21032.64
594.235	21286.42
594.593	21785.16
594.952	22204.36
595.311	22503.33
595.67	22872.36
596.029	23355.74
596.387	23645.68
596.746	24217.64
597.104	24368.82
597.463	24769.94
597.822	25191.63
598.18	25432.07
598.538	25896.92
598.897	26512.27
599.255	26585.49
599.613	27494.62
599.972	27547.27
600.33	28178.44
600.688	28413.91
601.046	28788.14
601.404	29350.84
601.762	29720.32
602.12	30256.35
602.478	30593.97
602.836	30961.19
603.194	31162.77
603.552	31564.57
603.91	31917.55
604.268	32435.96
604.625	32829.17
604.983	33327.68
605.341	33357.06
605.698	34089.92
606.056	34397.03
606.413	34740.08
606.771	35133.96
607.128	35483.33
607.485	35691.69
607.843	36033.83
608.2	36514.04
608.557	36789.51
608.914	37071.77
609.272	37456.16
609.629	37975.7
609.986	38295.69
610.343	38334.11
610.7	38932.06
611.057	39066.29
611.414	39305.38
611.771	39648.65
612.127	39958.7
612.484	40173.83
612.841	40478.91
613.198	40632.12
613.554	40915.73
613.911	41225.1
614.267	41535.6
614.624	41628.26
614.98	41937.17
615.337	42281.12
615.693	42338.29
616.05	42632.3
616.406	42926.3
616.762	42962.68
617.118	43114.09
617.475	43172.85
617.831	43716.34
618.187	43778.93
618.543	43969.44
618.899	44473.83
619.255	44416.43
619.611	44447.39
619.967	44831.56
620.323	44968.51
620.678	44989.52
621.034	45051.44
621.39	45084.21
621.746	45316.29
622.101	45793.57
622.457	45543.41
622.812	45777.98
623.168	45872.89
623.523	45972.1
623.879	46211.64
624.234	45967.35
624.589	46279.21
624.945	46335.48
625.3	46483.04
625.655	46600.55
626.01	46656.37
626.365	46699.08
626.72	46772.08
627.075	46792.64
627.43	46989.24
627.785	46858.17
628.14	47056.14
628.495	47077.83
628.85	47240.09
629.205	47217.71
629.559	47525.95
629.914	47330.25
630.269	47403.92
630.623	47295.68
630.978	47363.02
631.332	47467.42
631.687	47657.25
632.041	47504.71
632.396	47649.57
632.75	47619.96
633.104	47680.53
633.459	47530.47
633.813	47442.34
634.167	47648.44
634.521	47710.58
634.875	47688.44
635.229	47703.58
635.583	47513.52
635.937	47598.27
636.291	47640.75
636.645	47578.38
636.999	47584.48
637.352	47724.14
637.706	47402.34
638.06	47694.99
638.413	47570.02
638.767	47561.43
639.121	47551.04
639.474	47429.23
639.828	47526.63
640.181	47725.27
640.534	47741.77
640.888	47626.74
641.241	47391.49
641.594	47598.27
641.947	47680.98
642.301	47481.44
642.654	47656.35
643.007	47695.44
643.36	47585.16
643.713	47651.37
644.066	47807.98
644.419	47571.83
644.771	47214.78
645.124	46817.95
645.477	46836.03
645.83	46618.18
646.182	46550.16
646.535	46477.85
646.888	46585.19
647.24	46395.36
647.593	46594.45
647.945	46633.55
648.298	46490.27
648.65	46309.94
649.002	46287.79
649.355	46412.54
649.707	46465.19
650.059	46617.05
650.411	46967.55
650.763	47131.84
651.115	47497.25
651.467	47316.69
651.819	47367.77
652.171	47320.54
652.523	47272.4
652.875	47379.29
653.227	47183.36
653.578	47477.59
653.93	47353.53
654.282	47206.64
654.633	47020.66
654.985	47166.87
655.337	47290.48
655.688	47213.19
656.039	47357.82
656.391	47023.59
656.742	47130.48
657.094	47178.84
657.445	47382.45
657.796	47196.7
658.147	47152.63
658.498	47135.91
658.849	47182.23
659.2	47175.91
659.551	46972.3
659.902	47137.26
660.253	47121.9
660.604	46978.85
660.955	46941.79
661.306	47071.73
661.656	47144.95
662.007	47215.23
662.358	47111.5
662.708	47043.71
663.059	47114.44
663.409	46823.15
663.76	47180.88
664.11	47107.66
664.461	47176.58
664.811	47218.17
665.161	47048.23
665.511	46982.01
665.862	47027.44
666.212	47209.35
666.562	47170.71
666.912	47058.85
667.262	46956.48
667.612	47110.37
667.962	46976.59
668.312	46923.71
668.662	47252.29
669.011	47071.28
669.361	47056.59
669.711	47025.18
670.06	47050.03
670.41	46827.22
670.76	46809.59
671.109	46990.37
671.459	46962.58
671.808	46862.92
672.157	46951.05
672.507	46652.98
672.856	46696.37
673.205	46799.42
673.554	46791.51
673.904	46724.84
674.253	46929.13
674.602	46810.72
674.951	46140
675.3	46055.03
675.649	46749.03
675.998	46558.97
676.346	46655.47
676.695	46665.19
677.044	46380.22
677.393	46523.27
677.741	46658.63
678.09	46483.5
678.438	46445.76
678.787	46440.78
679.135	46491.63
679.484	46319.66
679.832	46410.05
680.181	46197.63
680.529	46304.97
680.877	46137.74
681.225	46100.68
681.573	46382.48
681.922	46070.17
682.27	45985.43
682.618	46081.92
682.966	45918.31
683.314	45994.02
683.661	45863.62
684.009	45641.03
684.357	45478.78
684.705	45421.83
685.053	45625.66
685.4	45490.08
685.748	45326.92
686.095	45387.48
686.443	45199.69
686.79	45113.36
687.138	45206.47
687.485	45142.29
687.832	44974.83
688.18	45183.19
688.527	44835.63
688.874	44709.98
689.221	44755.18
689.568	44505.24
689.915	44586.82
690.262	44622.53
690.609	44502.3
690.956	44256.89
691.303	44313.38
691.65	44053.28
691.997	43976.67
692.344	43855.32
692.69	43902.55
693.037	43883.11
693.383	43539.62
693.73	43644.47
694.077	43320.19
694.423	43288.1
694.769	43314.77
695.116	43159.06
695.462	43077.94
695.808	42974.44
696.155	42912.97
696.501	42731.05
696.847	42811.05
697.193	42549.36
697.539	42679.75
697.885	42197.51
698.231	42410.38
698.577	42383.94
698.923	42231.63
699.269	41958.42
699.614	41709.16
699.96	41616.73
700.306	41873.45
700.651	41652.66
700.997	41437.3
701.342	41466.45
701.688	41299.9
702.033	41239.34
702.379	41185.1
702.724	41047.25
703.069	41166.35
703.415	40735.17
703.76	40838.9
704.105	40785.57
704.45	40493.6
704.795	40381.96
705.14	40277.1
705.485	40391
705.83	40141.06
706.175	40203.43
706.52	40108.52
706.865	40006.6
707.209	39905.36
707.554	39823.33
707.899	39942.88
708.243	39734.52
708.588	39733.62
708.932	39368.2
709.277	39363.23
709.621	39372.95
709.966	39040.98
710.31	39188.55
710.654	38907.2
710.998	39054.09
711.342	39043.46
711.687	39124.14
712.031	38738.16
712.375	38544.95
712.719	38711.72
713.063	38633.08
713.407	38646.64
713.75	38413.88
714.094	38545.4
714.438	38225.18
714.782	38319.64
715.125	38044.17
715.469	38224.5
715.812	37935.25
716.156	37815.7
716.499	37857.73
716.843	37975.24
717.186	37736.83
717.53	37936.6
717.873	37840.56
718.216	37724.86
718.559	37623.84
718.902	37225.66
719.246	37383.4
719.589	37200.35
719.932	37166.45
720.275	37193.34
720.617	37095.72
720.96	37030.86
721.303	37078.32
721.646	37086.45
721.989	36777.08
722.331	36863.86
722.674	36784.99
723.016	36790.64
723.359	36812.34
723.701	36805.11
724.044	36543.42
724.386	36346.81
724.729	36546.58
725.071	36461.61
725.413	36344.33
725.755	36278.11
726.097	36170.32
726.439	36020.04
726.782	36119.47
727.124	36207.83
727.465	35985.92
727.807	35966.26
728.149	35982.08
728.491	35832.25
728.833	35912.02
729.175	35680.16
729.516	35610.56
729.858	35554.07
730.199	35702.99
730.541	35685.81
730.882	35559.26
731.224	35599.26
731.565	35265.03
731.906	35386.61
732.248	35383.45
732.589	35185.94
732.93	35221.87
733.271	35164.24
733.612	35077.69
733.953	35136
734.294	34999.28
734.635	34973.06
734.976	35129.22
735.317	35008.32
735.658	34758.15
735.999	34771.94
736.339	34632.73
736.68	34840.19
737.021	34605.39
737.361	34582.11
737.702	34825.95
738.042	34537.14
738.383	34579.63
738.723	34531.72
739.063	34357.03
739.404	34452.4
739.744	34313.42
740.084	34279.3
740.424	34331.5
740.764	34310.93
741.104	34394.77
741.444	34088.57
741.784	34075.46
742.124	34009.7
742.464	34027.55
742.804	34000.43
743.143	33902.13
743.483	33923.37
743.823	33654.23
744.162	33729.03
744.502	33680.67
744.841	33616.26
745.181	33625.53
745.52	33654.23
745.86	33549.15
746.199	33618.97
746.538	33544.17
746.877	33530.16
747.216	33490.16
747.556	33331.07
747.895	33375.14
748.234	33349.38
748.573	33153.68
748.911	33208.36
749.25	33125.43
749.589	33094.24
749.928	33065.77
750.267	33060.8
750.605	32921.14
750.944	32764.53
751.283	32799.56
751.621	32931.54
751.96	32617.42
752.298	32484.09
752.636	32508.95
752.975	32465.78
753.313	32413.36
753.651	32563.86
753.989	32237.99
754.327	32346.24
754.666	31997.77
755.004	32270.54
755.342	31948.96
755.679	31980.37
756.017	31797.33
756.355	31990.54
756.693	31755.29
757.031	31837.55
757.368	31612.47
757.706	31582.42
758.044	31440.5
758.381	31536.09
758.719	31411.58
759.056	31324.35
759.394	31302.88
759.731	31091.58
760.068	31178.36
760.405	30965.26
760.743	30934.98
