Data from red_cardboard_box_FLMS001491_00005.txt Node
Date: Wed Feb 08 11:31:24 GMT 2017
User: dcchb
Spectrometer: FLMS00149
Trigger mode: 0
Integration Time (sec): 2.000000E-2
Scans to average: 10
Electric dark correction enabled: true
Nonlinearity correction enabled: false
Boxcar width: 0
XAxis mode: Wavelengths
Number of Pixels in Spectrum: 2048
>>>>>Begin Spectral Data<<<<<
341.393	-9.91
341.776	-9.91
342.16	-9.91
342.543	-78.84
342.927	-77.26
343.31	-77.48
343.693	-56.47
344.077	-63.02
344.46	-68.22
344.843	-45.17
345.226	-34.77
345.61	-17.37
345.993	-24.38
346.376	-9.69
346.759	0.93
347.142	12.91
347.525	61.04
347.908	46.58
348.291	92.68
348.674	70.99
349.057	111.44
349.44	141.95
349.823	115.96
350.206	162.06
350.588	195.96
350.971	232.11
351.354	221.49
351.737	228.04
352.119	256.52
352.502	279.57
352.884	286.8
353.267	282.51
353.65	304.88
354.032	314.82
354.414	291.55
354.797	310.3
355.179	335.16
355.562	327.03
355.944	339.23
356.326	342.17
356.709	327.93
357.091	320.47
357.473	326.12
357.855	332.22
358.238	357.31
358.62	335.39
359.002	340.58
359.384	338.55
359.766	332.9
360.148	326.8
360.53	358.44
360.912	344.2
361.294	349.4
361.676	339.23
362.057	329.51
362.439	341.71
362.821	302.39
363.203	341.71
363.584	326.35
363.966	315.27
364.348	334.48
364.729	323.41
365.111	313.69
365.493	325.67
365.874	321.15
366.256	317.08
366.637	331.54
367.019	318.44
367.4	320.7
367.781	313.92
368.163	324.77
368.544	313.92
368.925	327.7
369.306	324.99
369.688	309.17
370.069	318.89
370.45	297.65
370.831	315.5
371.212	327.03
371.593	313.69
371.974	334.03
372.355	349.62
372.736	324.99
373.117	328.83
373.498	349.62
373.879	323.86
374.26	304.65
374.641	310.3
375.021	336.29
375.402	331.77
375.783	311.43
376.163	328.61
376.544	301.94
376.925	344.88
377.305	327.93
377.686	313.47
378.066	323.41
378.447	325.22
378.827	325.22
379.208	297.87
379.588	341.26
379.968	322.96
380.349	348.04
380.729	342.17
381.109	339
381.489	330.19
381.87	324.99
382.25	325.22
382.63	334.26
383.01	322.73
383.39	327.48
383.77	339.91
384.15	330.64
384.53	323.18
384.91	315.05
385.29	325.44
385.67	327.93
386.049	348.72
386.429	324.31
386.809	329.96
387.189	367.93
387.568	346.46
387.948	374.48
388.328	364.31
388.707	342.62
389.087	333.13
389.466	356.4
389.846	345.56
390.225	339
390.605	360.92
390.984	371.09
391.363	372.9
391.743	349.4
392.122	355.05
392.501	355.5
392.881	383.52
393.26	372.45
393.639	363.63
394.018	369.06
394.397	369.96
394.776	362.28
395.155	370.87
395.534	373.58
395.913	358.44
396.292	359.11
396.671	348.49
397.05	378.1
397.429	334.26
397.808	363.63
398.186	383.52
398.565	363.41
398.944	350.3
399.323	379.45
399.701	380.58
400.08	368.15
400.458	379.45
400.837	388.04
401.215	393.46
401.594	383.52
401.972	386.91
402.351	383.75
402.729	383.97
403.107	399.11
403.486	377.42
403.864	387.81
404.242	385.78
404.62	378.32
404.999	404.76
405.377	388.94
405.755	402.73
406.133	404.31
406.511	388.72
406.889	411.54
407.267	395.72
407.645	409.96
408.023	400.47
408.401	385.78
408.779	406.8
409.156	390.75
409.534	412.67
409.912	426.23
410.29	438.21
410.667	426.91
411.045	429.4
411.422	410.41
411.8	425.33
412.178	430.98
412.555	421.94
412.933	436.17
413.31	440.02
413.687	428.94
414.065	419.9
414.442	445.67
414.819	439.11
415.197	436.85
415.574	442.5
415.951	428.49
416.328	434.59
416.705	444.31
417.082	445.21
417.46	452.67
417.837	472.11
418.214	469.17
418.591	470.07
418.967	460.36
419.344	471.88
419.721	458.55
420.098	492.9
420.475	470.75
420.852	473.91
421.228	475.5
421.605	468.26
421.982	476.17
422.358	461.49
422.735	487.02
423.111	474.37
423.488	482.05
423.864	488.15
424.241	476.63
424.617	482.28
424.994	508.49
425.37	496.74
425.746	485.89
426.123	511.43
426.499	524.31
426.875	504.65
427.251	499
427.627	517.53
428.003	515.49
428.379	518.88
428.756	514.59
429.132	517.08
429.507	518.66
429.883	519.56
430.259	535.16
430.635	532.44
431.011	531.77
431.387	553.69
431.763	545.32
432.138	535.83
432.514	550.07
432.89	545.32
433.265	566.34
433.641	570.63
434.016	553.23
434.392	585.1
434.767	569.5
435.143	599.11
435.518	592.33
435.894	569.05
436.269	574.48
436.644	575.83
437.02	580.58
437.395	602.72
437.77	624.42
438.145	606.57
438.52	602.5
438.895	592.33
439.271	621.03
439.646	609.73
440.021	623.97
440.395	640.92
440.77	607.02
441.145	621.03
441.52	604.53
441.895	626.68
442.27	628.94
442.645	605.44
443.019	632.1
443.394	641.14
443.769	636.85
444.143	634.59
444.518	656.96
444.892	640.69
445.267	663.29
445.641	631.65
446.016	675.94
446.39	649.28
446.764	660.12
447.139	633.23
447.513	652.67
447.887	669.84
448.262	659.45
448.636	672.1
449.01	648.6
449.384	688.6
449.758	680.01
450.132	688.6
450.506	687.69
450.88	663.06
451.254	706.9
451.628	687.47
452.002	691.76
452.376	696.73
452.75	697.86
453.123	715.26
453.497	707.58
453.871	732.21
454.244	740.8
454.618	738.54
454.992	703.29
455.365	741.03
455.739	728.37
456.112	761.36
456.486	758.43
456.859	746.68
457.232	748.03
457.606	739.67
457.979	767.69
458.352	772.21
458.725	786.45
459.099	801.59
459.472	783.96
459.845	802.94
460.218	798.88
460.591	794.36
460.964	803.62
461.337	803.17
461.71	851.98
462.083	829.38
462.456	838.65
462.829	843.62
463.201	876.39
463.574	857.63
463.947	859.44
464.32	879.33
464.692	888.37
465.065	890.17
465.438	873.9
465.81	906.9
466.183	908.25
466.555	893.79
466.928	886.56
467.3	906.22
467.672	920.68
468.045	929.5
468.417	946.9
468.789	955.03
469.161	942.6
469.534	984.18
469.906	964.75
470.278	977.18
470.65	985.09
471.022	1019.89
471.394	1030.06
471.766	1024.18
472.138	1027.35
472.51	1048.36
472.882	1047.23
473.253	1074.35
473.625	1057.63
473.997	1065.31
474.369	1108.25
474.74	1095.59
475.112	1099.66
475.484	1136.5
475.855	1124.74
476.227	1147.12
476.598	1138.98
476.97	1178.3
477.341	1192.77
477.713	1198.87
478.084	1222.82
478.455	1223.27
478.827	1253.33
479.198	1288.58
479.569	1293.55
479.94	1304.63
480.311	1294.68
480.682	1300.56
481.053	1362.25
481.424	1348.24
481.795	1386.43
482.166	1392.08
482.537	1425.98
482.908	1448.58
483.279	1438.18
483.65	1450.61
484.021	1512.98
484.391	1504.17
484.762	1512.53
485.133	1511.17
485.503	1546.65
485.874	1576.71
486.244	1592.53
486.615	1567.67
486.985	1606.09
487.356	1623.26
487.726	1666.65
488.097	1682.92
488.467	1654.45
488.837	1719.08
489.207	1725.86
489.578	1728.57
489.948	1736.03
490.318	1787.55
490.688	1759.98
491.058	1806.31
491.428	1824.61
491.798	1844.73
492.168	1877.27
492.538	1868.45
492.908	1911.39
493.278	1939.41
493.648	1954.33
494.017	1910.49
494.387	1952.97
494.757	1982.12
495.126	1988.22
495.496	2009.92
495.866	2008.56
496.235	2073.19
496.605	2037.49
496.974	2099.86
497.344	2087.66
497.713	2085.4
498.082	2122.68
498.452	2151.16
498.821	2118.16
499.19	2155.68
499.559	2165.85
499.928	2180.08
500.298	2230.93
500.667	2226.41
501.036	2264.15
501.405	2231.61
501.774	2236.35
502.143	2254.43
502.512	2291.49
502.88	2321.55
503.249	2322.68
503.618	2297.37
503.987	2325.62
504.356	2387.31
504.724	2366.52
505.093	2430.25
505.462	2386.41
505.83	2399.51
506.199	2429.57
506.567	2454.43
506.936	2421.89
507.304	2460.53
507.672	2514.09
508.041	2482.22
508.409	2494.65
508.777	2530.58
509.145	2572.62
509.514	2549.79
509.882	2556.8
510.25	2592.73
510.618	2610.81
510.986	2642.44
511.354	2668.43
511.722	2669.79
512.09	2685.61
512.458	2700.07
512.826	2743.01
513.193	2726.06
513.561	2752.05
513.929	2772.38
514.297	2789.33
514.664	2819.62
515.032	2832.27
515.4	2850.35
515.767	2846.06
516.135	2860.29
516.502	2905.04
516.869	2907.75
517.237	2951.82
517.604	2973.51
517.972	3013.73
518.339	3020.74
518.706	2944.13
519.073	2988.65
519.44	3008.99
519.808	3067.74
520.175	3087.18
520.542	3085.14
520.909	3119.49
521.276	3129.21
521.643	3172.37
522.009	3199.49
522.376	3244.24
522.743	3228.19
523.11	3274.74
523.477	3280.39
523.843	3331.69
524.21	3332.37
524.577	3372.59
524.943	3398.58
525.31	3437
525.676	3463.21
526.043	3449.66
526.409	3474.06
526.776	3560.16
527.142	3511.57
527.508	3548.41
527.874	3576.21
528.241	3606.71
528.607	3592.48
528.973	3662.53
529.339	3656.43
529.705	3676.77
530.071	3735.98
530.437	3746.6
530.803	3751.57
531.169	3767.39
531.535	3790.21
531.901	3789.76
532.267	3834.73
532.632	3879.25
532.998	3884.67
533.364	3881.73
533.73	3963.99
534.095	3974.16
534.461	3988.17
534.826	3992.01
535.192	4042.86
535.557	4012.8
535.923	4069.3
536.288	4059.36
536.653	4159.24
537.019	4119.24
537.384	4127.83
537.749	4177.77
538.114	4162.4
538.479	4183.2
538.845	4209.41
539.21	4189.07
539.575	4232.91
539.94	4282.63
540.305	4315.85
540.67	4296.86
541.034	4303.64
541.399	4330.76
541.764	4330.08
542.129	4353.81
542.494	4396.52
542.858	4412.12
543.223	4440.59
543.587	4403.3
543.952	4481.27
544.316	4474.26
544.681	4489.4
545.045	4552.9
545.41	4544.32
545.774	4530.98
546.138	4566.01
546.503	4643.75
546.867	4613.69
547.231	4674.26
547.595	4701.83
547.959	4747.47
548.324	4679.45
548.688	4741.82
549.052	4765.33
549.416	4775.95
549.779	4777.98
550.143	4799.45
550.507	4920.8
550.871	4861.14
551.235	4916.96
551.599	4917.87
551.962	4944.98
552.326	5021.14
552.689	5016.17
553.053	5068.14
553.417	5008.71
553.78	5111.76
554.143	5139.78
554.507	5148.37
554.87	5235.14
555.234	5229.5
555.597	5241.7
555.96	5246.44
556.323	5304.52
556.686	5307.23
557.05	5372.77
557.413	5422.94
557.776	5397.85
558.139	5419.32
558.502	5523.72
558.865	5566.44
559.228	5601.69
559.59	5614.57
559.953	5643.5
560.316	5751.97
560.679	5759.65
561.041	5803.94
561.404	5857.73
561.767	5888.46
562.129	5895.69
562.492	5978.18
562.854	6038.29
563.217	6000.55
563.579	6088.68
563.941	6161.22
564.304	6226.31
564.666	6272.86
565.028	6309.69
565.39	6354.66
565.753	6392.4
566.115	6486.64
566.477	6540.87
566.839	6561.66
567.201	6612.06
567.563	6705.39
567.925	6739.96
568.287	6782.9
568.648	6859.51
569.01	6948.55
569.372	6979.28
569.734	7071.03
570.095	7082.33
570.457	7231.7
570.819	7269.67
571.18	7317.8
571.542	7390.34
571.903	7476.89
572.265	7452.71
572.626	7619.49
572.987	7641.18
573.349	7711.46
573.71	7788.07
574.071	7827.39
574.432	7932.48
574.794	8043.43
575.155	8119.36
575.516	8199.13
575.877	8264.9
576.238	8326.59
576.599	8488.84
576.96	8502.63
577.32	8620.59
577.681	8693.58
578.042	8832.79
578.403	8898.55
578.763	8991.2
579.124	9127.47
579.485	9189.84
579.845	9383.06
580.206	9407.01
580.566	9524.3
580.927	9666.44
581.287	9852.2
581.648	9912.99
582.008	10150.72
582.368	10134
582.728	10345.97
583.089	10413.77
583.449	10628.9
583.809	10745.06
584.169	10880.87
584.529	11036.12
584.889	11325.83
585.249	11424.59
585.609	11483.12
585.969	11680.4
586.329	11878.59
586.688	12117
587.048	12281.74
587.408	12430.66
587.768	12606.7
588.127	12866.36
588.487	13052.34
588.846	13323.97
589.206	13463.18
589.565	13689.16
589.925	13997.63
590.284	14156.72
590.643	14457.95
591.003	14760.77
591.362	14937.49
591.721	15191.49
592.08	15434.42
592.44	15779.95
592.799	16093.62
593.158	16394.17
593.517	16587.16
593.876	16890.66
594.235	17060.14
594.593	17397.31
594.952	17726.34
595.311	18011.98
595.67	18346.89
596.029	18747.33
596.387	19061
596.746	19467.09
597.104	19529.68
597.463	19933.52
597.822	20309.78
598.18	20502.31
598.538	20910.66
598.897	21300.03
599.255	21446.92
599.613	22110.63
599.972	22198.99
600.33	22578.87
600.688	22800.78
601.046	23339.75
601.404	23663.13
601.762	23983.35
602.12	24349.44
602.478	24733.62
602.836	25064.23
603.194	25216.09
603.552	25570.43
603.91	25725.45
604.268	26246.12
604.625	26470.52
604.983	26924.97
605.341	27149.82
605.698	27639.3
606.056	27915.68
606.413	28160.19
606.771	28509.11
607.128	28856.22
607.485	29014.86
607.843	29197.9
608.2	29645.12
608.557	30007.83
608.914	30253.7
609.272	30544.31
609.629	30939.55
609.986	31276.95
610.343	31315.14
610.7	31624.73
611.057	31830.83
611.414	32079.86
611.771	32395.11
612.127	32732.73
612.484	32782.22
612.841	33231.7
613.198	33334.07
613.554	33364.12
613.911	33922.3
614.267	34008.4
614.624	34193.71
614.98	34414.94
615.337	34766.57
615.693	34789.62
616.05	35072.78
616.406	35298.54
616.762	35339.21
617.118	35551.41
617.475	35549.15
617.831	35892.42
618.187	36104.62
618.543	36225.52
618.899	36744.6
619.255	36702.79
619.611	36752.73
619.967	37107.08
620.323	37249.67
620.678	37228.43
621.034	37192.95
621.39	37347.52
621.746	37491.02
622.101	37972.36
622.457	37713.16
622.812	37855.76
623.168	38099.59
623.523	38086.48
623.879	38375.74
624.234	38346.14
624.589	38467.27
624.945	38618.67
625.3	38675.85
625.655	38855.5
626.01	38770.99
626.365	39015.73
626.72	38949.74
627.075	39012.11
627.43	39145.44
627.785	39017.76
628.14	39278.54
628.495	39486.22
628.85	39298.88
629.205	39277.41
629.559	39596.73
629.914	39555.82
630.269	39569.61
630.623	39579.1
630.978	39432.89
631.332	39774.8
631.687	39803.95
632.041	39830.62
632.396	39965.31
632.75	39811.18
633.104	39809.38
633.459	39661.81
633.813	39738.64
634.167	39864.29
634.521	39875.82
634.875	39951.75
635.229	39881.92
635.583	39800.34
635.937	39907.91
636.291	39872.43
636.645	40110.61
636.999	39735.71
637.352	39915.14
637.706	39788.13
638.06	39972.08
638.413	39830.39
638.767	39976.83
639.121	39911.75
639.474	39773.67
639.828	39812.77
640.181	40007.79
640.534	39981.35
640.888	39946.1
641.241	39861.8
641.594	39857.29
641.947	39945.87
642.301	39831.98
642.654	39835.14
643.007	39911.3
643.36	39942.93
643.713	39907.68
644.066	40015.7
644.419	39725.31
644.771	39493.68
645.124	39147.25
645.477	39074.48
645.83	38826.13
646.182	38890.08
646.535	38795.62
646.888	39046.91
647.24	38771.21
647.593	39067.93
647.945	38956.97
648.298	38834.94
648.65	38738.9
649.002	38756.07
649.355	38884.2
649.707	38752.23
650.059	38921.04
650.411	39410.97
650.763	39422.95
651.115	39758.76
651.467	39797.17
651.819	39699.78
652.171	39648.48
652.523	39683.05
652.875	39584.75
653.227	39404.19
653.578	39820
653.93	39626.56
654.282	39565.09
654.633	39599.21
654.985	39742.26
655.337	39670.62
655.688	39709.27
656.039	39708.36
656.391	39527.12
656.742	39397.64
657.094	39444.87
657.445	39610.96
657.796	39641.47
658.147	39505.66
658.498	39354.02
658.849	39550.85
659.2	39483.06
659.551	39419.33
659.902	39575.48
660.253	39352.89
660.604	39557.63
660.955	39242.61
661.306	39501.81
661.656	39335.27
662.007	39390.63
662.358	39403.06
662.708	39510.85
663.059	39531.42
663.409	39111.09
663.76	39603.51
664.11	39477.18
664.461	39515.15
664.811	39459.33
665.161	39495.26
665.511	39426.11
665.862	39446.45
666.212	39638.53
666.562	39554.47
666.912	39431.76
667.262	39388.15
667.612	39389.95
667.962	39254.14
668.312	39398.77
668.662	39478.54
669.011	39511.98
669.361	39304.76
669.711	39423.4
670.06	39346.11
670.41	39218.66
670.76	39315.38
671.109	39264.53
671.459	39332.78
671.808	39203.97
672.157	39300.24
672.507	39083.75
672.856	39089.62
673.205	39227.47
673.554	39198.32
673.904	39105.44
674.253	39340.46
674.602	39210.07
674.951	38641.72
675.3	38444.67
675.649	39078.32
675.998	39024.31
676.346	38990.19
676.695	39181.14
677.044	38936.86
677.393	38883.98
677.741	39103.63
678.09	38964.65
678.438	38775.96
678.787	38950.64
679.135	38837.2
679.484	38643.76
679.832	38919.68
680.181	38629.52
680.529	38773.7
680.877	38564.44
681.225	38531.22
681.573	38863.64
681.922	38363.77
682.27	38404.44
682.618	38460.94
682.966	38338
683.314	38300.72
683.661	38164.22
684.009	38037.45
684.357	38096.43
684.705	37998.8
685.053	38044.23
685.4	37926.94
685.748	37804.91
686.095	37849.88
686.443	37728.53
686.79	37615.31
687.138	37777.34
687.485	37752.03
687.832	37549.55
688.18	37530.57
688.527	37474.75
688.874	37493.51
689.221	37294.41
689.568	37170.12
689.915	37047.87
690.262	37133.97
690.609	36969
690.956	36822.79
691.303	36908.21
691.65	36644.49
691.997	36689.23
692.344	36555.45
692.69	36475.45
693.037	36477.71
693.383	36262.13
693.73	36251.28
694.077	36169.47
694.423	36105.52
694.769	36144.39
695.116	36005.41
695.462	35874.11
695.808	35807
696.155	35752.53
696.501	35520
696.847	35733.1
697.193	35396.61
697.539	35486.1
697.885	35417.85
698.231	35113.23
698.577	35078.88
698.923	35101.25
699.269	34894.93
699.614	34762.28
699.96	34644.32
700.306	34798.66
700.651	34736.29
700.997	34446.13
701.342	34447.03
701.688	34372.01
702.033	34279.58
702.379	34332.01
702.724	34181.28
703.069	34187.15
703.415	33815.41
703.76	33830.33
704.105	33938.8
704.45	33703.32
704.795	33593.04
705.14	33668.75
705.485	33515.76
705.83	33482.99
706.175	33467.17
706.52	33357.12
706.865	33205.48
707.209	33144.69
707.554	33086.16
707.899	33214.52
708.243	32957.58
708.588	32969.78
708.932	32735.44
709.277	32650.47
709.621	32593.3
709.966	32403.92
710.31	32545.16
710.654	32343.36
710.998	32250.03
711.342	32293.19
711.687	32248.45
712.031	32030.82
712.375	31926.87
712.719	32028.34
713.063	31976.14
713.407	32142.69
713.75	31986.53
714.094	31779.53
714.438	31798.06
714.782	31714.67
715.125	31592.19
715.469	31676.48
715.812	31425.64
716.156	31352.65
716.499	31493.44
716.843	31477.84
717.186	31244.86
717.53	31398.3
717.873	31285.08
718.216	31216.38
718.559	31086.89
718.902	30858.65
719.246	30998.08
719.589	30932.55
719.932	30689.62
720.275	30789.28
720.617	30698.88
720.96	30641.26
721.303	30654.36
721.646	30653.69
721.989	30500.24
722.331	30664.76
722.674	30519.68
723.016	30478.77
723.359	30547.7
723.701	30459.79
724.044	30170.99
724.386	30074.94
724.729	30300.02
725.071	30239.46
725.413	30152.68
725.755	30260.48
726.097	30042.18
726.439	29873.37
726.782	29902.97
727.124	29956.08
727.465	29794.5
727.807	29933.7
728.149	29814.39
728.491	29626.37
728.833	29654.62
729.175	29601.96
729.516	29582.53
729.858	29580.72
730.199	29557.9
730.541	29506.82
730.882	29467.73
731.224	29539.82
731.565	29364.23
731.906	29333.95
732.248	29374.4
732.589	29181.86
732.93	29110.68
733.271	29139.83
733.612	29236.1
733.953	29055.99
734.294	29022.54
734.635	28897.12
734.976	28999.72
735.317	28920.4
735.658	28905.26
735.999	28798.82
736.339	28915.2
736.68	28793.4
737.021	28819.61
737.361	28728.99
737.702	28895.31
738.042	28671.59
738.383	28586.4
738.723	28619.84
739.063	28539.62
739.404	28539.39
739.744	28487.87
740.084	28362.9
740.424	28350.92
740.764	28273.64
741.104	28418.72
741.444	28264.6
741.784	28121.1
742.124	28194.99
742.464	28271.15
742.804	28215.78
743.143	28059.4
743.483	28123.81
743.823	27959.75
744.162	28013.98
744.502	28053.53
744.841	27859.63
745.181	28065.5
745.52	27879.75
745.86	27787.09
746.199	27887.88
746.538	27821.67
746.877	27904.38
747.216	27838.39
747.556	27672.97
747.895	27745.29
748.234	27704.16
748.573	27507.78
748.911	27660.32
749.25	27427.78
749.589	27460.1
749.928	27469.36
750.267	27468.46
750.605	27364.73
750.944	27277.05
751.283	27356.82
751.621	27268.69
751.96	27138.98
752.298	27087
752.636	27142.37
752.975	27013.33
753.313	26924.29
753.651	26973.33
753.989	26969.94
754.327	26817.18
754.666	26762.94
755.004	26717.07
755.342	26719.78
755.679	26631.64
756.017	26560.91
756.355	26618.54
756.693	26333.57
757.031	26487.69
757.368	26292.44
757.706	26295.38
758.044	26266.91
758.381	26268.94
758.719	26133.13
759.056	26069.63
759.394	26049.29
759.731	25872.79
760.068	25948.5
760.405	25781.5
760.743	25629.18
761.08	25764.77
761.417	25534.27
