Data from red_cardboard_box_FLMS001491_00038.txt Node
Date: Wed Feb 08 11:32:06 GMT 2017
User: dcchb
Spectrometer: FLMS00149
Trigger mode: 0
Integration Time (sec): 2.000000E-2
Scans to average: 10
Electric dark correction enabled: true
Nonlinearity correction enabled: false
Boxcar width: 0
XAxis mode: Wavelengths
Number of Pixels in Spectrum: 2048
>>>>>Begin Spectral Data<<<<<
341.393	-17.53
341.776	-17.53
342.16	-17.53
342.543	-58.66
342.927	-65.44
343.31	-62.72
343.693	-86.68
344.077	-48.49
344.46	-71.54
344.843	-59.56
345.226	-51.2
345.61	-43.74
345.993	-21.14
346.376	-13.69
346.759	24.05
347.142	36.71
347.525	51.62
347.908	56.37
348.291	83.26
348.674	86.2
349.057	120.55
349.44	117.61
349.823	132.98
350.206	176.59
350.588	193.54
350.971	193.09
351.354	217.72
351.737	217.49
352.119	259.53
352.502	252.07
352.884	271.5
353.267	293.42
353.65	280.77
354.032	292.75
354.414	316.93
354.797	308.34
355.179	321.45
355.562	335.01
355.944	323.03
356.326	334.33
356.709	334.55
357.091	342.91
357.473	339.98
357.855	366.19
358.238	335.68
358.62	328.23
359.002	334.55
359.384	343.59
359.766	326.42
360.148	330.49
360.53	323.71
360.912	330.49
361.294	338.4
361.676	322.35
362.057	332.52
362.439	336.81
362.821	312.41
363.203	317.38
363.584	316.7
363.966	333.2
364.348	330.26
364.729	345.17
365.111	314.21
365.493	351.28
365.874	315.34
366.256	313.31
366.637	298.4
367.019	314.21
367.4	322.8
367.781	308.11
368.163	302.01
368.544	293.88
368.925	288.45
369.306	299.3
369.688	306.31
370.069	332.29
370.45	309.47
370.831	309.02
371.212	303.82
371.593	309.02
371.974	300.88
372.355	305.63
372.736	320.77
373.117	318.28
373.498	310.15
373.879	297.27
374.26	310.6
374.641	323.71
375.021	316.93
375.402	317.15
375.783	313.31
376.163	332.07
376.544	325.51
376.925	331.84
377.305	324.38
377.686	318.28
378.066	315.34
378.447	331.39
378.827	309.02
379.208	300.2
379.588	320.99
379.968	331.39
380.349	334.1
380.729	306.98
381.109	325.06
381.489	290.94
381.87	319.19
382.25	308.79
382.63	314.67
383.01	329.58
383.39	340.65
383.77	347.89
384.15	336.36
384.53	355.57
384.91	324.38
385.29	346.3
385.67	324.61
386.049	347.21
386.429	327.1
386.809	329.81
387.189	323.48
387.568	350.15
387.948	352.63
388.328	329.81
388.707	326.87
389.087	340.43
389.466	339.98
389.846	358.73
390.225	336.36
390.605	334.55
390.984	362.8
391.363	340.43
391.743	338.85
392.122	361.9
392.501	363.93
392.881	349.02
393.26	325.51
393.639	344.04
394.018	370.03
394.397	342.46
394.776	337.04
395.155	363.25
395.534	364.16
395.913	353.99
396.292	336.59
396.671	357.15
397.05	341.56
397.429	358.51
397.808	353.31
398.186	353.76
398.565	363.48
398.944	347.66
399.323	374.33
399.701	372.07
400.08	359.64
400.458	381.11
400.837	382.91
401.215	369.58
401.594	375.91
401.972	375.23
402.351	375.46
402.729	363.71
403.107	384.04
403.486	374.78
403.864	385.63
404.242	365.06
404.62	395.57
404.999	370.48
405.377	375
405.755	387.66
406.133	395.34
406.511	396.47
406.889	390.15
407.267	393.08
407.645	408.45
408.023	390.6
408.401	407.09
408.779	389.69
409.156	391.5
409.534	414.55
409.912	394.89
410.29	405.96
410.667	389.24
411.045	425.4
411.422	376.81
411.8	422.91
412.178	400.77
412.555	403.25
412.933	408.22
413.31	412.52
413.687	403.25
414.065	415.23
414.442	400.09
414.819	421.56
415.197	411.61
415.574	417.26
415.951	431.95
416.328	443.48
416.705	425.85
417.082	422.91
417.46	423.59
417.837	435.12
418.214	432.4
418.591	439.86
418.967	463.82
419.344	442.8
419.721	458.62
420.098	436.92
420.475	439.18
420.852	452.74
421.228	469.92
421.605	444.83
421.982	464.27
422.358	466.75
422.735	436.92
423.111	473.53
423.488	462.46
423.864	466.08
424.241	468.34
424.617	481.22
424.994	462.46
425.37	453.42
425.746	480.99
426.123	476.24
426.499	467.88
426.875	481.89
427.251	478.96
427.627	453.42
428.003	487.09
428.379	495.68
428.756	498.16
429.132	480.09
429.507	500.42
429.883	489.8
430.259	502.91
430.635	509.01
431.011	512.4
431.387	521.89
431.763	522.8
432.138	531.38
432.514	549.91
432.89	506.07
433.265	530.25
433.641	522.57
434.016	541.78
434.392	550.82
434.767	546.98
435.143	527.99
435.518	539.29
435.894	558.28
436.269	561.67
436.644	542.01
437.02	555.11
437.395	549.46
437.77	570.71
438.145	553.08
438.52	588.78
438.895	558.28
439.271	574.1
439.646	589.01
440.021	564.38
440.395	576.81
440.77	574.55
441.145	570.48
441.52	587.88
441.895	587.43
442.27	586.75
442.645	595.11
443.019	598.95
443.394	577.48
443.769	599.18
444.143	605.73
444.518	584.26
444.892	598.05
445.267	607.54
445.641	609.35
446.016	591.95
446.39	623.59
446.764	641.89
447.139	605.51
447.513	609.57
447.887	607.31
448.262	616.35
448.636	626.52
449.01	625.17
449.384	632.17
449.758	636.24
450.132	645.73
450.506	625.17
450.88	668.56
451.254	657.48
451.628	647.09
452.002	637.37
452.376	621.1
452.75	665.39
453.123	640.76
453.497	653.64
453.871	670.14
454.244	653.42
454.618	672.85
454.992	692.51
455.365	683.02
455.739	680.76
456.112	699.52
456.486	681.66
456.859	684.6
457.232	709.46
457.606	709.68
457.979	713.07
458.352	742
458.725	714.43
459.099	720.31
459.472	731.83
459.845	746.07
460.218	734.54
460.591	750.14
460.964	757.82
461.337	747.42
461.71	762.56
462.083	801.66
462.456	795.11
462.829	786.29
463.201	774.99
463.574	760.53
463.947	829.68
464.32	797.14
464.692	782.45
465.065	795.78
465.438	818.61
465.81	828.55
466.183	814.09
466.555	832.17
466.928	834.2
467.3	850.7
467.672	854.09
468.045	873.75
468.417	846.4
468.789	858.61
469.161	876.01
469.534	897.93
469.906	894.76
470.278	892.73
470.65	898.83
471.022	906.52
471.394	913.07
471.766	927.76
472.138	928.44
472.51	957.81
472.882	971.6
473.253	957.36
473.625	989.23
473.997	986.74
474.369	977.02
474.74	998.94
475.112	1013.63
475.484	1017.47
475.855	1025.38
476.227	1043.46
476.598	1051.6
476.97	1046.4
477.341	1074.42
477.713	1076.68
478.084	1079.39
478.455	1122.78
478.827	1108.77
479.198	1163.46
479.569	1124.14
479.94	1186.51
480.311	1153.29
480.682	1208.65
481.053	1221.76
481.424	1237.58
481.795	1238.26
482.166	1265.38
482.537	1257.69
482.908	1294.3
483.279	1288.43
483.65	1304.25
484.021	1330.46
484.391	1337.46
484.762	1338.59
485.133	1361.64
485.503	1351.25
485.874	1385.6
486.244	1401.64
486.615	1426.95
486.985	1450.91
487.356	1442.77
487.726	1443.22
488.097	1491.59
488.467	1496.78
488.837	1535.43
489.207	1539.95
489.578	1565.93
489.948	1584.46
490.318	1577.68
490.688	1605.25
491.058	1615.42
491.428	1629.89
491.798	1642.99
492.168	1654.29
492.538	1703.33
492.908	1694.52
493.278	1688.64
493.648	1712.82
494.017	1741.52
494.387	1750.79
494.757	1753.05
495.126	1769.32
495.496	1785.81
495.866	1794.85
496.235	1823.33
496.605	1813.16
496.974	1856.32
497.344	1859.49
497.713	1853.16
498.082	1864.68
498.452	1924.79
498.821	1945.81
499.19	1877.79
499.559	1905.36
499.928	1899.94
500.298	1928.64
500.667	1937.45
501.036	1961.63
501.405	1988.75
501.774	1975.64
502.143	1980.61
502.512	2001.63
502.88	2038.46
503.249	2050.44
503.618	2082.98
503.987	2075.75
504.356	2079.82
504.724	2101.51
505.093	2088.18
505.462	2107.16
505.83	2118.24
506.199	2124.56
506.567	2139.93
506.936	2164.56
507.304	2195.3
507.672	2203.88
508.041	2187.39
508.409	2205.46
508.777	2235.07
509.145	2254.73
509.514	2255.41
509.882	2236.65
510.25	2270.77
510.618	2281.85
510.986	2312.81
511.354	2334.73
511.722	2350.32
512.09	2356.42
512.458	2363.43
512.826	2363.88
513.193	2393.03
513.561	2429.19
513.929	2434.84
514.297	2471.67
514.664	2477.1
515.032	2468.96
515.4	2493.37
515.767	2499.24
516.135	2518.22
516.502	2509.19
516.869	2553.7
517.237	2570.88
517.604	2565.23
517.972	2619.47
518.339	2600.93
518.706	2624.89
519.073	2656.98
519.44	2649.29
519.808	2665.11
520.175	2675.96
520.542	2720.25
520.909	2703.3
521.276	2720.93
521.643	2758.22
522.009	2794.15
522.376	2814.04
522.743	2802.29
523.11	2863.07
523.477	2857.88
523.843	2880.93
524.21	2911.66
524.577	2939.68
524.943	2926.35
525.31	2972.9
525.676	2993.92
526.043	2999.57
526.409	3009.51
526.776	3060.81
527.142	3042.28
527.508	3074.82
527.874	3142.16
528.241	3108.72
528.607	3154.82
528.973	3193.91
529.339	3190.3
529.705	3260.13
530.071	3250.18
530.437	3255.61
530.803	3274.36
531.169	3291.99
531.535	3296.74
531.901	3279.56
532.267	3322.27
532.632	3331.54
532.998	3386
533.364	3363.4
533.73	3403.85
534.095	3412.44
534.461	3482.04
534.826	3446.34
535.192	3472.78
535.557	3505.32
535.923	3516.39
536.288	3556.62
536.653	3569.27
537.019	3536.96
537.384	3561.81
537.749	3575.6
538.114	3595.71
538.479	3596.16
538.845	3623.73
539.21	3616.5
539.575	3632.09
539.94	3646.78
540.305	3715.26
540.67	3709.38
541.034	3738.98
541.399	3738.76
541.764	3764.97
542.129	3796.84
542.494	3793.67
542.858	3806.55
543.223	3853.78
543.587	3835.7
543.952	3814.69
544.316	3842.03
544.681	3871.86
545.045	3915.25
545.41	3938.75
545.774	3930.39
546.138	3955.25
546.503	4014.91
546.867	3936.49
547.231	3990.05
547.595	4010.16
547.959	4038.86
548.324	4035.02
548.688	4070.95
549.052	4113.44
549.416	4085.87
549.779	4053.33
550.143	4143.72
550.507	4137.17
550.871	4208.8
551.235	4166.32
551.599	4237.73
551.962	4292.87
552.326	4263.04
552.689	4333.09
553.053	4298.52
553.417	4315.47
553.78	4378.97
554.143	4359.98
554.507	4388.01
554.87	4386.2
555.234	4446.99
555.597	4439.08
555.96	4483.37
556.323	4518.62
556.686	4566.98
557.05	4567.66
557.413	4620.32
557.776	4651.73
558.139	4619.19
558.502	4746.41
558.865	4724.95
559.228	4763.82
559.59	4796.58
559.953	4824.38
560.316	4867.32
560.679	4858.28
561.041	4911.83
561.404	4941.89
561.767	5012.17
562.129	5025.5
562.492	5068.67
562.854	5078.38
563.217	5134.65
563.579	5145.73
563.941	5223.46
564.304	5244.93
564.666	5302.11
565.028	5340.3
565.39	5406.06
565.753	5476.34
566.115	5449
566.477	5533.96
566.839	5590.46
567.201	5643.34
567.563	5694.41
567.925	5705.26
568.287	5768.99
568.648	5806.73
569.01	5875.42
569.372	5908.64
569.734	5888.53
570.095	6037.68
570.457	6068.87
570.819	6081.97
571.18	6135.3
571.542	6227.05
571.903	6270.22
572.265	6270.67
572.626	6380.95
572.987	6408.29
573.349	6439.48
573.71	6578.23
574.071	6536.2
574.432	6653.94
574.794	6758.57
575.155	6778.23
575.516	6867.26
575.877	6903.87
576.238	6967.6
576.599	7065
576.96	7111.55
577.32	7139.8
577.681	7270.87
578.042	7331.88
578.403	7384.99
578.763	7519.45
579.124	7547.02
579.485	7729.16
579.845	7840.12
580.206	7901.13
580.566	7969.83
580.927	8066.55
581.287	8181.35
581.648	8236.94
582.008	8334.34
582.368	8419.54
582.728	8621.34
583.089	8618.86
583.449	8807.1
583.809	8866.98
584.169	9028.11
584.529	9152.17
584.889	9309.01
585.249	9417.25
585.609	9467.19
585.969	9712.16
586.329	9830.12
586.688	9995.77
587.048	10126.84
587.408	10291.13
587.768	10514.85
588.127	10686.15
588.487	10848.85
588.846	11050.2
589.206	11173.14
589.565	11295.62
589.925	11593.69
590.284	11746.68
590.643	11943.51
591.003	12255.82
591.362	12443.84
591.721	12633.66
592.08	12815.36
592.44	13067.55
592.799	13354.78
593.158	13543.7
593.517	13857.36
593.876	14017.81
594.235	14251.25
594.593	14633.16
594.952	14830.22
595.311	15048.29
595.67	15359.92
596.029	15680.82
596.387	15879
596.746	16249.84
597.104	16445.99
597.463	16673.33
597.822	16985.19
598.18	17217.27
598.538	17481.45
598.897	17922.79
599.255	18047.31
599.613	18629.67
599.972	18769.32
600.33	19077.56
600.688	19208.86
601.046	19626.02
601.404	19943.76
601.762	20228.27
602.12	20643.85
602.478	20905.54
602.836	21189.82
603.194	21323.15
603.552	21631.17
603.91	21915.91
604.268	22308.66
604.625	22517.92
604.983	22889.44
605.341	23006.73
605.698	23495.98
606.056	23707.72
606.413	23946.14
606.771	24316.97
607.128	24586.35
607.485	24710.18
607.843	24964.87
608.2	25261.13
608.557	25682.36
608.914	25817.05
609.272	26080.09
609.629	26552.85
609.986	26710.36
610.343	26783.58
610.7	27085.71
611.057	27254.52
611.414	27468.53
611.771	27721.18
612.127	28007.27
612.484	28191
612.841	28559.35
613.198	28550.08
613.554	28754.15
613.911	29112.78
614.267	29258.31
614.624	29299.89
614.98	29516.61
615.337	29824.17
615.693	29825.53
616.05	30138.06
616.406	30369.47
616.762	30376.48
617.118	30605.4
617.475	30903.24
617.831	30926.97
618.187	31133.97
618.543	31299.61
618.899	31530.12
619.255	31593.17
619.611	31654.86
619.967	31964.23
620.323	32164.45
620.678	32087.16
621.034	32152.02
621.39	32284.9
621.746	32265.69
622.101	32773.93
622.457	32613.7
622.812	32822.96
623.168	33042.39
623.523	33021.15
623.879	33299.11
624.234	32979.8
624.589	33399.9
624.945	33424.3
625.3	33459.56
625.655	33540.01
626.01	33574.13
626.365	33751.08
626.72	33800.11
627.075	33940.9
627.43	33895.25
627.785	33897.29
628.14	34027.68
628.495	34216.37
628.85	33996.27
629.205	34119.2
629.559	34415.92
629.914	34361.23
630.269	34337.95
630.623	34295.24
630.978	34355.81
631.332	34323.04
631.687	34472.19
632.041	34406.2
632.396	34641
632.75	34492.3
633.104	34702.69
633.459	34561
633.813	34524.61
634.167	34656.36
634.521	34614.1
634.875	34709.92
635.229	34611.62
635.583	34536.59
635.937	34559.19
636.291	34549.02
636.645	34656.81
636.999	34564.39
637.352	34714.44
637.706	34504.73
638.06	34631.96
638.413	34614.78
638.767	34539.76
639.121	34539.3
639.474	34480.77
639.828	34560.77
640.181	34591.51
640.534	34762.8
640.888	34608.45
641.241	34578.62
641.594	34652.97
641.947	34628.57
642.301	34598.74
642.654	34697.49
643.007	34820.43
643.36	34729.81
643.713	34652.97
644.066	34829.24
644.419	34579.98
644.771	34221.8
645.124	33896.61
645.477	33954.23
645.83	33805.09
646.182	33791.07
646.535	33774.35
646.888	33796.27
647.24	33815.48
647.593	33869.26
647.945	33762.6
648.298	33659.33
648.65	33756.73
649.002	33583.62
649.355	33754.24
649.707	33553.79
650.059	33860.23
650.411	34347.44
650.763	34387.22
651.115	34560.55
651.467	34600.09
651.819	34499.76
652.171	34525.52
652.523	34407.33
652.875	34474.9
653.227	34371.4
653.578	34580.43
653.93	34593.31
654.282	34414.56
654.633	34375.47
654.985	34445.75
655.337	34544.28
655.688	34379.08
656.039	34597.83
656.391	34284.85
656.742	34381.57
657.094	34335.92
657.445	34542.92
657.796	34458.4
658.147	34438.29
658.498	34425.86
658.849	34339.31
659.2	34277.62
659.551	34242.36
659.902	34326.2
660.253	34217.28
660.604	34457.5
660.955	34222.02
661.306	34297.5
661.656	34318.74
662.007	34386.31
662.358	34286.88
662.708	34378.18
663.059	34335.47
663.409	34144.74
663.76	34541.79
664.11	34447.1
664.461	34536.82
664.811	34431.51
665.161	34508.12
665.511	34359.87
665.862	34480.32
666.212	34363.94
666.562	34471.28
666.912	34302.7
667.262	34358.52
667.612	34390.61
667.962	34562.58
668.312	34266.77
668.662	34462.24
669.011	34393.54
669.361	34341.34
669.711	34397.61
670.06	34285.07
670.41	34265.19
670.76	34146.77
671.109	34352.42
671.459	34235.58
671.808	34146.09
672.157	34363.72
672.507	34086.89
672.856	34230.16
673.205	34063.16
673.554	34273.55
673.904	34054.34
674.253	34200.56
674.602	34170.05
674.951	33757.4
675.3	33624.3
675.649	34107.22
675.998	34111.29
676.346	33963.27
676.695	34118.52
677.044	33802.6
677.393	34001.92
677.741	34091.86
678.09	34055.02
678.438	33938.64
678.787	33932.77
679.135	33927.12
679.484	33763.5
679.832	33818.87
680.181	33779.55
680.529	33831.07
680.877	33642.6
681.225	33618.65
681.573	33878.53
681.922	33564.41
682.27	33496.17
682.618	33518.31
682.966	33508.37
683.314	33354.7
683.661	33311.31
684.009	33271.54
684.357	33118.32
684.705	33157.19
685.053	33128.49
685.4	33088.95
685.748	33023.64
686.095	32916.3
686.443	32855.73
686.79	32826.81
687.138	32925.11
687.485	32776.19
687.832	32631.33
688.18	32678.79
688.527	32460.71
688.874	32532.58
689.221	32445.8
689.568	32260.04
689.915	32314.28
690.262	32294.84
690.609	32144.79
690.956	32109.09
691.303	32122.64
691.65	31826.15
691.997	31924.23
692.344	31647.63
692.69	31861.18
693.037	31794.07
693.383	31475.66
693.73	31618.02
694.077	31334.42
694.423	31478.37
694.769	31185.04
695.116	31451.48
695.462	31188.66
695.808	31180.3
696.155	31134.65
696.501	30945.05
696.847	30912.51
697.193	30784.37
697.539	30927.2
697.885	30722.91
698.231	30588.67
698.577	30637.49
698.923	30415.57
699.269	30322.92
699.614	30234.78
699.96	30238.4
700.306	30191.17
700.651	30193.66
700.997	30013.1
701.342	29980.33
701.688	29870.05
702.033	29749.83
702.379	29840.67
702.724	29683.84
703.069	29746.21
703.415	29502.37
703.76	29535.14
704.105	29359.33
704.45	29347.35
704.795	29208.37
705.14	29207.69
705.485	29102.38
705.83	29000.01
706.175	29091.31
706.52	29009.05
706.865	28864.88
707.209	28844.09
707.554	28689.51
707.899	28879.11
708.243	28544.89
708.588	28541.95
708.932	28536.52
709.277	28439.13
709.621	28506.24
709.966	28203.65
710.31	28276.42
710.654	28031.45
710.998	28191.67
711.342	28032.81
711.687	28035.52
712.031	27868.29
712.375	27862.42
712.719	27991
713.063	27858.8
713.407	27867.84
713.75	27697.22
714.094	27688.64
714.438	27599.83
714.782	27700.16
715.125	27510.34
715.469	27459.94
715.812	27337.69
716.156	27260.17
716.499	27351.7
716.843	27224.24
717.186	27231.47
717.53	27294.97
717.873	27266.27
718.216	27334.75
718.559	27052.72
718.902	26947.19
719.246	27011.37
719.589	26831.26
719.932	26734.31
720.275	26754.42
720.617	26786.74
720.96	26638.95
721.303	26726.63
721.646	26743.12
721.989	26581.55
722.331	26671.71
722.674	26561.43
723.016	26616.12
723.359	26524.6
723.701	26548.33
724.044	26436.24
724.386	26187.43
724.729	26371.61
725.071	26328.67
725.413	26199.18
725.755	26208
726.097	26066.31
726.439	25860.21
726.782	26008.68
727.124	26169.81
727.465	25975.01
727.807	25971.62
728.149	25917.84
728.491	25797.39
728.833	25820.21
729.175	25781.79
729.516	25662.25
729.858	25666.54
730.199	25731.4
730.541	25687.79
730.882	25587.45
731.224	25791.06
731.565	25525.76
731.906	25593.55
732.248	25517.62
732.589	25464.74
732.93	25245.99
733.271	25355.36
733.612	25403.5
733.953	25366.66
734.294	25277.63
734.635	25269.94
734.976	25247.34
735.317	25133.9
735.658	25176.61
735.999	25316.04
736.339	25150.62
736.68	25087.8
737.021	24988.37
737.361	25024.53
737.702	25055.03
738.042	24951.53
738.383	24917.41
738.723	24901.59
739.063	24931.65
739.404	24884.19
739.744	24747.47
740.084	24761.03
740.424	24777.3
740.764	24637.64
741.104	24840.35
741.444	24611.43
741.784	24586.57
742.124	24543.86
742.464	24667.47
742.804	24483.52
743.143	24481.49
743.483	24519.68
743.823	24444.65
744.162	24377.54
744.502	24535.05
744.841	24322.17
745.181	24383.41
745.52	24338.22
745.86	24321.27
746.199	24342.74
746.538	24189.29
746.877	24219.35
747.216	24223.19
747.556	24084.66
747.895	24101.84
748.234	24064.1
748.573	24025
748.911	23961.95
749.25	23890.54
749.589	23866.59
749.928	23899.13
750.267	23996.3
750.605	23919.47
750.944	23799.7
751.283	23775.29
751.621	23849.42
751.96	23720.15
752.298	23613.49
752.636	23622.98
752.975	23464.11
753.313	23440.84
753.651	23552.47
753.989	23463.21
754.327	23407.17
754.666	23256.21
755.004	23340.73
755.342	23355.42
755.679	23264.57
756.017	23120.39
756.355	23110.68
756.693	23141.64
757.031	23173.5
757.368	22876.79
757.706	22930.57
758.044	22956.78
758.381	22821.65
758.719	22713.17
759.056	22835.66
759.394	22767.41
759.731	22660.29
760.068	22588.88
760.405	22551.14
760.743	22521.99
761.08	22454.2
761.417	22419.85
761.754	22342.79
