Data from red_cardboard_box_FLMS001491_00022.txt Node
Date: Wed Feb 08 11:31:45 GMT 2017
User: dcchb
Spectrometer: FLMS00149
Trigger mode: 0
Integration Time (sec): 2.000000E-2
Scans to average: 10
Electric dark correction enabled: true
Nonlinearity correction enabled: false
Boxcar width: 0
XAxis mode: Wavelengths
Number of Pixels in Spectrum: 2048
>>>>>Begin Spectral Data<<<<<
341.393	-6.43
341.776	-6.43
342.16	-6.43
342.543	-52.75
342.927	-89.59
343.31	-79.19
343.693	-72.41
344.077	-66.76
344.46	-71.51
344.843	-61.57
345.226	-39.65
345.61	-46.88
345.993	-41
346.376	-8.69
346.759	19.79
347.142	36.28
347.525	35.38
347.908	87.58
348.291	76.51
348.674	98.43
349.057	133.68
349.44	128.03
349.823	135.72
350.206	166.22
350.588	207.81
350.971	214.58
351.354	244.41
351.737	245.54
352.119	255.71
352.502	271.98
352.884	287.13
353.267	283.96
353.65	288.03
354.032	311.31
354.414	311.76
354.797	310.4
355.179	318.08
355.562	327.35
355.944	317.63
356.326	330.97
356.709	328.71
357.091	333.9
357.473	335.03
357.855	357.18
358.238	343.39
358.62	354.02
359.002	354.69
359.384	353.79
359.766	353.56
360.148	374.58
360.53	346.33
360.912	331.42
361.294	335.94
361.676	327.58
362.057	338.88
362.439	328.48
362.821	335.26
363.203	335.26
363.584	349.5
363.966	343.85
364.348	342.72
364.729	332.1
365.111	335.49
365.493	310.63
365.874	317.86
366.256	327.35
366.637	322.38
367.019	320.57
367.4	299.1
367.781	303.85
368.163	329.61
368.544	328.71
368.925	329.38
369.306	341.81
369.688	323.51
370.069	315.83
370.45	294.13
370.831	333.9
371.212	323.73
371.593	326.45
371.974	305.88
372.355	322.38
372.736	340.23
373.117	345.65
373.498	319.89
373.879	304.3
374.26	335.71
374.641	330.97
375.021	311.08
375.402	335.49
375.783	324.41
376.163	343.17
376.544	330.51
376.925	339.78
377.305	328.93
377.686	355.37
378.066	321.7
378.447	349.5
378.827	354.69
379.208	338.65
379.588	318.08
379.968	325.77
380.349	353.11
380.729	326.45
381.109	340.68
381.489	334.13
381.87	335.71
382.25	331.64
382.63	353.11
383.01	342.94
383.39	341.36
383.77	365.54
384.15	332.55
384.53	353.11
384.91	346.33
385.29	339.1
385.67	364.64
386.049	350.85
386.429	336.39
386.809	373.22
387.189	349.27
387.568	351.08
387.948	360.57
388.328	344.98
388.707	347.69
389.087	350.17
389.466	380.23
389.846	344.52
390.225	362.38
390.605	367.58
390.984	389.72
391.363	360.34
391.743	363.28
392.122	372.77
392.501	365.32
392.881	374.35
393.26	390.4
393.639	393.56
394.018	354.24
394.397	376.16
394.776	361.25
395.155	378.42
395.534	383.17
395.913	364.19
396.292	408.25
396.671	379.1
397.05	392.66
397.429	394.69
397.808	396.05
398.186	368.48
398.565	389.72
398.944	388.37
399.323	387.01
399.701	394.92
400.08	383.17
400.458	411.64
400.837	398.31
401.215	379.55
401.594	382.04
401.972	375.94
402.351	381.36
402.729	402.6
403.107	396.27
403.486	387.69
403.864	379.1
404.242	413.9
404.62	403.73
404.999	401.47
405.377	410.06
405.755	407.8
406.133	402.15
406.511	414.35
406.889	420
407.267	433.11
407.645	441.25
408.023	413.9
408.401	404.86
408.779	446.44
409.156	429.72
409.534	434.01
409.912	439.66
410.29	436.95
410.667	424.52
411.045	440.12
411.422	445.77
411.8	438.08
412.178	432.21
412.555	456.16
412.933	468.14
413.31	474.01
413.687	449.15
414.065	471.08
414.442	466.33
414.819	451.87
415.197	467.91
415.574	493.45
415.951	488.93
416.328	477.63
416.705	493
417.082	471.3
417.46	495.93
417.837	468.59
418.214	459.78
418.591	484.63
418.967	509.94
419.344	481.02
419.721	483.96
420.098	500.45
420.475	517.85
420.852	503.16
421.228	506.1
421.605	509.72
421.982	520.57
422.358	523.73
422.735	519.44
423.111	528.47
423.488	538.87
423.864	523.05
424.241	534.8
424.617	521.02
424.994	527.57
425.37	512.66
425.746	532.77
426.123	545.2
426.499	519.21
426.875	544.75
427.251	559.89
427.627	537.51
428.003	537.29
428.379	551.53
428.756	552.2
429.132	558.98
429.507	584.29
429.883	550.17
430.259	588.81
430.635	569.15
431.011	576.61
431.387	576.16
431.763	576.16
432.138	579.55
432.514	609.38
432.89	607.79
433.265	619.32
433.641	599.89
434.016	616.61
434.392	621.13
434.767	641.69
435.143	617.74
435.518	620.45
435.894	628.59
436.269	624.52
436.644	642.6
437.02	655.25
437.395	660.9
437.77	657.96
438.145	671.52
438.52	657.28
438.895	656.61
439.271	679.21
439.646	686.21
440.021	669.71
440.395	676.95
440.77	687.79
441.145	695.25
441.52	693.44
441.895	685.31
442.27	681.01
442.645	707.91
443.019	711.29
443.394	699.54
443.769	708.13
444.143	697.51
444.518	709.71
444.892	703.39
445.267	693.44
445.641	706.32
446.016	730.5
446.39	741.8
446.764	718.3
447.139	752.2
447.513	733.67
447.887	748.13
448.262	729.15
448.636	722.82
449.01	751.52
449.384	740.22
449.758	753.33
450.132	765.08
450.506	781.8
450.88	760.79
451.254	748.36
451.628	776.6
452.002	804.85
452.376	756.94
452.75	760.56
453.123	796.26
453.497	781.12
453.871	794.91
454.244	793.78
454.618	814.57
454.992	822.93
455.365	824.06
455.739	821.35
456.112	852.08
456.486	841.23
456.859	852.08
457.232	861.8
457.606	839.65
457.979	876.71
458.352	889.14
458.725	885.53
459.099	870.84
459.472	907.22
459.845	893.89
460.218	898.86
460.591	912.19
460.964	901.12
461.337	932.98
461.71	915.58
462.083	943.83
462.456	942.7
462.829	951.97
463.201	933.89
463.574	958.75
463.947	965.53
464.32	962.59
464.692	975.47
465.065	986.32
465.438	991.97
465.81	1003.26
466.183	993.77
466.555	1014.11
466.928	1036.26
467.3	1020.67
467.672	1061.79
468.045	1070.16
468.417	1064.05
468.789	1096.6
469.161	1100.66
469.534	1113.54
469.906	1122.13
470.278	1131.17
470.65	1122.13
471.022	1161.9
471.394	1162.58
471.766	1154.67
472.138	1180.66
472.51	1226.99
472.882	1201
473.253	1212.75
473.625	1214.11
473.997	1264.05
474.369	1263.6
474.74	1270.15
475.112	1278.74
475.484	1324.16
475.855	1302.92
476.227	1332.97
476.598	1350.6
476.97	1339.3
477.341	1380.2
477.713	1414.1
478.084	1417.72
478.455	1428.11
478.827	1414.33
479.198	1475.79
479.569	1459.3
479.94	1507.43
480.311	1522.12
480.682	1535.23
481.053	1574.1
481.424	1589.69
481.795	1608.45
482.166	1618.84
482.537	1642.34
482.908	1692.74
483.279	1683.92
483.65	1715.34
484.021	1724.15
484.391	1745.17
484.762	1772.06
485.133	1787.88
485.503	1777.48
485.874	1833.53
486.244	1843.47
486.615	1859.51
486.985	1892.73
487.356	1922.11
487.726	1932.73
488.097	1968.89
488.467	1967.31
488.837	2034.42
489.207	2020.19
489.578	2036.01
489.948	2062.9
490.318	2073.29
490.688	2111.03
491.058	2123.24
491.428	2137.92
491.798	2170.69
492.168	2214.98
492.538	2222.67
492.908	2229.9
493.278	2252.27
493.648	2273.29
494.017	2302.44
494.387	2305.6
494.757	2363.68
495.126	2331.37
495.496	2389.22
495.866	2386.05
496.235	2400.74
496.605	2455.66
496.974	2446.16
497.344	2473.96
497.713	2471.93
498.082	2507.63
498.452	2508.31
498.821	2493.62
499.19	2544.47
499.559	2590.79
499.928	2570
500.298	2656.78
500.667	2622.66
501.036	2632.37
501.405	2660.62
501.774	2650.45
502.143	2690
502.512	2703.78
502.88	2737.68
503.249	2694.75
503.618	2765.25
503.987	2776.78
504.356	2778.59
504.724	2837.57
505.093	2833.05
505.462	2815.87
505.83	2863.33
506.199	2827.62
506.567	2889.09
506.936	2942.87
507.304	2906.94
507.672	3003.21
508.041	3021.06
508.409	2983.33
508.777	3081.4
509.145	3049.54
509.514	3035.3
509.882	3061.06
510.25	3081.85
510.618	3140.16
510.986	3126.82
511.354	3175.86
511.722	3176.09
512.09	3221.51
512.458	3213.83
512.826	3244.34
513.193	3259.02
513.561	3287.95
513.929	3332.92
514.297	3318.01
514.664	3355.52
515.032	3388.51
515.4	3396.87
515.767	3430.32
516.135	3413.37
516.502	3439.13
516.869	3487.95
517.237	3527.27
517.604	3478
517.972	3547.15
518.339	3577.21
518.706	3586.93
519.073	3583.08
519.44	3666.92
519.808	3718.67
520.175	3666.7
520.542	3752.8
520.909	3765
521.276	3749.63
521.643	3786.24
522.009	3844.55
522.376	3861.49
522.743	3863.75
523.11	3930.42
523.477	3944.2
523.843	4007.93
524.21	4024.43
524.577	4050.42
524.943	4113.24
525.31	4093.58
525.676	4132
526.043	4145.55
526.409	4199.11
526.776	4221.49
527.142	4265.55
527.508	4253.35
527.874	4290.41
528.241	4398.66
528.607	4362.95
528.973	4393.01
529.339	4435.04
529.705	4449.28
530.071	4489.5
530.437	4521.82
530.803	4513.68
531.169	4568.14
531.535	4574.02
531.901	4627.35
532.267	4649.04
532.632	4685.65
532.998	4730.85
533.364	4694.24
533.73	4716.61
534.095	4758.19
534.461	4802.94
534.826	4843.84
535.192	4826.44
535.557	4897.17
535.923	4941.24
536.288	4941.69
536.653	4937.17
537.019	4966.78
537.384	4932.65
537.749	4977.17
538.114	5018.53
538.479	5048.13
538.845	5116.6
539.21	5064.85
539.575	5123.38
539.94	5153.66
540.305	5167.9
540.67	5175.13
541.034	5198.63
541.399	5255.58
541.764	5241.35
542.129	5310.95
542.494	5302.81
542.858	5362.47
543.223	5335.13
543.587	5378.74
543.952	5399.53
544.316	5439.53
544.681	5456.93
545.045	5476.82
545.41	5547.1
545.774	5528.8
546.138	5531.06
546.503	5550.94
546.867	5573.54
547.231	5641.79
547.595	5634.56
547.959	5707.1
548.324	5693.08
548.688	5778.73
549.052	5756.13
549.416	5827.77
549.779	5800.43
550.143	5879.07
550.507	5908.45
550.871	5902.8
551.235	5939.18
551.599	5995
551.962	5991.38
552.326	6072.74
552.689	6093.53
553.053	6119.29
553.417	6107.99
553.78	6216.46
554.143	6242.67
554.507	6237.03
554.87	6319.96
555.234	6375.1
555.597	6372.84
555.96	6396.57
556.323	6476.12
556.686	6505.27
557.05	6533.51
557.413	6602.44
557.776	6669.78
558.139	6664.36
558.502	6710.23
558.865	6762.66
559.228	6825.71
559.59	6885.14
559.953	6866.84
560.316	7036.55
560.679	6970.34
561.041	7087.85
561.404	7105.93
561.767	7176.89
562.129	7208.53
562.492	7330.33
562.854	7337.34
563.217	7401.51
563.579	7475.41
563.941	7518.8
564.304	7668.85
564.666	7702.98
565.028	7690.77
565.39	7804.89
565.753	7896.87
566.115	7940.03
566.477	8091.89
566.839	8081.5
567.201	8182.96
567.563	8277.88
567.925	8327.37
568.287	8359
568.648	8473.8
569.01	8531.43
569.372	8645.55
569.734	8633.12
570.095	8754.7
570.457	8867.92
570.819	8926.9
571.18	8963.51
571.542	9073.33
571.903	9110.17
572.265	9254.35
572.626	9319.43
572.987	9459.99
573.349	9508.13
573.71	9630.61
574.071	9734.79
574.432	9771.62
574.794	9969.36
575.155	10000.54
575.516	10101.78
575.877	10207.77
576.238	10317.37
576.599	10404.6
576.96	10515.33
577.32	10695.44
577.681	10794.65
578.042	10923.68
578.403	11033.96
578.763	11119.38
579.124	11321.86
579.485	11445.93
579.845	11663.78
580.206	11756.88
580.566	11781.74
580.927	11951
581.287	12119.36
581.648	12309.18
582.008	12479.35
582.368	12617.65
582.728	12836.63
583.089	12894.7
583.449	13113.23
583.809	13245.65
584.169	13606.1
584.529	13705.53
584.889	13997.27
585.249	14113.43
585.609	14301.22
585.969	14583.02
586.329	14801.55
586.688	15052.16
587.048	15259.39
587.408	15448.99
587.768	15759.49
588.127	16054.62
588.487	16248.29
588.846	16627.26
589.206	16808.27
589.565	17091.2
589.925	17499.33
590.284	17762.6
590.643	17990.61
591.003	18382.92
591.362	18722.57
591.721	19046.86
592.08	19299.05
592.44	19692.49
592.799	20169.99
593.158	20304.9
593.517	20660.83
593.876	21051.33
594.235	21369.28
594.593	21852.43
594.952	22237.51
595.311	22538.07
595.67	22882.69
596.029	23426.18
596.387	23831.14
596.746	24258.02
597.104	24566.03
597.463	24818.01
597.822	25295.51
598.18	25597.42
598.538	25924.87
598.897	26495.25
599.255	26572.54
599.613	27516.69
599.972	27574.09
600.33	28199.61
600.688	28441.87
601.046	28907.62
601.404	29503.76
601.762	29820.81
602.12	30453.11
602.478	30635.03
602.836	31061.68
603.194	31256.71
603.552	31744.15
603.91	32008.33
604.268	32555.2
604.625	32804.69
604.983	33370.1
605.341	33527.61
605.698	34094.37
606.056	34490.52
606.413	34818.65
606.771	35267.67
607.128	35631.96
607.485	35781.33
607.843	36181.32
608.2	36518.94
608.557	37021.53
608.914	37160.96
609.272	37542.42
609.629	37892.92
609.986	38353.69
610.343	38498.1
610.7	38900.12
611.057	39182.37
611.414	39329.71
611.771	39578.97
612.127	40094.44
612.484	40350.03
612.841	40567.65
613.198	40633.41
613.554	40891.03
613.911	41267.29
614.267	41668.41
614.624	41722.87
614.98	42007.38
615.337	42182.07
615.693	42357.66
616.05	42632
616.406	43024.08
616.762	43060.92
617.118	43293.23
617.475	43476.05
617.831	43688.47
618.187	43905.19
618.543	44103.15
618.899	44388.34
619.255	44423.82
619.611	44496.58
619.967	44847.31
620.323	44984.48
620.678	44947.42
621.034	45150.35
621.39	45210.69
621.746	45273.06
622.101	45885.47
622.457	45545.82
622.812	45768.64
623.168	45983.32
623.523	45961.63
623.879	46242.53
624.234	46157.56
624.589	46388.96
624.945	46412.01
625.3	46585.12
625.655	46681.61
626.01	46746.02
626.365	46900.36
626.72	46664.44
627.075	46879.57
627.43	46892.23
627.785	47014.71
628.14	47085.67
628.495	47244.31
628.85	47293.57
629.205	47212.67
629.559	47404.3
629.914	47402.5
630.269	47442.72
630.623	47424.64
630.978	47409.28
631.332	47703.28
631.687	47692.66
632.041	47561.59
632.396	47802.03
632.75	47634.13
633.104	47708.25
633.459	47539.44
633.813	47668.48
634.167	47670.96
634.521	47785.09
634.875	47635.26
635.229	47709.61
635.583	47552.32
635.937	47623.28
636.291	47657.18
636.645	47688.36
636.999	47673.9
637.352	47842.48
637.706	47593
638.06	47788.7
638.413	47841.13
638.767	47616.5
639.121	47828.25
639.474	47467.81
639.828	47671.64
640.181	47773.56
640.534	47839.55
640.888	47698.99
641.241	47519.33
641.594	47688.36
641.947	47812.43
642.301	47726.1
642.654	47740.57
643.007	47761.81
643.36	47776.5
643.713	47701.7
644.066	47806.78
644.419	47539.67
644.771	47277.98
645.124	47017.65
645.477	46906.46
645.83	46703.08
646.182	46596.87
646.535	46594.61
646.888	46705.57
647.24	46628.96
647.593	46679.58
647.945	46597.32
648.298	46623.31
648.65	46539.24
649.002	46391.9
649.355	46569.98
649.707	46466.7
650.059	46616.98
650.411	47185.1
650.763	47099.45
651.115	47597.29
651.467	47359.33
651.819	47350.52
652.171	47416.28
652.523	47376.28
652.875	47339.45
653.227	47296.96
653.578	47520.23
653.93	47373.8
654.282	47178.1
654.633	47222.61
654.985	47295.61
655.337	47203.41
655.688	47272.33
656.039	47569.27
656.391	47200.92
656.742	47186.01
657.094	47270.3
657.445	47354.59
657.796	47254.93
658.147	47234.14
658.498	47171.77
658.849	47235.95
659.2	47201.82
659.551	47157.53
659.902	47214.93
660.253	47270.52
660.604	47276.85
660.955	46991.43
661.306	47213.57
661.656	47150.07
662.007	47199.34
662.358	47220.35
662.708	47084.99
663.059	47147.81
663.409	46963.86
663.76	47234.37
664.11	47175.61
664.461	47267.58
664.811	47218.55
665.161	47269.39
665.511	47033.24
665.862	47141.94
666.212	47332.89
666.562	47296.51
666.912	47113.24
667.262	47044.54
667.612	47117.31
667.962	47136.97
668.312	46948.95
668.662	47347.81
669.011	47211.99
669.361	47260.58
669.711	47123.86
670.06	47023.52
670.41	46943.07
670.76	46881.15
671.109	47062.17
671.459	46932
671.808	46938.33
672.157	47113.92
672.507	46633.93
672.856	46756.64
673.205	46780.14
673.554	46923.41
673.904	46846.13
674.253	46998.89
674.602	46795.05
674.951	46308.51
675.3	46143.32
675.649	46751.67
675.998	46762.51
676.346	46778.56
676.695	46776.3
677.044	46522.52
677.393	46652.69
677.741	46688.62
678.09	46622.4
678.438	46454.5
678.787	46482.75
679.135	46518
679.484	46249.08
679.832	46468.28
680.181	46322.75
680.529	46384.44
680.877	46251.79
681.225	46220.15
681.573	46501.96
681.922	46131.34
682.27	45974.51
682.618	46024
682.966	46013.38
683.314	46032.36
683.661	46009.54
684.009	45632.6
684.357	45621.3
684.705	45591.7
685.053	45663.33
685.4	45588.98
685.748	45384.24
686.095	45387.18
686.443	45285.94
686.79	45204.81
687.138	45368.2
687.485	45236.9
687.832	45141.99
688.18	45114.2
688.527	44970.24
688.874	44812.96
689.221	44701.78
689.568	44627.88
689.915	44563.7
690.262	44675.79
690.609	44525.96
690.956	44323.48
691.303	44300.88
691.65	44084.17
691.997	44237.38
692.344	43871.74
692.69	43833.55
693.037	43813.44
693.383	43612.54
693.73	43709.26
694.077	43418.87
694.423	43453
694.769	43419.55
695.116	43242.15
695.462	43133.91
695.808	43197.64
696.155	43093.68
696.501	42864.99
696.847	42926.23
697.193	42446.69
697.539	42711.09
697.885	42418.22
698.231	42411.89
698.577	42382.97
698.923	42382.06
699.269	41947.72
699.614	41849.65
699.96	41792.7
700.306	41864.56
700.651	41671.8
700.997	41598.81
701.342	41472.03
701.688	41411.02
702.033	41248.76
702.379	41194.07
702.724	40991.59
703.069	41179.61
703.415	40834.31
703.76	40746.4
704.105	40772.39
704.45	40651.04
704.795	40574.65
705.14	40505.5
705.485	40438.84
705.83	40134.21
706.175	40342.57
706.52	40227.32
706.865	40152.74
707.209	39985.97
707.554	39872.53
707.899	40001.34
708.243	39693.32
708.588	39728.8
708.932	39385.98
709.277	39493.33
709.621	39423.5
709.966	39183.73
710.31	39165.65
710.654	39040
710.998	39156.61
711.342	39137.86
711.687	38874.13
712.031	38858.09
712.375	38753.46
712.719	38800.69
713.063	38673.69
713.407	38874.81
713.75	38533.58
714.094	38461.04
714.438	38463.3
714.782	38427.59
715.125	38212.46
715.469	38370.64
715.812	38074.38
716.156	37821.96
716.499	37908.96
716.843	37971.78
717.186	37784.22
717.53	37982.63
717.873	37854.95
718.216	37741.73
718.559	37630.32
718.902	37425.81
719.246	37433.27
719.589	37277.11
719.932	37193.5
720.275	37271.69
720.617	37153.95
720.96	37074.18
721.303	37174.74
721.646	37235.08
721.989	36909.67
722.331	37050.68
722.674	36937.46
723.016	36810.01
723.359	36831.48
723.701	36836.22
724.044	36587.41
724.386	36384.71
724.729	36567.98
725.071	36631.03
725.413	36538.6
725.755	36434.88
726.097	36312.17
726.439	36214.54
726.782	36087.99
727.124	36202.34
727.465	36069.69
727.807	36154.43
728.149	35931.16
728.491	35726.65
728.833	35970.03
729.175	35765.29
729.516	35752.41
729.858	35739.53
730.199	35781.56
730.541	35589.47
730.882	35550.38
731.224	35731.17
731.565	35301.57
731.906	35382.02
732.248	35470.15
732.589	35255.47
732.93	35333.66
733.271	35100.45
733.612	35205.3
733.953	35261.57
734.294	35001.47
734.635	35012.54
734.976	35039.88
735.317	34842.15
735.658	34957.85
735.999	34871.53
736.339	34812.32
736.68	34849.38
737.021	34762.15
737.361	34594.47
737.702	34773
738.042	34622.72
738.383	34539.56
738.723	34562.16
739.063	34453.01
739.404	34505.21
739.744	34386.34
740.084	34252.79
740.424	34339.56
740.764	34302.95
741.104	34469.28
741.444	34297.76
741.784	34064.32
742.124	34154.48
742.464	34120.59
742.804	34074.49
743.143	33983.87
743.483	33965.56
743.823	33837.43
744.162	33789.07
744.502	33762.4
744.841	33601.96
745.181	33742.06
745.52	33655.97
745.86	33621.62
746.199	33675.4
746.538	33473.37
746.877	33515.63
747.216	33535.97
747.556	33432.92
747.895	33407.38
748.234	33189.08
748.573	33240.84
748.911	33200.84
749.25	33166.71
749.589	33072.48
749.928	33132.36
750.267	33192.7
750.605	32902.99
750.944	32910.45
751.283	32764.24
751.621	32936.66
751.96	32681.08
752.298	32685.37
752.636	32655.09
752.975	32620.06
753.313	32405.38
753.651	32523.34
753.989	32226.17
754.327	32403.57
754.666	32187.53
755.004	32252.61
755.342	32176.23
755.679	32134.65
756.017	31960.42
756.355	31986.63
756.693	31890.59
757.031	31914.99
757.368	31672.74
757.706	31703.93
758.044	31512.52
758.381	31532.41
758.719	31444.72
759.056	31490.15
759.394	31327.89
759.731	31127.22
760.068	31135.13
760.405	31077.28
760.743	30956.38
761.08	31087.9
761.417	30912.99
