Data from red_shiny_book_FLMS001491_00010.txt Node
Date: Wed Feb 08 15:23:35 GMT 2017
User: dcchb
Spectrometer: FLMS00149
Trigger mode: 0
Integration Time (sec): 2.000000E-2
Scans to average: 10
Electric dark correction enabled: true
Nonlinearity correction enabled: false
Boxcar width: 0
XAxis mode: Wavelengths
Number of Pixels in Spectrum: 2048
>>>>>Begin Spectral Data<<<<<
341.393	-2.73
341.776	-2.73
342.16	-2.73
342.543	-64.19
342.927	-69.16
343.31	-73.46
343.693	-77.53
344.077	-55.38
344.46	-52.22
344.843	-65.78
345.226	-43.4
345.61	-36.4
345.993	-5.44
346.376	-0.69
346.759	-0.01
347.142	25.52
347.525	30.49
347.908	63.71
348.291	70.49
348.674	104.39
349.057	115.69
349.44	147.55
349.823	141.68
350.206	170.83
350.588	213.09
350.971	228
351.354	225.52
351.737	253.76
352.119	268.91
352.502	289.24
352.884	295.35
353.267	305.29
353.65	297.83
354.032	294.44
354.414	333.99
354.797	316.81
355.179	323.14
355.562	330.37
355.944	338.73
356.326	335.57
356.709	340.32
357.091	334.89
357.473	344.16
357.855	342.58
358.238	336.25
358.62	359.07
359.002	342.8
359.384	373.99
359.766	353.65
360.148	351.84
360.53	357.94
360.912	379.86
361.294	360.43
361.676	351.62
362.057	341.9
362.439	357.72
362.821	343.93
363.203	340.54
363.584	328.56
363.966	351.39
364.348	342.12
364.729	346.64
365.111	353.2
365.493	320.88
365.874	340.09
366.256	322.92
366.637	342.8
367.019	332.41
367.4	319.07
367.781	332.63
368.163	314.33
368.544	336.47
368.925	323.14
369.306	333.76
369.688	325.18
370.069	326.98
370.45	339.64
370.831	323.82
371.212	340.54
371.593	332.86
371.974	321.79
372.355	319.98
372.736	340.32
373.117	323.37
373.498	346.87
373.879	328.34
374.26	343.93
374.641	353.65
375.021	342.12
375.402	333.76
375.783	344.84
376.163	350.26
376.544	350.94
376.925	348.45
377.305	347.32
377.686	342.35
378.066	352.29
378.447	355.68
378.827	358.62
379.208	364.5
379.588	350.94
379.968	346.42
380.349	347.1
380.729	324.05
381.109	357.94
381.489	360.65
381.87	367.43
382.25	362.01
382.63	356.13
383.01	373.08
383.39	334.89
383.77	366.98
384.15	363.82
384.53	366.76
384.91	358.62
385.29	369.92
385.67	357.49
386.049	378.06
386.429	375.57
386.809	361.56
387.189	375.8
387.568	369.02
387.948	365.63
388.328	376.25
388.707	389.58
389.087	390.94
389.466	387.77
389.846	394.78
390.225	393.42
390.605	406.08
390.984	385.74
391.363	395
391.743	410.14
392.122	411.5
392.501	414.89
392.881	390.03
393.26	409.92
393.639	428.9
394.018	390.94
394.397	423.7
394.776	414.44
395.155	406.98
395.534	406.98
395.913	428.45
396.292	429.58
396.671	411.5
397.05	424.83
397.429	405.62
397.808	393.65
398.186	414.44
398.565	455.12
398.944	455.57
399.323	421.9
399.701	434.32
400.08	434.1
400.458	417.83
400.837	424.16
401.215	451.05
401.594	432.52
401.972	430.48
402.351	441.78
402.729	427.09
403.107	458.5
403.486	464.15
403.864	462.12
404.242	460.31
404.62	458.5
404.999	455.34
405.377	467.54
405.755	476.13
406.133	484.49
406.511	479.3
406.889	467.77
407.267	482.91
407.645	493.08
408.023	496.02
408.401	473.19
408.779	510.93
409.156	486.75
409.534	494.44
409.912	512.97
410.29	518.16
410.667	519.29
411.045	527.2
411.422	528.56
411.8	531.05
412.178	522.46
412.555	532.18
412.933	552.29
413.31	532.18
413.687	537.6
414.065	563.36
414.442	572.63
414.819	579.63
415.197	569.01
415.574	570.37
415.951	583.93
416.328	555.9
416.705	582.12
417.082	577.6
417.46	563.13
417.837	602.68
418.214	591.16
418.591	606.07
418.967	636.58
419.344	623.25
419.721	638.39
420.098	642
420.475	632.74
420.852	606.75
421.228	631.16
421.605	639.52
421.982	652.85
422.358	680.19
422.735	638.61
423.111	679.97
423.488	661.66
423.864	670.02
424.241	680.65
424.617	649.23
424.994	675.45
425.37	652.85
425.746	670.48
426.123	700.08
426.499	682.23
426.875	693.98
427.251	720.19
427.627	736.01
428.003	708.22
428.379	733.75
428.756	709.35
429.132	718.84
429.507	703.92
429.883	737.82
430.259	737.82
430.635	750.25
431.011	780.3
431.387	781.66
431.763	799.74
432.138	776.91
432.514	796.8
432.89	781.89
433.265	797.93
433.641	816.24
434.016	809.23
434.392	812.17
434.767	797.93
435.143	860.75
435.518	861.43
435.894	869.79
436.269	883.13
436.644	866.18
437.02	857.59
437.395	893.07
437.77	872.05
438.145	895.56
438.52	876.12
438.895	895.78
439.271	889.23
439.646	908.21
440.021	946.85
440.395	916.57
440.77	923.35
441.145	943.69
441.52	961.77
441.895	947.98
442.27	910.24
442.645	936.91
443.019	966.74
443.394	933.52
443.769	989.56
444.143	942.11
444.518	974.88
444.892	987.08
445.267	968.32
445.641	1014.87
446.016	1004.48
446.39	992.28
446.764	941.88
447.139	957.25
447.513	969.23
447.887	995.89
448.262	1001.32
448.636	984.82
449.01	1030.02
449.384	1021.2
449.758	1061.43
450.132	1068.43
450.506	1058.72
450.88	1069.56
451.254	1047.19
451.628	1066.62
452.002	1024.14
452.376	1030.02
452.75	1043.57
453.123	1075.21
453.497	1067.3
453.871	1107.75
454.244	1152.95
454.618	1110.69
454.992	1137.13
455.365	1160.18
455.739	1164.02
456.112	1162.44
456.486	1129.9
456.859	1119.05
457.232	1143.46
457.606	1103.91
457.979	1143.91
458.352	1161.76
458.725	1181.2
459.099	1202.44
459.472	1241.31
459.845	1237.92
460.218	1274.53
460.591	1233.63
460.964	1225.04
461.337	1244.47
461.71	1236.11
462.083	1227.3
462.456	1228.2
462.829	1239.95
463.201	1274.75
463.574	1285.6
463.947	1304.58
464.32	1356.56
464.692	1330.8
465.065	1376.67
465.438	1393.62
465.81	1385.71
466.183	1411.25
466.555	1384.36
466.928	1363.34
467.3	1363.57
467.672	1367.86
468.045	1405.15
468.417	1403.79
468.789	1430.23
469.161	1437.24
469.534	1504.58
469.906	1550.68
470.278	1561.3
470.65	1551.81
471.022	1597.68
471.394	1572.6
471.766	1548.19
472.138	1579.83
472.51	1545.48
472.882	1548.19
473.253	1533.5
473.625	1621.41
473.997	1614.86
474.369	1669.55
474.74	1717
475.112	1752.71
475.484	1800.16
475.855	1843.55
476.227	1809.2
476.598	1869.09
476.97	1820.28
477.341	1833.38
477.713	1832.48
478.084	1797.45
478.455	1837.68
478.827	1851.24
479.198	1945.47
479.569	1936.43
479.94	2014.62
480.311	2073.15
480.682	2117.67
481.053	2197.22
481.424	2226.82
481.795	2204.9
482.166	2211
482.537	2232.47
482.908	2231.34
483.279	2228.4
483.65	2205.8
484.021	2241.51
484.391	2291.23
484.762	2300.49
485.133	2385.91
485.503	2487.15
485.874	2533.03
486.244	2598.79
486.615	2682.4
486.985	2680.14
487.356	2686.47
487.726	2718.11
488.097	2711.78
488.467	2658.9
488.837	2694.83
489.207	2688.5
489.578	2696.19
489.948	2736.41
490.318	2772.79
490.688	2828.39
491.058	2901.15
491.428	3009.17
491.798	3070.41
492.168	3140.69
492.538	3193.8
492.908	3210.75
493.278	3224.76
493.648	3171.88
494.017	3194.03
494.387	3136.85
494.757	3144.54
495.126	3134.82
495.496	3133.24
495.866	3148.15
496.235	3226.79
496.605	3292.78
496.974	3362.61
497.344	3451.65
497.713	3490.06
498.082	3556.28
498.452	3603.51
498.821	3655.93
499.19	3645.54
499.559	3621.81
499.928	3575.94
500.298	3496.17
500.667	3493.23
501.036	3429.95
501.405	3441.48
501.774	3447.13
502.143	3493
502.512	3575.03
502.88	3660.91
503.249	3696.84
503.618	3796.27
503.987	3861.81
504.356	3937.06
504.724	3918.75
505.093	3981.8
505.462	3904.52
505.83	3870.62
506.199	3795.59
506.567	3814.35
506.936	3746.55
507.304	3740.9
507.672	3701.58
508.041	3789.04
508.409	3773.9
508.777	3853.44
509.145	3931.41
509.514	4029.94
509.882	4072.42
510.25	4069.94
510.618	4175.24
510.986	4217.5
511.354	4201.23
511.722	4220.44
512.09	4151.29
512.458	4071.74
512.826	4030.39
513.193	3914.46
513.561	3915.14
513.929	3923.5
514.297	3903.39
514.664	3984.97
515.032	4031.52
515.4	4117.62
515.767	4208.69
516.135	4337.27
516.502	4307.44
516.869	4443.48
517.237	4491.39
517.604	4470.38
517.972	4485.29
518.339	4420.66
518.706	4346.99
519.073	4276.71
519.44	4175.24
519.808	4161.01
520.175	4107.45
520.542	4141.35
520.909	4169.37
521.276	4180.89
521.643	4266.54
522.009	4382.24
522.376	4553.54
522.743	4646.64
523.11	4675.8
523.477	4783.81
523.843	4792.85
524.21	4805.28
524.577	4822.23
524.943	4782.23
525.31	4690.71
525.676	4639.86
526.043	4626.3
526.409	4555.35
526.776	4509.92
527.142	4540.88
527.508	4528.91
527.874	4609.58
528.241	4748.79
528.607	4784.72
528.973	4971.61
529.339	5062.45
529.705	5196.01
530.071	5346.96
530.437	5373.4
530.803	5380.86
531.169	5374.76
531.535	5380.18
531.901	5225.16
532.267	5166.4
532.632	5123.69
532.998	5088.67
533.364	5043.02
533.73	5047.54
534.095	5068.55
534.461	5087.31
534.826	5186.74
535.192	5290.92
535.557	5439.84
535.923	5548.77
536.288	5675.09
536.653	5797.57
537.019	5811.58
537.384	5966.61
537.749	5974.74
538.114	5931.13
538.479	5897.01
538.845	5849.55
539.21	5754.86
539.575	5631.7
539.94	5621.08
540.305	5559.84
540.67	5520.29
541.034	5526.85
541.399	5558.48
541.764	5686.16
542.129	5695.66
542.494	5925.48
542.858	6072.37
543.223	6139.26
543.587	6296.54
543.952	6386.48
544.316	6422.19
544.681	6509.65
545.045	6482.08
545.41	6497.22
545.774	6429.87
546.138	6322.53
546.503	6269.88
546.867	6136.1
547.231	6085.48
547.595	6063.33
547.959	6002.54
548.324	5954.63
548.688	5971.35
549.052	6101.07
549.416	6151.01
549.779	6308.75
550.143	6435.97
550.507	6555.97
550.871	6666.03
551.235	6769.98
551.599	6885.91
551.962	6876.87
552.326	6820.82
552.689	6829.64
553.053	6707.61
553.417	6663.99
553.78	6634.84
554.143	6494.05
554.507	6466.93
554.87	6358.46
555.234	6280.5
555.597	6255.41
555.96	6238.47
556.323	6276.43
556.686	6345.58
557.05	6559.14
557.413	6638.91
557.776	6845.91
558.139	7029.63
558.502	7035.06
558.865	7119.35
559.228	7223.98
559.59	7317.99
559.953	7247.25
560.316	7351.21
560.679	7253.13
561.041	7197.08
561.404	7023.3
561.767	6947.37
562.129	6781.73
562.492	6762.07
562.854	6653.82
563.217	6647.95
563.579	6622.41
563.941	6695.86
564.304	6865.57
564.666	6991.44
565.028	7089.97
565.39	7223.52
565.753	7416.97
566.115	7620.35
566.477	7687.92
566.839	7815.15
567.201	7882.49
567.563	7879.33
567.925	7782.15
568.287	7811.76
568.648	7669.84
569.01	7600.46
569.372	7515.27
569.734	7385.55
570.095	7322.05
570.457	7255.16
570.819	7198.89
571.18	7143.53
571.542	7223.98
571.903	7277.31
572.265	7413.12
572.626	7565.89
572.987	7775.37
573.349	7864.41
573.71	8118.19
574.071	8277.73
574.432	8475.24
574.794	8646.76
575.155	8749.36
575.516	8700.32
575.877	8797.72
576.238	8729.7
576.599	8800.66
576.96	8705.97
577.32	8670.72
577.681	8593.43
578.042	8587.1
578.403	8554.79
578.763	8526.99
579.124	8568.12
579.485	8670.27
579.845	8883.82
580.206	9093.53
580.566	9357.48
580.927	9663.69
581.287	9970.8
581.648	10262.54
582.008	10723.32
582.368	11079.47
582.728	11397.2
583.089	11636.74
583.449	11952.89
583.809	12256.16
584.169	12581.35
584.529	12725.3
584.889	13079.64
585.249	13252.52
585.609	13326.19
585.969	13653.64
586.329	13885.72
586.688	14134.08
587.048	14445.03
587.408	14639.15
587.768	15163.88
588.127	15481.61
588.487	16096.74
588.846	16668.47
589.206	17155.92
589.565	17772.63
589.925	18503
590.284	19068.64
590.643	19750.43
591.003	20280.36
591.362	20982.49
591.721	21490.49
592.08	22025.85
592.44	22522.11
592.799	22941.53
593.158	23377.22
593.517	23838.46
593.876	24166.81
594.235	24579.9
594.593	25049.27
594.952	25415.59
595.311	25689.93
595.67	26137.6
596.029	26791.15
596.387	27319.72
596.746	27924.45
597.104	28318.34
597.463	28863.18
597.822	29610.73
598.18	30109.7
598.538	30782.68
598.897	31617.69
599.255	31850
599.613	33096.74
599.972	33323.18
600.33	33897.85
600.688	34306.88
601.046	34887.88
601.404	35403.8
601.762	35705.94
602.12	36264.12
602.478	36613.94
602.836	36828.17
603.194	36840.83
603.552	37276.07
603.91	37284.43
604.268	37954.02
604.625	37951.98
604.983	38436.72
605.341	38763.94
605.698	39370.93
606.056	39850.24
606.413	40158.7
606.771	40663.32
607.128	40997.33
607.485	41469.86
607.843	41909.39
608.2	42514.35
608.557	43009.93
608.914	43231.17
609.272	43836.35
609.629	44354.07
609.986	44621.86
610.343	44664.57
610.7	45098.24
611.057	45171.45
611.414	45321.05
611.771	45320.83
612.127	45480.6
612.484	45605.11
612.841	45705
613.198	45715.62
613.554	45773.7
613.911	46073.35
614.267	46229.96
614.624	46328.26
614.98	46479.44
615.337	46902.03
615.693	47052.08
616.05	47224.51
616.406	47818.39
616.762	47942.23
617.118	48015.22
617.475	48424.7
617.831	48681.42
618.187	48993.95
618.543	49118.24
618.899	49392.81
619.255	49334.73
619.611	49504.22
619.967	49754.38
620.323	49816.08
620.678	49542.41
621.034	49545.58
621.39	49535.63
621.746	49459.7
622.101	49728.62
622.457	49303.77
622.812	49290.44
623.168	49569.08
623.523	49545.35
623.879	49710.77
624.234	49473.94
624.589	49742.86
624.945	49989.18
625.3	50005
625.655	50069.18
626.01	50289.29
626.365	50461.48
626.72	50491.54
627.075	50574.7
627.43	50710.74
627.785	50820.57
628.14	50962.94
628.495	51116.83
628.85	51047.91
629.205	50959.55
629.559	51235.93
629.914	51004.97
630.269	50976.05
630.623	50817.18
630.978	50703.96
631.332	50764.3
631.687	50604.98
632.041	50472.78
632.396	50459.9
632.75	50327.48
633.104	50310.75
633.459	50129.52
633.813	50208.16
634.167	50252.45
634.521	50237.76
634.875	50349.4
635.229	50418.55
635.583	50403.41
635.937	50510.07
636.291	50488.6
636.645	50657.86
636.999	50682.04
637.352	50771.53
637.706	50687.69
638.06	50882.72
638.413	50751.19
638.767	50750.52
639.121	50847.91
639.474	50510.75
639.828	50594.81
640.181	50596.62
640.534	50534.48
640.888	50221.94
641.241	50121.38
641.594	49970.88
641.947	50021.04
642.301	49926.36
642.654	49800.71
643.007	49805.68
643.36	49625.8
643.713	49609.53
644.066	49741.73
644.419	49593.03
644.771	49380.38
645.124	49015.87
645.477	49054.74
645.83	48885.71
646.182	49010.45
646.535	48974.74
646.888	49173.61
647.24	48949.43
647.593	49312.14
647.945	49212.48
648.298	49183.78
648.65	49081.86
649.002	49100.16
649.355	49284.79
649.707	48991.24
650.059	49046.38
650.411	49467.61
650.763	49482.98
651.115	49714.61
651.467	49384.68
651.819	49322.53
652.171	49078.02
652.523	49034.4
652.875	48956.66
653.227	48746.95
653.578	48876.89
653.93	48788.53
654.282	48689.1
654.633	48573.85
654.985	48674.64
655.337	48621.08
655.688	48812.94
656.039	49113.27
656.391	48734.52
656.742	48769.33
657.094	49065.81
657.445	49272.36
657.796	49238.69
658.147	49310.33
658.498	49428.52
658.849	49413.83
659.2	49468.52
659.551	49270.78
659.902	49406.14
660.253	49330.89
660.604	49286.83
660.955	49154.4
661.306	49109.66
661.656	48876.21
662.007	48862.2
662.358	48694.3
662.708	48615.43
663.059	48495.89
663.409	48095.67
663.76	48459.28
664.11	48354.65
664.461	48317.36
664.811	48376.79
665.161	48225.38
665.511	48182.67
665.862	48224.48
666.212	48352.61
666.562	48461.99
666.912	48599.61
667.262	48502.44
667.612	48477.58
667.962	48702.43
668.312	48695.2
668.662	48892.03
669.011	48828.98
669.361	48887.29
669.711	48953.73
670.06	48896.1
670.41	48763.68
670.76	48667.63
671.109	48790.12
671.459	48618.82
671.808	48473.29
672.157	48591.25
672.507	48177.7
672.856	48155.33
673.205	48078.04
673.554	48149
673.904	47847.77
674.253	48119.17
674.602	47791.95
674.951	47171.63
675.3	46962.82
675.649	47605.06
675.998	47493.88
676.346	47494.56
676.695	47615.68
677.044	47453.88
677.393	47566.64
677.741	47760.09
678.09	47745.62
678.438	47707.88
678.787	47815.68
679.135	47910.14
679.484	47719.64
679.832	47895.45
680.181	47831.72
680.529	47966.18
680.877	47838.73
681.225	47781.78
681.573	48013.19
681.922	47880.08
682.27	47744.95
682.618	47588.11
682.966	47622.69
683.314	47523.26
683.661	47292.53
684.009	47094.79
684.357	46940.67
684.705	46706.1
685.053	46650.06
685.4	46483.74
685.748	46266.79
686.095	46201.71
686.443	45909.06
686.79	45976.4
687.138	46011.66
687.485	45888.5
687.832	45773.25
688.18	45844.2
688.527	45672.46
688.874	45683.3
689.221	45600.37
689.568	45727.6
689.915	45551.33
690.262	45728.5
690.609	45688.28
690.956	45697.77
691.303	45676.75
691.65	45719.69
691.997	45685.34
692.344	45503.87
692.69	45516.76
693.037	45618.45
693.383	45170.55
693.73	45374.39
694.077	45043.77
694.423	45001.29
694.769	44773.5
695.116	44583.22
695.462	44419.61
695.808	44319.27
696.155	44163.12
696.501	43886.52
696.847	43749.8
697.193	43310.71
697.539	43398.39
697.885	43056.48
698.231	42788.24
698.577	42875.47
698.923	42784.85
699.269	42482.03
699.614	42374.01
699.96	42349.15
700.306	42369.27
700.651	42317.74
700.997	42147.13
701.342	42165.43
701.688	42287.24
702.033	42226.22
702.379	42291.76
702.724	42240.46
703.069	42285.2
703.415	42051.54
703.76	42110.97
704.105	42228.03
704.45	42098.54
704.795	41953.01
705.14	41882.05
705.485	41781.71
705.83	41735.61
706.175	41697.65
706.52	41484.32
706.865	41295.17
707.209	41193.93
707.554	40890.44
707.899	40903.77
708.243	40604.12
708.588	40467.85
708.932	40123.9
709.277	40085.26
709.621	39976.56
709.966	39689.79
710.31	39645.95
710.654	39267.2
710.998	39288.9
711.342	39349.01
711.687	39211.16
712.031	39038.73
712.375	39020.88
712.719	39156.02
713.063	39017.49
713.407	39202.34
713.75	39048.22
714.094	39220.88
714.438	38954.44
714.782	39068.34
715.125	38960.54
715.469	39239.86
715.812	39078.51
716.156	39053.65
716.499	39070.6
716.843	39107.43
717.186	38971.39
717.53	39216.13
717.873	39108.79
718.216	38930.04
718.559	38775.69
718.902	38433.1
719.246	38612.08
719.589	38303.16
719.932	38198.08
720.275	38081.47
720.617	37887.58
720.96	37773
721.303	37708.82
721.646	37601.48
721.989	37288.95
722.331	37266.35
722.674	37181.61
723.016	37049.86
723.359	37020.48
723.701	36845.34
724.044	36544.11
724.386	36455.75
724.729	36608.06
725.071	36615.29
725.413	36593.15
725.755	36610.1
726.097	36616.42
726.439	36483.77
726.782	36484
727.124	36633.6
727.465	36493.26
727.807	36505.92
728.149	36531.45
728.491	36475.86
728.833	36636.76
729.175	36591.79
729.516	36593.15
729.858	36485.13
730.199	36576.88
730.541	36575.07
730.882	36492.36
731.224	36526.71
731.565	36213.5
731.906	36266.6
732.248	36291.24
732.589	36025.25
732.93	35889.89
733.271	35786.16
733.612	35682.21
733.953	35699.61
734.294	35290.13
734.635	35166.29
734.976	35285.61
735.317	34840.65
735.658	34850.37
735.999	34900.76
736.339	34740.32
736.68	34855.11
737.021	34564.05
737.361	34536.03
737.702	34517.27
738.042	34484.28
738.383	34416.03
738.723	34507.78
739.063	34336.94
739.404	34515.69
739.744	34449.48
740.084	34433.88
740.424	34414.9
740.764	34523.82
741.104	34557.95
741.444	34454.9
741.784	34566.76
742.124	34579.42
742.464	34559.3
742.804	34618.74
743.143	34635.23
743.483	34607.89
743.823	34422.81
744.162	34494.45
744.502	34422.81
744.841	34279.54
745.181	34419.42
745.52	34237.28
745.86	34329.03
746.199	34065.76
746.538	33875.48
746.877	34051.07
747.216	33844.29
747.556	33643.85
747.895	33475.04
748.234	33381.71
748.573	33253.8
748.911	33003.41
749.25	32991.43
749.589	32768.39
749.928	32967.93
750.267	32765
750.605	32640.94
750.944	32477.32
751.283	32493.14
751.621	32425.8
751.96	32226.03
752.298	32252.02
752.636	32275.97
752.975	32193.49
753.313	32151.91
753.651	32386.03
753.989	32013.61
754.327	32200.5
754.666	32045.47
755.004	32178.12
755.342	32182.19
755.679	32277.56
756.017	31950.11
756.355	32253.15
756.693	32122.98
757.031	32063.55
757.368	31999.6
757.706	31931.12
758.044	31955.08
758.381	31847.28
758.719	31821.07
759.056	31749.89
759.394	31557.8
759.731	31412.04
760.068	31310.35
760.405	31150.58
