Data from red_shiny_book_FLMS001491_00030.txt Node
Date: Wed Feb 08 15:24:39 GMT 2017
User: dcchb
Spectrometer: FLMS00149
Trigger mode: 0
Integration Time (sec): 2.000000E-2
Scans to average: 10
Electric dark correction enabled: true
Nonlinearity correction enabled: false
Boxcar width: 0
XAxis mode: Wavelengths
Number of Pixels in Spectrum: 2048
>>>>>Begin Spectral Data<<<<<
341.393	-20.44
341.776	-20.44
342.16	-20.44
342.543	-67.67
342.927	-74.22
343.31	-97.05
343.693	-57.72
344.077	-65.63
344.46	-73.09
344.843	-44.62
345.226	-39.87
345.61	-25.63
345.993	-6.88
346.376	-5.52
346.759	13.69
347.142	12.56
347.525	44.42
347.908	60.46
348.291	67.02
348.674	121.03
349.057	96.85
349.44	114.02
349.823	133.91
350.206	167.35
350.588	217.3
350.971	224.98
351.354	221.36
351.737	239.89
352.119	264.98
352.502	269.05
352.884	286.67
353.267	280.8
353.65	297.97
354.032	291.64
354.414	309.95
354.797	319.67
355.179	319.21
355.562	347.69
355.944	338.42
356.326	344.75
356.709	351.53
357.091	338.88
357.473	353.79
357.855	361.25
358.238	348.37
358.62	358.08
359.002	352.89
359.384	336.62
359.766	345.65
360.148	325.54
360.53	350.63
360.912	345.2
361.294	327.58
361.676	344.98
362.057	358.08
362.439	356.73
362.821	320.8
363.203	337.29
363.584	326.45
363.966	330.29
364.348	315.37
364.729	318.54
365.111	323.51
365.493	325.54
365.874	307.46
366.256	335.26
366.637	342.27
367.019	318.54
367.4	318.99
367.781	312.44
368.163	314.92
368.544	312.21
368.925	312.89
369.306	330.51
369.688	321.25
370.069	325.77
370.45	329.84
370.831	306.33
371.212	340.23
371.593	317.86
371.974	319.21
372.355	322.38
372.736	338.88
373.117	340.23
373.498	337.75
373.879	328.48
374.26	323.06
374.641	321.93
375.021	310.18
375.402	340.23
375.783	334.13
376.163	329.61
376.544	330.06
376.925	312.44
377.305	357.63
377.686	331.19
378.066	356.28
378.447	344.3
378.827	352.43
379.208	357.63
379.588	343.62
379.968	345.2
380.349	347.46
380.729	328.48
381.109	355.6
381.489	350.63
381.87	359.89
382.25	340.01
382.63	348.14
383.01	359.44
383.39	349.27
383.77	358.54
384.15	347.69
384.53	370.74
384.91	356.95
385.29	372.55
385.67	364.86
386.049	368.7
386.429	370.74
386.809	380
387.189	377.07
387.568	386.56
387.948	372.32
388.328	373.9
388.707	386.78
389.087	371.87
389.466	380.23
389.846	383.39
390.225	380.91
390.605	386.78
390.984	382.26
391.363	389.72
391.743	394.92
392.122	391.53
392.501	364.41
392.881	376.84
393.26	380.46
393.639	398.76
394.018	399.21
394.397	415.94
394.776	385.65
395.155	407.57
395.534	404.86
395.913	413.22
396.292	417.29
396.671	422.71
397.05	407.57
397.429	422.71
397.808	409.16
398.186	402.15
398.565	411.42
398.944	403.51
399.323	428.82
399.701	426.1
400.08	423.62
400.458	436.05
400.837	410.96
401.215	452.54
401.594	438.76
401.972	431.3
402.351	441.47
402.729	440.57
403.107	437.18
403.486	460.91
403.864	441.92
404.242	452.09
404.62	467.23
404.999	449.15
405.377	473.11
405.755	468.82
406.133	487.35
406.511	456.16
406.889	447.12
407.267	478.08
407.645	471.08
408.023	471.3
408.401	466.33
408.779	508.59
409.156	498.87
409.534	509.94
409.912	504.52
410.29	512.2
410.667	500.68
411.045	496.39
411.422	529.83
411.8	545.65
412.178	537.06
412.555	547.01
412.933	551.98
413.31	561.02
413.687	549.04
414.065	572.99
414.442	565.31
414.819	575.25
415.197	588.13
415.574	580.68
415.951	614.8
416.328	605.53
416.705	583.61
417.082	603.05
417.46	593.56
417.837	610.51
418.214	608.02
418.591	631.3
418.967	599.66
419.344	641.47
419.721	653.22
420.098	643.95
420.475	660
420.852	658.19
421.228	654.12
421.605	650.51
421.982	662.48
422.358	668.81
422.735	672.88
423.111	674.01
423.488	668.36
423.864	712.88
424.241	688.7
424.617	711.29
424.994	702.71
425.37	705.65
425.746	701.8
426.123	718.07
426.499	716.49
426.875	726.21
427.251	725.53
427.627	738.19
428.003	756.04
428.379	779.32
428.756	768.47
429.132	779.77
429.507	799.88
429.883	814.57
430.259	794
430.635	810.28
431.011	768.24
431.387	798.98
431.763	841.69
432.138	851.86
432.514	831.97
432.89	829.94
433.265	879.88
433.641	859.09
434.016	894.11
434.392	871.52
434.767	905.41
435.143	902.25
435.518	869.48
435.894	871.52
436.269	897.28
436.644	903.61
437.02	932.98
437.395	959.88
437.77	997.84
438.145	1001.23
438.52	975.24
438.895	980.89
439.271	983.38
439.646	990.38
440.021	982.02
440.395	957.84
440.77	989.48
441.145	1003.49
441.52	1020.21
441.895	1007.11
442.27	1062.25
442.645	1044.85
443.019	1057.95
443.394	1026.99
443.769	1038.07
444.143	1025.64
444.518	1060.44
444.892	1051.62
445.267	1032.87
445.641	1046.2
446.016	1076.93
446.39	1110.61
446.764	1132.75
447.139	1147.44
447.513	1148.35
447.887	1118.97
448.262	1131.62
448.636	1115.35
449.01	1135.92
449.384	1102.7
449.758	1090.27
450.132	1150.83
450.506	1158.06
450.88	1152.87
451.254	1165.07
451.628	1214.56
452.002	1214.56
452.376	1218.85
452.75	1257.5
453.123	1220.89
453.497	1206.42
453.871	1176.37
454.244	1198.29
454.618	1234.9
454.992	1246.42
455.365	1238.06
455.739	1308.34
456.112	1316.93
456.486	1346.53
456.859	1360.09
457.232	1364.84
457.606	1337.95
457.979	1336.36
458.352	1342.01
458.725	1302.92
459.099	1323.26
459.472	1313.76
459.845	1371.84
460.218	1388.79
460.591	1400.32
460.964	1447.32
461.337	1483.93
461.71	1499.97
462.083	1524.38
462.456	1509.24
462.829	1497.94
463.201	1489.35
463.574	1474.44
463.947	1462.46
464.32	1453.2
464.692	1473.53
465.065	1504.04
465.438	1534.1
465.81	1591.5
466.183	1626.53
466.555	1707.88
466.928	1704.72
467.3	1700.42
467.672	1711.95
468.045	1703.36
468.417	1697.71
468.789	1677.15
469.161	1635.79
469.534	1700.2
469.906	1701.55
470.278	1738.61
470.65	1735.67
471.022	1831.72
471.394	1899.06
471.766	1941.32
472.138	1958.27
472.51	2012.73
472.882	2030.81
473.253	2014.99
473.625	1983.8
473.997	1970.7
474.369	1958.49
474.74	1959.62
475.112	1966.86
475.484	2059.96
475.855	2085.95
476.227	2171.37
476.598	2232.38
476.97	2292.5
477.341	2363.68
477.713	2394.41
478.084	2384.7
478.455	2409.33
478.827	2407.52
479.198	2385.15
479.569	2393.74
479.94	2391.48
480.311	2372.04
480.682	2453.17
481.053	2541.53
481.424	2599.61
481.795	2696.55
482.166	2779.26
482.537	2855.65
482.908	2909.66
483.279	3021.29
483.65	3019.48
484.021	3017.22
484.391	2985.13
484.762	2953.95
485.133	2946.04
485.503	2918.24
485.874	2944.46
486.244	2971.35
486.615	3064.91
486.985	3198.24
487.356	3329.31
487.726	3380.6
488.097	3555.51
488.467	3592.35
488.837	3667.6
489.207	3688.62
489.578	3740.37
489.948	3700.14
490.318	3642.07
490.688	3585.8
491.058	3585.34
491.428	3580.37
491.798	3595.74
492.168	3720.71
492.538	3738.33
492.908	3926.8
493.278	4015.61
493.648	4131.09
494.017	4265.33
494.387	4342.16
494.757	4373.57
495.126	4344.19
495.496	4359.79
495.866	4237.08
496.235	4206.34
496.605	4178.1
496.974	4134.26
497.344	4076.18
497.713	4153.92
498.082	4181.71
498.452	4339.9
498.821	4461.03
499.19	4551.42
499.559	4684.98
499.928	4802.26
500.298	4849.49
500.667	4919.55
501.036	4891.07
501.405	4856.27
501.774	4777.4
502.143	4672.09
502.512	4605.43
502.88	4546.22
503.249	4513.23
503.618	4546
503.987	4607.46
504.356	4708.7
504.724	4808.14
505.093	4887
505.462	5063.95
505.83	5182.59
506.199	5294.9
506.567	5366.54
506.936	5329.03
507.304	5322.93
507.672	5263.04
508.041	5204.06
508.409	5073.21
508.777	4996.15
509.145	4921.81
509.514	4922.48
509.882	4898.3
510.25	4997.28
510.618	5087
510.986	5158.64
511.354	5373.77
511.722	5568.12
512.09	5671.16
512.458	5727.66
512.826	5762.24
513.193	5845.17
513.561	5733.76
513.929	5681.56
514.297	5623.26
514.664	5493.99
515.032	5416.03
515.4	5324.28
515.767	5279.54
516.135	5308.69
516.502	5252.19
516.869	5410.38
517.237	5540.55
517.604	5702.35
517.972	5950.93
518.339	6063.7
518.706	6142.34
519.073	6234.09
519.44	6268.44
519.808	6317.48
520.175	6145.05
520.542	6165.84
520.909	6029.12
521.276	5876.13
521.643	5774.21
522.009	5703.25
522.376	5699.41
522.743	5706.87
523.11	5801.33
523.477	5903.47
523.843	6091.49
524.21	6316.12
524.577	6505.04
524.943	6629.78
525.31	6811.25
525.676	6957.68
526.043	6990.23
526.409	7025.25
526.776	6977.8
527.142	6804.69
527.508	6752.04
527.874	6633.4
528.241	6496.23
528.607	6366.51
528.973	6395.89
529.339	6405.38
529.705	6487.41
530.071	6611.93
530.437	6772.83
530.803	6935.99
531.169	7179.6
531.535	7317.22
531.901	7534.39
532.267	7652.81
532.632	7789.75
532.998	7860.71
533.364	7839.69
533.73	7653.03
534.095	7641.73
534.461	7432.02
534.826	7270.67
535.192	7196.55
535.557	7114.29
535.923	7045.82
536.288	7101.18
536.653	7262.76
537.019	7317.67
537.384	7524.9
537.749	7727.61
538.114	7973.7
538.479	8153.13
538.845	8368.04
539.21	8432.45
539.575	8508.15
539.94	8594.7
540.305	8515.16
540.67	8364.88
541.034	8276.97
541.399	8124.43
541.764	7993.36
542.129	7849.64
542.494	7760.83
542.858	7704.33
543.223	7685.35
543.587	7723.77
543.952	7803.99
544.316	8130.99
544.681	8212.11
545.045	8457.98
545.41	8744.53
545.774	8877.41
546.138	9017.52
546.503	9156.95
546.867	9234.69
547.231	9246.44
547.595	9109.72
547.959	9043.73
548.324	8850.06
548.688	8703.18
549.052	8507.93
549.416	8309.29
549.779	8271.55
550.143	8177.77
550.507	8159.69
550.871	8204.43
551.235	8296.18
551.599	8494.82
551.962	8671.31
552.326	8829.27
552.689	9127.8
553.053	9284.85
553.417	9462.7
553.78	9678.97
554.143	9608.46
554.507	9775.46
554.87	9605.52
555.234	9596.48
555.597	9356.49
555.96	9129.6
556.323	8994.69
556.686	8780.69
557.05	8659.56
557.413	8583.18
557.776	8556.29
558.139	8594.03
558.502	8702.27
558.865	8852.55
559.228	9010.51
559.59	9207.79
559.953	9457.05
560.316	9745.63
560.679	9924.61
561.041	10103.59
561.404	10217.94
561.767	10274.43
562.129	10266.98
562.492	10255.68
562.854	10059.75
563.217	9879.42
563.579	9686.65
563.941	9420.9
564.304	9344.29
564.666	9253.67
565.028	9147.46
565.39	9095.26
565.753	9125.99
566.115	9258.64
566.477	9419.31
566.839	9583.83
567.201	9820.21
567.563	9989.24
567.925	10343.13
568.287	10540.19
568.648	10713.52
569.01	10855.21
569.372	11023.57
569.734	10992.83
570.095	10957.35
570.457	10841.2
570.819	10772.73
571.18	10579.51
571.542	10397.14
571.903	10211.16
572.265	10097.94
572.626	9946.53
572.987	9793.32
573.349	9810.49
573.71	9887.1
574.071	9996.7
574.432	10166.19
574.794	10483.47
575.155	10759.39
575.516	10926.39
575.877	11361.18
576.238	11600.73
576.599	11794.39
576.96	12009.75
577.32	12193.93
577.681	12381.72
578.042	12411.55
578.403	12279.35
578.763	12233.48
579.124	12194.16
579.485	12153.71
579.845	12048.85
580.206	11848.18
580.566	11813.6
580.927	11898.8
581.287	11977.67
581.648	12058.79
582.008	12384.89
582.368	12802.95
582.728	13164.3
583.089	13413.79
583.449	14017.39
583.809	14639.74
584.169	15083.8
584.529	15525.37
584.889	16183.2
585.249	16591.56
585.609	17040.81
585.969	17416.17
586.329	17685.99
586.688	17939.54
587.048	18250.49
587.408	18361.68
587.768	18546.76
588.127	18794.44
588.487	18966.63
588.846	19432.38
589.206	19593.51
589.565	19926.61
589.925	20472.13
590.284	20864.66
590.643	21440.02
591.003	22074.8
591.362	22849.7
591.721	23441.09
592.08	24194.29
592.44	24949.75
592.799	25756.74
593.158	26474.01
593.517	26951.73
593.876	27767.08
594.235	28344.92
594.593	28908.97
594.952	29308.28
595.311	29579.01
595.67	29971.54
596.029	30216.51
596.387	30625.99
596.746	30878.64
597.104	31046.54
597.463	31401.34
597.822	31953.86
598.18	32163.12
598.538	32557.24
598.897	33404.9
599.255	33643.99
599.613	34690.51
599.972	35036.27
600.33	35826.76
600.688	36339.28
601.046	37153.05
601.404	37938.34
601.762	38563.63
602.12	39232.77
602.478	39722.7
602.836	40503.02
603.194	40521.77
603.552	40977.58
603.91	41090.8
604.268	41562.65
604.625	41621.63
604.983	41919.25
605.341	41831.12
605.698	42185.23
606.056	42485.11
606.413	42550.19
606.771	42721.49
607.128	43057.3
607.485	43196.73
607.843	43458.19
608.2	44056.6
608.557	44519.18
608.914	44754.43
609.272	45417.69
609.629	45824.68
609.986	46540.6
610.343	46734.72
610.7	47465.55
611.057	47677.52
611.414	47897.4
611.771	48239.08
612.127	48454.45
612.484	48679.98
612.841	48785.29
613.198	48694.44
613.554	48835.45
613.911	48936.69
614.267	48812.85
614.624	48776.47
614.98	48886.53
615.337	49105.5
615.693	49085.39
616.05	48909.58
616.406	49216.01
616.762	49128.78
617.118	49350.92
617.475	49595.89
617.831	49793.62
618.187	50048.98
618.543	50247.17
618.899	50747.49
619.255	50883.99
619.611	51034.94
619.967	51335.73
620.323	51600.35
620.678	51641.48
621.034	51615.04
621.39	51817.07
621.746	51803.06
622.101	52164.18
622.457	51835.83
622.812	51870.85
623.168	51875.15
623.523	51795.6
623.879	51827.92
624.234	51544.76
624.589	51565.78
624.945	51522.61
625.3	51595.38
625.655	51489.39
626.01	51601.71
626.365	51553.12
626.72	51518.55
627.075	51613.01
627.43	51732.55
627.785	51862.04
628.14	52048.02
628.495	52253.67
628.85	52349.03
629.205	52446.88
629.559	52728.46
629.914	52588.57
630.269	52770.94
630.623	52803.71
630.978	52826.53
631.332	52928.9
631.687	52805.52
632.041	52763.03
632.396	52613.21
632.75	52465.41
633.104	52509.03
633.459	52184.97
633.813	52100.9
634.167	52003.96
634.521	51888.25
634.875	51912.89
635.229	51758.77
635.583	51578.88
635.937	51622.05
636.291	51657.07
636.645	51650.52
636.999	51627.47
637.352	51849.84
637.706	51794.02
638.06	52138.87
638.413	52045.09
638.767	52069.04
639.121	52320.79
639.474	52245.53
639.828	52285.98
640.181	52431.52
640.534	52524.62
640.888	52468.35
641.241	52280.11
641.594	52324.85
641.947	52353.33
642.301	52157.17
642.654	52121.69
643.007	51901.81
643.36	51825.43
643.713	51552.9
644.066	51542.27
644.419	51213.47
644.771	50903.65
645.124	50553.6
645.477	50443.77
645.83	50192.03
646.182	50033.16
646.535	49980.06
646.888	50111.58
647.24	49931.24
647.593	50322.42
647.945	50267.73
648.298	50308.63
648.65	50353.83
649.002	50482.87
649.355	50655.07
649.707	50741.62
650.059	50895.06
650.411	51358.1
650.763	51524.2
651.115	51819.33
651.467	51571.88
651.819	51581.82
652.171	51451.43
652.523	51302.51
652.875	51265.9
653.227	50894.16
653.578	51092.34
653.93	50897.09
654.282	50529.42
654.633	50445.81
654.985	50319.48
655.337	50312.25
655.688	50220.5
656.039	50296.21
656.391	49977.8
656.742	50004.24
657.094	50193.38
657.445	50315.64
657.796	50327.84
658.147	50254.4
658.498	50396.32
658.849	50688.06
659.2	50712.92
659.551	50620.49
659.902	50900.48
660.253	50882.86
660.604	51052.8
660.955	50968.28
661.306	51083.98
661.656	50975.51
662.007	51009.86
662.358	51016.86
662.708	50967.83
663.059	50825.23
663.409	50590.21
663.76	50672.02
664.11	50506.37
664.461	50391.8
664.811	50238.58
665.161	50178.47
665.511	49820.29
665.862	49745.26
666.212	49867.06
666.562	49642.21
666.912	49663.68
667.262	49511.14
667.612	49585.72
667.962	49689.22
668.312	49730.57
668.662	49837.01
669.011	49931.92
669.361	50095.08
669.711	50051.24
670.06	50268.41
670.41	50279.94
670.76	50249.43
671.109	50484.68
671.459	50641.73
671.808	50579.81
672.157	50754.95
672.507	50499.14
672.856	50384.57
673.205	50432.93
673.554	50538.23
673.904	50305.25
674.253	50503.66
674.602	50097.57
674.951	49592.72
675.3	49271.15
675.649	49656.45
675.998	49470.69
676.346	49383.69
676.695	49445.15
677.044	48955.45
677.393	49120.64
677.741	49076.58
678.09	49010.36
678.438	48791.84
678.787	48853.76
679.135	48857.37
679.484	48724.27
679.832	48938.05
680.181	48880.42
680.529	49085.39
680.877	49048.1
681.225	49124.03
681.573	49411.48
681.922	49335.1
682.27	49318.6
682.618	49505.49
682.966	49458.71
683.314	49498.49
683.661	49515.66
684.009	49357.02
684.357	49197.7
684.705	49135.56
685.053	49121.1
685.4	48964.49
685.748	48707.32
686.095	48650.83
686.443	48377.16
686.79	48058.3
687.138	48147.34
687.485	48002.71
687.832	47710.51
688.18	47616.95
688.527	47465.77
688.874	47123.86
689.221	47106.91
689.568	46949.4
689.915	46833.47
690.262	46826.92
690.609	46706.47
690.956	46577.89
691.303	46789.63
691.65	46744.66
691.997	46734.04
692.344	46666.47
692.69	46801.61
693.037	46887.03
693.383	46741.72
693.73	47003.86
694.077	46912.11
694.423	47060.13
694.769	46885.67
695.116	46973.13
695.462	46795.05
695.808	46664.89
696.155	46739.69
696.501	46337.44
696.847	46312.81
697.193	45878.47
697.539	45963.44
697.885	45553.96
698.231	45363.68
698.577	45242.1
698.923	44989.45
699.269	44639.63
699.614	44383.82
699.96	44189.47
700.306	44139.98
700.651	43850.95
700.997	43710.39
701.342	43609.15
701.688	43420.68
702.033	43377.29
702.379	43361.02
702.724	43233.34
703.069	43451.41
703.415	43150.86
703.76	43229.95
704.105	43277.41
704.45	43354.47
704.795	43138.65
705.14	43398.99
705.485	43315.15
705.83	43265.88
706.175	43267.69
706.52	43310.17
706.865	43315.15
707.209	43346.78
707.554	43088.26
707.899	43207.8
708.243	43159.22
708.588	42965.33
708.932	42580.02
709.277	42577.99
709.621	42318.11
709.966	42151.79
710.31	42084.67
710.654	41502.76
710.998	41442.65
711.342	41345.71
711.687	41159.27
712.031	40935.77
712.375	40579.4
712.719	40580.76
713.063	40460.08
713.407	40598.61
713.75	40238.84
714.094	40299.18
714.438	40148.22
714.782	40215.57
715.125	39999.53
715.469	40141.67
715.812	40068.68
716.156	39956.59
716.499	40176.25
716.843	40308.67
717.186	40072.75
717.53	40346.41
717.873	40642.45
718.216	40578.5
718.559	40489.46
718.902	40200.2
719.246	40247.66
719.589	40204.95
719.932	40146.19
720.275	40267.54
720.617	40023.26
720.96	40053.09
721.303	40048.11
721.646	39946.65
721.989	39597.96
722.331	39626.43
722.674	39297.62
723.016	39205.2
723.359	39019.67
723.701	38952.32
724.044	38576.06
724.386	38364.32
724.729	38424.43
725.071	38068.96
725.413	38097.43
725.755	38005.46
726.097	37737.67
726.439	37556.43
726.782	37547.16
727.124	37604.79
727.465	37495.86
727.807	37429.65
728.149	37498.8
728.491	37463.1
728.833	37521.17
729.175	37509.88
729.516	37578.35
729.858	37732.47
730.199	37901.5
730.541	37791.68
730.882	37842.07
731.224	38068.28
731.565	37870.77
731.906	37810.21
732.248	38076.41
732.589	37862.18
732.93	37837.55
733.271	37750.55
733.612	37746.93
733.953	37806.14
734.294	37559.82
734.635	37353.72
734.976	37402.08
735.317	37126.38
735.658	37081.41
735.999	37053.39
736.339	36830.57
736.68	36734.3
737.021	36446.63
737.361	36175.67
737.702	36358.27
738.042	36084.6
738.383	35959.63
738.723	35916.47
739.063	35756.02
739.404	35642.35
739.744	35592.41
740.084	35379.99
740.424	35524.39
740.764	35470.38
741.104	35626.31
741.444	35360.33
741.784	35435.58
742.124	35492.53
742.464	35530.49
742.804	35455.01
743.143	35543.83
743.483	35481
743.823	35609.81
744.162	35777.72
744.502	35901.78
744.841	35832.41
745.181	35976.58
745.52	36005.96
745.86	35909.24
746.199	35863.36
746.538	35745.63
746.877	35911.95
747.216	35779.98
747.556	35688.68
747.895	35620.43
748.234	35375.47
748.573	35391.29
748.911	35192.87
749.25	35094.35
749.589	34805.54
749.928	34777.74
750.267	34584.53
750.605	34502.5
750.944	34335.27
751.283	34035.62
751.621	33933.02
751.96	33729.41
752.298	33587.72
752.636	33541.84
752.975	33370.78
753.313	33255.75
753.651	33321.51
753.989	33195.64
754.327	33015.3
754.666	32884.91
755.004	33042.87
755.342	33017.56
755.679	33134.17
756.017	32959.71
756.355	33089.43
756.693	32791.58
757.031	33117.45
757.368	33042.2
757.706	32972.82
758.044	33001.97
758.381	33179.82
758.719	33012.82
