Data from red_cardboard_box_FLMS001491_00008.txt Node
Date: Wed Feb 08 11:31:24 GMT 2017
User: dcchb
Spectrometer: FLMS00149
Trigger mode: 0
Integration Time (sec): 2.000000E-2
Scans to average: 10
Electric dark correction enabled: true
Nonlinearity correction enabled: false
Boxcar width: 0
XAxis mode: Wavelengths
Number of Pixels in Spectrum: 2048
>>>>>Begin Spectral Data<<<<<
341.393	-18.19
341.776	-18.19
342.16	-18.19
342.543	-30.85
342.927	-65.2
343.31	-82.37
343.693	-74.69
344.077	-65.42
344.46	-70.39
344.843	-57.29
345.226	-54.35
345.61	-23.62
345.993	-16.16
346.376	-23.16
346.759	44.18
347.142	31.98
347.525	46.89
347.908	70.85
348.291	59.09
348.674	93.67
349.057	120.79
349.44	118.98
349.823	142.48
350.206	165.53
350.588	197.17
350.971	213.89
351.354	223.61
351.737	227.9
352.119	267.68
352.502	271.97
352.884	292.76
353.267	281.01
353.65	266.09
354.032	321.69
354.414	315.58
354.797	307
355.179	324.17
355.562	317.17
355.944	328.69
356.326	302.03
356.709	335.92
357.091	345.64
357.473	335.7
357.855	354.68
358.238	332.31
358.62	346.32
359.002	328.24
359.384	364.85
359.766	356.94
360.148	337.73
360.53	348.13
360.912	330.05
361.294	338.86
361.676	340.67
362.057	343.61
362.439	357.17
362.821	328.47
363.203	340.67
363.584	314
363.966	318.97
364.348	314.23
364.729	303.38
365.111	324.4
365.493	309.03
365.874	323.04
366.256	323.95
366.637	304.06
367.019	304.51
367.4	335.25
367.781	303.38
368.163	337.96
368.544	310.16
368.925	318.75
369.306	318.97
369.688	304.96
370.069	323.49
370.45	311.07
370.831	328.47
371.212	324.62
371.593	304.51
371.974	315.36
372.355	307
372.736	323.04
373.117	320.33
373.498	292.99
373.879	335.25
374.26	315.36
374.641	308.35
375.021	319.2
375.402	318.75
375.783	322.82
376.163	328.01
376.544	331.4
376.925	312.65
377.305	314.68
377.686	327.34
378.066	331.18
378.447	332.08
378.827	326.21
379.208	325.53
379.588	330.27
379.968	344.74
380.349	326.88
380.729	332.31
381.109	343.15
381.489	351.74
381.87	336.83
382.25	323.72
382.63	340.44
383.01	349.93
383.39	326.66
383.77	351.06
384.15	339.09
384.53	333.89
384.91	328.69
385.29	347.9
385.67	342.93
386.049	354.91
386.429	327.79
386.809	350.61
387.189	336.6
387.568	348.35
387.948	364.85
388.328	340.44
388.707	342.7
389.087	338.86
389.466	356.94
389.846	350.84
390.225	344.96
390.605	346.77
390.984	360.78
391.363	366.21
391.743	346.09
392.122	357.84
392.501	368.01
392.881	371.18
393.26	359.65
393.639	364.62
394.018	363.49
394.397	381.57
394.776	385.41
395.155	373.44
395.534	355.13
395.913	376.37
396.292	374.11
396.671	374.57
397.05	371.4
397.429	366.88
397.808	374.57
398.186	369.82
398.565	363.27
398.944	378.18
399.323	376.6
399.701	399.65
400.08	366.43
400.458	391.74
400.837	397.84
401.215	366.88
401.594	376.6
401.972	376.83
402.351	392.87
402.729	392.65
403.107	384.28
403.486	379.31
403.864	369.59
404.242	408.24
404.62	395.36
404.999	387.9
405.377	406.43
405.755	406.88
406.133	379.31
406.511	386.32
406.889	414.11
407.267	382.48
407.645	402.36
408.023	397.62
408.401	431.29
408.779	413.44
409.156	417.28
409.534	409.59
409.912	433.32
410.29	404.4
410.667	414.34
411.045	413.89
411.422	425.19
411.8	442.14
412.178	419.54
412.555	429.48
412.933	418.86
413.31	425.64
413.687	456.6
414.065	433.77
414.442	429.93
414.819	417.5
415.197	459.31
415.574	447.56
415.951	458.63
416.328	438.75
416.705	426.77
417.082	461.8
417.46	452.76
417.837	464.28
418.214	464.73
418.591	454.11
418.967	436.49
419.344	466.99
419.721	469.71
420.098	452.76
420.475	480.78
420.852	460.89
421.228	483.94
421.605	461.8
421.982	494.56
422.358	462.47
422.735	479.42
423.111	482.59
423.488	478.07
423.864	489.59
424.241	482.36
424.617	496.6
424.994	500.44
425.37	490.5
425.746	498.63
426.123	494.56
426.499	485.75
426.875	505.86
427.251	521.91
427.627	504.96
428.003	497.95
428.379	532.98
428.756	485.3
429.132	539.08
429.507	514.9
429.883	543.38
430.259	546.77
430.635	538.18
431.011	523.49
431.387	544.96
431.763	560.32
432.138	547.22
432.514	559.87
432.89	571.85
433.265	578.63
433.641	574.11
434.016	569.36
434.392	558.29
434.767	561.23
435.143	575.01
435.518	602.81
435.894	572.53
436.269	596.03
436.644	583.83
437.02	603.26
437.395	589.93
437.77	603.03
438.145	601.45
438.52	614.79
438.895	602.36
439.271	605.29
439.646	602.13
440.021	615.24
440.395	598.29
440.77	635.58
441.145	605.52
441.52	605.97
441.895	632.19
442.27	632.64
442.645	639.19
443.019	630.83
443.394	624.05
443.769	658.4
444.143	638.74
444.518	653.43
444.892	680.77
445.267	673.09
445.641	664.28
446.016	653.88
446.39	651.85
446.764	641.9
447.139	656.14
447.513	668.8
447.887	655.01
448.262	664.73
448.636	656.14
449.01	687.55
449.384	683.71
449.758	670.38
450.132	685.52
450.506	679.42
450.88	717.61
451.254	708.34
451.628	712.86
452.002	674.67
452.376	705.41
452.75	701.11
453.123	711.28
453.497	733.2
453.871	726.87
454.244	722.13
454.618	720.09
454.992	725.29
455.365	727.78
455.739	758.29
456.112	753.99
456.486	728.23
456.859	743.6
457.232	780.66
457.606	794.22
457.979	784.95
458.352	778.62
458.725	772.75
459.099	792.63
459.472	789.92
459.845	816.36
460.218	803.71
460.591	805.74
460.964	802.8
461.337	821.79
461.71	836.93
462.083	851.62
462.456	852.97
462.829	830.37
463.201	864.05
463.574	850.49
463.947	854.1
464.32	858.62
464.692	897.72
465.065	866.76
465.438	880.54
465.81	890.94
466.183	904.27
466.555	917.38
466.928	939.98
467.3	911.73
467.672	917.6
468.045	926.42
468.417	938.17
468.789	950.14
469.161	958.28
469.534	977.71
469.906	972.29
470.278	988.11
470.65	993.99
471.022	1001.89
471.394	1034.44
471.766	1007.32
472.138	1047.09
472.51	1032.85
472.882	1062.01
473.253	1058.62
473.625	1045.74
473.997	1092.06
474.369	1091.16
474.74	1098.16
475.112	1109.91
475.484	1106.75
475.855	1124.38
476.227	1168.44
476.598	1170.03
476.97	1188.78
477.341	1200.31
477.713	1225.17
478.084	1223.58
478.455	1256.58
478.827	1226.3
479.198	1262.23
479.569	1277.59
479.94	1290.7
480.311	1321.66
480.682	1344.03
481.053	1347.42
481.424	1344.03
481.795	1402.34
482.166	1391.04
482.537	1421.54
482.908	1440.53
483.279	1438.95
483.65	1471.49
484.021	1508.77
484.391	1500.86
484.762	1532.28
485.133	1520.3
485.503	1548.32
485.874	1569.79
486.244	1581.09
486.615	1618.38
486.985	1627.87
487.356	1643.23
487.726	1660.86
488.097	1687.53
488.467	1660.41
488.837	1709.9
489.207	1728.66
489.578	1730.46
489.948	1767.3
490.318	1772.04
490.688	1774.3
491.058	1819.05
491.428	1821.99
491.798	1821.76
492.168	1864.02
492.538	1859.95
492.908	1898.14
493.278	1944.69
493.648	1941.76
494.017	1928.65
494.387	1969.1
494.757	1999.61
495.126	1995.31
495.496	2004.81
495.866	2008.2
496.235	2034.41
496.605	2058.36
496.974	2068.53
497.344	2087.29
497.713	2115.76
498.082	2105.37
498.452	2160.06
498.821	2129.32
499.19	2177.91
499.559	2200.96
499.928	2192.15
500.298	2205.93
500.667	2212.94
501.036	2242.31
501.405	2256.55
501.774	2231.92
502.143	2296.32
502.512	2290.22
502.88	2307.4
503.249	2321.18
503.618	2314.18
503.987	2332.71
504.356	2352.82
504.724	2340.62
505.093	2387.62
505.462	2384.68
505.83	2388.75
506.199	2448.18
506.567	2453.38
506.936	2465.58
507.304	2489.31
507.672	2482.53
508.041	2511.69
508.409	2566.37
508.777	2521.4
509.145	2521.18
509.514	2560.05
509.882	2588.52
510.25	2595.98
510.618	2606.37
510.986	2621.06
511.354	2675.75
511.722	2630.1
512.09	2720.95
512.458	2720.04
512.826	2713.94
513.193	2752.81
513.561	2743.77
513.929	2785.8
514.297	2792.36
514.664	2766.59
515.032	2801.4
515.4	2839.81
515.767	2873.03
516.135	2892.24
516.502	2899.7
516.869	2962.29
517.237	2924.78
517.604	2958.68
517.972	2964.78
518.339	3001.84
518.706	2980.6
519.073	3033.25
519.44	3029.41
519.808	3080.94
520.175	3057.66
520.542	3115.06
520.909	3128.39
521.276	3152.8
521.643	3189.86
522.009	3205.9
522.376	3176.3
522.743	3235.51
523.11	3288.39
523.477	3339.69
523.843	3323.64
524.21	3373.13
524.577	3384.2
524.943	3389.63
525.31	3416.52
525.676	3433.02
526.043	3469.17
526.409	3448.84
526.776	3502.17
527.142	3550.08
527.508	3568.38
527.874	3609.96
528.241	3578.32
528.607	3607.02
528.973	3690.86
529.339	3627.36
529.705	3724.53
530.071	3771.09
530.437	3761.82
530.803	3797.98
531.169	3804.08
531.535	3804.08
531.901	3816.51
532.267	3850.63
532.632	3894.02
532.998	3930.86
533.364	3914.59
533.73	3901.93
534.095	3979.22
534.461	3967.24
534.826	4010.85
535.192	4030.74
535.557	4058.54
535.923	4074.36
536.288	4074.36
536.653	4102.83
537.019	4086.79
537.384	4129.5
537.749	4163.62
538.114	4160.68
538.479	4166.11
538.845	4231.64
539.21	4224.63
539.575	4251.98
539.94	4219.66
540.305	4293.33
540.67	4291.53
541.034	4316.38
541.399	4317.06
541.764	4383.05
542.129	4390.51
542.494	4422.37
542.858	4470.05
543.223	4462.82
543.587	4473.22
543.952	4464.4
544.316	4490.16
544.681	4507.57
545.045	4543.5
545.41	4597.05
545.774	4542.14
546.138	4583.72
546.503	4587.56
546.867	4590.5
547.231	4724.28
547.595	4645.87
547.959	4708.01
548.324	4766.99
548.688	4731.97
549.052	4767.45
549.416	4818.74
549.779	4815.58
550.143	4830.72
550.507	4901.23
550.871	4895.13
551.235	4926.54
551.599	4952.98
551.962	4994.56
552.326	4963.82
552.689	5049.92
553.053	5012.86
553.417	5050.15
553.78	5109.81
554.143	5108.23
554.507	5190.03
554.87	5182.8
555.234	5270.93
555.597	5285.4
555.96	5264.16
556.323	5380.08
556.686	5341.67
557.05	5409.46
557.413	5421.21
557.776	5483.81
558.139	5487.43
558.502	5518.39
558.865	5533.07
559.228	5600.42
559.59	5666.63
559.953	5648.33
560.316	5754.31
560.679	5757.93
561.041	5830.24
561.404	5909.56
561.767	5941.43
562.129	5897.36
562.492	6038.15
562.854	5993.4
563.217	6046.51
563.579	6159.95
563.941	6197.46
564.304	6224.81
564.666	6277.24
565.028	6287.18
565.39	6401.3
565.753	6456.67
566.115	6492.37
566.477	6542.31
566.839	6573.5
567.201	6711.8
567.563	6703.67
567.925	6798.58
568.287	6798.35
568.648	6832.93
569.01	6918.58
569.372	7041.06
569.734	7003.77
570.095	7158.12
570.457	7190.66
570.819	7291.22
571.18	7297.1
571.542	7404.44
571.903	7420.71
572.265	7526.02
572.626	7563.53
572.987	7701.38
573.349	7702.28
573.71	7853.92
574.071	7926.23
574.432	7957.42
574.794	8117.64
575.155	8175.49
575.516	8145.89
575.877	8281.03
576.238	8366.67
576.599	8474.92
576.96	8572.32
577.32	8639.89
577.681	8784.97
578.042	8889.37
578.403	8890.27
578.763	9088.69
579.124	9135.47
579.485	9192.64
579.845	9459.07
580.206	9432.41
580.566	9538.85
580.927	9696.13
581.287	9856.13
581.648	9908.78
582.008	10150.13
582.368	10191.26
582.728	10326.85
583.089	10457.47
583.449	10613.62
583.809	10757.12
584.169	10962.54
584.529	11011.8
584.889	11272.81
585.249	11384.9
585.609	11545.57
585.969	11787.15
586.329	11882.29
586.688	12083.41
587.048	12242.73
587.408	12496.06
587.768	12675.71
588.127	12888.36
588.487	13077.28
588.846	13335.13
589.206	13492.41
589.565	13717.04
589.925	14043.36
590.284	14201.1
590.643	14461.65
591.003	14741.87
591.362	14969.89
591.721	15250.79
592.08	15507.28
592.44	15803.09
592.799	16003.31
593.158	16312.68
593.517	16584.99
593.876	16918.54
594.235	17123.96
594.593	17505.19
594.952	17751.51
595.311	17984.72
595.67	18361.44
596.029	18837.36
596.387	19113.28
596.746	19447.29
597.104	19617.45
597.463	19981.73
597.822	20362.06
598.18	20624.66
598.538	20918.21
598.897	21366.1
599.255	21549.38
599.613	22129.25
599.972	22328.79
600.33	22635.22
600.688	22879.51
601.046	23280.86
601.404	23714.29
601.762	24029.76
602.12	24492.58
602.478	24653.02
602.836	24965.33
603.194	25264.76
603.552	25553.11
603.91	25882.14
604.268	26222.25
604.625	26664.5
604.983	27009.57
605.341	27321.65
605.698	27563.68
606.056	27942.66
606.413	28168.41
606.771	28629.64
607.128	28977.88
607.485	29089.29
607.843	29327.7
608.2	29679.11
608.557	30116.84
608.914	30118.87
609.272	30596.6
609.629	30901
609.986	31295.56
610.343	31178.5
610.7	31750.69
611.057	32015.77
611.414	32100.74
611.771	32265.71
612.127	32811.68
612.484	33029.3
612.841	33288.5
613.198	33266.36
613.554	33641.94
613.911	33821.37
614.267	33995.38
614.624	34217.74
614.98	34470.85
615.337	34691.86
615.693	34774.11
616.05	34995.13
616.406	35462.91
616.762	35415
617.118	35518.28
617.475	35709.46
617.831	35996.68
618.187	36147.64
618.543	36248.65
618.899	36627.17
619.255	36689.09
619.611	36761.86
619.967	36988.07
620.323	37243.65
620.678	37209.53
621.034	37238
621.39	37400.03
621.746	37444.55
622.101	38051.54
622.457	37762.74
622.812	38059.68
623.168	38196.62
623.523	38282.5
623.879	38449.27
624.234	38328.6
624.589	38568.14
624.945	38603.17
625.3	38749.6
625.655	38863.27
626.01	38952.99
626.365	39102.81
626.72	39078.86
627.075	39044.51
627.43	39176.26
627.785	39090.38
628.14	39277.27
628.495	39447.44
628.85	39288.57
629.205	39389.81
629.559	39649.24
629.914	39503.26
630.269	39648.11
630.623	39525.85
630.978	39562.01
631.332	39710.71
631.687	39891.04
632.041	39867.99
632.396	39972.85
632.75	39750.25
633.104	39950.02
633.459	39871.16
633.813	39808.33
634.167	39812.63
634.521	39900.08
634.875	40036.35
635.229	39827.54
635.583	39934.2
635.937	39851.27
636.291	39961.1
636.645	39966.75
636.999	39795.68
637.352	40071.6
637.706	39814.66
638.06	40145.27
638.413	39866.64
638.767	39831.38
639.121	40052.62
639.474	39858.05
639.828	39985.05
640.181	40004.48
640.534	40070.7
640.888	39972.17
641.241	39833.64
641.594	39881.32
641.947	40074.54
642.301	39914.09
642.654	40062.56
643.007	40112.05
643.36	39922.91
643.713	40023.24
644.066	40118.15
644.419	39802.91
644.771	39593.2
645.124	39230.49
645.477	39167.67
645.83	38954.34
646.182	38811.52
646.535	38883.16
646.888	39096.49
647.24	38883.16
647.593	39080.22
647.945	39033.89
648.298	38881.12
648.65	38772.2
649.002	38693.33
649.355	39027.79
649.707	38771.3
650.059	38963.61
650.411	39550.71
650.763	39536.7
651.115	39806.75
651.467	39812.4
651.819	39800.87
652.171	39764.27
652.523	39642.69
652.875	39713.42
653.227	39628.68
653.578	39931.04
653.93	39813.3
654.282	39676.58
654.633	39503.03
654.985	39704.61
655.337	39587.77
655.688	39644.04
656.039	39874.09
656.391	39508.9
656.742	39601.11
657.094	39566.76
657.445	39918.61
657.796	39585.51
658.147	39508.68
658.498	39621.44
658.849	39642.69
659.2	39470.71
659.551	39421.68
659.902	39536.25
660.253	39485.85
660.604	39530.15
660.955	39222.58
661.306	39515.46
661.656	39464.39
662.007	39575.57
662.358	39576.93
662.708	39504.39
663.059	39569.47
663.409	39129.03
663.76	39599.07
664.11	39473.65
664.461	39627.55
664.811	39577.38
665.161	39623.7
665.511	39335.35
665.862	39670.26
666.212	39638.17
666.562	39602.91
666.912	39422.35
667.262	39538.06
667.612	39563.59
667.962	39471.39
668.312	39408.79
668.662	39585.96
669.011	39518.85
669.361	39416.25
669.711	39448.57
670.06	39425.97
670.41	39343.03
670.76	39246.76
671.109	39492.41
671.459	39371.96
671.808	39289.48
672.157	39349.13
672.507	39058.07
672.856	39260.1
673.205	39148.69
673.554	39331.28
673.904	39069.37
674.253	39457.61
674.602	39098.07
674.951	38674.58
675.3	38409.05
675.649	39136.49
675.998	38983.04
676.346	39013.55
676.695	39174.22
677.044	38921.8
677.393	39034.11
677.741	39050.16
678.09	39013.32
678.438	38952.54
678.787	38988.92
679.135	39012.42
679.484	38723.84
679.832	38908.92
680.181	38631.64
680.529	38788.25
680.877	38760.45
681.225	38659.66
681.573	38905.3
681.922	38536.27
682.27	38479.55
682.618	38484.3
682.966	38350.74
683.314	38512.55
683.661	38332.44
684.009	38182.84
684.357	38180.58
684.705	38017.87
685.053	38204.53
685.4	38063.07
685.748	37903.07
686.095	37955.05
686.443	37749.85
686.79	37751.89
687.138	37826.91
687.485	37673.25
687.832	37631.89
688.18	37750.31
688.527	37482.74
688.874	37484.78
689.221	37413.82
689.568	37298.12
689.915	37143.77
690.262	37216.08
690.609	37131.11
690.956	36893.15
691.303	36944.23
691.65	36708.07
691.997	36722.54
692.344	36565.48
692.69	36526.16
693.037	36471.47
693.383	36245.04
693.73	36360.29
694.077	36086.85
694.423	36132.27
694.769	36164.81
695.116	36109.22
695.462	35965.5
695.808	35912.62
696.155	35867.87
696.501	35663.13
696.847	35666.29
697.193	35557.37
697.539	35647.76
697.885	35148.34
698.231	35184.95
698.577	35226.53
698.923	35106.76
699.269	34914
699.614	34853.21
699.96	34752.65
700.306	34830.16
700.651	34645.76
700.997	34616.6
701.342	34570.5
701.688	34293
702.033	34384.07
702.379	34304.97
702.724	34328.02
703.069	34329.61
703.415	33850.52
703.76	33903.4
704.105	33805.33
704.45	33849.62
704.795	33690.53
705.14	33565.78
705.485	33501.15
705.83	33458.67
706.175	33451.89
706.52	33291.89
706.865	33267.71
707.209	33196.53
707.554	33054.84
707.899	33150.2
708.243	33127.38
708.588	32853.03
708.932	32691
709.277	32715.41
709.621	32734.39
709.966	32478.13
710.31	32514.29
710.654	32236.78
710.998	32434.74
711.342	32401.29
711.687	32280.85
712.031	32048.54
712.375	31934.19
712.719	32062.55
713.063	32134.41
713.407	32048.08
713.75	31889.44
714.094	31851.93
714.438	31697.58
714.782	31713.63
715.125	31609
715.469	31715.44
715.812	31466.4
716.156	31235.68
716.499	31413.07
716.843	31418.72
717.186	31321.1
717.53	31379.63
717.873	31389.12
718.216	31220.08
718.559	31211.95
718.902	30867.55
719.246	30959.52
719.589	31010.15
719.932	30809.47
720.275	30821.45
720.617	30799.3
720.96	30722.02
721.303	30712.07
721.646	30708.46
721.989	30548.24
722.331	30521.8
722.674	30599.31
723.016	30589.82
723.359	30466.66
723.701	30445.41
724.044	30291.29
724.386	30199.77
724.729	30277.28
725.071	30121.81
725.413	30155.93
725.755	30159.55
726.097	30005.2
726.439	29850.18
726.782	29879.33
727.124	30035.71
727.465	29940.34
727.807	29798.43
728.149	29821.93
728.491	29690.86
728.833	29805.43
729.175	29494.03
729.516	29466.23
729.858	29626.9
730.199	29658.77
730.541	29582.61
730.882	29523.86
731.224	29555.27
731.565	29381.71
731.906	29350.08
732.248	29352.11
732.589	29207.48
732.93	29076.41
733.271	29124.54
733.612	29191.21
733.953	29120.93
734.294	29051.1
734.635	29082.06
734.976	29089.74
735.317	28961.61
735.658	28896.53
735.999	28825.57
736.339	28893.14
736.68	28783.76
737.021	28734.72
737.361	28783.08
737.702	28768.4
738.042	28778.79
738.383	28682.75
738.723	28680.49
739.063	28607.95
739.404	28695.18
739.744	28396.43
740.084	28390.1
740.424	28527.95
740.764	28463.32
741.104	28379.03
741.444	28338.12
741.784	28155.08
742.124	28189.43
742.464	28270.1
742.804	28300.84
743.143	28162.31
743.483	28165.02
743.823	28049.32
744.162	28010.45
744.502	28045.48
744.841	27856.78
745.181	27975.42
745.52	27859.95
745.86	28063.56
746.199	27890.68
746.538	27840.74
746.877	27989.21
747.216	27866.27
747.556	27764.81
747.895	27754.86
748.234	27652.72
748.573	27597.35
748.911	27663.11
749.25	27569.11
749.589	27496.57
749.928	27491.59
750.267	27432.84
750.605	27384.25
750.944	27239.85
751.283	27345.16
751.621	27301.54
751.96	27088.44
752.298	27276.68
752.636	27138.16
752.975	26909.91
753.313	26887.77
753.651	27109.23
753.989	26902.68
754.327	26825.4
754.666	26707.21
755.004	26621.33
755.342	26691.61
755.679	26775.23
756.017	26555.12
756.355	26684.16
756.693	26546.76
757.031	26455.91
757.368	26361.23
757.706	26376.59
758.044	26358.06
758.381	26329.36
758.719	26178.41
759.056	26213.66
759.394	26048.24
759.731	25822.94
760.068	25841.02
760.405	25676.73
760.743	25700.91
761.08	25768.93
