Data from red_cardboard_box_FLMS001491_00031.txt Node
Date: Wed Feb 08 11:32:04 GMT 2017
User: dcchb
Spectrometer: FLMS00149
Trigger mode: 0
Integration Time (sec): 2.000000E-2
Scans to average: 10
Electric dark correction enabled: true
Nonlinearity correction enabled: false
Boxcar width: 0
XAxis mode: Wavelengths
Number of Pixels in Spectrum: 2048
>>>>>Begin Spectral Data<<<<<
341.393	-6.12
341.776	-6.12
342.16	-6.12
342.543	-60.35
342.927	-57.19
343.31	-95.15
343.693	-67.81
344.077	-63.52
344.46	-49.73
344.843	-46.11
345.226	-40.01
345.61	-27.81
345.993	-14.25
346.376	1.79
346.759	5.86
347.142	6.31
347.525	37.5
347.908	74.33
348.291	79.53
348.674	89.25
349.057	109.81
349.44	116.37
349.823	153.65
350.206	143.26
350.588	182.81
350.971	218.51
351.354	237.72
351.737	215.12
352.119	271.17
352.502	268.68
352.884	274.78
353.267	293.09
353.65	289.02
354.032	286.98
354.414	299.19
354.797	314.55
355.179	337.15
355.562	317.72
355.944	337.83
356.326	331.73
356.709	331.5
357.091	318.17
357.473	361.56
357.855	337.6
358.238	342.58
358.62	338.28
359.002	340.09
359.384	348.9
359.766	333.76
360.148	344.38
360.53	343.48
360.912	327.66
361.294	332.41
361.676	327.66
362.057	311.16
362.439	328.79
362.821	319.07
363.203	330.37
363.584	331.5
363.966	320.2
364.348	327.21
364.729	301.22
365.111	299.19
365.493	318.62
365.874	318.4
366.256	320.43
366.637	313.88
367.019	319.98
367.4	296.48
367.781	331.95
368.163	320.2
368.544	298.28
368.925	306.64
369.306	311.84
369.688	303.71
370.069	320.2
370.45	317.27
370.831	296.25
371.212	310.71
371.593	314.55
371.974	300.32
372.355	305.97
372.736	307.55
373.117	314.33
373.498	304.16
373.879	296.25
374.26	325.18
374.641	308.45
375.021	307.77
375.402	329.47
375.783	306.64
376.163	310.26
376.544	312.75
376.925	302.12
377.305	332.41
377.686	326.76
378.066	322.01
378.447	312.52
378.827	317.04
379.208	324.95
379.588	319.75
379.968	330.15
380.349	330.15
380.729	325.4
381.109	310.03
381.489	340.09
381.87	331.5
382.25	342.35
382.63	301.67
383.01	319.53
383.39	325.85
383.77	332.63
384.15	318.85
384.53	318.62
384.91	340.09
385.29	331.95
385.67	337.83
386.049	343.71
386.429	335.57
386.809	344.61
387.189	346.19
387.568	325.85
387.948	330.6
388.328	332.86
388.707	343.03
389.087	329.47
389.466	348.45
389.846	347.77
390.225	343.48
390.605	333.08
390.984	330.15
391.363	364.72
391.743	354.33
392.122	361.56
392.501	357.04
392.881	373.99
393.26	348.45
393.639	372.18
394.018	352.52
394.397	367.66
394.776	352.29
395.155	363.59
395.534	353.42
395.913	345.29
396.292	356.81
396.671	369.24
397.05	340.99
397.429	359.75
397.808	368.79
398.186	353.87
398.565	358.62
398.944	347.77
399.323	370.82
399.701	364.95
400.08	362.24
400.458	339.41
400.837	366.76
401.215	360.2
401.594	370.82
401.972	371.05
402.351	389.58
402.729	368.79
403.107	388.45
403.486	365.17
403.864	374.67
404.242	404.04
404.62	377.15
404.999	399.3
405.377	377.83
405.755	376.02
406.133	389.81
406.511	406.75
406.889	413.08
407.267	400.88
407.645	390.48
408.023	376.7
408.401	399.75
408.779	390.94
409.156	413.76
409.534	409.92
409.912	404.95
410.29	416.7
410.667	392.07
411.045	406.75
411.422	412.18
411.8	408.79
412.178	430.48
412.555	414.44
412.933	426.19
413.31	418.51
413.687	420.99
414.065	429.81
414.442	429.13
414.819	414.21
415.197	430.03
415.574	419.86
415.951	441.78
416.328	430.26
416.705	437.94
417.082	437.71
417.46	443.59
417.837	415.34
418.214	435
418.591	430.71
418.967	433.87
419.344	438.17
419.721	446.3
420.098	444.95
420.475	454.66
420.852	439.52
421.228	455.57
421.605	443.82
421.982	449.69
422.358	452.63
422.735	444.72
423.111	453.99
423.488	454.66
423.864	466.87
424.241	448.56
424.617	451.95
424.994	478.84
425.37	476.13
425.746	467.32
426.123	491.95
426.499	448.56
426.875	463.7
427.251	461.67
427.627	488.33
428.003	482.23
428.379	482.69
428.756	505.74
429.132	486.07
429.507	488.11
429.883	486.07
430.259	495.34
430.635	498.96
431.011	487.88
431.387	507.54
431.763	516.58
432.138	505.51
432.514	520.42
432.89	523.14
433.265	517.03
433.641	515.45
434.016	537.15
434.392	541.67
434.767	533.08
435.143	525.85
435.518	562.46
435.894	540.76
436.269	540.76
436.644	546.86
437.02	546.86
437.395	578.05
437.77	557.49
438.145	540.08
438.52	550.48
438.895	565.17
439.271	562.91
439.646	584.6
440.021	582.8
440.395	568.78
440.77	573.98
441.145	586.64
441.52	589.35
441.895	588.22
442.27	595
442.645	572.17
443.019	591.38
443.394	576.92
443.769	573.3
444.143	590.48
444.518	583.25
444.892	606.07
445.267	617.37
445.641	606.52
446.016	606.07
446.39	634.32
446.764	608.11
447.139	620.76
447.513	621.44
447.887	611.5
448.262	602.68
448.636	629.8
449.01	602.46
449.384	625.51
449.758	639.97
450.132	644.49
450.506	634.09
450.88	622.12
451.254	651.49
451.628	632.96
452.002	646.75
452.376	656.92
452.75	650.59
453.123	664.83
453.497	646.75
453.871	673.87
454.244	677.26
454.618	658.5
454.992	685.62
455.365	681.1
455.739	688.78
456.112	691.95
456.486	685.39
456.859	698.27
457.232	718.84
457.606	719.51
457.979	699.18
458.352	715.67
458.725	730.14
459.099	726.29
459.472	741.66
459.845	713.64
460.218	728.1
460.591	716.58
460.964	754.09
461.337	757.25
461.71	771.94
462.083	748.44
462.456	772.85
462.829	773.98
463.201	773.07
463.574	789.57
463.947	789.34
464.32	826.86
464.692	797.71
465.065	784.82
465.438	809
465.81	811.26
466.183	804.71
466.555	840.87
466.928	850.58
467.3	857.59
467.672	844.71
468.045	861.88
468.417	859.85
468.789	870.47
469.161	873.18
469.534	898.95
469.906	888.55
470.278	908.44
470.65	892.62
471.022	897.59
471.394	919.28
471.766	952.5
472.138	940.3
472.51	945.27
472.882	982.33
473.253	973.29
473.625	956.34
473.997	982.78
474.369	989.56
474.74	987.53
475.112	997.7
475.484	1016.68
475.855	1023.69
476.227	1052.84
476.598	1049.68
476.97	1052.39
477.341	1079.51
477.713	1111.37
478.084	1099.84
478.455	1106.62
478.827	1124.7
479.198	1134.19
479.569	1152.27
479.94	1173.29
480.311	1148.88
480.682	1194.98
481.053	1213.74
481.424	1236.79
481.795	1232.04
482.166	1263
482.537	1269.78
482.908	1291.03
483.279	1277.47
483.65	1307.3
484.021	1351.59
484.391	1328.99
484.762	1330.8
485.133	1332.83
485.503	1384.13
485.874	1414.19
486.244	1423.45
486.615	1409.89
486.985	1432.72
487.356	1489.89
487.726	1468.65
488.097	1510
488.467	1498.7
488.837	1526.73
489.207	1522.66
489.578	1580.96
489.948	1589.77
490.318	1583.45
490.688	1604.69
491.058	1629.32
491.428	1662.09
491.798	1671.58
492.168	1682.88
492.538	1672.94
492.908	1680.62
493.278	1705.25
493.648	1722.2
494.017	1750
494.387	1762.65
494.757	1760.62
495.126	1819.37
495.496	1763.33
495.866	1801.29
496.235	1799.94
496.605	1857.11
496.974	1836.77
497.344	1831.12
497.713	1871.35
498.082	1885.59
498.452	1877.9
498.821	1904.12
499.19	1931.23
499.559	1930.56
499.928	1942.31
500.298	1939.82
500.667	1935.08
501.036	1964
501.405	1981.85
501.774	2015.98
502.143	2003.55
502.512	2034.06
502.88	2010.55
503.249	2059.59
503.618	2044.68
503.987	2045.81
504.356	2079.25
504.724	2083.55
505.093	2110.21
505.462	2117.67
505.83	2102.53
506.199	2106.82
506.567	2191.57
506.936	2183.43
507.304	2197.22
507.672	2184.34
508.041	2232.7
508.409	2218.91
508.777	2256.88
509.145	2262.75
509.514	2264.11
509.882	2301.17
510.25	2264.33
510.618	2303.65
510.986	2321.05
511.354	2309.3
511.722	2381.84
512.09	2408.74
512.458	2374.61
512.826	2382.97
513.193	2385.91
513.561	2425.46
513.929	2438.11
514.297	2474.05
514.664	2450.99
515.032	2467.49
515.4	2495.97
515.767	2530.31
516.135	2554.27
516.502	2525.34
516.869	2568.51
517.237	2563.53
517.604	2585.91
517.972	2589.52
518.339	2600.6
518.706	2635.4
519.073	2660.93
519.44	2668.39
519.808	2711.1
520.175	2687.6
520.542	2729.41
520.909	2761.95
521.276	2742.51
521.643	2784.55
522.009	2781.61
522.376	2815.51
522.743	2853.7
523.11	2825.9
523.477	2869.51
523.843	2869.51
524.21	2930.76
524.577	2947.48
524.943	2949.06
525.31	2966.24
525.676	2979.57
526.043	3015.05
526.409	3084.88
526.776	3079.23
527.142	3088.04
527.508	3112.9
527.874	3143.86
528.241	3105.21
528.607	3110.64
528.973	3160.58
529.339	3150.64
529.705	3204.65
530.071	3235.16
530.437	3232.44
530.803	3283.74
531.169	3277.41
531.535	3317.86
531.901	3327.58
532.267	3324.42
532.632	3347.24
532.998	3343.85
533.364	3377.07
533.73	3378.2
534.095	3439.22
534.461	3451.19
534.826	3471.53
535.192	3463.85
535.557	3512.44
535.923	3511.53
536.288	3534.58
536.653	3557.63
537.019	3558.99
537.384	3580.91
537.749	3589.72
538.114	3558.99
538.479	3644.86
538.845	3611.87
539.21	3640.12
539.575	3661.13
539.94	3656.61
540.305	3667.91
540.67	3743.39
541.034	3688.25
541.399	3737.29
541.764	3747.68
542.129	3766.89
542.494	3819.77
542.858	3788.81
543.223	3826.33
543.587	3800.11
543.952	3880.11
544.316	3853.44
544.681	3822.48
545.045	3850.05
545.41	3888.25
545.774	3967.11
546.138	3934.12
546.503	3981.35
546.867	4006.89
547.231	4031.07
547.595	4053.89
547.959	4088.24
548.324	4083.04
548.688	4073.78
549.052	4102.7
549.416	4118.3
549.779	4117.84
550.143	4109.03
550.507	4174.34
550.871	4236.48
551.235	4231.29
551.599	4223.15
551.962	4250.5
552.326	4282.59
552.689	4335.69
553.053	4301.34
553.417	4330.95
553.78	4332.3
554.143	4399.19
554.507	4392.86
554.87	4446.2
555.234	4519.19
555.597	4461.34
555.96	4549.7
556.323	4569.58
556.686	4551.96
557.05	4640.54
557.413	4628.34
557.776	4662.46
558.139	4667.66
558.502	4730.03
558.865	4732.97
559.228	4769.13
559.59	4818.62
559.953	4818.16
560.316	4933.64
560.679	4942
561.041	4990.59
561.404	4996.69
561.767	5046.63
562.129	5031.72
562.492	5116.01
562.854	5125.95
563.217	5128.89
563.579	5180.87
563.941	5230.81
564.304	5282.11
564.666	5332.73
565.028	5370.47
565.39	5401.2
565.753	5446.17
566.115	5511.93
566.477	5557.13
566.839	5548.54
567.201	5659.5
567.563	5653.85
567.925	5693.4
568.287	5796.67
568.648	5835.54
569.01	5887.74
569.372	5921.19
569.734	5937.46
570.095	6018.58
570.457	6047.06
570.819	6147.17
571.18	6168.19
571.542	6252.02
571.903	6301.97
572.265	6342.64
572.626	6348.52
572.987	6419.03
573.349	6464
573.71	6602.98
574.071	6605.69
574.432	6681.62
574.794	6745.12
575.155	6811.11
575.516	6816.3
575.877	6903.31
576.238	7019.91
576.599	7115.96
576.96	7117.31
577.32	7261.26
577.681	7310.08
578.042	7357.98
578.403	7428.49
578.763	7470.75
579.124	7573.35
579.485	7704.19
579.845	7880.91
580.206	7855.82
580.566	7946.9
580.927	8098.08
581.287	8241.13
581.648	8278.86
582.008	8428.01
582.368	8565.18
582.728	8623.04
583.089	8736.03
583.449	8798.17
583.809	8900.77
584.169	9077.94
584.529	9179.63
584.889	9345.28
585.249	9450.36
585.609	9544.59
585.969	9794.98
586.329	9812.38
586.688	10064.81
587.048	10150.68
587.408	10360.17
587.768	10469.32
588.127	10702.3
588.487	10870.89
588.846	11103.42
589.206	11160.37
589.565	11403.98
589.925	11632.9
590.284	11706.57
590.643	12060.23
591.003	12232.43
591.362	12535.7
591.721	12730.95
592.08	12903.15
592.44	13186.31
592.799	13376.81
593.158	13564.15
593.517	13882.11
593.876	14116.45
594.235	14286.39
594.593	14539.49
594.952	14879.37
595.311	15137.44
595.67	15405.91
596.029	15693.58
596.387	15917.99
596.746	16363.62
597.104	16433.9
597.463	16743.95
597.822	17101.01
598.18	17354.11
598.538	17542.35
598.897	17990.02
599.255	18080.41
599.613	18728.31
599.972	18752.26
600.33	19212.14
600.688	19351.12
601.046	19793.82
601.404	20101.6
601.762	20350.64
602.12	20603.96
602.478	20971.19
602.836	21243.5
603.194	21470.38
603.552	21776.36
603.91	21951.95
604.268	22405.95
604.625	22584.93
604.983	23044.13
605.341	23137.91
605.698	23504
606.056	23783.54
606.413	24013.37
606.771	24415.84
607.128	24558.21
607.485	24795.49
607.843	25117.97
608.2	25432.76
608.557	25775.35
608.914	25978.51
609.272	26259.86
609.629	26486.07
609.986	26782.56
610.343	26880.86
610.7	27299.61
611.057	27339.15
611.414	27672.03
611.771	27851.91
612.127	28101.17
612.484	28322.63
612.841	28599.46
613.198	28739.57
613.554	28854.82
613.911	29162.38
614.267	29241.93
614.624	29355.6
614.98	29630.62
615.337	29997.84
615.693	30025.86
616.05	30161.23
616.406	30470.82
616.762	30529.13
617.118	30682.34
617.475	30818.16
617.831	31056.57
618.187	31246.4
618.543	31362.55
618.899	31594.18
619.255	31782.65
619.611	31659.04
619.967	31947.39
620.323	32151.46
620.678	32291.34
621.034	32249.08
621.39	32296.54
621.746	32514.84
622.101	32851.55
622.457	32782.63
622.812	33010.87
623.168	32991.66
623.523	33202.95
623.879	33319.11
624.234	33160.24
624.589	33316.17
624.945	33443.85
625.3	33577.86
625.655	33625.99
626.01	33756.16
626.365	33782.15
626.72	33804.75
627.075	33911.86
627.43	33987.57
627.785	33981.47
628.14	34204.06
628.495	34383.49
628.85	34352.53
629.205	34165.64
629.559	34482.7
629.914	34351.4
630.269	34471.4
630.623	34410.38
630.978	34431.85
631.332	34649.24
631.687	34703.03
632.041	34558.85
632.396	34691.05
632.75	34676.36
633.104	34728.34
633.459	34586.65
633.813	34604.95
634.167	34703.48
634.521	34684.27
634.875	34729.92
635.229	34681.56
635.583	34643.82
635.937	34606.08
636.291	34630.26
636.645	34863.93
636.999	34689.47
637.352	34699.19
637.706	34527.89
638.06	34717.27
638.413	34671.39
638.767	34639.3
639.121	34691.96
639.474	34625.97
639.828	34751.84
640.181	34826.64
640.534	34839.97
640.888	34720.2
641.241	34609.47
641.594	34817.38
641.947	34876.13
642.301	34773.99
642.654	34685.18
643.007	34776.02
643.36	34912.51
643.713	34714.33
644.066	34886.75
644.419	34648.79
644.771	34400.44
645.124	34199.31
645.477	34037.96
645.83	33864.86
646.182	33911.86
646.535	33837.29
646.888	33913.44
647.24	33784.86
647.593	33988.92
647.945	33927.46
648.298	33778.53
648.65	33788.7
649.002	33658.76
649.355	33879.1
649.707	33842.03
650.059	33894.91
650.411	34280.21
650.763	34452.41
651.115	34647.66
651.467	34588.91
651.819	34648.34
652.171	34642.69
652.523	34619.19
652.875	34619.41
653.227	34425.3
653.578	34730.6
653.93	34657.83
654.282	34538.06
654.633	34328.12
654.985	34437.27
655.337	34552.3
655.688	34702.58
656.039	34637.95
656.391	34463.49
656.742	34449.7
657.094	34397.27
657.445	34619.41
657.796	34394.56
658.147	34545.97
658.498	34369.25
658.849	34446.99
659.2	34429.14
659.551	34424.84
659.902	34518.63
660.253	34364.96
660.604	34571.05
660.955	34307.11
661.306	34493.09
661.656	34530.38
662.007	34493.99
662.358	34514.33
662.708	34472.98
663.059	34434.33
663.409	34253.1
663.76	34567.44
664.11	34439.76
664.461	34498.97
664.811	34588.91
665.161	34496.93
665.511	34375.81
665.862	34510.04
666.212	34590.26
666.562	34556.14
666.912	34565.4
667.262	34401.57
667.612	34469.59
667.962	34501
668.312	34542.35
668.662	34560.21
669.011	34566.31
669.361	34525.41
669.711	34490.38
670.06	34361.34
670.41	34355.92
670.76	34265.53
671.109	34447.67
671.459	34349.59
671.808	34290.38
672.157	34286.77
672.507	34154.12
672.856	34058.75
673.205	34414.9
673.554	34311.4
673.904	34288.8
674.253	34309.82
674.602	34279.76
674.951	33762.71
675.3	33625.32
675.649	34179.88
675.998	34093.1
676.346	34202.48
676.695	34259.42
677.044	33950.28
677.393	34037.06
677.741	34211.52
678.09	34018.3
678.438	33955.25
678.787	34068.02
679.135	34129.48
679.484	33819.44
679.832	34015.14
680.181	33674.58
680.529	33830.06
680.877	33848.14
681.225	33859.66
681.573	33987.57
681.922	33708.03
682.27	33590.29
682.618	33621.47
682.966	33502.83
683.314	33680.23
683.661	33601.14
684.009	33380.13
684.357	33238.21
684.705	33262.16
685.053	33240.02
685.4	33271.2
685.748	33091.09
686.095	33090.87
686.443	32881.38
686.79	32898.78
687.138	32974.49
687.485	32904.21
687.832	32820.82
688.18	32868.73
688.527	32593.93
688.874	32619.69
689.221	32450.21
689.568	32367.72
689.915	32408.4
690.262	32296.76
690.609	32379.93
690.956	32182.87
691.303	32099.25
691.65	31935.87
691.997	32091.12
692.344	31839.37
692.69	31869.2
693.037	31866.49
693.383	31562.55
693.73	31765.25
694.077	31590.12
694.423	31506.05
694.769	31433.74
695.116	31354.19
695.462	31419.27
695.808	31229.67
696.155	31348.77
696.501	31077.81
696.847	31115.78
697.193	30907.2
697.539	31036.46
697.885	30766.63
698.231	30809.8
698.577	30705.85
698.923	30503.36
699.269	30494.1
699.614	30368.23
699.96	30269.7
700.306	30259.98
700.651	30111.96
700.997	30169.14
701.342	30087.56
701.688	29964.4
702.033	29880.56
702.379	30032.19
702.724	29717.4
703.069	29781.12
703.415	29509.72
703.76	29608.47
704.105	29562.6
704.45	29508.14
704.795	29221.14
705.14	29266.56
705.485	29209.16
705.83	29032.44
706.175	29280.12
706.52	29179.78
706.865	28925.78
707.209	29006
707.554	28902.5
707.899	28869.06
708.243	28867.7
708.588	28629.29
708.932	28457.54
709.277	28403.31
709.621	28576.86
709.966	28310.65
710.31	28340.48
710.654	28108.85
710.998	28256.64
711.342	28336.19
711.687	28096.87
712.031	27995.63
712.375	27952.47
712.719	28053.71
713.063	27969.42
713.407	28001.96
713.75	27756.32
714.094	27845.36
714.438	27619.82
714.782	27762.42
715.125	27547.74
715.469	27597.45
715.812	27472.03
716.156	27351.58
716.499	27413.95
716.843	27440.17
717.186	27247.41
717.53	27427.29
717.873	27382.09
718.216	27282.43
718.559	27164.92
718.902	27069.56
719.246	27056.9
719.589	27009.9
719.932	26889.45
720.275	26855.32
720.617	26880.41
720.96	26813.74
721.303	26740.3
721.646	26763.58
721.989	26641.09
722.331	26772.62
722.674	26703.92
723.016	26698.94
723.359	26521.77
723.701	26674.76
724.044	26526.97
724.386	26194.1
724.729	26355
725.071	26286.75
725.413	26255.57
725.755	26264.61
726.097	26132.63
726.439	26045.85
726.782	26100.32
727.124	26128.34
727.465	25998.4
727.807	26035.69
728.149	26044.05
728.491	25922.02
728.833	25923.37
729.175	25835.24
729.516	25729.7
729.858	25738.52
730.199	25877.95
730.541	25833.2
730.882	25714.34
731.224	25749.37
731.565	25616.94
731.906	25598.63
732.248	25633.21
732.589	25447
732.93	25341.92
733.271	25388.92
733.612	25396.15
733.953	25523.16
734.294	25285.2
734.635	25368.81
734.976	25355.48
735.317	25200.45
735.658	25140.57
735.999	25157.06
736.339	25080
736.68	25151.64
737.021	25227.8
737.361	24986.22
737.702	25185.31
738.042	24987.13
738.383	25009.05
738.723	24935.83
739.063	24883.85
739.404	24959.1
739.744	24813.57
740.084	24753.46
740.424	24813.12
740.764	24738.77
741.104	24869.84
741.444	24743.97
741.784	24593.24
742.124	24637.08
742.464	24646.8
742.804	24635.72
743.143	24661.71
743.483	24563.63
743.823	24567.48
744.162	24496.06
744.502	24442.28
744.841	24421.04
745.181	24464.43
745.52	24314.83
745.86	24351.44
746.199	24274.38
746.538	24347.82
746.877	24428.72
747.216	24262.4
747.556	24182.85
747.895	24231.44
748.234	24138.56
748.573	24043.65
748.911	24016.76
749.25	23978.79
749.589	23949.86
749.928	23975.63
750.267	23968.4
750.605	23997.55
750.944	23895.63
751.283	23765.46
751.621	23848.85
751.96	23716.42
752.298	23685.01
752.636	23681.85
752.975	23572.02
753.313	23528.63
753.651	23631.91
753.989	23383.1
754.327	23398.01
754.666	23364.34
755.004	23273.27
755.342	23273.95
755.679	23337.9
756.017	23228.53
756.355	23290.45
756.693	23164.57
757.031	22996.9
757.368	23039.15
757.706	23079.83
758.044	22947.63
758.381	22895.88
758.719	22811.82
759.056	22838.48
759.394	22830.57
759.731	22648.2
760.068	22560.3
760.405	22565.72
760.743	22447.08
761.08	22546.74
761.417	22405.5
761.754	22416.35
762.091	22362.11
