Data from red_cardboard_box_FLMS001491_00056.txt Node
Date: Wed Feb 08 11:32:46 GMT 2017
User: dcchb
Spectrometer: FLMS00149
Trigger mode: 0
Integration Time (sec): 2.000000E-2
Scans to average: 10
Electric dark correction enabled: true
Nonlinearity correction enabled: false
Boxcar width: 0
XAxis mode: Wavelengths
Number of Pixels in Spectrum: 2048
>>>>>Begin Spectral Data<<<<<
341.393	5.1
341.776	5.1
342.16	5.1
342.543	-76.26
342.927	-79.87
343.31	-49.59
343.693	-86.42
344.077	-64.5
344.46	-55.24
344.843	-81
345.226	-44.62
345.61	-11.17
345.993	-25.86
346.376	-1.23
346.759	9.39
347.142	25.44
347.525	38.77
347.908	69.5
348.291	82.38
348.674	83.29
349.057	110.86
349.44	128.71
349.823	127.81
350.206	166
350.588	194.25
350.971	221.14
351.354	214.36
351.737	235.6
352.119	250.74
352.502	263.17
352.884	262.95
353.267	295.71
353.65	305.2
354.032	317.63
354.414	328.25
354.797	308.82
355.179	338.88
355.562	322.6
355.944	337.07
356.326	325.09
356.709	348.14
357.091	350.63
357.473	354.24
357.855	358.76
358.238	336.62
358.62	354.47
359.002	349.5
359.384	362.38
359.766	353.56
360.148	335.26
360.53	340.68
360.912	325.54
361.294	333.45
361.676	360.57
362.057	340.46
362.439	356.28
362.821	332.32
363.203	330.51
363.584	335.49
363.966	333.9
364.348	332.1
364.729	324.41
365.111	324.41
365.493	325.54
365.874	311.31
366.256	342.94
366.637	344.52
367.019	329.84
367.4	330.74
367.781	314.7
368.163	328.71
368.544	336.62
368.925	314.7
369.306	335.94
369.688	314.24
370.069	319.67
370.45	315.6
370.831	309.95
371.212	318.08
371.593	296.16
371.974	328.25
372.355	320.8
372.736	313.57
373.117	328.93
373.498	316.05
373.879	321.25
374.26	312.89
374.641	321.47
375.021	330.51
375.402	309.27
375.783	302.94
376.163	333.68
376.544	321.25
376.925	329.61
377.305	359.44
377.686	353.56
378.066	310.4
378.447	342.27
378.827	331.42
379.208	337.07
379.588	333.45
379.968	334.58
380.349	359.21
380.729	343.17
381.109	337.07
381.489	362.38
381.87	342.04
382.25	320.57
382.63	332.55
383.01	351.3
383.39	319.89
383.77	369.83
384.15	331.87
384.53	341.36
384.91	352.89
385.29	358.99
385.67	313.79
386.049	348.82
386.429	342.94
386.809	348.59
387.189	349.95
387.568	361.25
387.948	351.53
388.328	349.95
388.707	363.51
389.087	351.08
389.466	358.76
389.846	366.67
390.225	354.69
390.605	362.83
390.984	383.39
391.363	360.57
391.743	375.94
392.122	348.37
392.501	374.35
392.881	389.04
393.26	367.8
393.639	352.21
394.018	377.52
394.397	369.83
394.776	356.5
395.155	373
395.534	371.87
395.913	358.31
396.292	375.03
396.671	373.9
397.05	363.06
397.429	396.5
397.808	403.96
398.186	384.75
398.565	387.91
398.944	367.12
399.323	387.91
399.701	376.61
400.08	382.49
400.458	396.27
400.837	377.74
401.215	396.5
401.594	399.21
401.972	404.64
402.351	373.22
402.729	402.6
403.107	367.35
403.486	399.66
403.864	406.22
404.242	393.79
404.62	394.02
404.999	414.35
405.377	398.53
405.755	401.25
406.133	406.22
406.511	414.13
406.889	409.16
407.267	391.3
407.645	415.94
408.023	417.29
408.401	413.22
408.779	414.35
409.156	417.97
409.534	418.65
409.912	437.86
410.29	441.92
410.667	434.69
411.045	438.31
411.422	434.24
411.8	440.57
412.178	444.41
412.555	456.39
412.933	441.47
413.31	466.1
413.687	440.12
414.065	452.09
414.442	445.77
414.819	428.36
415.197	447.8
415.574	447.57
415.951	449.83
416.328	444.41
416.705	468.59
417.082	450.96
417.46	483.5
417.837	463.39
418.214	477.4
418.591	469.27
418.967	466.78
419.344	449.38
419.721	479.21
420.098	479.66
420.475	490.28
420.852	490.96
421.228	494.58
421.605	486.89
421.982	496.39
422.358	488.02
422.735	495.48
423.111	487.35
423.488	507.01
423.864	504.97
424.241	508.81
424.617	527.34
424.994	498.87
425.37	509.72
425.746	491.64
426.123	520.57
426.499	498.87
426.875	544.97
427.251	526.44
427.627	537.06
428.003	533.45
428.379	527.34
428.756	525.99
429.132	547.46
429.507	553.78
429.883	551.3
430.259	559.66
430.635	543.62
431.011	564.63
431.387	585.42
431.763	560.56
432.138	552.43
432.514	580.68
432.89	575.93
433.265	580.68
433.641	570.06
434.016	556.5
434.392	590.39
434.767	605.31
435.143	586.78
435.518	585.87
435.894	605.99
436.269	572.09
436.644	592.65
437.02	598.3
437.395	612.09
437.77	628.59
438.145	627.91
438.52	638.75
438.895	629.49
439.271	625.87
439.646	623.39
440.021	634.91
440.395	640.11
440.77	637.17
441.145	633.78
441.52	651.64
441.895	645.31
442.27	630.17
442.645	638.08
443.019	673.1
443.394	642.37
443.769	637.85
444.143	659.32
444.518	662.93
444.892	677.17
445.267	666.78
445.641	672.88
446.016	687.79
446.39	683.27
446.764	668.58
447.139	688.92
447.513	712.2
447.887	688.02
448.262	678.98
448.636	688.7
449.01	719.43
449.384	732.54
449.758	687.79
450.132	717.4
450.506	723.27
450.88	731.41
451.254	701.8
451.628	742.25
452.002	723.5
452.376	727.11
452.75	738.86
453.123	753.55
453.497	747.9
453.871	751.75
454.244	749.71
454.618	772.76
454.992	764.63
455.365	764.63
455.739	766.66
456.112	756.27
456.486	773.89
456.859	788.35
457.232	795.36
457.606	777.73
457.979	805.08
458.352	799.43
458.725	822.03
459.099	802.14
459.472	823.38
459.845	826.32
460.218	837.85
460.591	843.95
460.964	839.2
461.337	847.79
461.71	845.75
462.083	877.62
462.456	888.01
462.829	873.78
463.201	880.78
463.574	893.66
463.947	887.56
464.32	886.21
464.692	903.38
465.065	942.93
465.438	909.71
465.81	943.15
466.183	958.75
466.555	944.28
466.928	972.76
467.3	944.06
467.672	984.96
468.045	972.08
468.417	998.97
468.789	991.51
469.161	1013.21
469.534	1031.96
469.906	1031.51
470.278	1023.38
470.65	1075.81
471.022	1044.62
471.394	1054.56
471.766	1067.9
472.138	1082.36
472.51	1100.66
472.882	1118.97
473.253	1114.45
473.625	1098.86
473.997	1141.79
474.369	1121.45
474.74	1157.38
475.112	1161.9
475.484	1184.05
475.855	1208.68
476.227	1222.02
476.598	1236.93
476.97	1235.57
477.341	1284.61
477.713	1272.86
478.084	1250.49
478.455	1272.18
478.827	1311.73
479.198	1350.6
479.569	1329.81
479.94	1364.39
480.311	1363.93
480.682	1387.21
481.053	1423.37
481.424	1437.38
481.795	1447.77
482.166	1454.78
482.537	1507.21
482.908	1529.35
483.279	1535.23
483.65	1550.59
484.021	1567.77
484.391	1591.5
484.762	1618.16
485.133	1596.7
485.503	1652.74
485.874	1682.57
486.244	1657.94
486.615	1668.11
486.985	1698.61
487.356	1707.88
487.726	1758.95
488.097	1782.91
488.467	1808.67
488.837	1805.73
489.207	1865.16
489.578	1890.02
489.948	1892.51
490.318	1899.06
490.688	1898.16
491.058	1918.95
491.428	1953.07
491.798	1956.23
492.168	1983.8
492.538	2005.27
492.908	2039.62
493.278	2043.01
493.648	2063.58
494.017	2073.07
494.387	2096.57
494.757	2117.59
495.126	2141.77
495.496	2149
495.866	2123.46
496.235	2183.8
496.605	2214.31
496.974	2191.48
497.344	2226.51
497.713	2259.95
498.082	2239.16
498.452	2281.65
498.821	2321.87
499.19	2309.44
499.559	2358.71
499.928	2361.42
500.298	2368.2
500.667	2358.71
501.036	2370.01
501.405	2393.28
501.774	2408.65
502.143	2437.13
502.512	2426.05
502.88	2462.21
503.249	2455.66
503.618	2462.89
503.987	2476.9
504.356	2514.86
504.724	2529.1
505.093	2548.53
505.462	2511.93
505.83	2577.23
506.199	2605.48
506.567	2642.77
506.936	2645.03
507.304	2652.03
507.672	2681.41
508.041	2678.7
508.409	2691.58
508.777	2724.58
509.145	2752.15
509.514	2733.84
509.882	2759.6
510.25	2784.91
510.618	2782.2
510.986	2807.96
511.354	2824.91
511.722	2851.35
512.09	2859.49
512.458	2876.44
512.826	2876.21
513.193	2918.69
513.561	2920.95
513.929	2956.21
514.297	2993.49
514.664	3011.8
515.032	3008.41
515.4	3061.74
515.767	3082.76
516.135	3072.81
516.502	3094.51
516.869	3154.17
517.237	3127.5
517.604	3176.77
517.972	3176.31
518.339	3220.61
518.706	3210.89
519.073	3230.32
519.44	3265.8
519.808	3290.44
520.175	3287.27
520.542	3370.89
520.909	3365.46
521.276	3365.01
521.643	3410.88
522.009	3459.02
522.376	3450.21
522.743	3474.84
523.11	3499.47
523.477	3553.93
523.843	3623.53
524.21	3613.82
524.577	3626.02
524.943	3663.31
525.31	3723.87
525.676	3746.92
526.043	3729.29
526.409	3803.42
526.776	3771.1
527.142	3821.27
527.508	3840.48
527.874	3856.75
528.241	3897.88
528.607	3892.23
528.973	3917.31
529.339	3946.24
529.705	3990.3
530.071	4043.86
530.437	4062.17
530.803	4092.9
531.169	4102.39
531.535	4108.72
531.901	4146.46
532.267	4137.87
532.632	4157.53
532.998	4208.83
533.364	4224.87
533.73	4243.41
534.095	4287.02
534.461	4254.48
534.826	4285.89
535.192	4367.7
535.557	4381.03
535.923	4387.13
536.288	4397.07
536.653	4427.36
537.019	4436.17
537.384	4428.49
537.749	4441.59
538.114	4521.59
538.479	4495.15
538.845	4522.49
539.21	4553.45
539.575	4539.22
539.94	4615.37
540.305	4676.84
540.67	4628.25
541.034	4633.68
541.399	4680.46
541.764	4726.33
542.129	4735.37
542.494	4759.1
542.858	4768.36
543.223	4802.94
543.587	4788.7
543.952	4794.58
544.316	4877.74
544.681	4825.99
545.045	4905.99
545.41	4939.43
545.774	4971.97
546.138	4988.92
546.503	4983.72
546.867	5012.42
547.231	5050.62
547.595	5100.78
547.959	5117.96
548.324	5151.18
548.688	5120.9
549.052	5133.78
549.416	5182.36
549.779	5212.19
550.143	5252.87
550.507	5303.94
550.871	5298.07
551.235	5300.55
551.599	5355.24
551.962	5367.67
552.326	5420.78
552.689	5505.75
553.053	5458.74
553.417	5484.5
553.78	5618.96
554.143	5575.35
554.507	5626.65
554.87	5652.63
555.234	5669.36
555.597	5710.71
555.96	5729.47
556.323	5775.57
556.686	5845.17
557.05	5861.22
557.413	5887.43
557.776	5919.07
558.139	5973.53
558.502	6062.79
558.865	6065.05
559.228	6096.92
559.59	6112.28
559.953	6168.1
560.316	6286.97
560.679	6287.42
561.041	6330.13
561.404	6365.16
561.767	6452.16
562.129	6451.48
562.492	6556.56
562.854	6596.79
563.217	6611.48
563.579	6669.78
563.941	6756.56
564.304	6803.56
564.666	6881.08
565.028	6996.78
565.39	7002.2
565.753	7067.74
566.115	7088.98
566.477	7214.85
566.839	7247.39
567.201	7302.99
567.563	7310.9
567.925	7420.95
568.287	7430.67
568.648	7483.09
569.01	7654.39
569.372	7698
569.734	7783.2
570.095	7884.44
570.457	7953.14
570.819	8044.66
571.18	8055.06
571.542	8143.87
571.903	8186.8
572.265	8258.44
572.626	8353.58
572.987	8417.31
573.349	8523.52
573.71	8586.12
574.071	8697.75
574.432	8720.12
574.794	8850.29
575.155	8977.74
575.516	9051.41
575.877	9083.73
576.238	9195.14
576.599	9290.73
576.96	9411.18
577.32	9499.31
577.681	9626.09
578.042	9674.45
578.403	9830.6
578.763	9970.71
579.124	10077.38
579.485	10181.55
579.845	10267.65
580.206	10388.55
580.566	10522.79
580.927	10675.55
581.287	10843.91
581.648	10931.14
582.008	11154.86
582.368	11239.61
582.728	11423.78
583.089	11599.6
583.449	11660.84
583.809	11950.77
584.169	12082.52
584.529	12226.47
584.889	12499.46
585.249	12581.94
585.609	12776.74
585.969	13073.91
586.329	13222.38
586.688	13450.85
587.048	13655.59
587.408	13864.85
587.768	14127.67
588.127	14342.12
588.487	14497.37
588.846	14958.6
589.206	15029.11
589.565	15379.38
589.925	15729.21
590.284	15961.52
590.643	16144.34
591.003	16466.13
591.362	16794.71
591.721	17069.96
592.08	17434.02
592.44	17836.72
592.799	18108.13
593.158	18452.07
593.517	18768.67
593.876	19176.57
594.235	19538.14
594.593	19851.58
594.952	20160.5
595.311	20529.53
595.67	20935.4
596.029	21365.89
596.387	21782.83
596.746	22185.98
597.104	22441.57
597.463	22809.24
597.822	23376.69
598.18	23533.97
598.538	23944.13
598.897	24487.39
599.255	24758.12
599.613	25539.79
599.972	25614.59
600.33	26193.11
600.688	26408.02
601.046	26855.69
601.404	27477.37
601.762	27731.83
602.12	28321.19
602.478	28665.59
602.836	29024
603.194	29298.57
603.552	29736.29
603.91	30214.02
604.268	30635.71
604.625	30848.13
604.983	31340.77
605.341	31585.29
605.698	32157.25
606.056	32545.71
606.413	32900.5
606.771	33376.65
607.128	33767.15
607.485	33899.12
607.843	34320.13
608.2	34744.98
608.557	35161.69
608.914	35393.55
609.272	35798.73
609.629	36225.16
609.986	36537.7
610.343	36736.79
610.7	37265.59
611.057	37438.46
611.414	37606.82
611.771	37989.18
612.127	38317.09
612.484	38619.68
612.841	39030.51
613.198	39049.04
613.554	39219.21
613.911	39703.04
614.267	39976.03
614.624	40114.33
614.98	40478.38
615.337	40765.38
615.693	40862.1
616.05	41061.42
616.406	41609.2
616.762	41515.87
617.118	41823.89
617.475	41961.06
617.831	42318.34
618.187	42415.96
618.543	42598.33
618.899	42939.56
619.255	43024.08
619.611	43235.6
619.967	43321.93
620.323	43593.56
620.678	43597.62
621.034	43682.37
621.39	43760.56
621.746	43867.9
622.101	44619.52
622.457	44257.72
622.812	44438.96
623.168	44625.17
623.523	44650.93
623.879	45011.37
624.234	44727.99
624.589	44998.04
624.945	45205.72
625.3	45327.07
625.655	45426.05
626.01	45453.85
626.365	45629.66
626.72	45563
627.075	45759.6
627.43	45731.81
627.785	45730.9
628.14	45851.12
628.495	45971.8
628.85	46143.32
629.205	45969.31
629.559	46376.76
629.914	46095.86
630.269	46254.73
630.623	46182.64
630.978	46230.1
631.332	46395.74
631.687	46509.86
632.041	46551.9
632.396	46696.3
632.75	46462.63
633.104	46655.4
633.459	46494.72
633.813	46536.3
634.167	46552.35
634.521	46517.77
634.875	46612.01
635.229	46670.54
635.583	46516.19
635.937	46535.63
636.291	46514.16
636.645	46671.22
636.999	46512.58
637.352	46796.18
637.706	46600.03
638.06	46647.71
638.413	46635.06
638.767	46558.45
639.121	46618.11
639.474	46520.49
639.828	46617.21
640.181	46691.78
640.534	46705.57
640.888	46537.21
641.241	46535.85
641.594	46668.28
641.947	46681.84
642.301	46693.59
642.654	46605.68
643.007	46703.31
643.36	46624.21
643.713	46707.15
644.066	46779.91
644.419	46541.73
644.771	46328.85
645.124	46003.89
645.477	45892.48
645.83	45669.43
646.182	45489.78
646.535	45461.53
646.888	45657.01
647.24	45429.67
647.593	45783.78
647.945	45544.24
648.298	45397.58
648.65	45477.35
649.002	45320.97
649.355	45568.42
649.707	45500.4
650.059	45599.83
650.411	46165.01
650.763	46219.7
651.115	46615.62
651.467	46435.29
651.819	46561.84
652.171	46388.74
652.523	46460.37
652.875	46482.97
653.227	46252.24
653.578	46559.81
653.93	46510.32
654.282	46361.62
654.633	46260.38
654.985	46432.8
655.337	46397.1
655.688	46307.38
656.039	46583.76
656.391	46169.31
656.742	46277.78
657.094	46256.54
657.445	46486.59
657.796	46360.49
658.147	46287.72
658.498	46124.34
658.849	46368.85
659.2	46185.13
659.551	46156.65
659.902	46218.12
660.253	46230.1
660.604	46225.58
660.955	46074.85
661.306	46297.21
661.656	46225.58
662.007	46168.4
662.358	46278.46
662.708	46270.77
663.059	46186.71
663.409	45833.05
663.76	46260.15
664.11	46275.07
664.461	46380.6
664.811	46242.98
665.161	46272.36
665.511	46202.3
665.862	46249.31
666.212	46349.87
666.562	46259.02
666.912	46101.97
667.262	46254.5
667.612	46182.64
667.962	46169.08
668.312	46146.48
668.662	46316.2
669.011	46221.51
669.361	46147.16
669.711	46064.45
670.06	46100.38
670.41	46068.07
670.76	46049.76
671.109	46151.46
671.459	46053.38
671.808	46024.45
672.157	46134.73
672.507	45839.37
672.856	45800.05
673.205	45869.88
673.554	45943.78
673.904	45896.1
674.253	46140.16
674.602	45917.56
674.951	45344.02
675.3	45235.55
675.649	45795.31
675.998	45782.43
676.346	45880.28
676.695	45943.33
677.044	45614.97
677.393	45843.44
677.741	45791.92
678.09	45711.92
678.438	45616.78
678.787	45623.79
679.135	45652.94
679.484	45367.07
679.832	45527.52
680.181	45424.24
680.529	45406.62
680.877	45283.46
681.225	45236.9
681.573	45532.26
681.922	45231.93
682.27	45046.17
682.618	45114.2
682.966	45049.56
683.314	45192.39
683.661	45067.87
684.009	44808.21
684.357	44808.67
684.705	44626.07
685.053	44766.63
685.4	44656.13
685.748	44610.71
686.095	44574.55
686.443	44370.49
686.79	44339.07
687.138	44439.41
687.485	44323.48
687.832	44213.65
688.18	44428.56
688.527	44072.19
688.874	44136.59
689.221	43927.56
689.568	43818.18
689.915	43655.48
690.262	43717.4
690.609	43737.51
690.956	43477.18
691.303	43489.38
691.65	43241.48
691.997	43212.55
692.344	43184.75
692.69	43000.13
693.037	43087.13
693.383	42742.96
693.73	42884.88
694.077	42576.63
694.423	42681.04
694.769	42535.96
695.116	42444.21
695.462	42338.22
695.808	42314.49
696.155	42268.85
696.501	42003.32
696.847	42027.27
697.193	41661.4
697.539	41929.65
697.885	41684
698.231	41493.95
698.577	41662.53
698.923	41473.61
699.269	41435.2
699.614	40952.5
699.96	41139.38
700.306	41039.95
700.651	40928.54
700.997	40741.88
701.342	40694.2
701.688	40546.63
702.033	40578.04
702.379	40507.54
702.724	40306.41
703.069	40438.61
703.415	39986.42
703.76	39990.94
704.105	40147.77
704.45	40073.88
704.795	39685.86
705.14	39564.74
705.485	39701.46
705.83	39536.94
706.175	39626.66
706.52	39446.55
706.865	39361.35
707.209	39321.13
707.554	39136.95
707.899	39080.91
708.243	38898.99
708.588	38957.52
708.932	38615.16
709.277	38753.91
709.621	38590.98
709.966	38381.04
710.31	38397.54
710.654	38187.37
710.998	38132.46
711.342	38343.07
711.687	38062.18
712.031	38072.12
712.375	37896.53
712.719	37837.78
713.063	37868.51
713.407	37988.05
713.75	37759.59
714.094	37781.73
714.438	37601.62
714.782	37732.47
715.125	37390.33
715.469	37446.15
715.812	37326.15
716.156	37128.64
716.499	37203.89
716.843	37247.51
717.186	36958.25
717.53	37171.13
717.873	37160.96
718.216	37050.9
718.559	36819.05
718.902	36559.84
719.246	36760.29
719.589	36492.05
719.932	36471.48
720.275	36537.7
720.617	36437.81
720.96	36434.2
721.303	36361.66
721.646	36513.07
721.989	36122.12
722.331	36254.54
722.674	36242.34
723.016	36205.73
723.359	36074.21
723.701	36033.98
724.044	35906.08
724.386	35666.53
724.729	35774.55
725.071	35678.96
725.413	35849.81
725.755	35667.44
726.097	35555.35
726.439	35371.85
726.782	35279.2
727.124	35495.01
727.465	35314.68
727.807	35255.47
728.149	35234
728.491	35238.3
728.833	35311.06
729.175	35061.13
729.516	34961.24
729.858	35054.57
730.199	35022.48
730.541	35059.54
730.882	34872.43
731.224	35042.37
731.565	34649.61
731.906	34727.35
732.248	34785.65
732.589	34568.03
732.93	34535.94
733.271	34477.86
733.612	34427.92
733.953	34606.45
734.294	34509.5
734.635	34419.79
734.976	34490.75
735.317	34341.15
735.658	34353.8
735.999	34188.15
736.339	34010.98
736.68	34280.58
737.021	34274.48
737.361	34026.58
737.702	34241.26
738.042	33934.83
738.383	33982.06
738.723	33933.25
739.063	33953.58
739.404	33845.56
739.744	33832.91
740.084	33679.92
740.424	33766.7
740.764	33602.86
741.104	33806.24
741.444	33483.54
741.784	33267.05
742.124	33423.43
742.464	33566.7
742.804	33467.04
743.143	33267.05
743.483	33306.6
743.823	33216.65
744.162	33164.9
744.502	33149.99
744.841	33062.99
745.181	33189.76
745.52	32948.19
745.86	33085.13
746.199	32858.7
746.538	32877.23
746.877	33060.05
747.216	32942.09
747.556	32900.73
747.895	32801.75
748.234	32707.06
748.573	32747.06
748.911	32550.01
749.25	32642.88
749.589	32485.15
749.928	32459.39
750.267	32512.04
750.605	32340.97
750.944	32353.85
751.283	32274.53
751.621	32281.31
751.96	32125.16
752.298	32223.01
752.636	32353.63
752.975	31998.61
753.313	31834.32
753.651	32021.66
753.989	31843.81
754.327	31708.9
754.666	31651.5
755.004	31818.95
755.342	31736.92
755.679	31597.49
756.017	31500.32
756.355	31543.25
756.693	31494.89
757.031	31458.51
757.368	31268.23
757.706	31246.09
758.044	31161.34
758.381	31124.96
758.719	31049.03
759.056	31021.23
759.394	30913.21
759.731	30749.15
760.068	30547.12
760.405	30747.79
760.743	30581.02
761.08	30572.2
761.417	30405.43
