Data from red_cardboard_box_FLMS001491_00097.txt Node
Date: Wed Feb 08 11:33:25 GMT 2017
User: dcchb
Spectrometer: FLMS00149
Trigger mode: 0
Integration Time (sec): 2.000000E-2
Scans to average: 10
Electric dark correction enabled: true
Nonlinearity correction enabled: false
Boxcar width: 0
XAxis mode: Wavelengths
Number of Pixels in Spectrum: 2048
>>>>>Begin Spectral Data<<<<<
341.393	-26.12
341.776	-26.12
342.16	-26.12
342.543	-55.04
342.927	-43.97
343.31	-39.22
343.693	-79.45
344.077	-55.49
344.46	-64.53
344.843	-63.4
345.226	-43.97
345.61	-33.35
345.993	-27.02
346.376	-6.45
346.759	18.86
347.142	39.42
347.525	24.51
347.908	56.59
348.291	82.58
348.674	92.07
349.057	98.85
349.44	127.33
349.823	147.44
350.206	156.7
350.588	206.42
350.971	214.1
351.354	230.38
351.737	241.45
352.119	252.97
352.502	276.7
352.884	295.01
353.267	298.85
353.65	315.12
354.032	305.85
354.414	314.21
354.797	321.67
355.179	306.98
355.562	323.93
355.944	339.07
356.326	343.14
356.709	349.02
357.091	350.82
357.473	350.37
357.855	351.95
358.238	337.72
358.62	359.19
359.002	343.37
359.384	336.36
359.766	330.71
360.148	338.62
360.53	341.56
360.912	350.37
361.294	348.56
361.676	352.18
362.057	339.3
362.439	334.33
362.821	326.19
363.203	328.68
363.584	332.29
363.966	307.44
364.348	336.36
364.729	333.42
365.111	330.03
365.493	330.26
365.874	318.51
366.256	330.94
366.637	354.67
367.019	316.47
367.4	307.66
367.781	322.58
368.163	320.32
368.544	332.29
368.925	312.86
369.306	329.13
369.688	323.48
370.069	320.99
370.45	310.15
370.831	294.78
371.212	334.55
371.593	326.42
371.974	352.63
372.355	316.93
372.736	341.11
373.117	317.83
373.498	332.52
373.879	314.67
374.26	337.04
374.641	312.18
375.021	327.55
375.402	321.45
375.783	346.3
376.163	316.25
376.544	338.62
376.925	358.51
377.305	321.9
377.686	326.87
378.066	322.8
378.447	346.53
378.827	345.63
379.208	318.73
379.588	351.95
379.968	346.53
380.349	356.02
380.729	339.3
381.109	361.22
381.489	332.97
381.87	357.6
382.25	363.03
382.63	358.96
383.01	322.12
383.39	327.32
383.77	340.88
384.15	366.64
384.53	341.56
384.91	351.5
385.29	361.45
385.67	349.47
386.049	356.93
386.429	347.89
386.809	373.87
387.189	354.89
387.568	353.31
387.948	356.02
388.328	379.07
388.707	368.9
389.087	342.46
389.466	369.81
389.846	352.41
390.225	363.93
390.605	379.07
390.984	366.64
391.363	374.78
391.743	361.45
392.122	364.61
392.501	381.56
392.881	375.68
393.26	394.21
393.639	375.68
394.018	395.57
394.397	385.85
394.776	380.43
395.155	381.78
395.534	391.95
395.913	370.94
396.292	377.94
396.671	388.79
397.05	389.24
397.429	391.28
397.808	382.46
398.186	387.89
398.565	385.17
398.944	387.43
399.323	388.34
399.701	382.24
400.08	392.18
400.458	388.34
400.837	392.63
401.215	406.42
401.594	393.76
401.972	383.14
402.351	401.22
402.729	401.44
403.107	425.85
403.486	420.43
403.864	419.07
404.242	411.61
404.62	409.58
404.999	429.69
405.377	429.92
405.755	424.95
406.133	431.05
406.511	423.36
406.889	424.04
407.267	453.65
407.645	429.24
408.023	414.55
408.401	434.89
408.779	444.15
409.156	442.8
409.534	432.63
409.912	439.18
410.29	441.44
410.667	422.23
411.045	463.59
411.422	419.97
411.8	457.49
412.178	464.49
412.555	471.05
412.933	475.34
413.31	471.5
413.687	473.31
414.065	489.35
414.442	473.98
414.819	468.34
415.197	483.93
415.574	489.8
415.951	469.01
416.328	476.7
416.705	491.39
417.082	478.5
417.46	485.06
417.837	497.94
418.214	508.79
418.591	509.24
418.967	503.36
419.344	521.89
419.721	491.39
420.098	501.55
420.475	530.03
420.852	481.67
421.228	502.68
421.605	507.2
421.982	494.32
422.358	520.99
422.735	500.88
423.111	525.96
423.488	502.91
423.864	519.63
424.241	529.35
424.617	542.68
424.994	539.75
425.37	540.42
425.746	530.71
426.123	570.93
426.499	550.37
426.875	534.77
427.251	549.46
427.627	565.28
428.003	569.58
428.379	577.94
428.756	576.58
429.132	585.85
429.507	593.08
429.883	586.75
430.259	582.46
430.635	579.07
431.011	580.65
431.387	596.02
431.763	591.04
432.138	586.3
432.514	579.52
432.89	614.55
433.265	624.26
433.641	623.81
434.016	643.7
434.392	640.76
434.767	654.32
435.143	638.5
435.518	652.29
435.894	654.32
436.269	643.47
436.644	665.17
437.02	646.18
437.395	674.66
437.77	666.75
438.145	677.14
438.52	691.61
438.895	695
439.271	712.4
439.646	694.09
440.021	693.41
440.395	711.04
440.77	693.87
441.145	693.64
441.52	706.75
441.895	699.52
442.27	711.94
442.645	725.05
443.019	729.12
443.394	715.11
443.769	725.96
444.143	733.86
444.518	744.71
444.892	737.25
445.267	737.03
445.641	736.12
446.016	748.1
446.39	736.35
446.764	735.9
447.139	735.9
447.513	749.23
447.887	752.62
448.262	758.05
448.636	743.81
449.01	782.45
449.384	770.7
449.758	776.58
450.132	781.1
450.506	789.68
450.88	782.45
451.254	795.56
451.628	813.41
452.002	794.43
452.376	822.22
452.75	799.17
453.123	823.35
453.497	816.57
453.871	820.64
454.244	837.36
454.618	854.77
454.992	869.23
455.365	840.53
455.739	868.78
456.112	887.99
456.486	872.62
456.859	879.4
457.232	897.48
457.606	875.33
457.979	891.83
458.352	913.3
458.725	916.91
459.099	902.45
459.472	925.95
459.845	955.1
460.218	937.02
460.591	928.66
460.964	965.05
461.337	937.25
461.71	975.44
462.083	991.71
462.456	969.79
462.829	975.89
463.201	989.9
463.574	999.62
463.947	1013.18
464.32	1020.19
464.692	1024.48
465.065	1042.33
465.438	1039.39
465.81	1049.79
466.183	1064.03
466.555	1081.43
466.928	1077.81
467.3	1092.95
467.672	1090.01
468.045	1111.48
468.417	1114.19
468.789	1163.68
469.161	1140.18
469.534	1159.84
469.906	1171.14
470.278	1200.75
470.65	1169.11
471.022	1208.43
471.394	1206.62
471.766	1224.25
472.138	1207.3
472.51	1267.18
472.882	1244.13
473.253	1297.69
473.625	1290.91
473.997	1300.63
474.369	1290.69
474.74	1280.29
475.112	1350.35
475.484	1343.11
475.855	1369.33
476.227	1393.51
476.598	1401.42
476.97	1402.77
477.341	1455.43
477.713	1491.81
478.084	1485.26
478.455	1508.99
478.827	1509.66
479.198	1519.15
479.569	1556.89
479.94	1577.23
480.311	1584.69
480.682	1617.46
481.053	1661.75
481.424	1667.17
481.795	1699.04
482.166	1705.14
482.537	1764.57
482.908	1781.29
483.279	1769.77
483.65	1804.12
484.021	1826.72
484.391	1868.52
484.762	1869.65
485.133	1883.21
485.503	1895.87
485.874	1931.12
486.244	1960.73
486.615	1993.27
486.985	2009.09
487.356	2065.36
487.726	2035.53
488.097	2087.73
488.467	2096.54
488.837	2141.74
489.207	2134.51
489.578	2185.35
489.948	2198.46
490.318	2236.65
490.688	2212.92
491.058	2273.26
491.428	2318
491.798	2317.33
492.168	2388.74
492.538	2367.49
492.908	2388.06
493.278	2396.19
493.648	2452.01
494.017	2459.02
494.387	2469.19
494.757	2470.09
495.126	2501.28
495.496	2536.53
495.866	2568.17
496.235	2578.79
496.605	2602.74
496.974	2631.67
497.344	2662.63
497.713	2671.67
498.082	2685.68
498.452	2717.54
498.821	2672.8
499.19	2720.48
499.559	2734.26
499.928	2774.49
500.298	2777.43
500.667	2814.04
501.036	2804.09
501.405	2819.91
501.774	2871.66
502.143	2879.35
502.512	2886.35
502.88	2945.78
503.249	2946.46
503.618	2949.4
503.987	2964.77
504.356	3003.41
504.724	2992.11
505.093	2993.92
505.462	3022.39
505.83	3043.63
506.199	3068.04
506.567	3081.15
506.936	3115.5
507.304	3128.38
507.672	3180.81
508.041	3197.53
508.409	3196.62
508.777	3187.36
509.145	3248.83
509.514	3254.48
509.882	3260.13
510.25	3286.34
510.618	3301.48
510.986	3305.55
511.354	3369.05
511.722	3390.74
512.09	3428.94
512.458	3435.71
512.826	3436.84
513.193	3510.97
513.561	3454.7
513.929	3494.47
514.297	3559.55
514.664	3602.04
515.032	3621.47
515.4	3625.77
515.767	3646.1
516.135	3672.77
516.502	3639.1
516.869	3702.15
517.237	3734.24
517.604	3733.56
517.972	3805.87
518.339	3782.37
518.706	3847
519.073	3863.5
519.44	3882.71
519.808	3967.45
520.175	3927.45
520.542	3957.96
520.909	4000.22
521.276	4029.37
521.643	4068.01
522.009	4077.28
522.376	4116.15
522.743	4182.81
523.11	4174.23
523.477	4222.36
523.843	4252.64
524.21	4272.53
524.577	4310.04
524.943	4393.43
525.31	4376.71
525.676	4407.89
526.043	4448.8
526.409	4486.31
526.776	4521.79
527.142	4529.25
527.508	4548
527.874	4624.16
528.241	4646.76
528.607	4675.23
528.973	4675.23
529.339	4749.35
529.705	4814.44
530.071	4781.44
530.437	4790.71
530.803	4831.84
531.169	4887.65
531.535	4897.37
531.901	4926.97
532.267	4971.27
532.632	5018.95
532.998	5011.94
533.364	5062.56
533.73	5015.56
534.095	5091.49
534.461	5116.8
534.826	5150.92
535.192	5237.25
535.557	5193.63
535.923	5194.54
536.288	5258.49
536.653	5302.11
537.019	5297.81
537.384	5314.08
537.749	5380.52
538.114	5321.31
538.479	5377.13
538.845	5438.15
539.21	5423.46
539.575	5457.81
539.94	5470.24
540.305	5531.48
540.67	5579.84
541.034	5540.52
541.399	5565.38
541.764	5626.62
542.129	5635.43
542.494	5673.4
542.858	5695.77
543.223	5725.6
543.587	5716.78
543.952	5735.99
544.316	5755.2
544.681	5768.76
545.045	5801.98
545.41	5872.26
545.774	5894.63
546.138	5909.77
546.503	5941.19
546.867	5957
547.231	6015.53
547.595	6025.25
547.959	6051.69
548.324	6065.25
548.688	6118.58
549.052	6145.47
549.416	6175.98
549.779	6191.12
550.143	6150.22
550.507	6238.35
550.871	6282.65
551.235	6284.23
551.599	6348.63
551.962	6397.44
552.326	6420.72
552.689	6501.85
553.053	6453.49
553.417	6477.89
553.78	6599.25
554.143	6570.32
554.507	6656.65
554.87	6669.98
555.234	6770.77
555.597	6701.17
555.96	6827.49
556.323	6838.56
556.686	6842.4
557.05	6963.53
557.413	6947.94
557.776	7034.94
558.139	7089.18
558.502	7097.99
558.865	7102.74
559.228	7173.7
559.59	7223.64
559.953	7301.83
560.316	7398.55
560.679	7412.11
561.041	7493.91
561.404	7544.31
561.767	7661.37
562.129	7665.43
562.492	7820.01
562.854	7835.37
563.217	7874.24
563.579	7858.88
563.941	7984.07
564.304	8018.19
564.666	8140
565.028	8167.79
565.39	8202.6
565.753	8282.14
566.115	8371.63
566.477	8480.1
566.839	8552.87
567.201	8655.01
567.563	8660.44
567.925	8766.42
568.287	8771.85
568.648	8861.11
569.01	8962.8
569.372	9111.27
569.734	9171.38
570.095	9229.69
570.457	9298.61
570.819	9369.12
571.18	9403.02
571.542	9525.05
571.903	9615.89
572.265	9766.62
572.626	9817.92
572.987	9877.81
573.349	9949.89
573.71	10132.71
574.071	10172.26
574.432	10266.27
574.794	10405.47
575.155	10472.82
575.516	10602.08
575.877	10684.56
576.238	10715.75
576.599	10921.17
576.96	10995.97
577.32	11027.38
577.681	11188.05
578.042	11367.48
578.403	11435.73
578.763	11454.71
579.124	11705.1
579.485	11788.49
579.845	11991.87
580.206	12104.19
580.566	12177.18
580.927	12453.56
581.287	12576.94
581.648	12689.03
582.008	12909.59
582.368	13023.71
582.728	13222.8
583.089	13366.3
583.449	13623.47
583.809	13861.43
584.169	13925.61
584.529	14128.77
584.889	14486.72
585.249	14584.12
585.609	14782.54
585.969	15015.98
586.329	15268.4
586.688	15504.1
587.048	15664.55
587.408	15919.23
587.768	16191.31
588.127	16463.62
588.487	16654.8
588.846	17123.26
589.206	17219.31
589.565	17561.67
589.925	17903.13
590.284	18113.07
590.643	18523.68
591.003	18794.63
591.362	19172.25
591.721	19472.36
592.08	19735.63
592.44	20196.4
592.799	20475.94
593.158	20753.23
593.517	21189.6
593.876	21554.56
594.235	22001.1
594.593	22385.5
594.952	22663.23
595.311	23039.27
595.67	23466.15
596.029	24024.1
596.387	24417.99
596.746	24743.63
597.104	25080.34
597.463	25499.99
597.822	25918.97
598.18	26254.78
598.538	26681.43
598.897	27178.59
599.255	27414.52
599.613	28243.2
599.972	28265.8
600.33	28844.31
600.688	29091.76
601.046	29574.01
601.404	30163.83
601.762	30499.64
602.12	31067.98
602.478	31389.78
602.836	31878.36
603.194	32202.87
603.552	32736.64
603.91	32864.09
604.268	33472.67
604.625	33875.37
604.983	34303.6
605.341	34439.65
605.698	34976.81
606.056	35516.45
606.413	35789.21
606.771	36187.4
607.128	36562.98
607.485	36814.05
607.843	37054.49
608.2	37644.76
608.557	38049.27
608.914	38272.09
609.272	38582.59
609.629	38954.78
609.986	39350.48
610.343	39494.65
610.7	39961.53
611.057	40295.31
611.414	40391.58
611.771	40891
612.127	41116.76
612.484	41450.31
612.841	41641.26
613.198	41790.64
613.554	42028.15
613.911	42490.28
614.267	42668.13
614.624	42899.31
614.98	43016.37
615.337	43415.91
615.693	43654.54
616.05	43713.3
616.406	44217.47
616.762	44082.78
617.118	44409.55
617.475	44556.22
617.831	44900.84
618.187	44912.14
618.543	45193.49
618.899	45599.35
619.255	45489.07
619.611	45690.65
619.967	45910.76
620.323	46210.41
620.678	46108.94
621.034	46297.41
621.39	46409.27
621.746	46513.23
622.101	47034.34
622.457	46734.24
622.812	46926.55
623.168	47250.83
623.523	47090.61
623.879	47504.61
624.234	47239.53
624.589	47540.54
624.945	47589.36
625.3	47691.5
625.655	47723.36
626.01	47877.03
626.365	47881.55
626.72	47936.47
627.075	48137.59
627.43	48046.52
627.785	48123.35
628.14	48227.76
628.495	48360.86
628.85	48428.2
629.205	48421.65
629.559	48682.66
629.914	48462.55
630.269	48601.53
630.623	48544.36
630.978	48546.39
631.332	48907.29
631.687	48854.63
632.041	48803.56
632.396	48792.94
632.75	48715.2
633.104	48834.3
633.459	48753.17
633.813	48800.17
634.167	48779.38
634.521	48832.71
634.875	49018.92
635.229	48797.23
635.583	48818.25
635.937	48750.46
636.291	48829.55
636.645	48842.66
636.999	48843.33
637.352	48929.66
637.706	48740.29
638.06	48851.02
638.413	48824.35
638.767	48820.06
639.121	48902.77
639.474	48746.39
639.828	48810.79
640.181	48974.86
640.534	48844.92
640.888	48874.52
641.241	48760.62
641.594	48832.04
641.947	49033.39
642.301	48705.48
642.654	48828.87
643.007	48864.8
643.36	48906.61
643.713	48810.79
644.066	49051.92
644.419	48619.61
644.771	48416.45
645.124	48111.38
645.477	48053.98
645.83	47887.43
646.182	47700.31
646.535	47707.32
646.888	47811.72
647.24	47707.32
647.593	47809.92
647.945	47804.94
648.298	47659.18
648.65	47658.73
649.002	47571.05
649.355	47699.18
649.707	47579.86
650.059	47816.02
650.411	48213.29
650.763	48267.08
651.115	48596.56
651.467	48654.41
651.819	48604.24
652.171	48415.77
652.523	48500.07
652.875	48547.75
653.227	48219.85
653.578	48519.95
653.93	48507.75
654.282	48490.35
654.633	48442.21
654.985	48531.25
655.337	48464.14
655.688	48433.4
656.039	48475.21
656.391	48286.29
656.742	48279.51
657.094	48397.92
657.445	48494.19
657.796	48321.77
658.147	48322.9
658.498	48275.44
658.849	48362.44
659.2	48317.7
659.551	48163.58
659.902	48305.5
660.253	48259.17
660.604	48314.08
660.955	48148.89
661.306	48226.85
661.656	48233.86
662.007	48188.66
662.358	48286.06
662.708	48277.93
663.059	48254.42
663.409	48056.69
663.76	48289.68
664.11	48352.73
664.461	48309.34
664.811	48245.84
665.161	48245.84
665.511	48209
665.862	48265.27
666.212	48273.86
666.562	48324.93
666.912	48199.96
667.262	48092.39
667.612	48102.56
667.962	48189.11
668.312	48203.35
668.662	48337.81
669.011	48225.27
669.361	48185.95
669.711	48216.01
670.06	48140.98
670.41	48087.42
670.76	47945.5
671.109	48063.92
671.459	48082.68
671.808	48059.85
672.157	48120.64
672.507	47920.87
672.856	47858.28
673.205	47966.97
673.554	48048.78
673.904	47944.83
674.253	48131.26
674.602	48072.06
674.951	47352.98
675.3	47386.65
675.649	47981.89
675.998	47813.98
676.346	47910.7
676.695	48061.43
677.044	47598.4
677.393	47881.78
677.741	47839.29
678.09	47684.04
678.438	47608.34
678.787	47701.9
679.135	47722.23
679.484	47518.17
679.832	47580.77
680.181	47479.75
680.529	47546.19
680.877	47363.6
681.225	47345.97
681.573	47620.99
681.922	47168.58
682.27	47232.3
682.618	47261.68
682.966	47101.23
683.314	47091.29
683.661	47004.29
684.009	46924.97
684.357	46793.67
684.705	46787.34
685.053	46839.32
685.4	46721.58
685.748	46420.57
686.095	46489.05
686.443	46527.46
686.79	46457.18
687.138	46451.31
687.485	46355.26
687.832	46291.31
688.18	46314.59
688.527	46157.53
688.874	46022.62
689.221	45937.87
689.568	45944.65
689.915	45748.05
690.262	45872.57
690.609	45661.05
690.956	45602.29
691.303	45542.86
691.65	45379.47
691.997	45315.07
692.344	45107.39
692.69	45080.04
693.037	45222.41
693.383	44877.56
693.73	44880.5
694.077	44787.17
694.423	44664.46
694.769	44587.4
695.116	44492.26
695.462	44456.56
695.808	44419.27
696.155	44400.29
696.501	44108.32
696.847	44157.13
697.193	43695.9
697.539	43944.71
697.885	43666.75
698.231	43671.72
698.577	43620.19
698.923	43575.45
699.269	43299.53
699.614	43174.56
699.96	43167.78
700.306	43075.12
700.651	42824.96
700.997	42773.21
701.342	42754.68
701.688	42698.41
702.033	42526.89
702.379	42445.54
702.724	42389.49
703.069	42400.57
703.415	41971.65
703.76	42131.42
704.105	42134.58
704.45	41893.46
704.795	41720.13
705.14	41660.25
705.485	41660.25
705.83	41414.6
706.175	41542.28
706.52	41393.59
706.865	41259.13
707.209	41220.94
707.554	41005.35
707.899	41212.57
708.243	40891.68
708.588	40745.02
708.932	40518.13
709.277	40656.43
709.621	40537.56
709.966	40360.39
710.31	40388.19
710.654	40201.98
710.998	40276.1
711.342	40357.23
711.687	40148.2
712.031	40017.35
712.375	39747.53
712.719	39899.61
713.063	39721.31
713.407	39851.03
713.75	39639.51
714.094	39658.49
714.438	39435.67
714.782	39494.43
715.125	39213.31
715.469	39473.64
715.812	39155.68
716.156	38983.25
716.499	38924.73
716.843	39121.78
717.186	38775.8
717.53	38905.52
717.873	39036.36
718.216	38780.1
718.559	38736.26
718.902	38412.65
719.246	38472.99
719.589	38409.48
719.932	38208.59
720.275	38244.29
720.617	38270.96
720.96	38090.62
721.303	38174.01
721.646	38237.51
721.989	38000.23
722.331	38059.89
722.674	37930.17
723.016	38054.92
723.359	37829.16
723.701	37817.64
724.044	37585.1
724.386	37455.16
724.729	37659.9
725.071	37506.01
725.413	37443.41
725.755	37444.54
726.097	37153.02
726.439	37109.86
726.782	37182.4
727.124	37272.11
727.465	36973.14
727.807	37059.24
728.149	37059.46
728.491	36932.69
728.833	37133.13
729.175	36853.14
729.516	36737.44
729.858	36657.67
730.199	36736.99
730.541	36779.02
730.882	36682.52
731.224	36676.87
731.565	36368.86
731.906	36513.94
732.248	36539.03
732.589	36336.54
732.93	36288.18
733.271	36287.96
733.612	36184.68
733.953	36238.92
734.294	36147.62
734.635	36034.86
734.976	36123.89
735.317	35972.03
735.658	35957.57
735.999	35944.01
736.339	35814.75
736.68	36125.25
737.021	35737.69
737.361	35712.83
737.702	35884.13
738.042	35691.59
738.383	35637.35
738.723	35659.05
739.063	35511.48
739.404	35593.97
739.744	35427.19
740.084	35315.78
740.424	35431.48
740.764	35352.39
741.104	35456.57
741.444	35109.01
741.784	35055.9
742.124	35095.22
742.464	35097.03
742.804	35081.21
743.143	35040.31
743.483	35030.36
743.823	34795.34
744.162	34745.17
744.502	34958.73
744.841	34758.96
745.181	34847.54
745.52	34625.86
745.86	34754.67
746.199	34593.77
746.538	34557.83
746.877	34622.24
747.216	34615.46
747.556	34463.6
747.895	34471.96
748.234	34293.89
748.573	34248.24
748.911	34259.54
749.25	34293.21
749.589	34114.46
749.928	34070.62
750.267	34132.76
750.605	33989.26
750.944	33869.94
751.283	33794.01
751.621	33893.22
751.96	33653.9
752.298	33715.37
752.636	33701.81
752.975	33510.18
753.313	33339.34
753.651	33581.59
753.989	33192.9
754.327	33310.64
754.666	33156.06
755.004	33109.74
755.342	33074.03
755.679	33186.57
756.017	32955.62
756.355	32945.45
756.693	32827.71
757.031	32978.89
757.368	32709.52
757.706	32767.82
758.044	32529.19
758.381	32606.93
758.719	32337.78
759.056	32441.73
759.394	32398.12
759.731	32063.21
760.068	32171.46
