Data from red_shiny_book_FLMS001491_00019.txt Node
Date: Wed Feb 08 15:23:43 GMT 2017
User: dcchb
Spectrometer: FLMS00149
Trigger mode: 0
Integration Time (sec): 2.000000E-2
Scans to average: 10
Electric dark correction enabled: true
Nonlinearity correction enabled: false
Boxcar width: 0
XAxis mode: Wavelengths
Number of Pixels in Spectrum: 2048
>>>>>Begin Spectral Data<<<<<
341.393	-8.15
341.776	-8.15
342.16	-8.15
342.543	-38.43
342.927	-73.23
343.31	-54.93
343.693	-59.45
344.077	-56.96
344.46	-74.36
344.843	-66
345.226	-31.65
345.61	-15.15
345.993	-9.28
346.376	-19
346.759	5.64
347.142	31.17
347.525	25.07
347.908	53.54
348.291	76.37
348.674	75.24
349.057	119.76
349.44	133.09
349.823	133.77
350.206	149.59
350.588	206.53
350.971	228.23
351.354	244.73
351.737	258.96
352.119	244.73
352.502	273.88
352.884	292.41
353.267	300.77
353.65	301.9
354.032	303.25
354.414	303.48
354.797	312.75
355.179	348
355.562	353.2
355.944	350.49
356.326	353.42
356.709	338.06
357.091	368.79
357.473	356.36
357.855	340.99
358.238	344.61
358.62	365.63
359.002	361.78
359.384	351.62
359.766	358.62
360.148	352.07
360.53	345.51
360.912	369.47
361.294	359.75
361.676	355.68
362.057	332.18
362.439	330.82
362.821	359.75
363.203	339.86
363.584	348
363.966	340.77
364.348	339.19
364.729	340.32
365.111	340.09
365.493	324.72
365.874	327.43
366.256	325.63
366.637	343.25
367.019	330.15
367.4	340.32
367.781	334.67
368.163	337.38
368.544	353.65
368.925	343.71
369.306	364.72
369.688	354.78
370.069	340.09
370.45	329.69
370.831	323.59
371.212	313.65
371.593	354.78
371.974	348.45
372.355	331.73
372.736	361.33
373.117	323.59
373.498	331.5
373.879	338.06
374.26	318.4
374.641	324.05
375.021	330.37
375.402	338.51
375.783	360.43
376.163	349.81
376.544	351.16
376.925	359.07
377.305	348.9
377.686	344.61
378.066	332.41
378.447	355.68
378.827	351.39
379.208	371.95
379.588	378.06
379.968	365.4
380.349	392.29
380.729	363.82
381.109	375.34
381.489	387.32
381.87	366.3
382.25	373.99
382.63	350.94
383.01	367.21
383.39	381.44
383.77	391.16
384.15	385.29
384.53	387.77
384.91	395
385.29	390.94
385.67	378.28
386.049	375.34
386.429	377.38
386.809	394.1
387.189	379.18
387.568	387.09
387.948	385.29
388.328	377.38
388.707	400.43
389.087	393.42
389.466	407.21
389.846	402.24
390.225	411.95
390.605	384.16
390.984	392.97
391.363	384.61
391.743	419.18
392.122	402.24
392.501	420.31
392.881	415.34
393.26	413.31
393.639	416.92
394.018	413.53
394.397	410.14
394.776	399.98
395.155	427.55
395.534	416.92
395.913	445.85
396.292	426.42
396.671	432.97
397.05	420.99
397.429	407.21
397.808	421.22
398.186	439.3
398.565	440.2
398.944	433.42
399.323	440.43
399.701	456.7
400.08	450.37
400.458	447.21
400.837	442.91
401.215	465.74
401.594	480.2
401.972	454.44
402.351	453.76
402.729	487.2
403.107	473.87
403.486	463.7
403.864	486.3
404.242	477.49
404.62	475.68
404.999	504.61
405.377	483.14
405.755	483.81
406.133	489.01
406.511	496.02
406.889	506.19
407.267	508.9
407.645	508.22
408.023	501.89
408.401	500.54
408.779	499.41
409.156	507.32
409.534	508
409.912	505.28
410.29	533.53
410.667	538.5
411.045	545.28
411.422	546.86
411.8	547.32
412.178	568.11
412.555	575.79
412.933	581.44
413.31	573.3
413.687	555.23
414.065	575.79
414.442	612.17
414.819	559.29
415.197	587.77
415.574	594.77
415.951	596.58
416.328	632.51
416.705	597.26
417.082	618.05
417.46	606.07
417.837	603.13
418.214	622.79
418.591	625.05
418.967	654.66
419.344	659.63
419.721	645.62
420.098	659.63
420.475	689.46
420.852	663.02
421.228	660.99
421.605	646.52
421.982	675.45
422.358	684.49
422.735	698.27
423.111	700.08
423.488	734.66
423.864	723.36
424.241	727.42
424.617	738.05
424.994	750.47
425.37	698.95
425.746	703.47
426.123	728.55
426.499	735.11
426.875	751.15
427.251	756.58
427.627	775.78
428.003	773.07
428.379	778.27
428.756	781.89
429.132	784.82
429.507	776.01
429.883	782.34
430.259	778.95
430.635	781.43
431.011	803.35
431.387	808.33
431.763	860.08
432.138	844.03
432.514	853.52
432.89	850.36
433.265	860.08
433.641	855.1
434.016	860.75
434.392	874.77
434.767	865.5
435.143	879.28
435.518	887.19
435.894	898.04
436.269	902.79
436.644	927.87
437.02	929.45
437.395	957.25
437.77	940.98
438.145	927.87
438.52	947.31
438.895	929.23
439.271	953.86
439.646	930.58
440.021	954.09
440.395	951.37
440.77	990.69
441.145	985.5
441.52	1036.57
441.895	1028.43
442.27	1031.82
442.645	990.47
443.019	996.12
443.394	1004.71
443.769	994.08
444.143	998.83
444.518	1012.39
444.892	1034.08
445.267	1053.74
445.641	1075.89
446.016	1073.86
446.39	1077.7
446.764	1088.32
447.139	1084.25
447.513	1065.04
447.887	1050.81
448.262	1036.79
448.636	1050.13
449.01	1068.88
449.384	1057.81
449.758	1090.8
450.132	1120.18
450.506	1144.14
450.88	1141.2
451.254	1136.45
451.628	1155.66
452.002	1139.39
452.376	1123.57
452.75	1119.05
453.123	1107.53
453.497	1143.68
453.871	1122.44
454.244	1161.09
454.618	1150.69
454.992	1204.25
455.365	1204.47
455.739	1266.85
456.112	1225.26
456.486	1253.74
456.859	1239.28
457.232	1248.31
457.606	1218.71
457.979	1218.94
458.352	1201.54
458.725	1225.72
459.099	1252.16
459.472	1238.37
459.845	1318.6
460.218	1343.68
460.591	1367.41
460.964	1339.61
461.337	1355.2
461.71	1373.28
462.083	1351.59
462.456	1348.42
462.829	1295.09
463.201	1351.36
463.574	1332.38
463.947	1338.26
464.32	1343.45
464.692	1385.26
465.065	1437.69
465.438	1458.48
465.81	1477.69
466.183	1497.8
466.555	1513.84
466.928	1524.69
467.3	1507.06
467.672	1490.34
468.045	1492.15
468.417	1509.78
468.789	1475.88
469.161	1473.17
469.534	1545.48
469.906	1550.68
470.278	1617.8
470.65	1631.58
471.022	1661.41
471.394	1717.23
471.766	1746.61
472.138	1740.28
472.51	1755.19
472.882	1757.68
473.253	1675.42
473.625	1691.92
473.997	1710.45
474.369	1717.45
474.74	1756.55
475.112	1816.44
475.484	1843.33
475.855	1886.49
476.227	1933.95
476.598	2017.11
476.97	2032.02
477.341	2062.3
477.713	2082.19
478.084	2035.41
478.455	2089.87
478.827	2037.22
479.198	2065.02
479.569	2047.39
479.94	2097.33
480.311	2086.48
480.682	2159.48
481.053	2226.59
481.424	2304.78
481.795	2359.7
482.166	2429.53
482.537	2458.23
482.908	2490.77
483.279	2487.83
483.65	2513.59
484.021	2525.34
484.391	2531.9
484.762	2478.34
485.133	2480.82
485.503	2529.18
485.874	2594.72
486.244	2569.18
486.615	2711.33
486.985	2775.73
487.356	2876.52
487.726	2933.69
488.097	2992
488.467	3013.47
488.837	3082.84
489.207	3059.79
489.578	3041.71
489.948	3007.36
490.318	2974.37
490.688	2994.48
491.058	3048.95
491.428	3034.48
491.798	3098.89
492.168	3198.77
492.538	3286.91
492.908	3370.29
493.278	3439.22
493.648	3489.61
494.017	3559.44
494.387	3598.31
494.757	3573.68
495.126	3537.75
495.496	3522.15
495.866	3482.38
496.235	3470.86
496.605	3462.95
496.974	3423.62
497.344	3497.75
497.713	3534.13
498.082	3592.66
498.452	3681.25
498.821	3769.6
499.19	3859.32
499.559	3911.75
499.928	3956.49
500.298	3969.37
500.667	4059.31
501.036	4007.79
501.405	3934.35
501.774	3800.34
502.143	3836.95
502.512	3797.85
502.88	3762.15
503.249	3774.35
503.618	3789.04
503.987	3851.64
504.356	3914.01
504.724	4003.04
505.093	4102.93
505.462	4170.95
505.83	4245.52
506.199	4277.39
506.567	4307.67
506.936	4281.46
507.304	4297.73
507.672	4202.81
508.041	4136.6
508.409	4115.81
508.777	3995.14
509.145	3986.1
509.514	3977.51
509.882	4100.22
510.25	4076.26
510.618	4177.5
510.986	4256.82
511.354	4418.63
511.722	4446.65
512.09	4512.41
512.458	4562.13
512.826	4548.34
513.193	4581.56
513.561	4507.21
513.929	4431.73
514.297	4407.1
514.664	4357.61
515.032	4313.77
515.4	4299.53
515.767	4264.28
516.135	4279.42
516.502	4258.63
516.869	4439.87
517.237	4466.76
517.604	4546.76
517.972	4701.11
518.339	4744.49
518.706	4793.76
519.073	4866.07
519.44	4901.78
519.808	4855.23
520.175	4811.84
520.542	4751.27
520.909	4668.34
521.276	4574.78
521.643	4555.57
522.009	4525.52
522.376	4533.2
522.743	4537.27
523.11	4612.75
523.477	4727.55
523.843	4777.49
524.21	4944.94
524.577	5091.6
524.943	5153.97
525.31	5218.61
525.676	5351.03
526.043	5316.46
526.409	5365.49
526.776	5285.04
527.142	5264.93
527.508	5142.9
527.874	5139.74
528.241	4987.88
528.607	4979.29
528.973	4987.2
529.339	4974.54
529.705	5075.11
530.071	5209.34
530.437	5288.43
530.803	5373.63
531.169	5542.89
531.535	5687.97
531.901	5759.61
532.267	5827.63
532.632	5955.31
532.998	5954.63
533.364	5970.22
533.73	5857.01
534.095	5861.75
534.461	5764.35
534.826	5730.46
535.192	5649.1
535.557	5600.97
535.923	5577.01
536.288	5627.86
536.653	5665.37
537.019	5696.79
537.384	5859.49
537.749	5972.26
538.114	6151.01
538.479	6264.45
538.845	6395.52
539.21	6471.23
539.575	6508.74
539.94	6608.17
540.305	6646.14
540.67	6550.1
541.034	6468.29
541.399	6433.49
541.764	6328.18
542.129	6262.19
542.494	6217
542.858	6121.86
543.223	6141.97
543.587	6155.98
543.952	6240.95
544.316	6303.1
544.681	6438.01
545.045	6599.13
545.41	6765.23
545.774	6886.13
546.138	7007.26
546.503	7052.91
546.867	7208.16
547.231	7214.94
547.595	7219.91
547.959	7115.5
548.324	7049.74
548.688	6941.05
549.052	6843.87
549.416	6772.01
549.779	6622.18
550.143	6571.56
550.507	6557.1
550.871	6560.49
551.235	6602.75
551.599	6715.74
551.962	6795.06
552.326	6950.99
552.689	7109.86
553.053	7226.24
553.417	7348.27
553.78	7548.04
554.143	7551.88
554.507	7612.67
554.87	7682.27
555.234	7615.83
555.597	7485.21
555.96	7398.66
556.323	7303.52
556.686	7184.43
557.05	7071.89
557.413	6975.4
557.776	6976.3
558.139	6904.89
558.502	6893.14
558.865	6927.04
559.228	7056.52
559.59	7209.29
559.953	7379.23
560.316	7609.5
560.679	7721.36
561.041	7870.97
561.404	8022.83
561.767	8157.74
562.129	8141.92
562.492	8129.04
562.854	8142.6
563.217	8061.92
563.579	7941.02
563.941	7820.12
564.304	7701.03
564.666	7618.99
565.028	7535.15
565.39	7447.47
565.753	7444.54
566.115	7432.33
566.477	7518.43
566.839	7489.51
567.201	7680.46
567.563	7821.02
567.925	7978.76
568.287	8151.86
568.648	8295.81
569.01	8503.72
569.372	8710.49
569.734	8727.21
570.095	8817.61
570.457	8867.55
570.819	8836.14
571.18	8767.66
571.542	8706.2
571.903	8584.84
572.265	8420.78
572.626	8364.74
572.987	8188.92
573.349	8159.32
573.71	8148.47
574.071	8138.75
574.432	8176.04
574.794	8375.13
575.155	8475.7
575.516	8627.78
575.877	8842.47
576.238	9108.9
576.599	9401.09
576.96	9580.52
577.32	9746.62
577.681	9962.89
578.042	10174.86
578.403	10229.1
578.763	10366.72
579.124	10407.62
579.485	10456.21
579.845	10521.74
580.206	10474.96
580.566	10446.94
580.927	10533.49
581.287	10559.03
581.648	10568.52
582.008	10795.63
582.368	11054.16
582.728	11225.68
583.089	11633.35
583.449	11874.25
583.809	12347.68
584.169	12891.85
584.529	13330.26
584.889	13994.65
585.249	14309.21
585.609	14791.91
585.969	15430.54
586.329	15933.35
586.688	16330.63
587.048	16759.32
587.408	17061.46
587.768	17489.24
588.127	17760.87
588.487	18038.16
588.846	18472.72
589.206	18707.29
589.565	19058.02
589.925	19449.42
590.284	19773.25
590.643	20307.25
591.003	20761.25
591.362	21274.23
591.721	21940.43
592.08	22469.68
592.44	23341.97
592.799	23993.93
593.158	24656.51
593.517	25395.48
593.876	26135.34
594.235	26776
594.593	27452.6
594.952	28123.09
595.311	28647.37
595.67	29166.45
596.029	29824.29
596.387	30279.42
596.746	30918.95
597.104	30907.2
597.463	31290.69
597.822	31820.62
598.18	32030.56
598.538	32474.61
598.897	33082.28
599.255	33101.04
599.613	34299.42
599.972	34391.4
600.33	35018.73
600.688	35515.21
601.046	36158.81
601.404	36854.38
601.762	37371.21
602.12	38329.6
602.478	38787.44
602.836	39282.57
603.194	39751.03
603.552	40260.62
603.91	40643.44
604.268	41331.33
604.625	41447.71
604.983	42137.18
605.341	42242.26
605.698	42636.15
606.056	42894.9
606.413	43017.84
606.771	43311.62
607.128	43751.38
607.485	43513.64
607.843	43791.6
608.2	44264.13
608.557	44525.37
608.914	44638.13
609.272	45177.33
609.629	45519.47
609.986	46013.69
610.343	46152.44
610.7	46834.01
611.057	47121.46
611.414	47365.29
611.771	47780.42
612.127	48166.63
612.484	48381.31
612.841	48662.21
613.198	48906.95
613.554	49039.83
613.911	49424.9
614.267	49477.55
614.624	49549.19
614.98	49622.64
615.337	49816.53
615.693	49669.64
616.05	49747.15
616.406	49927.49
616.762	49849.97
617.118	49779.69
617.475	49974.04
617.831	50104.21
618.187	50167.03
618.543	50239.79
618.899	50534.7
619.255	50609.05
619.611	50778.76
619.967	51111.18
620.323	51334.23
620.678	51379.88
621.034	51448.12
621.39	51633.88
621.746	51780.09
622.101	52159.74
622.457	51983.25
622.812	52165.62
623.168	52282.9
623.523	52388.89
623.879	52370.81
624.234	52162.91
624.589	52216.01
624.945	52263.02
625.3	52309.12
625.655	52204.04
626.01	52154.09
626.365	52156.81
626.72	52058.05
627.075	52007.66
627.43	51988.9
627.785	51976.25
628.14	52122.68
628.495	52168.11
628.85	52140.76
629.205	52164.04
629.559	52440.87
629.914	52468.89
630.269	52531.49
630.623	52619.17
630.978	52712.95
631.332	52929.89
631.687	53024.13
632.041	52951.59
632.396	52957.01
632.75	52862.1
633.104	53019.38
633.459	52830.91
633.813	52828.43
634.167	52789.11
634.521	52592.05
634.875	52749.33
635.229	52598.15
635.583	52301.89
635.937	52187.31
636.291	52191.83
636.645	52077.26
636.999	52034.1
637.352	51996.13
637.706	51792.52
638.06	52013.08
638.413	51892.63
638.767	51870.26
639.121	51950.03
639.474	51728.8
639.828	51910.94
640.181	52116.13
640.534	52240.65
640.888	52249.91
641.241	52131.04
641.594	52286.75
641.947	52453.52
642.301	52403.81
642.654	52491.71
643.007	52472.5
643.36	52452.39
643.713	52345.5
644.066	52341.66
644.419	52129.69
644.771	51914.1
645.124	51334.68
645.477	51254.68
645.83	50950.28
646.182	50837.97
646.535	50706.9
646.888	50651.99
647.24	50455.38
647.593	50648.15
647.945	50446.8
648.298	50270.98
648.65	50243.18
649.002	50095.39
649.355	50372.45
649.707	50289.51
650.059	50507.36
650.411	50954.35
650.763	51055.37
651.115	51594.34
651.467	51523.83
651.819	51564.51
652.171	51532.64
652.523	51531.51
652.875	51538.97
653.227	51388.92
653.578	51691.51
653.93	51666.42
654.282	51366.77
654.633	51375.81
654.985	51219.66
655.337	51253.33
655.688	51174.69
656.039	51222.59
656.391	50715.94
656.742	50808.82
657.094	50729.27
657.445	50708.03
657.796	50592.78
658.147	50522.27
658.498	50417.87
658.849	50555.49
659.2	50543.29
659.551	50436.4
659.902	50667.35
660.253	50622.38
660.604	50769.05
660.955	50639.56
661.306	50950.96
661.656	50946.44
662.007	50962.26
662.358	51105.31
662.708	51108.02
663.059	51175.14
663.409	50971.75
663.76	51258.98
664.11	51329.71
664.461	51345.3
664.811	51118.87
665.161	51038.42
665.511	50983.96
665.862	50924.75
666.212	50977.18
666.562	50833.23
666.912	50636.62
667.262	50563.63
667.612	50434.14
667.962	50271.21
668.312	50261.72
668.662	50229.4
669.011	50116.63
669.361	50043.64
669.711	49953.02
670.06	49969.97
670.41	49907.15
670.76	49896.08
671.109	50001.16
671.459	50044.77
671.808	50106.24
672.157	50213.13
672.507	50093.58
672.856	50336.06
673.205	50350.07
673.554	50473.46
673.904	50332
674.253	50666.45
674.602	50696.28
674.951	50184.88
675.3	49979.69
675.649	50458.55
675.998	50494.48
676.346	50395.95
676.695	50463.29
677.044	50130.87
677.393	50233.47
677.741	50167.03
678.09	49998.67
678.438	49766.36
678.787	49832.35
679.135	49583.99
679.484	49242.08
679.832	49390.78
680.181	49131.35
680.529	49104.46
680.877	49052.26
681.225	48902.88
681.573	49213.61
681.922	49014.74
682.27	48767.52
682.618	49018.58
682.966	48909.66
683.314	49046.83
683.661	49054.06
684.009	49113.72
684.357	49127.06
684.705	49135.64
685.053	49319.59
685.4	49281.63
685.748	49120.28
686.095	49259.93
686.443	49154.17
686.79	49047.06
687.138	49231.23
687.485	49120.95
687.832	48952.6
688.18	48828.31
688.527	48537.01
688.874	48600.06
689.221	48285.95
689.568	48130.25
689.915	47872.85
690.262	47840.76
690.609	47582.69
690.956	47460.88
691.303	47308.35
691.65	47012.31
691.997	46893.44
692.344	46620.91
692.69	46729.38
693.037	46730.51
693.383	46429.5
693.73	46675.82
694.077	46325.1
694.423	46391.08
694.769	46382.27
695.116	46489.84
695.462	46429.05
695.808	46290.07
696.155	46575.94
696.501	46307.02
696.847	46424.08
697.193	46165.55
697.539	46402.38
697.885	46139.79
698.231	46025.22
698.577	46204.19
698.923	46055.27
699.269	45911.1
699.614	45628.39
699.96	45566.25
700.306	45533.25
700.651	45214.39
700.997	44941.4
701.342	45013.27
701.688	44882.42
702.033	44583.67
702.379	44450.12
702.724	44110.24
703.069	44202.21
703.415	43631.83
703.76	43673.64
704.105	43544.15
704.45	43385.74
704.795	43010.83
705.14	43056.93
705.485	43079.53
705.83	42842.93
706.175	42978.06
706.52	42887.9
706.865	42915.24
707.209	42898.29
707.554	42828.69
707.899	43038.4
708.243	42867.56
708.588	42888.58
708.932	42832.08
709.277	42758.86
709.621	42996.14
709.966	42616.27
710.31	42763.83
710.654	42451.75
710.998	42657.17
711.342	42779.43
711.687	42363.17
712.031	42264.41
712.375	42010.86
712.719	42076.62
713.063	41906.45
713.407	41904.65
713.75	41713.47
714.094	41463.3
714.438	41274.38
714.782	41126.36
715.125	40928.63
715.469	40934.73
715.812	40608.18
716.156	40435.76
716.499	40374.74
716.843	40297.46
717.186	40115.99
717.53	40186.73
717.873	40119.16
718.216	40124.35
718.559	39803.91
718.902	39639.85
719.246	39772.95
719.589	39781.09
719.932	39730.69
720.275	39769.79
720.617	39881.88
720.96	39872.38
721.303	40031.7
721.646	40009.56
721.989	39856.34
722.331	40074.86
722.674	40148.08
723.016	40010.46
723.359	39884.36
723.701	39972.95
724.044	39767.08
724.386	39523.24
724.729	39761.88
725.071	39453.86
725.413	39511.49
725.755	39350.59
726.097	39287.09
726.439	38938.85
726.782	38897.27
727.124	38796.93
727.465	38547.67
727.807	38409.37
728.149	38337.51
728.491	38136.16
728.833	38095.48
729.175	37894.81
729.516	37825.21
729.858	37692.33
730.199	37643.97
730.541	37495.95
730.882	37491.66
731.224	37511.99
731.565	37142.74
731.906	37387.48
732.248	37415.5
732.589	37371.21
732.93	37284.88
733.271	37321.94
733.612	37509.96
733.953	37684.42
734.294	37381.6
734.635	37347.93
734.976	37528.72
735.317	37522.84
735.658	37481.26
735.999	37611.43
736.339	37476.29
736.68	37778.65
737.021	37554.7
737.361	37317.42
737.702	37612.56
738.042	37414.82
738.383	37285.79
738.723	37389.29
739.063	37091.21
739.404	37254.37
739.744	36956.08
740.084	36810.54
740.424	36845.57
740.764	36592.02
741.104	36552.7
741.444	36196.55
741.784	36157.68
742.124	36173.27
742.464	36091.92
742.804	35883.56
743.143	35653.29
743.483	35725.6
743.823	35443.57
744.162	35360.41
744.502	35454.19
744.841	35413.97
745.181	35483.12
745.52	35399.06
745.86	35419.17
746.199	35216.69
746.538	35377.59
746.877	35503.46
747.216	35393.18
747.556	35481.09
747.895	35536.9
748.234	35407.19
748.573	35511.14
748.911	35429.56
749.25	35513.63
749.589	35397.25
749.928	35398.15
750.267	35473.63
750.605	35357.02
750.944	35359.73
751.283	35308.66
751.621	35312.5
751.96	35136.01
752.298	35102.57
752.636	34909.12
752.975	34754.33
753.313	34548
753.651	34563.82
753.989	34336.03
754.327	34350.95
754.666	33963.61
755.004	34021.69
755.342	34042.03
755.679	33738.31
756.017	33503.96
756.355	33602.04
756.693	33204.76
757.031	33261.03
757.368	33060.59
757.706	33000.47
758.044	32798.67
758.381	32678
758.719	32681.61
759.056	32651.1
759.394	32597.09
759.731	32438
