Data from red_cardboard_box_FLMS001491_00016.txt Node
Date: Wed Feb 08 11:31:36 GMT 2017
User: dcchb
Spectrometer: FLMS00149
Trigger mode: 0
Integration Time (sec): 2.000000E-2
Scans to average: 10
Electric dark correction enabled: true
Nonlinearity correction enabled: false
Boxcar width: 0
XAxis mode: Wavelengths
Number of Pixels in Spectrum: 2048
>>>>>Begin Spectral Data<<<<<
341.393	-19.12
341.776	-19.12
342.16	-19.12
342.543	-51.21
342.927	-47.82
343.31	-86.92
343.693	-81.27
344.077	-80.37
344.46	-64.09
344.843	-49.86
345.226	-27.03
345.61	-24.1
345.993	-9.18
346.376	-8.95
346.759	26.98
347.142	32.4
347.525	35.56
347.908	65.39
348.291	64.26
348.674	98.61
349.057	108.56
349.44	127.09
349.823	145.62
350.206	155.11
350.588	187.65
350.971	211.15
351.354	207.76
351.737	241.43
352.119	243.47
352.502	276.69
352.884	263.81
353.267	252.06
353.65	283.92
354.032	299.96
354.414	300.19
354.797	316.01
355.179	319.17
355.562	314.65
355.944	323.92
356.326	332.28
356.709	312.17
357.091	327.08
357.473	355.56
357.855	338.61
358.238	342.67
358.62	325.05
359.002	330.47
359.384	341.77
359.766	345.16
360.148	337.7
360.53	332.51
360.912	325.27
361.294	328.89
361.676	321.43
362.057	338.61
362.439	321.88
362.821	311.71
363.203	318.72
363.584	323.01
363.966	312.39
364.348	311.71
364.729	314.65
365.111	323.92
365.493	324.6
365.874	323.92
366.256	305.84
366.637	318.95
367.019	313.97
367.4	308.78
367.781	318.72
368.163	317.59
368.544	311.94
368.925	294.09
369.306	315.56
369.688	323.47
370.069	295.9
370.45	330.25
370.831	312.17
371.212	298.61
371.593	314.65
371.974	292.28
372.355	293.64
372.736	312.17
373.117	321.21
373.498	318.95
373.879	324.37
374.26	289.57
374.641	297.93
375.021	329.34
375.402	321.88
375.783	301.32
376.163	322.11
376.544	320.08
376.925	336.35
377.305	338.38
377.686	318.04
378.066	332.96
378.447	315.1
378.827	328.44
379.208	333.18
379.588	329.57
379.968	329.34
380.349	330.92
380.729	306.52
381.109	321.66
381.489	327.76
381.87	336.35
382.25	329.57
382.63	331.38
383.01	339.28
383.39	344.93
383.77	315.33
384.15	352.39
384.53	346.74
384.91	351.26
385.29	344.71
385.67	340.87
386.049	353.3
386.429	354.2
386.809	347.87
387.189	350.36
387.568	359.17
387.948	339.96
388.328	331.38
388.707	352.17
389.087	345.39
389.466	351.26
389.846	352.17
390.225	358.49
390.605	353.75
390.984	357.14
391.363	357.36
391.743	337.7
392.122	356.46
392.501	357.14
392.881	369.79
393.26	376.8
393.639	334.54
394.018	355.33
394.397	372.73
394.776	360.75
395.155	372.28
395.534	351.04
395.913	362.11
396.292	371.37
396.671	369.34
397.05	373.63
397.429	358.04
397.808	354.88
398.186	354.88
398.565	362.56
398.944	354.65
399.323	396.91
399.701	366.85
400.08	385.39
400.458	359.62
400.837	354.65
401.215	379.74
401.594	372.5
401.972	367.53
402.351	373.41
402.729	372.05
403.107	369.34
403.486	337.03
403.864	374.76
404.242	373.41
404.62	396.91
404.999	384.93
405.377	377.7
405.755	405.27
406.133	368.44
406.511	396.68
406.889	367.98
407.267	414.31
407.645	389.68
408.023	388.55
408.401	383.35
408.779	398.94
409.156	410.92
409.534	424.25
409.912	409.34
410.29	408.44
410.667	388.78
411.045	391.94
411.422	392.84
411.8	409.79
412.178	411.37
412.555	419.51
412.933	403.92
413.31	406.63
413.687	397.14
414.065	409.34
414.442	407.53
414.819	436.23
415.197	422.45
415.574	407.08
415.951	429.23
416.328	412.96
416.705	431.94
417.082	440.07
417.46	405.27
417.837	413.41
418.214	420.86
418.591	419.28
418.967	434.65
419.344	439.17
419.721	436.01
420.098	459.96
420.475	452.95
420.852	446.17
421.228	430.36
421.605	459.51
421.982	432.84
422.358	459.28
422.735	435.33
423.111	458.15
423.488	460.64
423.864	465.61
424.241	445.5
424.617	477.81
424.994	457.47
425.37	462.45
425.746	453.86
426.123	442.56
426.499	481.2
426.875	470.13
427.251	471.48
427.627	461.77
428.003	455.67
428.379	475.55
428.756	480.3
429.132	472.61
429.507	469.45
429.883	497.47
430.259	482.56
430.635	486.4
431.011	520.52
431.387	491.37
431.763	507.64
432.138	491.82
432.514	492.28
432.89	522.1
433.265	523.91
433.641	495.21
434.016	522.56
434.392	508.09
434.767	517.81
435.143	524.82
435.518	530.24
435.894	518.04
436.269	513.52
436.644	540.64
437.02	537.02
437.395	520.52
437.77	536.34
438.145	550.58
438.52	556.91
438.895	553.97
439.271	570.47
439.646	548.54
440.021	569.56
440.395	586.06
440.77	550.58
441.145	539.73
441.52	565.49
441.895	571.14
442.27	586.74
442.645	565.04
443.019	574.08
443.394	573.18
443.769	584.93
444.143	578.83
444.518	606.62
444.892	595.32
445.267	588.54
445.641	578.83
446.016	592.84
446.39	596.68
446.764	590.58
447.139	589.45
447.513	600.75
447.887	614.53
448.262	609.56
448.636	616.79
449.01	595.1
449.384	621.99
449.758	605.94
450.132	614.98
450.506	611.59
450.88	607.07
451.254	621.76
451.628	617.47
452.002	624.25
452.376	624.02
452.75	616.57
453.123	624.7
453.497	636.68
453.871	640.75
454.244	657.47
454.618	652.27
454.992	644.14
455.365	657.02
455.739	661.31
456.112	678.03
456.486	670.12
456.859	682.78
457.232	694.3
457.606	669.22
457.979	685.72
458.352	679.39
458.725	687.07
459.099	693.17
459.472	709.22
459.845	703.34
460.218	716.45
460.591	705.6
460.964	724.59
461.337	714.64
461.71	735.43
462.083	726.17
462.456	719.39
462.829	750.57
463.201	767.3
463.574	740.86
463.947	760.29
464.32	754.42
464.692	764.36
465.065	772.72
465.438	763
465.81	785.6
466.183	782.66
466.555	798.71
466.928	808.88
467.3	812.04
467.672	809.1
468.045	808.2
468.417	831.02
468.789	819.5
469.161	846.16
469.534	844.36
469.906	848.88
470.278	851.81
470.65	868.08
471.022	881.64
471.394	906.73
471.766	882.1
472.138	904.24
472.51	914.64
472.882	915.77
473.253	923.68
473.625	951.92
473.997	982.66
474.369	945.14
474.74	969.55
475.112	986.05
475.484	991.7
475.855	958.7
476.227	981.08
476.598	1002.54
476.97	1030.11
477.341	1019.72
477.713	1056.1
478.084	1033.28
478.455	1105.37
478.827	1079.15
479.198	1090.9
479.569	1131.58
479.94	1124.57
480.311	1130.9
480.682	1121.64
481.053	1172.71
481.424	1195.08
481.795	1200.28
482.166	1182.43
482.537	1171.81
482.908	1220.84
483.279	1237.34
483.65	1252.48
484.021	1279.6
484.391	1264.68
484.762	1301.29
485.133	1271.92
485.503	1322.31
485.874	1320.5
486.244	1341.52
486.615	1325.93
486.985	1346.94
487.356	1397.34
487.726	1415.64
488.097	1428.07
488.467	1413.61
488.837	1470.78
489.207	1471.01
489.578	1525.02
489.948	1488.41
490.318	1517.56
490.688	1489.99
491.058	1547.39
491.428	1544.68
491.798	1547.84
492.168	1582.87
492.538	1599.36
492.908	1587.84
493.278	1630.78
493.648	1625.13
494.017	1656.31
494.387	1681.85
494.757	1676.88
495.126	1712.81
495.496	1688.4
495.866	1719.59
496.235	1734.95
496.605	1734.73
496.974	1779.47
497.344	1774.5
497.713	1784.67
498.082	1784.9
498.452	1841.39
498.821	1789.19
499.19	1814.5
499.559	1823.31
499.928	1844.56
500.298	1894.95
500.667	1874.39
501.036	1871.45
501.405	1868.96
501.774	1910.54
502.143	1928.4
502.512	1934.05
502.88	1943.76
503.249	1957.55
503.618	1997.09
503.987	1948.73
504.356	1987.83
504.724	1998.45
505.093	1997.55
505.462	2033.7
505.83	2039.58
506.199	2032.12
506.567	2097.2
506.936	2077.32
507.304	2072.12
507.672	2100.82
508.041	2150.76
508.409	2112.12
508.777	2115.28
509.145	2155.28
509.514	2172.46
509.882	2177.2
510.25	2181.27
510.618	2199.35
510.986	2220.82
511.354	2243.87
511.722	2236.18
512.09	2248.16
512.458	2278.89
512.826	2304.66
513.193	2322.28
513.561	2330.19
513.929	2366.58
514.297	2374.49
514.664	2370.87
515.032	2366.35
515.4	2413.81
515.767	2413.58
516.135	2375.84
516.502	2395.28
516.869	2460.13
517.237	2453.81
517.604	2474.37
517.972	2491.77
518.339	2511.43
518.706	2512.79
519.073	2550.3
519.44	2534.48
519.808	2569.28
520.175	2599.56
520.542	2640.69
520.909	2619.45
521.276	2646.79
521.643	2686.79
522.009	2653.12
522.376	2710.75
522.743	2713.69
523.11	2777.19
523.477	2736.74
523.843	2756.4
524.21	2815.38
524.577	2851.54
524.943	2825.77
525.31	2849.5
525.676	2879.11
526.043	2921.59
526.409	2931.31
526.776	2921.59
527.142	2963.4
527.508	2977.63
527.874	2993
528.241	2995.26
528.607	3020.57
528.973	3067.12
529.339	3018.54
529.705	3087.46
530.071	3095.82
530.437	3120.23
530.803	3126.56
531.169	3197.06
531.535	3200.23
531.901	3178.53
532.267	3226.44
532.632	3239.32
532.998	3223.28
533.364	3219.66
533.73	3263.28
534.095	3325.2
534.461	3310.73
534.826	3336.49
535.192	3363.39
535.557	3371.52
535.923	3369.94
536.288	3414.01
536.653	3463.5
537.019	3443.61
537.384	3422.59
537.749	3472.08
538.114	3440.22
538.479	3483.38
538.845	3490.39
539.21	3511.4
539.575	3534.91
539.94	3579.2
540.305	3581.46
540.67	3573.1
541.034	3626.66
541.399	3604.96
541.764	3602.7
542.129	3653.55
542.494	3629.59
542.858	3672.76
543.223	3668.01
543.587	3699.65
543.952	3717.5
544.316	3737.84
544.681	3784.62
545.045	3778.06
545.41	3789.36
545.774	3806.54
546.138	3822.13
546.503	3837.05
546.867	3850.6
547.231	3911.17
547.595	3943.48
547.959	3895.8
548.324	3989.58
548.688	3945.07
549.052	3994.56
549.416	3980.09
549.779	4007.44
550.143	4049.92
550.507	4063.93
550.871	4112.52
551.235	4126.98
551.599	4148.68
551.962	4155
552.326	4184.16
552.689	4230.93
553.053	4220.09
553.417	4202.46
553.78	4305.28
554.143	4323.81
554.507	4355.9
554.87	4310.25
555.234	4427.99
555.597	4430.02
555.96	4414.88
556.323	4427.76
556.686	4496.92
557.05	4541.66
557.413	4533.3
557.776	4577.59
558.139	4614.43
558.502	4646.06
558.865	4633.41
559.228	4703.01
559.59	4733.75
559.953	4756.12
560.316	4800.18
560.679	4817.13
561.041	4890.8
561.404	4919.96
561.767	4986.39
562.129	4958.37
562.492	5040.63
562.854	5040.86
563.217	5059.61
563.579	5132.15
563.941	5140.06
564.304	5205.6
564.666	5266.39
565.028	5319.49
565.39	5352.49
565.753	5348.42
566.115	5453.95
566.477	5481.75
566.839	5507.51
567.201	5575.98
567.563	5575.53
567.925	5699.14
568.287	5718.35
568.648	5732.14
569.01	5794.28
569.372	5881.06
569.734	5888.52
570.095	5959.02
570.457	6018.01
570.819	6055.74
571.18	6121.51
571.542	6131.22
571.903	6221.62
572.265	6302.74
572.626	6361.95
572.987	6320.82
573.349	6402.63
573.71	6531.66
574.071	6570.53
574.432	6635.39
574.794	6737.53
575.155	6747.93
575.516	6775.73
575.877	6871.77
576.238	6982.5
576.599	7004.87
576.96	7066.79
577.32	7115.38
577.681	7258.2
578.042	7417.52
578.403	7439.44
578.763	7580.9
579.124	7589.72
579.485	7734.34
579.845	7772.08
580.206	7842.14
580.566	7930.95
580.927	8092.75
581.287	8184.73
581.648	8207.1
582.008	8349.47
582.368	8481.67
582.728	8554.66
583.089	8740.42
583.449	8871.49
583.809	8981.54
584.169	9123.46
584.529	9242.78
584.889	9441.42
585.249	9546.05
585.609	9684.12
585.969	9848.87
586.329	10045.02
586.688	10209.99
587.048	10286.37
587.408	10481.39
587.768	10707.15
588.127	10882.28
588.487	11064.2
588.846	11355.49
589.206	11444.76
589.565	11728.14
589.925	11950.5
590.284	12183.72
590.643	12383.04
591.003	12646.53
591.362	12923.36
591.721	13127.65
592.08	13319.28
592.44	13656.9
592.799	13792.04
593.158	14095.08
593.517	14382.76
593.876	14706.36
594.235	14851.22
594.593	15204.88
594.952	15546.34
595.311	15729.61
595.67	16128.93
596.029	16534.11
596.387	16810.72
596.746	17098.17
597.104	17355.33
597.463	17640.3
597.822	18087.97
598.18	18313.73
598.538	18620.16
598.897	19033.26
599.255	19199.81
599.613	19773.8
599.972	19905.32
600.33	20276.61
600.688	20579.43
601.046	20874.79
601.404	21337.38
601.762	21740.53
602.12	22126.06
602.478	22419.38
602.836	22637.46
603.194	22863.89
603.552	23253.48
603.91	23507.49
604.268	24016.63
604.625	24134.37
604.983	24606.9
605.341	24710.17
605.698	25221.57
606.056	25594.21
606.413	25879.18
606.771	26181.77
607.128	26431.71
607.485	26698.37
607.843	26946.49
608.2	27210.44
608.557	27646.59
608.914	27804.55
609.272	28266.46
609.629	28440.47
609.986	28828.93
610.343	28819.67
610.7	29375.81
611.057	29414.23
611.414	29727.89
611.771	29891.28
612.127	30176.69
612.484	30274.99
612.841	30788.65
613.198	30837.92
613.554	31073.39
613.911	31312.93
614.267	31645.58
614.624	31636.54
614.98	31890.32
615.337	32283.76
615.693	32368.05
616.05	32374.83
616.406	32711.09
616.762	32865.89
617.118	33040.8
617.475	33215.71
617.831	33344.52
618.187	33671.52
618.543	33790.16
618.899	34015.91
619.255	34050.49
619.611	34120.09
619.967	34462
620.323	34505.62
620.678	34633.07
621.034	34625.16
621.39	34837.36
621.746	35021.54
622.101	35450.45
622.457	35297.24
622.812	35408.19
623.168	35581.07
623.523	35615.19
623.879	35787.62
624.234	35657.23
624.589	35905.36
624.945	35921.63
625.3	36112.36
625.655	36337.21
626.01	36240.71
626.365	36355.74
626.72	36370.43
627.075	36442.74
627.43	36517.54
627.785	36575.85
628.14	36694.71
628.495	36817.65
628.85	36792.79
629.205	36825.33
629.559	37020.35
629.914	36881.37
630.269	37177.64
630.623	36922.73
630.978	36930.19
631.332	37243.17
631.687	37255.38
632.041	37116.17
632.396	37243.85
632.75	37114.82
633.104	37204.53
633.459	37091.76
633.813	37147.13
634.167	37194.36
634.521	37390.51
634.875	37411.98
635.229	37223.51
635.583	37262.61
635.937	37328.59
636.291	37264.64
636.645	37245.21
636.999	37281.82
637.352	37459.66
637.706	37170.18
638.06	37350.29
638.413	37319.33
638.767	37273.68
639.121	37346.45
639.474	37235.26
639.828	37281.59
640.181	37377.86
640.534	37443.17
640.888	37278.43
641.241	37163.18
641.594	37300.12
641.947	37298.31
642.301	37146.23
642.654	37287.69
643.007	37282.95
643.36	37297.18
643.713	37285.21
644.066	37355.49
644.419	37211.54
644.771	36986.46
645.124	36609.07
645.477	36624.21
645.83	36446.36
646.182	36282.29
646.535	36272.13
646.888	36449.07
647.24	36374.72
647.593	36583.3
647.945	36570.2
648.298	36297.89
648.65	36316.87
649.002	36154.16
649.355	36333.37
649.707	36344.89
650.059	36432.35
650.411	36807.93
650.763	37030.98
651.115	37412.43
651.467	37149.62
651.819	37073.23
652.171	37085.44
652.523	37095.15
652.875	37029.39
653.227	36957.53
653.578	37294.92
653.93	37221.25
654.282	36991.2
654.633	37059
654.985	37057.87
655.337	37074.59
655.688	37144.87
656.039	37132.67
656.391	36922.28
656.742	36944.88
657.094	37076.4
657.445	37052.67
657.796	36916.85
658.147	36991.65
658.498	36980.81
658.849	37164.08
659.2	36919.34
659.551	36900.13
659.902	36957.08
660.253	37112.1
660.604	37095.61
660.955	36809.51
661.306	37052.67
661.656	36962.95
662.007	37004.08
662.358	36999.79
662.708	37051.54
663.059	36992.33
663.409	36816.29
663.76	36940.81
664.11	37088.38
664.461	37084.99
664.811	37085.44
665.161	37000.92
665.511	36937.42
665.862	36909.62
666.212	37145.32
666.562	36996.63
666.912	36891.32
667.262	36969.73
667.612	37012.44
667.962	37056.96
668.312	36963.41
668.662	37082.27
669.011	37054.25
669.361	36963.86
669.711	36967.02
670.06	36810.42
670.41	36939.23
670.76	36764.32
671.109	36917.98
671.459	36955.95
671.808	36698.55
672.157	36846.35
672.507	36617.88
672.856	36698.55
673.205	36705.79
673.554	36807.7
673.904	36698.1
674.253	36898.1
674.602	36770.87
674.951	36183.77
675.3	36085.01
675.649	36790.76
675.998	36579.46
676.346	36680.02
676.695	36760.7
677.044	36426.7
677.393	36511.22
677.741	36629.86
678.09	36601.83
678.438	36507.83
678.787	36489.97
679.135	36440.26
679.484	36344.21
679.832	36421.05
680.181	36102.19
680.529	36465.57
680.877	36183.99
681.225	36073.71
681.573	36426.25
681.922	35952.36
682.27	36069.87
682.618	35998.69
682.966	35871.68
683.314	35965.24
683.661	35847.5
684.009	35715.08
684.357	35702.42
684.705	35674.17
685.053	35724.12
685.4	35567.74
685.748	35451.58
686.095	35580.39
686.443	35292.49
686.79	35230.12
687.138	35288.65
687.485	35316.44
687.832	35238.48
688.18	35349.44
688.527	35041.2
688.874	35047.3
689.221	34969.56
689.568	34878.49
689.915	34648.89
690.262	34766.63
690.609	34685.95
690.956	34590.59
691.303	34374.1
691.65	34384.94
691.997	34357.37
692.344	34173.88
692.69	34276.7
693.037	34255.91
693.383	33880.55
693.73	34058.4
694.077	33843.26
694.423	33856.37
694.769	33683.04
695.116	33673.78
695.462	33696.15
695.808	33492.31
696.155	33554.91
696.501	33350.17
696.847	33351.75
697.193	33185.65
697.539	33238.31
697.885	32876.96
698.231	32887.81
698.577	33003.96
698.923	32887.13
699.269	32713.8
699.614	32499.57
699.96	32465.67
700.306	32570.3
700.651	32409.4
700.997	32361.72
701.342	32256.41
701.688	32132.57
702.033	32145.91
702.379	32065
702.724	31916.08
703.069	32133.7
703.415	31621.4
703.76	31756.99
704.105	31662.3
704.45	31673.83
704.795	31576.2
705.14	31544.34
705.485	31383.89
705.83	31324.01
706.175	31270.9
706.52	31322.43
706.865	31064.13
707.209	31163.56
707.554	30917.92
707.899	31089.21
708.243	30843.34
708.588	30871.59
708.932	30460.53
709.277	30573.52
709.621	30696.45
709.966	30366.52
710.31	30447.19
710.654	30249.68
710.998	30251.27
711.342	30348.67
711.687	30097.82
712.031	30085.62
712.375	29906.19
712.719	30093.3
713.063	29902.35
713.407	30077.49
713.75	29830.26
714.094	29882.24
714.438	29661.23
714.782	29727.89
715.125	29677.5
715.469	29544.84
715.812	29448.12
716.156	29250.62
716.499	29376.94
716.843	29428.46
717.186	29329.26
717.53	29371.06
717.873	29434.11
718.216	29214.91
718.559	29136.95
718.902	28928.14
719.246	29096.72
719.589	28848.37
719.932	28736.5
720.275	28863.96
720.617	28789.16
720.96	28750.97
721.303	28668.26
721.646	28741.7
721.989	28646.11
722.331	28811.3
722.674	28589.16
723.016	28680.23
723.359	28456.29
723.701	28561.82
724.044	28437.08
724.386	28285.22
724.729	28405.21
725.071	28232.11
725.413	28301.94
725.755	28183.3
726.097	28121.38
726.439	27941.27
726.782	28000.48
727.124	28087.71
727.465	27939.24
727.807	27945.56
728.149	27833.48
728.491	27804.1
728.833	27819.01
729.175	27762.52
729.516	27713.25
729.858	27564.78
730.199	27666.48
730.541	27713.48
730.882	27667.83
731.224	27647.49
731.565	27465.58
731.906	27614.95
732.248	27518.68
732.589	27356.88
732.93	27276.66
733.271	27282.53
733.612	27315.98
733.953	27285.24
734.294	27225.81
734.635	27181.06
734.976	27158.01
735.317	26975.42
735.658	27026.04
735.999	27045.7
736.339	26972.93
736.68	27082.76
737.021	27057
737.361	26884.58
737.702	27038.7
738.042	26954.18
738.383	26826.05
738.723	26821.98
739.063	26719.16
739.404	26761.87
739.744	26705.37
740.084	26571.82
740.424	26702.43
740.764	26606.16
741.104	26736.33
741.444	26552.15
741.784	26273.52
742.124	26560.52
742.464	26403.23
742.804	26352.84
743.143	26391.26
743.483	26409.11
743.823	26272.16
744.162	26265.83
744.502	26226.29
744.841	26087.76
745.181	26343.57
745.52	26174.54
745.86	26224.71
746.199	26174.99
746.538	26111.94
746.877	26114.2
747.216	26134.09
747.556	25925.28
747.895	26035.78
748.234	25900.19
748.573	25862
748.911	25976.12
749.25	25806.86
749.589	25597.15
749.928	25720.31
750.267	25750.59
750.605	25600.54
750.944	25681.67
751.283	25558.06
751.621	25633.54
751.96	25536.81
752.298	25540.66
752.636	25418.17
752.975	25351.51
753.313	25254.56
753.651	25478.28
753.989	25219.53
754.327	25220.44
754.666	25107.9
755.004	25183.6
755.342	25187.9
755.679	25125.98
756.017	24939.99
756.355	25040.33
756.693	24845.31
757.031	24878.98
757.368	24765.99
757.706	24662.26
758.044	24648.7
758.381	24745.87
758.719	24582.94
759.056	24612.77
759.394	24584.07
759.731	24257.75
760.068	24363.51
760.405	24231.76
760.743	24249.39
761.08	24212.33
761.417	24162.16
761.754	24169.62
