Data from red_shiny_book_FLMS001491_00042.txt Node
Date: Wed Feb 08 15:24:54 GMT 2017
User: dcchb
Spectrometer: FLMS00149
Trigger mode: 0
Integration Time (sec): 2.000000E-2
Scans to average: 10
Electric dark correction enabled: true
Nonlinearity correction enabled: false
Boxcar width: 0
XAxis mode: Wavelengths
Number of Pixels in Spectrum: 2048
>>>>>Begin Spectral Data<<<<<
341.393	-16.52
341.776	-16.52
342.16	-16.52
342.543	-52.91
342.927	-60.37
343.31	-58.11
343.693	-55.62
344.077	-56.07
344.46	-68.05
344.843	-56.52
345.226	-32.34
345.61	-51.33
345.993	-23.98
346.376	-2.29
346.759	-0.48
347.142	30.93
347.525	42
347.908	66.86
348.291	76.35
348.674	103.92
349.057	84.72
349.44	124.49
349.823	140.08
350.206	163.36
350.588	201.1
350.971	206.29
351.354	227.08
351.737	244.49
352.119	259.4
352.502	292.62
352.884	294.2
353.267	290.59
353.65	293.07
354.032	299.17
354.414	317.25
354.797	333.3
355.179	307.99
355.562	317.48
355.944	349.34
356.326	343.47
356.709	367.65
357.091	345.73
357.473	361.32
357.855	373.52
358.238	346.18
358.62	326.29
359.002	332.39
359.384	358.61
359.766	338.95
360.148	334.88
360.53	357.7
360.912	351.15
361.294	352.5
361.676	335.33
362.057	335.78
362.439	341.66
362.821	355.22
363.203	330.81
363.584	333.3
363.966	329.23
364.348	325.16
364.729	331.94
365.111	322.22
365.493	321.32
365.874	333.3
366.256	340.75
366.637	330.36
367.019	301.21
367.4	323.58
367.781	316.12
368.163	335.33
368.544	328.78
368.925	329.45
369.306	331.26
369.688	330.36
370.069	337.82
370.45	320.42
370.831	329.91
371.212	333.97
371.593	315.44
371.974	306.18
372.355	335.1
372.736	309.79
373.117	322.22
373.498	341.43
373.879	320.64
374.26	341.66
374.641	332.62
375.021	307.31
375.402	331.26
375.783	343.47
376.163	328.78
376.544	331.49
376.925	326.97
377.305	336.01
377.686	322.22
378.066	321.09
378.447	353.63
378.827	344.82
379.208	333.52
379.588	351.37
379.968	364.71
380.349	359.96
380.729	338.72
381.109	360.87
381.489	359.96
381.87	357.02
382.25	369.23
382.63	357.48
383.01	338.72
383.39	359.51
383.77	355.67
384.15	368.32
384.53	348.21
384.91	358.61
385.29	378.94
385.67	390.92
386.049	364.03
386.429	361.54
386.809	363.35
387.189	360.64
387.568	375.33
387.948	352.05
388.328	377.36
388.707	359.06
389.087	376.01
389.466	381.66
389.846	387.76
390.225	383.46
390.605	373.07
390.984	377.14
391.363	378.94
391.743	392.96
392.122	408.1
392.501	394.76
392.881	387.76
393.26	365.84
393.639	407.87
394.018	387.98
394.397	380.53
394.776	389.79
395.155	390.92
395.534	418.27
395.913	414.65
396.292	406.29
396.671	408.1
397.05	417.59
397.429	380.53
397.808	413.29
398.186	411.49
398.565	393.86
398.944	407.64
399.323	406.51
399.701	425.27
400.08	418.04
400.458	422.79
400.837	429.79
401.215	421.43
401.594	412.84
401.972	419.4
402.351	417.36
402.729	411.03
403.107	432.05
403.486	429.56
403.864	436.34
404.242	445.16
404.62	438.83
404.999	463.91
405.377	446.74
405.755	460.07
406.133	437.7
406.511	430.47
406.889	449.9
407.267	482.44
407.645	443.35
408.023	469.34
408.401	485.83
408.779	485.83
409.156	468.21
409.534	487.42
409.912	496.23
410.29	491.71
410.667	490.81
411.045	481.77
411.422	495.78
411.8	501.2
412.178	515.66
412.555	537.36
412.933	491.94
413.31	526.06
413.687	516.79
414.065	536
414.442	513.4
414.819	538.26
415.197	538.94
415.574	550.47
415.951	566.06
416.328	536
416.705	548.43
417.082	570.8
417.46	532.61
417.837	566.06
418.214	568.09
418.591	551.82
418.967	564.7
419.344	586.62
419.721	587.07
420.098	602.44
420.475	615.55
420.852	587.98
421.228	589.56
421.605	609.67
421.982	613.97
422.358	610.8
422.735	651.25
423.111	612.61
423.488	616.68
423.864	638.15
424.241	634.31
424.617	646.51
424.994	663.68
425.37	647.41
425.746	635.21
426.123	662.1
426.499	644.02
426.875	679.05
427.251	679.28
427.627	661.2
428.003	680.18
428.379	719.73
428.756	728.09
429.132	721.76
429.507	710.24
429.883	705.04
430.259	687.64
430.635	681.08
431.011	720.4
431.387	710.01
431.763	755.21
432.138	744.36
432.514	748.43
432.89	746.17
433.265	757.24
433.641	780.52
434.016	774.64
434.392	776.22
434.767	767.64
435.143	780.06
435.518	798.59
435.894	789.56
436.269	825.49
436.644	817.35
437.02	825.26
437.395	840.18
437.77	823.45
438.145	840.18
438.52	836.33
438.895	843.57
439.271	834.3
439.646	826.39
440.021	807.63
440.395	870.91
440.77	855.54
441.145	869.1
441.52	886.95
441.895	909.78
442.27	903.45
442.645	898.48
443.019	888.31
443.394	923.79
443.769	895.54
444.143	887.86
444.518	887.41
444.892	889.67
445.267	937.8
445.641	930.79
446.016	948.42
446.39	937.35
446.764	940.29
447.139	962.88
447.513	968.08
447.887	948.2
448.262	939.38
448.636	920.17
449.01	937.12
449.384	956.78
449.758	948.87
450.132	980.74
450.506	997.91
450.88	1009.89
451.254	1030.68
451.628	1030
452.002	1027.97
452.376	1003.79
452.75	1032.04
453.123	1010.57
453.497	1002.21
453.871	1024.13
454.244	1024.58
454.618	1010.11
454.992	1056.22
455.365	1089.21
455.739	1090.56
456.112	1098.02
456.486	1095.99
456.859	1093.28
457.232	1117.91
457.606	1104.35
457.979	1089.89
458.352	1090.34
458.725	1106.38
459.099	1098.25
459.472	1113.84
459.845	1149.32
460.218	1158.81
460.591	1177.57
460.964	1207.85
461.337	1219.6
461.71	1208.75
462.083	1211.92
462.456	1195.42
462.829	1202.88
463.201	1213.05
463.574	1179.6
463.947	1223.44
464.32	1201.97
464.692	1241.97
465.065	1245.14
465.438	1306.6
465.81	1347.51
466.183	1305.93
466.555	1345.47
466.928	1334.85
467.3	1332.14
467.672	1317.45
468.045	1350.44
468.417	1311.58
468.789	1330.56
469.161	1356.55
469.534	1355.19
469.906	1380.73
470.278	1381.18
470.65	1449.2
471.022	1502.76
471.394	1525.58
471.766	1561.51
472.138	1545.92
472.51	1529.2
472.882	1528.07
473.253	1549.76
473.625	1510.21
473.997	1533.26
474.369	1510.67
474.74	1562.87
475.112	1589.08
475.484	1644.22
475.855	1667.72
476.227	1703.2
476.598	1758.8
476.97	1790.21
477.341	1789.53
477.713	1835.63
478.084	1828.62
478.455	1785.91
478.827	1816.42
479.198	1839.92
479.569	1820.71
479.94	1861.84
480.311	1869.53
480.682	1927.15
481.053	2002.18
481.424	2039.92
481.795	2109.29
482.166	2170.54
482.537	2178.22
482.908	2198.56
483.279	2218.9
483.65	2211.67
484.021	2224.55
484.391	2226.58
484.762	2234.72
485.133	2200.14
485.503	2224.55
485.874	2311.78
486.244	2346.12
486.615	2441.49
486.985	2501.37
487.356	2561.26
487.726	2619.11
488.097	2692.56
488.467	2684.87
488.837	2717.87
489.207	2678.09
489.578	2706.34
489.948	2681.94
490.318	2669.96
490.688	2685.55
491.058	2683.97
491.428	2756.51
491.798	2782.27
492.168	2898.65
492.538	2928.71
492.908	3038.99
493.278	3063.85
493.648	3131.41
494.017	3172.09
494.387	3187.68
494.757	3164.63
495.126	3166.22
495.496	3147.01
495.866	3120.79
496.235	3077.4
496.605	3088.48
496.974	3118.76
497.344	3107.69
497.713	3162.15
498.082	3297.29
498.452	3345.42
498.821	3425.87
499.19	3440.11
499.559	3542.25
499.928	3549.71
500.298	3600.33
500.667	3547.9
501.036	3527.56
501.405	3473.55
501.774	3423.38
502.143	3402.14
502.512	3384.74
502.88	3372.76
503.249	3396.04
503.618	3467.9
503.987	3527.11
504.356	3568.01
504.724	3671.97
505.093	3729.37
505.462	3829.48
505.83	3837.16
506.199	3861.11
506.567	3849.36
506.936	3789.48
507.304	3832.64
507.672	3751.06
508.041	3735.01
508.409	3658.41
508.777	3637.16
509.145	3615.7
509.514	3649.82
509.882	3708.12
510.25	3775.92
510.618	3872.19
510.986	3963.26
511.354	4044.84
511.722	4094.33
512.09	4117.6
512.458	4152.4
512.826	4151.95
513.193	4106.76
513.561	3997.83
513.929	3993.77
514.297	3955.35
514.664	3897.72
515.032	3891.62
515.4	3890.94
515.767	3902.92
516.135	3951.73
516.502	3963.03
516.869	4092.52
517.237	4173.87
517.604	4240.76
517.972	4315.34
518.339	4387.88
518.706	4440.53
519.073	4428.1
519.44	4347.43
519.808	4374.77
520.175	4273.08
520.542	4227.66
520.909	4176.81
521.276	4105.63
521.643	4122.35
522.009	4131.84
522.376	4208.22
522.743	4215.23
523.11	4285.51
523.477	4385.17
523.843	4501.32
524.21	4616.8
524.577	4719.62
524.943	4736.34
525.31	4814.53
525.676	4835.78
526.043	4883.01
526.409	4777.47
526.776	4730.69
527.142	4633.75
527.508	4593.07
527.874	4627.42
528.241	4544.49
528.607	4506.97
528.973	4577.48
529.339	4659.51
529.705	4784.93
530.071	4891.82
530.437	5016.79
530.803	5125.03
531.169	5223.79
531.535	5286.84
531.901	5322.32
532.267	5370.68
532.632	5433.5
532.998	5387.85
533.364	5313.96
533.73	5281.19
534.095	5211.36
534.461	5155.09
534.826	5134.07
535.192	5120.06
535.557	5139.72
535.923	5166.16
536.288	5225.82
536.653	5333.84
537.019	5429.66
537.384	5594.17
537.749	5702.87
538.114	5799.37
538.479	5902.42
538.845	5994.16
539.21	5940.83
539.575	5962.53
539.94	5919.59
540.305	5941.51
540.67	5805.24
541.034	5739.48
541.399	5634.85
541.764	5562.76
542.129	5587.4
542.494	5630.33
542.858	5639.37
543.223	5707.39
543.587	5807.28
543.952	5879.14
544.316	6022.41
544.681	6151.9
545.045	6261.5
545.41	6411.55
545.774	6482.74
546.138	6490.65
546.503	6520.48
546.867	6493.59
547.231	6495.62
547.595	6394.83
547.959	6253.37
548.324	6201.16
548.688	6106.03
549.052	6043.88
549.416	5941.74
549.779	5923.66
550.143	5951.23
550.507	6125.91
550.871	6173.59
551.235	6237.32
551.599	6403.19
551.962	6515.28
552.326	6679.57
552.689	6781.49
553.053	6807.02
553.417	6853.12
553.78	6926.8
554.143	6882.5
554.507	6830.98
554.87	6760.02
555.234	6698.1
555.597	6521.38
555.96	6400.93
556.323	6318.22
556.686	6317.55
557.05	6286.13
557.413	6227.6
557.776	6324.55
558.139	6386.24
558.502	6535.17
558.865	6683.64
559.228	6799.34
559.59	6975.38
559.953	7023.06
560.316	7243.4
560.679	7256.28
561.041	7356.84
561.404	7342.15
561.767	7308.48
562.129	7178.54
562.492	7202.04
562.854	7060.58
563.217	6928.15
563.579	6831.43
563.941	6741.72
564.304	6701.94
564.666	6741.04
565.028	6731.09
565.39	6732.22
565.753	6847.02
566.115	6956.4
566.477	7061.71
566.839	7233.45
567.201	7357.52
567.563	7517.06
567.925	7732.2
568.287	7794.34
568.648	7853.55
569.01	7901.01
569.372	7888.8
569.734	7857.62
570.095	7818.3
570.457	7659.43
570.819	7535.37
571.18	7484.97
571.542	7359.33
571.903	7275.49
572.265	7239.78
572.626	7258.09
572.987	7237.97
573.349	7360.23
573.71	7483.84
574.071	7538.08
574.432	7749.37
574.794	8032.3
575.155	8184.84
575.516	8350.26
575.877	8564.94
576.238	8703.25
576.599	8907.53
576.96	8978.94
577.32	9039.28
577.681	9055.1
578.042	9062.33
578.403	9002.9
578.763	8923.58
579.124	8942.34
579.485	8925.84
579.845	8948.89
580.206	9023.24
580.566	9030.24
580.927	9182.56
581.287	9335.55
581.648	9552.94
582.008	9872.71
582.368	10159.25
582.728	10600.6
583.089	10935.28
583.449	11303.4
583.809	11766.22
584.169	12151.97
584.529	12475.12
584.889	12925.73
585.249	13107.65
585.609	13343.58
585.969	13791.02
586.329	14023.33
586.688	14302.42
587.048	14550.78
587.408	14705.8
587.768	15029.63
588.127	15263.3
588.487	15567.47
588.846	15987.8
589.206	16255.36
589.565	16753.2
589.925	17324.26
590.284	17810.35
590.643	18328.98
591.003	19084.67
591.362	19697.76
591.721	20281.92
592.08	20942.25
592.44	21485.28
592.799	22219.73
593.158	22657.68
593.517	23281.39
593.876	23766.35
594.235	24129.96
594.593	24690.62
594.952	25147.79
595.311	25335.35
595.67	25812.17
596.029	26281.54
596.387	26677.01
596.746	27047.4
597.104	27376.43
597.463	27751.78
597.822	28561.03
598.18	28709.05
598.538	29199.43
598.897	29990.14
599.255	30295.67
599.613	31384.01
599.972	31727.05
600.33	32287.03
600.688	32964.75
601.046	33736.26
601.404	34247.66
601.762	34681.09
602.12	35363.34
602.478	35757.68
602.836	36093.26
603.194	36358.34
603.552	36799.68
603.91	36991.77
604.268	37517.86
604.625	37552.43
604.983	37958.52
605.341	38091.63
605.698	38443.71
606.056	38717.82
606.413	39032.17
606.771	39422.66
607.128	39846.83
607.485	39953.05
607.843	40483.88
608.2	40950.76
608.557	41522.27
608.914	41708.93
609.272	42313.89
609.629	42752.07
609.986	43258.04
610.343	43332.62
610.7	44080.39
611.057	44304.57
611.414	44533.72
611.771	44759.92
612.127	45152.91
612.484	45200.82
612.841	45465.89
613.198	45261.38
613.554	45337.99
613.911	45621.82
614.267	45794.93
614.624	45724.42
614.98	45895.26
615.337	46131.87
615.693	46227
616.05	46312.65
616.406	46617.96
616.762	46740.66
617.118	46873.77
617.475	47061.33
617.831	47343.59
618.187	47683.69
618.543	47811.14
618.899	48254.3
619.255	48354.63
619.611	48515.08
619.967	48732.7
620.323	48995.75
620.678	49026.93
621.034	48956.42
621.39	49025.35
621.746	49014.73
622.101	49478.22
622.457	49152.58
622.812	49215.4
623.168	49294.72
623.523	49301.27
623.879	49240.94
624.234	49005.91
624.589	49131.11
624.945	49177.21
625.3	49112.8
625.655	49308.51
626.01	49173.37
626.365	49476.64
626.72	49351.44
627.075	49490.87
627.43	49627.37
627.785	49810.41
628.14	49785.56
628.495	50004.76
628.85	50056.96
629.205	50224.87
629.559	50473.67
629.914	50270.06
630.269	50513.67
630.623	50410.85
630.978	50347.12
631.332	50575.37
631.687	50452.2
632.041	50287.01
632.396	50300.8
632.75	50034.81
633.104	50179.67
633.459	49813.13
633.813	49701.04
634.167	49701.26
634.521	49627.14
634.875	49644.09
635.229	49559.57
635.583	49448.39
635.937	49470.76
636.291	49590.08
636.645	49575.84
636.999	49605.45
637.352	49845.21
637.706	49801.37
638.06	49948.94
638.413	49896.51
638.767	49890.41
639.121	50040.46
639.474	49888.6
639.828	50043.85
640.181	50089.28
640.534	50133.57
640.888	49933.8
641.241	49834.59
641.594	49803.18
641.947	49842.95
642.301	49688.38
642.654	49618.55
643.007	49506.69
643.36	49444.32
643.713	49262.63
644.066	49268.51
644.419	49057.66
644.771	48787.84
645.124	48293.62
645.477	48307.4
645.83	48066.96
646.182	47879.16
646.535	47888.88
646.888	47999.84
647.24	47848.88
647.593	48250.68
647.945	48237.35
648.298	48103.11
648.65	48172.94
649.002	48038.71
649.355	48348.08
649.707	48297.01
650.059	48428.3
650.411	48949.42
650.763	48978.57
651.115	49320.71
651.467	49168.17
651.819	49031
652.171	48928.63
652.523	48715.75
652.875	48686.15
653.227	48508.98
653.578	48615.19
653.93	48492.71
654.282	48151.93
654.633	48028.77
654.985	48112.15
655.337	47958.71
655.688	47997.13
656.039	48135.43
656.391	47817.02
656.742	47883.68
657.094	48025.38
657.445	48210.46
657.796	48216.56
658.147	48169.78
658.498	48228.76
658.849	48594.17
659.2	48513.05
659.551	48409.55
659.902	48653.38
660.253	48525.25
660.604	48687.51
660.955	48600.05
661.306	48684.12
661.656	48570.45
662.007	48515.31
662.358	48502.43
662.708	48367.97
663.059	48489.77
663.409	48012.27
663.76	48264.24
664.11	48104.7
664.461	47906.96
664.811	47900.41
665.161	47725.95
665.511	47543.81
665.862	47667.19
666.212	47600.75
666.562	47621.54
666.912	47444.83
667.262	47465.84
667.612	47493.86
667.962	47666.06
668.312	47666.97
668.662	47810.24
669.011	47724.59
669.361	47793.52
669.711	47995.32
670.06	47927.3
670.41	47918.26
670.76	47938.37
671.109	48101.08
671.459	48092.04
671.808	48076
672.157	48180.4
672.507	47850.46
672.856	47792.16
673.205	47849.79
673.554	47972.5
673.904	47628.55
674.253	47836
674.602	47537.7
674.951	46906.99
675.3	46665.19
675.649	47211.61
675.998	47061.33
676.346	46966.42
676.695	46953.99
677.044	46668.58
677.393	46717.61
677.741	46844.62
678.09	46719.65
678.438	46636.94
678.787	46695.02
679.135	46636.26
679.484	46638.52
679.832	46894.33
680.181	46647.56
680.529	46748.57
680.877	46868.12
681.225	46794.22
681.573	47125.06
681.922	46859.98
682.27	46865.63
682.618	47021.79
682.966	46787.67
683.314	46919.19
683.661	46969.36
684.009	46761
684.357	46551.97
684.705	46524.4
685.053	46516.94
685.4	46316.04
685.748	46027.24
686.095	46028.37
686.443	45775.94
686.79	45574.14
687.138	45652.78
687.485	45448.27
687.832	45362.85
688.18	45203.53
688.527	45065.91
688.874	44884.89
689.221	44909.98
689.568	44525.35
689.915	44594.51
690.262	44714.05
690.609	44667.27
690.956	44485.36
691.303	44610.78
691.65	44417.79
691.997	44611.91
692.344	44535.52
692.69	44509.99
693.037	44570.1
693.383	44375.3
693.73	44491.46
694.077	44310.67
694.423	44357
694.769	44207.17
695.116	44142.09
695.462	44053.73
695.808	44030.45
696.155	44035.88
696.501	43528.09
696.847	43552.5
697.193	43093.53
697.539	43192.28
697.885	42776.93
698.231	42572.41
698.577	42597.5
698.923	42408.57
699.269	42064.4
699.614	41851.53
699.96	41676.84
700.306	41684.3
700.651	41521.82
700.997	41374.93
701.342	41326.34
701.688	41345.78
702.033	41178.32
702.379	41181.71
702.724	41183.07
703.069	41151.43
703.415	40892
703.76	41047.03
704.105	41059.23
704.45	41187.36
704.795	40830.54
705.14	40995.96
705.485	40891.55
705.83	40858.11
706.175	40994.6
706.52	40716.19
706.865	40649.75
707.209	40826.69
707.554	40559.36
707.899	40728.84
708.243	40330.89
708.588	40255.64
708.932	39915.31
709.277	39973.38
709.621	39852.03
709.966	39385.15
710.31	39373.4
710.654	38990.36
710.998	38948.1
711.342	39001.43
711.687	38702.23
712.031	38630.14
712.375	38536.36
712.719	38326.2
713.063	38216.14
713.407	38433.76
713.75	38115.13
714.094	38176.6
714.438	37998.52
714.782	38123.04
715.125	37915.36
715.469	37962.82
715.812	37947.9
716.156	37867
716.499	38014.79
716.843	38058.18
717.186	37978.18
717.53	38148.57
717.873	38103.15
718.216	38104.96
718.559	38079.87
718.902	37881.91
719.246	37941.8
719.589	37874.46
719.932	37627
720.275	37596.27
720.617	37628.81
720.96	37420
721.303	37434.47
721.646	37370.06
721.989	37105.44
722.331	37101.6
722.674	36919.68
723.016	36893.01
723.359	36591.78
723.701	36779.57
724.044	36384.1
724.386	36132.36
724.729	36147.27
725.071	35949.31
725.413	35966.26
725.755	35925.58
726.097	35729.2
726.439	35517
726.782	35509.55
727.124	35756.09
727.465	35671.8
727.807	35524.69
728.149	35514.74
728.491	35580.96
728.833	35688.52
729.175	35620.5
729.516	35592.26
729.858	35565.36
730.199	35704.57
730.541	35703.89
730.882	35809.2
731.224	35741.4
731.565	35680.39
731.906	35606.04
732.248	35703.44
732.589	35510
732.93	35589.32
733.271	35468.19
733.612	35510.9
733.953	35418.25
734.294	35214.64
734.635	35239.5
734.976	35084.47
735.317	34873.41
735.658	34762.9
735.999	34583.02
736.339	34526.75
736.68	34668.89
737.021	34405.39
737.361	34094.22
737.702	34234.55
738.042	34101.67
738.383	33930.15
738.723	34004.73
739.063	33802.02
739.404	33723.6
739.744	33685.41
740.084	33442.71
740.424	33694.45
740.764	33548.24
741.104	33809.7
741.444	33770.61
741.784	33633.89
742.124	33736.71
742.464	33602.03
742.804	33607.22
743.143	33696.49
743.483	33722.25
743.823	33667.34
744.162	33685.87
744.502	33825.97
744.841	33641.57
745.181	33979.64
745.52	33584.17
745.86	33767.67
746.199	33673.44
746.538	33615.36
746.877	33640.67
747.216	33474.57
747.556	33419.66
747.895	33329.49
748.234	33240.91
748.573	33113.68
748.911	32970.18
749.25	32940.8
749.589	32603.63
749.928	32804.08
750.267	32590.3
750.605	32311.44
750.944	32369.74
751.283	32031.22
751.621	32168.84
751.96	31786.48
752.298	31756.88
752.636	31840.94
752.975	31525.02
753.313	31465.36
753.651	31588.97
753.989	31455.87
754.327	31398.47
754.666	31304.91
755.004	31534.06
755.342	31540.61
755.679	31285.02
756.017	31239.38
756.355	31362.76
756.693	31280.96
757.031	31442.53
757.368	31242.77
757.706	31125.71
758.044	31226.95
758.381	31215.87
758.719	31200.51
759.056	31206.16
759.394	31222.43
759.731	30895.43
760.068	30865.83
760.405	30894.3
760.743	30760.29
