Data from red_cardboard_box_FLMS001491_00029.txt Node
Date: Wed Feb 08 11:31:47 GMT 2017
User: dcchb
Spectrometer: FLMS00149
Trigger mode: 0
Integration Time (sec): 2.000000E-2
Scans to average: 10
Electric dark correction enabled: true
Nonlinearity correction enabled: false
Boxcar width: 0
XAxis mode: Wavelengths
Number of Pixels in Spectrum: 2048
>>>>>Begin Spectral Data<<<<<
341.393	-1.81
341.776	-1.81
342.16	-1.81
342.543	-74.57
342.927	-68.7
343.31	-56.04
343.693	-83.39
344.077	-65.54
344.46	-65.76
344.843	-33.45
345.226	-53.78
345.61	-21.47
345.993	-10.85
346.376	-5.65
346.759	17.63
347.142	29.15
347.525	34.12
347.908	52.65
348.291	67.12
348.674	98.75
349.057	96.49
349.44	129.26
349.823	154.12
350.206	167.68
350.588	193.22
350.971	194.35
351.354	236.83
351.737	240.67
352.119	251.07
352.502	263.5
352.884	280.9
353.267	279.09
353.65	306.43
354.032	309.14
354.414	320.9
354.797	317.51
355.179	325.19
355.562	341.91
355.944	328.58
356.326	337.39
356.709	337.62
357.091	341.69
357.473	344.85
357.855	339.2
358.238	348.69
358.62	341.91
359.002	352.31
359.384	338.07
359.766	358.41
360.148	344.4
360.53	350.05
360.912	335.81
361.294	338.97
361.676	344.85
362.057	347.56
362.439	353.66
362.821	327.45
363.203	331.97
363.584	320.22
363.966	317.96
364.348	325.64
364.729	322.25
365.111	312.53
365.493	334.91
365.874	314.34
366.256	299.43
366.637	340.1
367.019	307.11
367.4	301.91
367.781	307.56
368.163	321.12
368.544	322.03
368.925	338.75
369.306	291.07
369.688	325.42
370.069	316.6
370.45	314.12
370.831	332.42
371.212	314.34
371.593	324.29
371.974	327.68
372.355	324.96
372.736	314.57
373.117	333.32
373.498	323.61
373.879	305.75
374.26	303.04
374.641	334.45
375.021	316.15
375.402	315.02
375.783	315.7
376.163	334.91
376.544	331.29
376.925	327
377.305	342.14
377.686	334.68
378.066	316.15
378.447	319.54
378.827	319.99
379.208	341.46
379.588	334.45
379.968	325.19
380.349	350.95
380.729	341.01
381.109	332.42
381.489	348.69
381.87	341.23
382.25	321.12
382.63	335.36
383.01	339.88
383.39	346.66
383.77	320.22
384.15	327.45
384.53	350.5
384.91	347.11
385.29	333.1
385.67	342.14
386.049	357.28
386.429	352.08
386.809	366.54
387.189	347.79
387.568	332.65
387.948	343.04
388.328	356.83
388.707	370.61
389.087	337.84
389.466	353.44
389.846	355.24
390.225	363.61
390.605	390.05
390.984	359.09
391.363	366.09
391.743	346.43
392.122	369.03
392.501	351.4
392.881	361.35
393.26	377.17
393.639	376.71
394.018	381.68
394.397	378.52
394.776	348.92
395.155	377.39
395.534	390.05
395.913	392.76
396.292	383.72
396.671	381.01
397.05	395.47
397.429	372.65
397.808	375.36
398.186	375.13
398.565	383.27
398.944	369.71
399.323	401.12
399.701	383.04
400.08	369.48
400.458	395.47
400.837	401.57
401.215	393.21
401.594	398.63
401.972	395.92
402.351	410.84
402.729	368.8
403.107	387.56
403.486	405.64
403.864	403.38
404.242	402.25
404.62	395.02
404.999	412.19
405.377	400.44
405.755	412.42
406.133	394.34
406.511	405.87
406.889	434.11
407.267	401.12
407.645	433.21
408.023	413.32
408.401	406.99
408.779	420.55
409.156	418.52
409.534	418.29
409.912	439.31
410.29	437.28
410.667	446.09
411.045	447.9
411.422	421.91
411.8	445.86
412.178	448.58
412.555	442.7
412.933	461.68
413.31	450.38
413.687	464.62
414.065	439.08
414.442	461.68
414.819	446.09
415.197	477.73
415.574	448.35
415.951	477.95
416.328	459.65
416.705	464.62
417.082	479.08
417.46	468.46
417.837	448.8
418.214	473.43
418.591	489.7
418.967	472.53
419.344	477.73
419.721	497.16
420.098	466.2
420.475	487.44
420.852	509.82
421.228	514.34
421.605	513.43
421.982	505.07
422.358	526.99
422.735	512.98
423.111	518.86
423.488	527.67
423.864	524.05
424.241	523.15
424.617	531.51
424.994	523.83
425.37	538.06
425.746	530.38
426.123	519.31
426.499	517.27
426.875	552.3
427.251	532.19
427.627	540.32
428.003	555.69
428.379	561.34
428.756	544.84
429.132	557.27
429.507	549.36
429.883	540.78
430.259	583.71
430.635	569.02
431.011	576.26
431.387	591.85
431.763	568.35
432.138	571.06
432.514	612.64
432.89	599.98
433.265	614.45
433.641	587.1
434.016	616.25
434.392	613.32
434.767	618.74
435.143	638.4
435.518	616.71
435.894	616.93
436.269	641.57
436.644	630.27
437.02	646.31
437.395	628.01
437.77	655.12
438.145	658.51
438.52	660.55
438.895	653.32
439.271	648.8
439.646	680.21
440.021	673.65
440.395	652.86
440.77	655.8
441.145	657.61
441.52	683.37
441.895	684.95
442.27	682.02
442.645	666.42
443.019	683.37
443.394	700.55
443.769	690.38
444.143	691.96
444.518	728.12
444.892	688.8
445.267	731.73
445.641	719.08
446.016	728.12
446.39	715.01
446.764	735.35
447.139	738.51
447.513	731.51
447.887	715.69
448.262	730.38
448.636	701.9
449.01	746.2
449.384	733.77
449.758	736.03
450.132	753.65
450.506	763.82
450.88	755.91
451.254	752.75
451.628	762.92
452.002	771.51
452.376	772.41
452.75	769.25
453.123	800.66
453.497	805.85
453.871	811.73
454.244	820.32
454.618	800.88
454.992	831.16
455.365	817.15
455.739	819.64
456.112	828.23
456.486	837.04
456.859	856.7
457.232	873.88
457.606	856.7
457.979	863.03
458.352	854.44
458.725	880.65
459.099	899.41
459.472	872.75
459.845	937.38
460.218	898.28
460.591	904.16
460.964	893.54
461.337	931.73
461.71	921.11
462.083	951.84
462.456	939.86
462.829	956.36
463.201	929.24
463.574	957.71
463.947	941.22
464.32	989.58
464.692	981.67
465.065	971.73
465.438	981.67
465.81	1008.11
466.183	1016.47
466.555	1037.26
466.928	1023.7
467.3	1027.54
467.672	1070.93
468.045	1077.71
468.417	1046.53
468.789	1064.15
469.161	1097.82
469.534	1101.44
469.906	1116.58
470.278	1101.89
470.65	1133.53
471.022	1128.11
471.394	1160.65
471.766	1195.22
472.138	1195.67
472.51	1200.19
472.882	1190.93
473.253	1220.53
473.625	1237.26
473.997	1244.94
474.369	1236.58
474.74	1232.96
475.112	1271.15
475.484	1277.93
475.855	1304.6
476.227	1297.37
476.598	1342.34
476.97	1353.64
477.341	1345.28
477.713	1392.28
478.084	1378.04
478.455	1412.84
478.827	1436.35
479.198	1453.3
479.569	1486.06
479.94	1517.93
480.311	1535.1
480.682	1501.2
481.053	1558.6
481.424	1587.3
481.795	1578.72
482.166	1626.4
482.537	1636.34
482.908	1658.94
483.279	1687.19
483.65	1686.06
484.021	1738.94
484.391	1735.55
484.762	1749.78
485.133	1749.33
485.503	1789.78
485.874	1814.87
486.244	1836.34
486.615	1863.23
486.985	1872.27
487.356	1896.22
487.726	1905.49
488.097	1965.82
488.467	1965.15
488.837	2002.43
489.207	2000.85
489.578	2049.89
489.948	2065.26
490.318	2101.19
490.688	2107.29
491.058	2083.79
491.428	2161.07
491.798	2176.67
492.168	2176.67
492.538	2207.4
492.908	2259.38
493.278	2255.31
493.648	2259.38
494.017	2325.81
494.387	2318.36
494.757	2326.49
495.126	2348.41
495.496	2341.86
495.866	2408.75
496.235	2418.02
496.605	2420.95
496.974	2454.4
497.344	2474.74
497.713	2486.49
498.082	2469.99
498.452	2504.34
498.821	2535.07
499.19	2523.32
499.559	2561.06
499.928	2557.9
500.298	2601.29
500.667	2600.84
501.036	2612.36
501.405	2646.26
501.774	2629.54
502.143	2719.48
502.512	2686.26
502.88	2695.75
503.249	2731.23
503.618	2744.33
503.987	2765.13
504.356	2767.38
504.724	2775.07
505.093	2796.76
505.462	2827.72
505.83	2823.43
506.199	2866.59
506.567	2894.61
506.936	2865.24
507.304	2982.97
507.672	2991.33
508.041	2973.26
508.409	3011.67
508.777	3037.21
509.145	3087.6
509.514	3026.14
509.882	3069.07
510.25	3043.99
510.618	3110.2
510.986	3129.64
511.354	3153.36
511.722	3184.32
512.09	3212.8
512.458	3241.95
512.826	3233.36
513.193	3269.07
513.561	3310.87
513.929	3311.1
514.297	3295.51
514.664	3321.49
515.032	3355.17
515.4	3376.41
515.767	3422.73
516.135	3478.78
516.502	3424.77
516.869	3490.76
517.237	3500.02
517.604	3529.4
517.972	3564.43
518.339	3588.83
518.706	3596.74
519.073	3598.1
519.44	3631.54
519.808	3698.89
520.175	3668.6
520.542	3726.91
520.909	3739.34
521.276	3778.66
521.643	3864.53
522.009	3849.39
522.376	3860.46
522.743	3879.9
523.11	3911.99
523.477	3910.86
523.843	4024.75
524.21	4021.82
524.577	4067.69
524.943	4118.08
525.31	4076.28
525.676	4153.34
526.043	4116.05
526.409	4199.44
526.776	4185.2
527.142	4245.09
527.508	4263.16
527.874	4316.27
528.241	4334.35
528.607	4349.26
528.973	4407.34
529.339	4426.78
529.705	4408.25
530.071	4465.19
530.437	4506.1
530.803	4476.27
531.169	4573.67
531.535	4546.55
531.901	4585.42
532.267	4646.21
532.632	4657.96
532.998	4625.19
533.364	4702.48
533.73	4705.64
534.095	4730.5
534.461	4771.17
534.826	4834.9
535.192	4859.31
535.557	4866.76
535.923	4890.27
536.288	4917.16
536.653	4943.82
537.019	4946.08
537.384	4971.39
537.749	5045.97
538.114	5010.49
538.479	5086.65
538.845	5096.59
539.21	5065.18
539.575	5130.94
539.94	5133.2
540.305	5147.21
540.67	5206.42
541.034	5208.45
541.399	5193.76
541.764	5251.16
542.129	5253.65
542.494	5286.19
542.858	5293.42
543.223	5340.88
543.587	5373.64
543.952	5396.24
544.316	5460.65
544.681	5448.67
545.045	5496.13
545.41	5483.25
545.774	5532.06
546.138	5541.32
546.503	5559.63
546.867	5582.23
547.231	5672.62
547.595	5709.23
547.959	5720.98
548.324	5691.83
548.688	5717.82
549.052	5756.01
549.416	5790.58
549.779	5814.08
550.143	5874.65
550.507	5885.27
550.871	5924.14
551.235	5946.51
551.599	5965.72
551.962	6010.92
552.326	6064.47
552.689	6098.82
553.053	6018.82
553.417	6125.94
553.78	6217.01
554.143	6218.59
554.507	6229.44
554.87	6234.86
555.234	6383.79
555.597	6300.85
555.96	6367.74
556.323	6454.29
556.686	6441.86
557.05	6550.11
557.413	6576.78
557.776	6627.17
558.139	6662.2
558.502	6706.04
558.865	6737.22
559.228	6833.27
559.59	6859.03
559.953	6938.57
560.316	6974.73
560.679	6998.01
561.041	7093.37
561.404	7111.23
561.767	7171.11
562.129	7220.6
562.492	7311.9
562.854	7297.21
563.217	7346.93
563.579	7467.37
563.941	7526.58
564.304	7596.64
564.666	7700.59
565.028	7767.71
565.39	7773.35
565.753	7877.31
566.115	7934.71
566.477	8010.64
566.839	8139.22
567.201	8160.92
567.563	8243.17
567.925	8296.51
568.287	8313.91
568.648	8378.31
569.01	8450.17
569.372	8637.06
569.734	8673.67
570.095	8721.35
570.457	8839.99
570.819	8914.57
571.18	8946.43
571.542	9012.19
571.903	9097.39
572.265	9173.32
572.626	9327.66
572.987	9381.67
573.349	9465.51
573.71	9545.51
574.071	9671.38
574.432	9803.58
574.794	9948.44
575.155	10037.02
575.516	10059.62
575.877	10176.46
576.238	10266.17
576.599	10423.23
576.96	10477.46
577.32	10659.15
577.681	10815.31
578.042	10926.72
578.403	11022.99
578.763	11164
579.124	11309.53
579.485	11420.26
579.845	11578.23
580.206	11652.57
580.566	11809.86
580.927	11917.43
581.287	12139.57
581.648	12278.55
582.008	12476.51
582.368	12592.66
582.728	12740.68
583.089	12941.13
583.449	13109.03
583.809	13329.59
584.169	13533.2
584.529	13722.35
584.889	13965.73
585.249	14065.39
585.609	14269.23
585.969	14551.93
586.329	14781.08
586.688	14974.3
587.048	15205.93
587.408	15435.53
587.768	15795.06
588.127	15963.87
588.487	16152.8
588.846	16647.92
589.206	16821.48
589.565	17148.48
589.925	17439.09
590.284	17721.34
590.643	18004.72
591.003	18432.96
591.362	18686.29
591.721	18963.12
592.08	19234.75
592.44	19642.42
592.799	19916.54
593.158	20241.95
593.517	20738.44
593.876	21089.16
594.235	21448.7
594.593	21723.27
594.952	22095.69
595.311	22354.21
595.67	22857.7
596.029	23361.65
596.387	23690.68
596.746	24112.36
597.104	24340.83
597.463	24814.71
597.822	25263.29
598.18	25547.35
598.538	25913.22
598.897	26510.04
599.255	26660.09
599.613	27394.31
599.972	27629.1
600.33	28157.23
600.688	28390.44
601.046	28884.44
601.404	29356.52
601.762	29669.05
602.12	30127.12
602.478	30458.86
602.836	31092.06
603.194	31269.01
603.552	31633.97
603.91	31887.52
604.268	32430.79
604.625	32770.66
604.983	33340.37
605.341	33377.2
605.698	33950.07
606.056	34320.68
606.413	34711.63
606.771	35237.72
607.128	35537.14
607.485	35749.57
607.843	36023.46
608.2	36520.4
608.557	36791.8
608.914	37069.08
609.272	37512.46
609.629	37915.84
609.986	38106.79
610.343	38358.31
610.7	38846.66
611.057	38945.64
611.414	39406.42
611.771	39582.69
612.127	39958.05
612.484	40173.41
612.841	40533.4
613.198	40630.34
613.554	40851.58
613.911	41251.8
614.267	41379.93
614.624	41638.23
614.98	41812.01
615.337	42208.38
615.693	42409.96
616.05	42596.17
616.406	42900.11
616.762	43040.45
617.118	43041.13
617.475	43351.18
617.831	43512.08
618.187	43709.81
618.543	43936.25
618.899	44309.34
619.255	44372.17
619.611	44423.92
619.967	44739.16
620.323	44880.18
620.678	45000.62
621.034	44921.08
621.39	45140.73
621.746	45331.01
622.101	45620.72
622.457	45387.96
622.812	45681.74
623.168	46043.99
623.523	45976.42
623.879	46164.66
624.234	45927.15
624.589	46342.28
624.945	46397.65
625.3	46475.16
625.655	46515.61
626.01	46513.81
626.365	46757.87
626.72	46773.01
627.075	46844.64
627.43	46844.87
627.785	46837.64
628.14	47049.61
628.495	47184.3
628.85	47191.75
629.205	47157.4
629.559	47421.58
629.914	47328.47
630.269	47340.68
630.623	47356.95
630.978	47344.07
631.332	47567.56
631.687	47628.8
632.041	47423.61
632.396	47597.17
632.75	47572.31
633.104	47588.13
633.459	47416.83
633.813	47525.53
634.167	47657.28
634.521	47725.52
634.875	47685.07
635.229	47785.18
635.583	47601.01
635.937	47531.18
636.291	47511.97
636.645	47663.61
636.999	47575.02
637.352	47674.23
637.706	47518.07
638.06	47730.95
638.413	47631.29
638.767	47481.46
639.121	47660.67
639.474	47485.08
639.828	47545.42
640.181	47694.79
640.534	47741.57
640.888	47509.71
641.241	47599.2
641.594	47577.73
641.947	47826.09
642.301	47584.29
642.654	47728.46
643.007	47655.7
643.36	47640.56
643.713	47552.42
644.066	47752.64
644.419	47422.26
644.771	47222.71
645.124	46898.2
645.477	46722.84
645.83	46534.37
646.182	46468.83
646.535	46456.63
646.888	46680.58
647.24	46505.67
647.593	46731.65
647.945	46541.38
648.298	46485.33
648.65	46438.1
649.002	46333.02
649.355	46457.31
649.707	46474.26
650.059	46564.2
650.411	46991.08
650.763	47106.56
651.115	47467.9
651.467	47321.92
651.819	47308.36
652.171	47329.38
652.523	47276.72
652.875	47297.51
653.227	47075.15
653.578	47366.44
653.93	47313.56
654.282	47207.8
654.633	46998.76
654.985	47323.28
655.337	47247.35
655.688	47311.75
656.039	47275.14
656.391	47151.53
656.742	47129.61
657.094	47209.61
657.445	47314.01
657.796	47307.46
658.147	47177.97
658.498	47089.38
658.849	47180.91
659.2	47142.72
659.551	46919.67
659.902	47154.24
660.253	47035.15
660.604	47093.45
660.955	46821.14
661.306	47106.78
661.656	47055.71
662.007	47060.68
662.358	47051.64
662.708	47197.18
663.059	47138.42
663.409	46907.02
663.76	47201.24
664.11	47271.53
664.461	47203.28
664.811	47127.35
665.161	47208.02
665.511	47020.91
665.862	46954.7
666.212	47211.41
666.562	47162.15
666.912	47059.55
667.262	47037.18
667.612	47106.11
667.962	46953.34
668.312	47104.98
668.662	47121.47
669.011	47075.6
669.361	47047.58
669.711	47043.73
670.06	47092.55
670.41	46871.99
670.76	46766.23
671.109	46980.46
671.459	47008.93
671.808	46928.71
672.157	46956.73
672.507	46602.39
672.856	46724.42
673.205	46681.48
673.554	46847.58
673.904	46705.44
674.253	46987.92
674.602	46716.06
674.951	46314.94
675.3	45971.67
675.649	46669.51
675.998	46640.58
676.346	46735.49
676.695	46726.68
677.044	46484.2
677.393	46606.68
677.741	46701.37
678.09	46481.72
678.438	46459.34
678.787	46556.06
679.135	46505.44
679.484	46303.64
679.832	46413.02
680.181	46122.4
680.529	46236.52
680.877	46225.23
681.225	46093.93
681.573	46385.67
681.922	46006.47
682.27	46008.73
682.618	45877.66
682.966	45886.03
683.314	45905.69
683.661	45788.85
684.009	45510.67
684.357	45541.18
684.705	45515.19
685.053	45566.26
685.4	45504.79
685.748	45258.7
686.095	45226.38
686.443	45087.4
686.79	45171.92
687.138	45279.49
687.485	45169.21
687.832	45059.38
688.18	45135.31
688.527	44794.98
688.874	44824.13
689.221	44743.23
689.568	44610.8
689.915	44445.61
690.262	44566.51
690.609	44435.67
690.956	44340.53
691.303	44296.91
691.65	44038.84
691.997	43968.79
692.344	43851.73
692.69	43839.75
693.037	43940.31
693.383	43472.08
693.73	43599.76
694.077	43359.99
694.423	43280.67
694.769	43303.95
695.116	43254
695.462	43091.75
695.808	43045.65
696.155	43093.1
696.501	42747.58
696.847	42720.91
697.193	42489.5
697.539	42789.16
697.885	42281.37
698.231	42238.21
698.577	42318.21
698.923	42165.44
699.269	41869.63
699.614	41812.46
699.96	41641.84
700.306	41774.04
700.651	41507.61
700.997	41341.74
701.342	41372.47
701.688	41264.45
702.033	41222.64
702.379	41218.58
702.724	41030.11
703.069	41110.78
703.415	40761.64
703.76	40748.31
704.105	40809.55
704.45	40668.99
704.795	40578.59
705.14	40330.24
705.485	40366.17
705.83	40181.54
706.175	40344.25
706.52	40123.01
706.865	40042.11
707.209	39979.51
707.554	39786.3
707.899	39881.21
708.243	39702.23
708.588	39669.92
708.932	39561.22
709.277	39422.69
709.621	39283.26
709.966	39167.11
710.31	39172.08
710.654	38883.72
710.998	39083.72
711.342	39056.83
711.687	38859.32
712.031	38719.43
712.375	38638.76
712.719	38617.06
713.063	38591.98
713.407	38841.69
713.75	38454.58
714.094	38511.53
714.438	38377.52
714.782	38318.09
715.125	38069.06
715.469	38248.49
715.812	38007.81
716.156	37811.21
716.499	37840.81
716.843	37887.14
717.186	37622.29
717.53	37825.9
717.873	37672.91
718.216	37679.01
718.559	37515.17
718.902	37259.13
719.246	37400.6
719.589	37304.33
719.932	37184.56
720.275	37009.2
720.617	37039.03
720.96	37007.84
721.303	37021.17
721.646	37050.33
721.989	36890.78
722.331	36910.67
722.674	36874.51
723.016	36882.42
723.359	36824.57
723.701	36733.27
724.044	36399.49
724.386	36372.83
724.729	36541.86
725.071	36476.78
725.413	36468.65
725.755	36330.57
726.097	36062.1
726.439	36101.42
726.782	36144.59
727.124	36166.51
727.465	35863.01
727.807	35942.56
728.149	35837.25
728.491	35772.17
728.833	35906.63
729.175	35717.48
729.516	35550.25
729.858	35663.92
730.199	35665.95
730.541	35587.09
730.882	35530.14
731.224	35558.16
731.565	35410.37
731.906	35322.24
732.248	35419.86
732.589	35303.03
732.93	35150.26
733.271	35059.64
733.612	35161.79
733.953	35071.85
734.294	35062.81
734.635	34872.76
734.976	35013.99
735.317	34758.41
735.658	34792.53
735.999	34828.91
736.339	34737.84
736.68	34856.94
737.021	34663.95
737.361	34735.81
737.702	34688.81
738.042	34542.59
738.383	34500.34
738.723	34426.44
739.063	34414.91
739.404	34340.79
739.744	34312.77
740.084	34202.72
740.424	34284.07
740.764	34197.52
741.104	34331.53
741.444	34025.09
741.784	34080.01
742.124	34075.26
742.464	34026.68
742.804	34042.72
743.143	33833.46
743.483	34003.85
743.823	33530.64
744.162	33707.81
744.502	33645.22
744.841	33587.14
745.181	33669.62
745.52	33559.12
745.86	33551.21
746.199	33570.42
746.538	33437.09
746.877	33528.16
747.216	33544.2
747.556	33438.44
747.895	33334.04
748.234	33277.32
748.573	33163.42
748.911	33079.81
749.25	33082.52
749.589	33001.62
749.928	33018.11
750.267	32981.96
750.605	32879.59
750.944	33015.4
751.283	32654.06
751.621	32782.41
751.96	32606.37
752.298	32628.75
752.636	32611.8
752.975	32490.67
753.313	32348.3
753.651	32520.05
753.989	32359.38
754.327	32247.29
754.666	32022.66
755.004	32123.9
755.342	32243.45
755.679	32116.44
756.017	31785.15
756.355	31859.28
756.693	31807.98
757.031	31828.77
757.368	31639.62
757.706	31635.55
758.044	31508.78
758.381	31505.16
758.719	31442.56
759.056	31332.51
759.394	31398.5
759.731	31196.02
760.068	31099.52
