Data from red_cardboard_box_FLMS001491_00019.txt Node
Date: Wed Feb 08 11:31:37 GMT 2017
User: dcchb
Spectrometer: FLMS00149
Trigger mode: 0
Integration Time (sec): 2.000000E-2
Scans to average: 10
Electric dark correction enabled: true
Nonlinearity correction enabled: false
Boxcar width: 0
XAxis mode: Wavelengths
Number of Pixels in Spectrum: 2048
>>>>>Begin Spectral Data<<<<<
341.393	-14.51
341.776	-14.51
342.16	-14.51
342.543	-73.49
342.927	-78.91
343.31	-68.52
343.693	-57.67
344.077	-75.75
344.46	-54.73
344.843	-61.51
345.226	-42.08
345.61	-45.24
345.993	-17.44
346.376	-12.02
346.759	16.23
347.142	27.08
347.525	46.06
347.908	58.71
348.291	91.25
348.674	82.89
349.057	112.72
349.44	139.39
349.823	136
350.206	174.19
350.588	193.4
350.971	191.37
351.354	218.71
351.737	252.38
352.119	250.35
352.502	265.71
352.884	274.07
353.267	266.84
353.65	296.22
354.032	297.35
354.414	316.11
354.797	306.16
355.179	320.85
355.562	334.19
355.944	312.04
356.326	337.12
356.709	330.34
357.091	340.06
357.473	357.24
357.855	338.25
358.238	365.82
358.62	326.73
359.002	326.05
359.384	345.03
359.766	324.24
360.148	330.12
360.53	344.13
360.912	324.02
361.294	332.6
361.676	345.49
362.057	341.87
362.439	325.15
362.821	333.96
363.203	319.5
363.584	334.41
363.966	322.21
364.348	313.17
364.729	326.28
365.111	341.42
365.493	320.85
365.874	311.59
366.256	310.68
366.637	302.32
367.019	315.2
367.4	306.39
367.781	298.71
368.163	308.42
368.544	329.44
368.925	308.2
369.306	339.61
369.688	326.5
370.069	301.42
370.45	307.97
370.831	312.94
371.212	333.28
371.593	327.86
371.974	313.85
372.355	319.5
372.736	303.68
373.117	324.92
373.498	321.98
373.879	313.62
374.26	335.09
374.641	340.74
375.021	321.31
375.402	328.54
375.783	309.33
376.163	315.88
376.544	315.88
376.925	319.5
377.305	319.05
377.686	317.69
378.066	303.9
378.447	305.94
378.827	318.14
379.208	328.99
379.588	312.94
379.968	324.92
380.349	338.93
380.729	313.85
381.109	308.88
381.489	327.86
381.87	324.69
382.25	311.81
382.63	321.53
383.01	346.39
383.39	340.74
383.77	349.55
384.15	347.29
384.53	343
384.91	308.2
385.29	344.13
385.67	350.23
386.049	348.42
386.429	321.53
386.809	347.97
387.189	340.29
387.568	362.21
387.948	337.8
388.328	343.45
388.707	350.68
389.087	324.47
389.466	343.23
389.846	357.69
390.225	340.74
390.605	342.32
390.984	352.04
391.363	360.63
391.743	347.97
392.122	352.49
392.501	338.03
392.881	354.3
393.26	355.43
393.639	351.13
394.018	354.3
394.397	364.69
394.776	369.21
395.155	352.04
395.534	370.12
395.913	350.23
396.292	379.38
396.671	345.71
397.05	362.66
397.429	356.33
397.808	364.92
398.186	357.69
398.565	362.89
398.944	349.33
399.323	364.47
399.701	370.57
400.08	371.7
400.458	383.68
400.837	375.09
401.215	359.27
401.594	391.59
401.972	360.17
402.351	366.5
402.729	385.26
403.107	387.29
403.486	366.5
403.864	384.13
404.242	363.34
404.62	357.69
404.999	390.91
405.377	371.7
405.755	370.57
406.133	379.83
406.511	392.72
406.889	376.67
407.267	382.55
407.645	399.5
408.023	398.14
408.401	392.49
408.779	391.13
409.156	378.7
409.534	409.21
409.912	400.17
410.29	412.15
410.667	417.57
411.045	400.85
411.422	414.41
411.8	400.85
412.178	401.53
412.555	402.21
412.933	415.99
413.31	418.03
413.687	424.13
414.065	415.09
414.442	424.58
414.819	406.05
415.197	404.24
415.574	438.82
415.951	415.77
416.328	428.65
416.705	426.61
417.082	435.88
417.46	423.45
417.837	424.81
418.214	440.62
418.591	429.78
418.967	438.59
419.344	435.43
419.721	434.75
420.098	436.1
420.475	424.13
420.852	439.27
421.228	436.78
421.605	458.02
421.982	434.07
422.358	456.44
422.735	461.64
423.111	460.96
423.488	460.51
423.864	454.41
424.241	469.32
424.617	439.27
424.994	460.06
425.37	477.01
425.746	473.84
426.123	495.31
426.499	446.73
426.875	461.87
427.251	472.94
427.627	460.74
428.003	504.35
428.379	486.95
428.756	472.71
429.132	471.36
429.507	479.27
429.883	492.6
430.259	506.38
430.635	467.97
431.011	484.01
431.387	506.84
431.763	477.69
432.138	506.16
432.514	490.57
432.89	527.4
433.265	530.34
433.641	507.97
434.016	519.94
434.392	524.24
434.767	514.75
435.143	530.34
435.518	528.08
435.894	529.21
436.269	545.48
436.644	531.92
437.02	538.93
437.395	536.44
437.77	551.36
438.145	581.19
438.52	535.76
438.895	546.38
439.271	527.4
439.646	567.63
440.021	570.56
440.395	555.88
440.77	543.67
441.145	550.45
441.52	590
441.895	566.04
442.27	565.59
442.645	580.51
443.019	563.11
443.394	562.2
443.769	573.73
444.143	577.12
444.518	579.6
444.892	581.86
445.267	571.02
445.641	574.86
446.016	590.68
446.39	589.09
446.764	592.26
447.139	589.32
447.513	585.7
447.887	611.69
448.262	591.81
448.636	583.9
449.01	615.99
449.384	609.89
449.758	596.78
450.132	630.68
450.506	622.54
450.88	619.6
451.254	622.54
451.628	622.09
452.002	624.12
452.376	640.39
452.75	633.39
453.123	623.22
453.497	627.51
453.871	631.58
454.244	655.99
454.618	631.35
454.992	663.67
455.365	644.91
455.739	662.77
456.112	659.38
456.486	677.68
456.859	694.63
457.232	680.39
457.606	670.67
457.979	676.78
458.352	686.72
458.725	703.67
459.099	717.9
459.472	696.44
459.845	727.17
460.218	727.62
460.591	723.33
460.964	716.77
461.337	726.27
461.71	738.24
462.083	729.88
462.456	729.66
462.829	716.55
463.201	746.15
463.574	761.29
463.947	764.46
464.32	754.51
464.692	782.54
465.065	773.95
465.438	789.32
465.81	802.42
466.183	817.79
466.555	786.38
466.928	789.09
467.3	800.84
467.672	806.04
468.045	811.24
468.417	839.48
468.789	813.27
469.161	847.39
469.534	827.96
469.906	843.33
470.278	865.47
470.65	868.86
471.022	858.69
471.394	874.96
471.766	893.95
472.138	893.04
472.51	911.35
472.882	902.53
473.253	889.88
473.625	926.49
473.997	939.14
474.369	962.64
474.74	968.29
475.112	980.95
475.484	956.99
475.855	985.02
476.227	995.19
476.598	1006.71
476.97	1021.85
477.341	1039.03
477.713	1055.07
478.084	1050.1
478.455	1050.78
478.827	1067.73
479.198	1091
479.569	1113.15
479.94	1102.53
480.311	1138.01
480.682	1137.78
481.053	1163.77
481.424	1185.46
481.795	1202.86
482.166	1203.09
482.537	1178.23
482.908	1220.49
483.279	1264.33
483.65	1254.84
484.021	1276.76
484.391	1292.35
484.762	1296.65
485.133	1298.68
485.503	1289.87
485.874	1359.92
486.244	1345.68
486.615	1375.29
486.985	1371.22
487.356	1392.24
487.726	1422.29
488.097	1420.94
488.467	1413.71
488.837	1445.12
489.207	1486.7
489.578	1491.44
489.948	1496.87
490.318	1523.08
490.688	1537.54
491.058	1553.36
491.428	1539.13
491.798	1562.18
492.168	1610.54
492.538	1583.19
492.908	1645.34
493.278	1576.19
493.648	1628.16
494.017	1657.32
494.387	1665.9
494.757	1673.59
495.126	1685.79
495.496	1726.92
495.866	1729.18
496.235	1755.84
496.605	1752
496.974	1768.27
497.344	1742.96
497.713	1809.63
498.082	1771.89
498.452	1802.17
498.821	1795.62
499.19	1816.86
499.559	1853.69
499.928	1860.93
500.298	1872.68
500.667	1886.69
501.036	1876.52
501.405	1902.73
501.774	1905.22
502.143	1897.99
502.512	1910.64
502.88	1936.4
503.249	1932.11
503.618	1967.82
503.987	1966.01
504.356	1982.73
504.724	1992.9
505.093	1996.06
505.462	2020.47
505.83	2011.88
506.199	2076.29
506.567	2056.85
506.936	2104.31
507.304	2071.54
507.672	2108.83
508.041	2136.17
508.409	2132.56
508.777	2122.39
509.145	2168.26
509.514	2147.02
509.882	2173.01
510.25	2189.5
510.618	2181.82
510.986	2235.38
511.354	2219.79
511.722	2246
512.09	2256.4
512.458	2237.64
512.826	2282.61
513.193	2313.8
513.561	2370.29
513.929	2330.74
514.297	2352.21
514.664	2372.55
515.032	2350.4
515.4	2407.35
515.767	2423.4
516.135	2395.15
516.502	2427.01
516.869	2465.43
517.237	2486.67
517.604	2444.64
517.972	2485.77
518.339	2512.43
518.706	2511.53
519.073	2538.2
519.44	2546.33
519.808	2559.44
520.175	2614.8
520.542	2636.5
520.909	2663.39
521.276	2620.91
521.643	2697.97
522.009	2685.31
522.376	2726.21
522.743	2732.09
523.11	2755.82
523.477	2750.62
523.843	2767.57
524.21	2778.64
524.577	2853.44
524.943	2835.59
525.31	2851.63
525.676	2893.44
526.043	2933.21
526.409	2893.44
526.776	2934.57
527.142	2949.94
527.508	2944.51
527.874	3022.7
528.241	3031.06
528.607	3025.19
528.973	3094.57
529.339	3057.73
529.705	3130.72
530.071	3168.01
530.437	3155.13
530.803	3143.15
531.169	3203.49
531.535	3157.84
531.901	3176.6
532.267	3222.25
532.632	3256.14
532.998	3246.2
533.364	3236.26
533.73	3313.54
534.095	3349.93
534.461	3325.75
534.826	3354.9
535.192	3355.8
535.557	3387.44
535.923	3422.69
536.288	3397.61
536.653	3442.8
537.019	3420.43
537.384	3465.18
537.749	3495.23
538.114	3497.94
538.479	3475.35
538.845	3539.07
539.21	3560.77
539.575	3543.37
539.94	3578.17
540.305	3553.08
540.67	3576.59
541.034	3570.94
541.399	3608.45
541.764	3631.05
542.129	3650.71
542.494	3654.55
542.858	3669.69
543.223	3680.76
543.587	3715.79
543.952	3718.73
544.316	3726.64
544.681	3740.65
545.045	3780.65
545.41	3832.85
545.774	3857.94
546.138	3861.78
546.503	3825.17
546.867	3863.81
547.231	3950.14
547.595	3935.9
547.959	3938.16
548.324	3913.98
548.688	3978.38
549.052	3985.39
549.416	4020.87
549.779	4051.6
550.143	4039.85
550.507	4054.54
550.871	4088.66
551.235	4088.66
551.599	4124.82
551.962	4166.4
552.326	4225.16
552.689	4222.22
553.053	4238.49
553.417	4261.99
553.78	4278.04
554.143	4305.16
554.507	4354.65
554.87	4356.45
555.234	4412.27
555.597	4426.96
555.96	4431.71
556.323	4424.7
556.686	4452.72
557.05	4501.31
557.413	4572.27
557.776	4589.67
558.139	4604.36
558.502	4670.8
558.865	4654.3
559.228	4742.43
559.59	4732.71
559.953	4708.08
560.316	4824.24
560.679	4855.2
561.041	4885.93
561.404	4953.27
561.767	4959.6
562.129	4957.79
562.492	5013.61
562.854	5102.87
563.217	5060.16
563.579	5161.4
563.941	5161.18
564.304	5224
564.666	5259.03
565.028	5303.32
565.39	5336.09
565.753	5356.2
566.115	5467.84
566.477	5499.47
566.839	5516.2
567.201	5598.68
567.563	5627.83
567.925	5756.19
568.287	5736.3
568.648	5728.17
569.01	5817.43
569.372	5843.19
569.734	5909.41
570.095	6001.16
570.457	6026.24
570.819	6038.22
571.18	6155.5
571.542	6220.36
571.903	6244.77
572.265	6273.46
572.626	6315.27
572.987	6405.44
573.349	6431.88
573.71	6523.63
574.071	6537.19
574.432	6658.54
574.794	6757.75
575.155	6759.78
575.516	6829.16
575.877	6908.7
576.238	6936.5
576.599	7129.71
576.96	7125.42
577.32	7190.05
577.681	7281.12
578.042	7329.26
578.403	7377.39
578.763	7577.16
579.124	7620.77
579.485	7688.57
579.845	7790.94
580.206	7821.67
580.566	8035.45
580.927	8019.41
581.287	8164.04
581.648	8263.7
582.008	8399.06
582.368	8481.32
582.728	8663.23
583.089	8775.55
583.449	8860.06
583.809	9011.7
584.169	9130.11
584.529	9206.04
584.889	9404.23
585.249	9522.87
585.609	9737.1
585.969	9878.57
586.329	9991.79
586.688	10122.63
587.048	10340.93
587.408	10401.27
587.768	10667.25
588.127	10866.79
588.487	11069.72
588.846	11312.88
589.206	11500.9
589.565	11649.82
589.925	11988.34
590.284	12119.86
590.643	12353.08
591.003	12647.31
591.362	12929.34
591.721	13127.75
592.08	13336.33
592.44	13645.47
592.799	13889.08
593.158	14119.81
593.517	14301.5
593.876	14601.83
594.235	14966.57
594.593	15214.02
594.952	15539.89
595.311	15676.83
595.67	16112.08
596.029	16529.92
596.387	16808.1
596.746	17162.22
597.104	17296.68
597.463	17617.8
597.822	17967.62
598.18	18267.27
598.538	18547.27
598.897	18925.56
599.255	19160.58
599.613	19726.9
599.972	19861.36
600.33	20274.9
600.688	20607.1
601.046	20951.5
601.404	21427.42
601.762	21690.23
602.12	21995.09
602.478	22365.02
602.836	22660.83
603.194	22963.2
603.552	23319.57
603.91	23477.53
604.268	23813.12
604.625	24231.86
604.983	24600.21
605.341	24769.7
605.698	25122.01
606.056	25655.1
606.413	25833.63
606.771	26059.61
607.128	26478.58
607.485	26493.72
607.843	26881.74
608.2	27383.87
608.557	27585.45
608.914	27777.76
609.272	28194.92
609.629	28486.21
609.986	28753.1
610.343	28925.07
610.7	29306.08
611.057	29466.3
611.414	29771.38
611.771	29977.47
612.127	30240.29
612.484	30502.43
612.841	30686.61
613.198	30889.31
613.554	31126.6
613.911	31414.27
614.267	31514.16
614.624	31776.52
614.98	31891.55
615.337	32147.59
615.693	32316.4
616.05	32417.18
616.406	32913.67
616.762	32766.33
617.118	33120.22
617.475	33207.22
617.831	33510.49
618.187	33500.77
618.543	33720.2
618.899	34110.7
619.255	34193.63
619.611	34222.56
619.967	34358.6
620.323	34573.29
620.678	34613.28
621.034	34536
621.39	34853.73
621.746	34824.8
622.101	35368.75
622.457	35182.31
622.812	35356.32
623.168	35530.55
623.523	35660.26
623.879	35919.01
624.234	35763.99
624.589	35944.55
624.945	35962.63
625.3	36289.85
625.655	36271.32
626.01	36246.69
626.365	36299.12
626.72	36316.74
627.075	36418.89
627.43	36538.88
627.785	36539.34
628.14	36598.32
628.495	36717.86
628.85	36882.83
629.205	36748.6
629.559	36971.64
629.914	36870.17
630.269	37130.73
630.623	36867.24
630.978	36998.31
631.332	37151.75
631.687	37300.67
632.041	37182.93
632.396	37271.75
632.75	37167.57
633.104	37271.52
633.459	37140.22
633.813	37181.58
634.167	37262.93
634.521	37183.39
634.875	37390.16
635.229	37348.35
635.583	37249.83
635.937	37260.9
636.291	37183.61
636.645	37386.55
636.999	37247.57
637.352	37278.3
637.706	37155.14
638.06	37340.22
638.413	37321.01
638.767	37258.41
639.121	37374.12
639.474	37357.62
639.828	37366.88
640.181	37419.31
640.534	37445.98
640.888	37249.15
641.241	37321.46
641.594	37345.87
641.947	37483.72
642.301	37285.98
642.654	37393.1
643.007	37331.41
643.36	37398.75
643.713	37158.3
644.066	37415.7
644.419	37072.66
644.771	36933.45
645.124	36642.84
645.477	36504.76
645.83	36368.27
646.182	36334.6
646.535	36174.15
646.888	36491.65
647.24	36257.08
647.593	36521.03
647.945	36435.16
648.298	36286.24
648.65	36368.94
649.002	36084.66
649.355	36392.45
649.707	36316.29
650.059	36467.02
650.411	37019.32
650.763	36996.05
651.115	37333.89
651.467	37156.72
651.819	37192.88
652.171	37152.2
652.523	37168.02
652.875	37122.15
653.227	36974.13
653.578	37340.22
653.93	37107.23
654.282	37140
654.633	37028.59
654.985	37049.15
655.337	37036.95
655.688	37082.82
656.039	37236.72
656.391	36934.81
656.742	36924.41
657.094	36998.76
657.445	37180.67
657.796	37006.89
658.147	36934.58
658.498	37024.52
658.849	37029.04
659.2	37016.39
659.551	36815.03
659.902	37134.35
660.253	36915.6
660.604	37150.39
660.955	36832.89
661.306	37016.39
661.656	36937.74
662.007	36962.6
662.358	37014.35
662.708	37137.74
663.059	36994.24
663.409	36789.95
663.76	37058.87
664.11	37020.91
664.461	36972.32
664.811	37094.8
665.161	36956.27
665.511	36887.35
665.862	37078.3
666.212	36912.66
666.562	37094.12
666.912	36991.53
667.262	37048.25
667.612	36946.33
667.962	36919.66
668.312	36851.87
668.662	37107.68
669.011	37131.64
669.361	36989.49
669.711	37052.09
670.06	36940.23
670.41	36788.82
670.76	36825.2
671.109	36916.73
671.459	36761.7
671.808	36841.02
672.157	36849.38
672.507	36752.21
672.856	36669.73
673.205	36645.77
673.554	36794.24
673.904	36713.34
674.253	36777.97
674.602	36722.61
674.951	36329.85
675.3	36148.16
675.649	36570.3
675.998	36639.22
676.346	36559.9
676.695	36728.48
677.044	36459.34
677.393	36691.87
677.741	36582.72
678.09	36529.17
678.438	36461.37
678.787	36434.71
679.135	36532.33
679.484	36248.04
679.832	36466.34
680.181	36210.08
680.529	36342.05
680.877	36218.89
681.225	36218.21
681.573	36318.78
681.922	36052.12
682.27	36039.91
682.618	36059.35
682.966	35993.36
683.314	36059.57
683.661	36025.45
684.009	35796.08
684.357	35672.24
684.705	35487.84
685.053	35759.47
685.4	35691.45
685.748	35401.74
686.095	35522.64
686.443	35358.35
686.79	35310.22
687.138	35431.79
687.485	35385.69
687.832	35270.89
688.18	35281.74
688.527	35098.02
688.874	35067.51
689.221	34918.59
689.568	34875.42
689.915	34704.36
690.262	34811.25
690.609	34686.96
690.956	34586.84
691.303	34489.9
691.65	34428.66
691.997	34346.63
692.344	34196.35
692.69	34268.89
693.037	34328.32
693.383	33926.52
693.73	34163.13
694.077	33922.23
694.423	33883.59
694.769	33848.11
695.116	33649.02
695.462	33762.23
695.808	33592.29
696.155	33510.26
696.501	33346.43
696.847	33343.49
697.193	33096.26
697.539	33260.33
697.885	32957.51
698.231	32974.46
698.577	32823.05
698.923	32898.53
699.269	32711.19
699.614	32650.17
699.96	32565.66
700.306	32684.52
700.651	32380.35
700.997	32275.72
701.342	32224.2
701.688	32258.77
702.033	32120.69
702.379	32104.42
702.724	31829.4
703.069	32020.13
703.415	31599.58
703.76	31769.07
704.105	31797.09
704.45	31697.43
704.795	31480.71
705.14	31475.06
705.485	31399.81
705.83	31241.85
706.175	31308.29
706.52	31155.52
706.865	31167.27
707.209	31098.12
707.554	30954.85
707.899	31122.76
708.243	30830.33
708.588	30835.53
708.932	30588.31
709.277	30621.07
709.621	30626.95
709.966	30300.18
710.31	30409.1
710.654	30256.56
710.998	30341.31
711.342	30141.76
711.687	30188.77
712.031	30086.62
712.375	29951.71
712.719	30111.03
713.063	29899.96
713.407	30114.19
713.75	29880.3
714.094	29928.89
714.438	29751.04
714.782	29749.68
715.125	29747.42
715.469	29710.59
715.812	29447.54
716.156	29302.69
716.499	29428.11
716.843	29431.5
717.186	29087.33
717.53	29439.41
717.873	29357.83
718.216	29330.03
718.559	29148.57
718.902	28977.05
719.246	29050.95
719.589	28958.97
719.932	28686.89
720.275	28734.57
720.617	28841.23
720.96	28882.14
721.303	28745.64
721.646	28684.85
721.989	28728.92
722.331	28689.82
722.674	28682.82
723.016	28625.87
723.359	28567.57
723.701	28631.52
724.044	28324.18
724.386	28229.05
724.729	28315.82
725.071	28355.82
725.413	28295.71
725.755	28310.17
726.097	28156.73
726.439	27965.1
726.782	27987.7
727.124	28120.12
727.465	27897.53
727.807	27995.61
728.149	27820.47
728.491	27879.9
728.833	27804.65
729.175	27749.28
729.516	27680.59
729.858	27656.86
730.199	27780.24
730.541	27686.91
730.882	27611.66
731.224	27621.15
731.565	27490.99
731.906	27409.41
732.248	27556.52
732.589	27311.78
732.93	27323.31
733.271	27226.13
733.612	27351.33
733.953	27323.31
734.294	27194.5
734.635	27241.73
734.976	27280.82
735.317	27096.87
735.658	27005.8
735.999	27059.13
736.339	26999.25
736.68	27076.08
737.021	26971
737.361	26868.4
737.702	27073.82
738.042	26824.56
738.383	26798.8
738.723	26736.43
739.063	26701.4
739.404	26751.57
739.744	26767.16
740.084	26568.98
740.424	26642.65
740.764	26553.84
741.104	26670.67
741.444	26513.61
741.784	26389.77
742.124	26481.3
742.464	26421.41
742.804	26408.75
743.143	26314.29
743.483	26427.06
743.823	26137.12
744.162	26164.92
744.502	26306.61
744.841	26204.69
745.181	26248.76
745.52	26014.19
745.86	26073.4
746.199	26073.17
746.538	26077.69
746.877	26161.3
747.216	26072.94
747.556	26024.58
747.895	26101.87
748.234	25872.72
748.573	25849.67
748.911	25792.95
749.25	25832.05
749.589	25776.91
749.928	25703.24
750.267	25779.17
750.605	25700.3
750.944	25709.34
751.283	25559.96
751.621	25608.55
751.96	25533.98
752.298	25498.72
752.636	25457.59
752.975	25319.52
753.313	25290.37
753.651	25341.44
753.989	25281.78
754.327	25210.82
754.666	25072.07
755.004	25144.83
755.342	25129.92
755.679	24970.15
756.017	24948
756.355	24992.07
756.693	24901.9
757.031	24960.66
757.368	24710.04
757.706	24759.08
758.044	24601.12
758.381	24762.47
758.719	24615.36
759.056	24623.49
759.394	24552.98
759.731	24318.64
760.068	24287.68
760.405	24183.05
760.743	24152.09
761.08	24218.53
761.417	24151.86
761.754	24188.7
762.091	23940.57
