Data from red_shiny_book_FLMS001491_00085.txt Node
Date: Wed Feb 08 15:25:29 GMT 2017
User: dcchb
Spectrometer: FLMS00149
Trigger mode: 0
Integration Time (sec): 2.000000E-2
Scans to average: 10
Electric dark correction enabled: true
Nonlinearity correction enabled: false
Boxcar width: 0
XAxis mode: Wavelengths
Number of Pixels in Spectrum: 2048
>>>>>Begin Spectral Data<<<<<
341.393	-0.55
341.776	-0.55
342.16	-0.55
342.543	-56.82
342.927	-68.35
343.31	-93.88
343.693	-38.29
344.077	-76.03
344.46	-62.92
344.843	-59.31
345.226	-29.7
345.61	-43.26
345.993	-24.51
346.376	-22.25
346.759	8.04
347.142	31.99
347.525	58.88
347.908	58.2
348.291	81.71
348.674	100.69
349.057	110.63
349.44	134.81
349.823	127.58
350.206	157.64
350.588	188.6
350.971	206.68
351.354	217.97
351.737	229.05
352.119	241.7
352.502	256.62
352.884	288.48
353.267	276.73
353.65	308.37
354.032	301.59
354.414	310.4
354.797	310.18
355.179	333.23
355.562	323.96
355.944	330.51
356.326	332.1
356.709	348.37
357.091	326.45
357.473	338.42
357.855	335.94
358.238	338.65
358.62	345.2
359.002	359.21
359.384	341.14
359.766	351.3
360.148	357.63
360.53	340.91
360.912	345.43
361.294	335.94
361.676	350.4
362.057	346.33
362.439	350.17
362.821	327.8
363.203	331.64
363.584	360.57
363.966	317.63
364.348	312.21
364.729	330.06
365.111	314.47
365.493	306.33
365.874	329.38
366.256	322.38
366.637	305.88
367.019	308.14
367.4	316.5
367.781	326.9
368.163	318.31
368.544	340.46
368.925	308.37
369.306	299.55
369.688	294.58
370.069	324.86
370.45	333.45
370.831	327.8
371.212	340.23
371.593	308.37
371.974	324.41
372.355	296.16
372.736	300.91
373.117	313.34
373.498	327.58
373.879	313.57
374.26	312.44
374.641	324.19
375.021	343.39
375.402	326.67
375.783	312.21
376.163	332.32
376.544	327.8
376.925	328.93
377.305	315.83
377.686	325.99
378.066	316.5
378.447	323.73
378.827	341.59
379.208	331.87
379.588	357.86
379.968	337.29
380.349	363.96
380.729	344.07
381.109	337.75
381.489	367.12
381.87	330.51
382.25	337.52
382.63	338.88
383.01	357.63
383.39	356.05
383.77	358.08
384.15	345.43
384.53	352.66
384.91	352.66
385.29	342.04
385.67	345.43
386.049	351.98
386.429	344.98
386.809	351.3
387.189	367.12
387.568	365.99
387.948	368.48
388.328	395.6
388.707	380.91
389.087	364.41
389.466	370.96
389.846	370.06
390.225	370.06
390.605	377.07
390.984	350.85
391.363	382.26
391.743	379.55
392.122	399.21
392.501	371.42
392.881	372.55
393.26	390.85
393.639	375.26
394.018	385.43
394.397	399.66
394.776	375.26
395.155	377.74
395.534	407.8
395.913	381.59
396.292	385.43
396.671	383.17
397.05	382.72
397.429	412.09
397.808	404.18
398.186	398.99
398.565	393.79
398.944	400.12
399.323	410.51
399.701	405.77
400.08	380.23
400.458	379.1
400.837	392.66
401.215	412.32
401.594	433.11
401.972	420.91
402.351	424.52
402.729	412.77
403.107	408.48
403.486	417.07
403.864	398.08
404.242	408.03
404.62	415.26
404.999	408.7
405.377	431.3
405.755	423.39
406.133	433.11
406.511	427.01
406.889	429.95
407.267	432.88
407.645	438.08
408.023	428.59
408.401	456.39
408.779	446.22
409.156	445.99
409.534	463.17
409.912	442.15
410.29	481.47
410.667	479.89
411.045	471.75
411.422	470.17
411.8	456.16
412.178	470.62
412.555	445.09
412.933	460.91
413.31	489.15
413.687	499.1
414.065	502.94
414.442	511.53
414.819	498.65
415.197	508.59
415.574	512.2
415.951	510.4
416.328	523.73
416.705	510.62
417.082	519.66
417.46	519.89
417.837	545.42
418.214	538.64
418.591	568.7
418.967	547.68
419.344	552.43
419.721	541.36
420.098	542.03
420.475	540.68
420.852	536.61
421.228	563.28
421.605	555.82
421.982	570.06
422.358	559.43
422.735	573.22
423.111	587.91
423.488	619.32
423.864	574.58
424.241	589.26
424.617	575.48
424.994	607.57
425.37	589.94
425.746	599.89
426.123	601.92
426.499	602.37
426.875	623.61
427.251	615.48
427.627	631.52
428.003	637.85
428.379	625.65
428.756	617.74
429.132	626.1
429.507	613.22
429.883	624.29
430.259	646.66
430.635	636.04
431.011	660
431.387	687.11
431.763	704.74
432.138	689.6
432.514	695.93
432.89	671.97
433.265	673.33
433.641	682.6
434.016	692.76
434.392	690.73
434.767	698.87
435.143	705.65
435.518	712.65
435.894	735.48
436.269	740.9
436.644	756.27
437.02	754.46
437.395	763.27
437.77	744.06
438.145	736.83
438.52	734.12
438.895	735.02
439.271	756.94
439.646	773.44
440.021	770.5
440.395	800.56
440.77	805.08
441.145	815.47
441.52	847.79
441.895	824.51
442.27	800.33
442.645	803.27
443.019	784.97
443.394	772.54
443.769	770.28
444.143	790.84
444.518	808.92
444.892	823.16
445.267	862.25
445.641	851.63
446.016	834.23
446.39	851.4
446.764	860.67
447.139	846.88
447.513	827.22
447.887	821.57
448.262	826.77
448.636	825.42
449.01	853.21
449.384	856.15
449.758	876.49
450.132	885.75
450.506	908.58
450.88	876.04
451.254	881.01
451.628	879.65
452.002	907.9
452.376	882.14
452.75	857.05
453.123	874.91
453.497	862.25
453.871	885.08
454.244	913.55
454.618	922.81
454.992	935.02
455.365	937.28
455.739	964.17
456.112	961.46
456.486	947.45
456.859	951.74
457.232	958.97
457.606	957.62
457.979	935.92
458.352	937.73
458.725	931.85
459.099	951.29
459.472	985.86
459.845	977.05
460.218	988.12
460.591	1039.65
460.964	1044.39
461.337	1045.75
461.71	1081.45
462.083	1047.56
462.456	1032.87
462.829	998.74
463.201	997.16
463.574	1040.1
463.947	1004.85
464.32	1021.12
464.692	1051.4
465.065	1083.49
465.438	1118.29
465.81	1107.89
466.183	1134.33
466.555	1198.06
466.928	1160.1
467.3	1135.24
467.672	1132.3
468.045	1119.87
468.417	1117.39
468.789	1094.11
469.161	1118.97
469.534	1120.55
469.906	1179.31
470.278	1196.25
470.65	1203.26
471.022	1267.66
471.394	1268.79
471.766	1275.35
472.138	1279.64
472.51	1303.37
472.882	1299.75
473.253	1288.45
473.625	1305.18
473.997	1283.03
474.369	1291.39
474.74	1276.93
475.112	1297.72
475.484	1344.5
475.855	1374.55
476.227	1401.9
476.598	1446.87
476.97	1477.6
477.341	1515.79
477.713	1532.52
478.084	1523.25
478.455	1500.88
478.827	1521.22
479.198	1513.31
479.569	1482.57
479.94	1516.47
480.311	1507.43
480.682	1522.35
481.053	1549.24
481.424	1614.55
481.795	1639.18
482.166	1743.13
482.537	1765.96
482.908	1804.83
483.279	1813.86
483.65	1869.91
484.021	1873.75
484.391	1847.76
484.762	1833.75
485.133	1796.01
485.503	1809.12
485.874	1816.12
486.244	1796.46
486.615	1855.22
486.985	1906.74
487.356	1976.8
487.726	2034.42
488.097	2116.68
488.467	2149.9
488.837	2231.71
489.207	2238.26
489.578	2236.68
489.948	2241.88
490.318	2239.39
490.688	2158.49
491.058	2169.11
491.428	2180.86
491.798	2143.57
492.168	2191.71
492.538	2243.01
492.908	2290.46
493.278	2356
493.648	2400.06
494.017	2441.42
494.387	2532.72
494.757	2557.57
495.126	2604.35
495.496	2586.5
495.866	2605.26
496.235	2596.22
496.605	2573.84
496.974	2522.55
497.344	2501.53
497.713	2509.67
498.082	2475.54
498.452	2495.88
498.821	2511.47
499.19	2560.74
499.559	2659.04
499.928	2694.52
500.298	2798.02
500.667	2841.63
501.036	2839.15
501.405	2869.2
501.774	2867.85
502.143	2835.08
502.512	2797.12
502.88	2748.98
503.249	2736.78
503.618	2664.24
503.987	2669.89
504.356	2687.74
504.724	2656.1
505.093	2715.31
505.462	2740.85
505.83	2837.34
506.199	2882.09
506.567	2974.06
506.936	2973.83
507.304	3048.63
507.672	3062.87
508.041	3107.16
508.409	3038.47
508.777	3010.9
509.145	2934.51
509.514	2904.91
509.882	2820.17
510.25	2818.36
510.618	2796.89
510.986	2798.02
511.354	2850.67
511.722	2854.52
512.09	2958.02
512.458	3012.48
512.826	3098.12
513.193	3121.85
513.561	3214.05
513.929	3237.33
514.297	3258.12
514.664	3249.99
515.032	3181.74
515.4	3151.23
515.767	3114.17
516.135	3054.28
516.502	2974.51
516.869	2975.19
517.237	2925.02
517.604	2927.51
517.972	2965.25
518.339	3020.39
518.706	3073.72
519.073	3162.76
519.44	3266.48
519.808	3300.83
520.175	3367.04
520.542	3400.94
520.909	3419.92
521.276	3403.88
521.643	3403.65
522.009	3323.2
522.376	3268.74
522.743	3265.13
523.11	3148.29
523.477	3140.84
523.843	3134.06
524.21	3141.06
524.577	3138.8
524.943	3165.69
525.31	3267.16
525.676	3388.29
526.043	3447.49
526.409	3561.84
526.776	3614.95
527.142	3691.1
527.508	3764.1
527.874	3804.77
528.241	3767.49
528.607	3713.48
528.973	3669.18
529.339	3638
529.705	3584.44
530.071	3557.77
530.437	3490.88
530.803	3433.71
531.169	3447.49
531.535	3486.36
531.901	3504.44
532.267	3605.68
532.632	3713.93
532.998	3783.3
533.364	3938.78
533.73	4022.85
534.095	4102.62
534.461	4190.53
534.826	4247.7
535.192	4220.81
535.557	4189.85
535.923	4130.41
536.288	4100.13
536.653	4019.23
537.019	3944.2
537.384	3876.64
537.749	3855.84
538.114	3816.07
538.479	3870.31
538.845	3863.53
539.21	3922.51
539.575	4006.12
539.94	4113.01
540.305	4215.38
540.67	4326.79
541.034	4454.47
541.399	4515.04
541.764	4597.52
542.129	4621.02
542.494	4650.17
542.858	4613.79
543.223	4570.4
543.587	4515.71
543.952	4409.95
544.316	4357.3
544.681	4254.93
545.045	4244.31
545.41	4230.98
545.774	4177.19
546.138	4197.53
546.503	4290.86
546.867	4334.25
547.231	4424.87
547.595	4555.49
547.959	4629.38
548.324	4789.83
548.688	4836.61
549.052	4957.28
549.416	4978.3
549.779	4917.74
550.143	4955.03
550.507	4940.34
550.871	4845.42
551.235	4775.37
551.599	4676.16
551.962	4600.91
552.326	4468.71
552.689	4468.94
553.053	4397.75
553.417	4380.12
553.78	4486.56
554.143	4436.17
554.507	4574.92
554.87	4622.83
555.234	4756.84
555.597	4875.93
555.96	4949.83
556.323	5068.92
556.686	5141.01
557.05	5207.22
557.413	5232.31
557.776	5243.38
558.139	5242.25
558.502	5117.96
558.865	5048.81
559.228	4936.04
559.59	4875.48
559.953	4764.97
560.316	4777.85
560.679	4649.5
561.041	4640.91
561.404	4684.52
561.767	4738.76
562.129	4764.07
562.492	4849.04
562.854	4954.57
563.217	5030.05
563.579	5200.22
563.941	5350.49
564.304	5432.3
564.666	5514.11
565.028	5553.88
565.39	5549.36
565.753	5629.36
566.115	5614.44
566.477	5532.41
566.839	5434.56
567.201	5353.21
567.563	5173.32
567.925	5198.41
568.287	5075.02
568.648	5023.5
569.01	4978.53
569.372	4990.28
569.734	4959.54
570.095	5094.68
570.457	5153.21
570.819	5295.81
571.18	5395.24
571.542	5494.9
571.903	5640.43
572.265	5846.98
572.626	5994.09
572.987	6049.91
573.349	6100.08
573.71	6135.33
574.071	6115.45
574.432	6164.48
574.794	6080.65
575.155	6045.84
575.516	5905.51
575.877	5923.14
576.238	5849.01
576.599	5828.67
576.96	5735.12
577.32	5810.14
577.681	5897.83
578.042	5973.98
578.403	6046.52
578.763	6208.1
579.124	6461.2
579.485	6670.91
579.845	6893.05
580.206	7093.73
580.566	7294.85
580.927	7545.01
581.287	7810.77
581.648	7986.36
582.008	8201.72
582.368	8376.4
582.728	8509.06
583.089	8624.31
583.449	8757.18
583.809	8919.21
584.169	9034.92
584.529	9153.56
584.889	9415.25
585.249	9528.24
585.609	9652.98
585.969	9954.22
586.329	10264.94
586.688	10629.45
587.048	10975.43
587.408	11419.49
587.768	11791
588.127	12289.97
588.487	12804.76
588.846	13414.46
589.206	13720.44
589.565	14263.93
589.925	14832.05
590.284	15178.03
590.643	15563.56
591.003	16094.85
591.362	16458.9
591.721	16827.26
592.08	17185.66
592.44	17554.24
592.799	17963.04
593.158	18132.53
593.517	18486.65
593.876	18743.59
594.235	19182.67
594.593	19544.92
594.952	20078.24
595.311	20385.58
595.67	20863.53
596.029	21511.88
596.387	22070.73
596.746	22590.95
597.104	22990.94
597.463	23654.19
597.822	24206.04
598.18	24695.3
598.538	25201.27
598.897	25829.28
599.255	26185.43
599.613	27056.82
599.972	27182.69
600.33	27723.69
600.688	28004.59
601.046	28287.52
601.404	28725.93
601.762	28974.05
602.12	29390.54
602.478	29552.34
602.836	29780.36
603.194	29914.37
603.552	30293.57
603.91	30441.59
604.268	30915.02
604.625	31308
604.983	31746.64
605.341	31874.09
605.698	32673.17
606.056	33107.28
606.413	33396.09
606.771	33971.21
607.128	34414.82
607.485	34625.21
607.843	35099.77
608.2	35537.72
608.557	35904.49
608.914	36139.29
609.272	36515.78
609.629	36852.72
609.986	37064.92
610.343	37131.81
610.7	37467.84
611.057	37599.82
611.414	37575.41
611.771	37744.45
612.127	37894.5
612.484	38044.78
612.841	38183.53
613.198	38148.05
613.554	38325.9
613.911	38667.58
614.267	38878.65
614.624	39042.04
614.98	39323.61
615.337	39698.52
615.693	39964.05
616.05	40188
616.406	40665.72
616.762	40808.77
617.118	40948.88
617.475	41237.23
617.831	41474.06
618.187	41706.38
618.543	41896.2
618.899	42325.79
619.255	42217.77
619.611	42176.87
619.967	42356.3
620.323	42472.23
620.678	42237.21
621.034	42325.57
621.39	42112.24
621.746	42158.34
622.101	42510.2
622.457	42122.86
622.812	42154.5
623.168	42250.09
623.523	42336.87
623.879	42564.88
624.234	42420.93
624.589	42831.77
624.945	42794.03
625.3	43144.76
625.655	43216.84
626.01	43398.53
626.365	43533.67
626.72	43605.76
627.075	43739.09
627.43	43916.94
627.785	43880.1
628.14	44186.31
628.495	44262.01
628.85	44078.74
629.205	44031.96
629.559	44271.51
629.914	44053.66
630.269	44085.75
630.623	43842.14
630.978	43785.19
631.332	43767.56
631.687	43694.12
632.041	43667.45
632.396	43654.35
632.75	43247.58
633.104	43390.62
633.459	43246.67
633.813	43192.66
634.167	43186.79
634.521	43308.37
634.875	43416.84
635.229	43535.03
635.583	43400.79
635.937	43466.1
636.291	43646.89
636.645	43773.89
636.999	43902.7
637.352	43930.05
637.706	43821.8
638.06	44148.8
638.413	44073.77
638.767	43889.82
639.121	44001
639.474	43805.53
639.828	43753.55
640.181	43711.52
640.534	43597.85
640.888	43426.33
641.241	43268.82
641.594	43212.1
641.947	43234.92
642.301	42944.99
642.654	42868.83
643.007	42862.28
643.36	42798.55
643.713	42665.9
644.066	42856.4
644.419	42695.95
644.771	42207.6
645.124	42010.77
645.477	41890.33
645.83	41778.01
646.182	41883.55
646.535	41775.75
646.888	42009.64
647.24	41863.89
647.593	42243.54
647.945	42214.16
648.298	42078.57
648.65	42105.01
649.002	42009.87
649.355	42149.53
649.707	41956.09
650.059	42085.35
650.411	42590.19
650.763	42417.09
651.115	42785.67
651.467	42707.03
651.819	42362.18
652.171	42247.38
652.523	42145.69
652.875	41987.05
653.227	41744.57
653.578	41957.44
653.93	41739.14
654.282	41633.38
654.633	41546.61
654.985	41620.28
655.337	41673.38
655.688	41778.01
656.039	41759.71
656.391	41720.61
656.742	41681.97
657.094	41884.9
657.445	42136.42
657.796	42015.52
658.147	42134.84
658.498	42134.84
658.849	42465
659.2	42325.79
659.551	42283.76
659.902	42426.36
660.253	42424.55
660.604	42307.04
660.955	42155.4
661.306	42222.75
661.656	41987.27
662.007	41988.85
662.358	41806.71
662.708	41912.47
663.059	41692.14
663.409	41361.07
663.76	41507.74
664.11	41347.74
664.461	41401.98
664.811	41262.09
665.161	41204.24
665.511	41012.16
665.862	41052.38
666.212	41204.02
666.562	41197.69
666.912	41260.96
667.262	41227.97
667.612	41225.26
667.962	41494.18
668.312	41331.92
668.662	41639.71
669.011	41566.04
669.361	41608.98
669.711	41582.31
670.06	41773.94
670.41	41527.62
670.76	41593.16
671.109	41893.49
671.459	41844.9
671.808	41677.45
672.157	41711.12
672.507	41472.48
672.856	41448.53
673.205	41359.49
673.554	41410.34
673.904	41151.59
674.253	41251.02
674.602	41004.7
674.951	40314.77
675.3	40184.61
675.649	40597.7
675.998	40465.73
676.346	40485.62
676.695	40563.81
677.044	40246.53
677.393	40427.31
677.741	40441.78
678.09	40434.09
678.438	40170.14
678.787	40380.08
679.135	40429.12
679.484	40367.43
679.832	40464.15
680.181	40396.13
680.529	40548.67
680.877	40540.3
681.225	40498.95
681.573	40682.22
681.922	40487.88
682.27	40513.86
682.618	40520.64
682.966	40461.44
683.314	40600.64
683.661	40526.29
684.009	40242.91
684.357	40105.97
684.705	40165.17
685.053	40083.37
685.4	39835.24
685.748	39573.55
686.095	39461.46
686.443	39315.25
686.79	39207.01
687.138	39137.63
687.485	39142.37
687.832	38943.51
688.18	38896.51
688.527	38766.57
688.874	38520.7
689.221	38468.27
689.568	38316.63
689.915	38251.1
690.262	38324.54
690.609	38228.73
690.956	38211.78
691.303	38261.27
691.65	38121.61
691.997	38263.98
692.344	38102.85
692.69	38194.6
693.037	38227.14
693.383	37955.51
693.73	38239.35
694.077	38052.91
694.423	38154.83
694.769	37966.13
695.116	37945.34
695.462	37808.17
695.808	37646.14
696.155	37745.58
696.501	37312.59
696.847	37346.94
697.193	36921.64
697.539	37179.26
697.885	36866.28
698.231	36604.36
698.577	36446.4
698.923	36355.1
699.269	36166.63
699.614	35839.64
699.96	35790.37
700.306	35784.5
700.651	35569.36
700.997	35417.27
701.342	35305.64
701.688	35292.76
702.033	35169.6
702.379	35220.44
702.724	35079.66
703.069	35217.96
703.415	34840.11
703.76	35130.73
704.105	34999.88
704.45	35039.43
704.795	34735.26
705.14	34860.91
705.485	34917.63
705.83	34849.15
706.175	34974.57
706.52	34814.8
706.865	34675.83
707.209	34773
707.554	34656.84
707.899	34786.56
708.243	34541.37
708.588	34443.97
708.932	34161.04
709.277	34206.01
709.621	34097.54
709.966	33930.99
710.31	33754.27
710.654	33477.44
710.998	33473.6
711.342	33432.69
711.687	33244.9
712.031	32949.54
712.375	32797.68
712.719	32938.92
713.063	32695.76
713.407	32815.76
713.75	32552.94
714.094	32569.67
714.438	32444.02
714.782	32390.46
715.125	32270.92
715.469	32411.7
715.812	32307.07
716.156	32281.54
716.499	32230.92
716.843	32360.18
717.186	32091.49
717.53	32489.44
717.873	32378.03
718.216	32390.46
718.559	32279.28
718.902	32114.08
719.246	32248.77
719.589	32196.79
719.932	32178.49
720.275	32165.84
720.617	32185.5
720.96	31995.44
721.303	32067.76
721.646	31943.92
721.989	31814.43
722.331	31916.12
722.674	31689.46
723.016	31577.6
723.359	31432.07
723.701	31365.18
724.044	31221.23
724.386	31124.73
724.729	31069.59
725.071	30896.26
725.413	30853.1
725.755	30645.65
726.097	30508.93
726.439	30370.63
726.782	30382.61
727.124	30543.5
727.465	30232.1
727.807	30339.67
728.149	30140.13
728.491	30149.62
728.833	30203.85
729.175	30025.55
729.516	30101.03
729.858	30087.02
730.199	30110.3
730.541	30047.47
730.882	30194.36
731.224	30336.05
731.565	30031.43
731.906	30244.53
732.248	30411.3
732.589	30119.79
732.93	30121.14
733.271	30217.86
733.612	30274.81
733.953	30288.6
734.294	30151.42
734.635	30059
734.976	29951.88
735.317	29784.88
735.658	29847.03
735.999	29805.9
736.339	29689.74
736.68	29778.33
737.021	29535.62
737.361	29333.14
737.702	29419.01
738.042	29342.63
738.383	29240.49
738.723	29196.2
739.063	29040.27
739.404	28954.17
739.744	28810.67
740.084	28716.66
740.424	28702.88
740.764	28556.89
741.104	28720.95
741.444	28419.72
741.784	28448.87
742.124	28470.34
742.464	28426.27
742.804	28424.46
743.143	28391.92
743.483	28336.78
743.823	28242.1
744.162	28390.12
744.502	28443.9
744.841	28345.82
745.181	28479.15
745.52	28365.26
745.86	28467.4
746.199	28464.24
746.538	28511.69
746.877	28539.49
747.216	28488.64
747.556	28381.53
747.895	28428.53
748.234	28287.29
748.573	28250.23
748.911	28226.73
749.25	28258.14
749.589	28093.4
749.928	28158.48
750.267	28064.25
750.605	27883.69
750.944	27730.25
751.283	27690.7
751.621	27593.75
751.96	27437.82
752.298	27375.23
752.636	27292.29
752.975	27121.45
753.313	26938.85
753.651	27102.47
753.989	26800.1
754.327	26780.89
754.666	26619.77
755.004	26601.69
755.342	26566.21
755.679	26551.29
756.017	26327.57
756.355	26399.43
756.693	26263.84
757.031	26267.23
757.368	26170.06
757.706	26118.54
758.044	26074.24
758.381	26160.34
758.719	26050.97
759.056	26232.21
759.394	26117.63
759.731	25930.07
760.068	26064.3
760.405	26000.57
760.743	25969.61
761.08	26012.32
