Data from red_cardboard_box_FLMS001491_00002.txt Node
Date: Wed Feb 08 11:31:23 GMT 2017
User: dcchb
Spectrometer: FLMS00149
Trigger mode: 0
Integration Time (sec): 2.000000E-2
Scans to average: 10
Electric dark correction enabled: true
Nonlinearity correction enabled: false
Boxcar width: 0
XAxis mode: Wavelengths
Number of Pixels in Spectrum: 2048
>>>>>Begin Spectral Data<<<<<
341.393	-18.29
341.776	-18.29
342.16	-18.29
342.543	-63.49
342.927	-65.75
343.31	-71.85
343.693	-69.59
344.077	-52.64
344.46	-60.78
344.843	-41.79
345.226	-49.7
345.61	-34.56
345.993	-23.26
346.376	-14.22
346.759	20.35
347.142	18.32
347.525	55.38
347.908	54.25
348.291	55.61
348.674	84.53
349.057	129.95
349.44	108.49
349.823	132.89
350.206	151.65
350.588	170.41
350.971	212.44
351.354	225.09
351.737	232.1
352.119	234.81
352.502	258.09
352.884	283.17
353.267	278.2
353.65	296.28
354.032	302.83
354.414	312.32
354.797	309.38
355.179	327.01
355.562	323.17
355.944	334.47
356.326	339.44
356.709	348.71
357.091	327.92
357.473	335.6
357.855	347.58
358.238	339.89
358.62	326.79
359.002	347.58
359.384	338.54
359.766	344.19
360.148	332.43
360.53	341.47
360.912	320.91
361.294	348.03
361.676	335.37
362.057	353.68
362.439	325.2
362.821	346.9
363.203	321.36
363.584	324.75
363.966	327.69
364.348	303.96
364.729	330.17
365.111	329.72
365.493	314.36
365.874	332.43
366.256	303.06
366.637	309.84
367.019	307.12
367.4	298.31
367.781	325.88
368.163	323.4
368.544	308.03
368.925	306.22
369.306	321.14
369.688	307.58
370.069	302.61
370.45	298.99
370.831	294.02
371.212	317.52
371.593	322.94
371.974	303.73
372.355	330.63
372.736	305.32
373.117	322.72
373.498	316.16
373.879	305.99
374.26	324.53
374.641	327.24
375.021	315.03
375.402	298.76
375.783	327.01
376.163	313.9
376.544	323.62
376.925	324.3
377.305	319.33
377.686	325.43
378.066	319.55
378.447	316.39
378.827	323.17
379.208	324.07
379.588	320.01
379.968	335.37
380.349	329.72
380.729	332.66
381.109	323.17
381.489	327.69
381.87	334.92
382.25	315.26
382.63	344.86
383.01	329.72
383.39	329.95
383.77	329.95
384.15	328.37
384.53	334.24
384.91	331.3
385.29	330.85
385.67	326.33
386.049	341.7
386.429	336.05
386.809	348.25
387.189	353.9
387.568	343.06
387.948	346.67
388.328	350.29
388.707	333.34
389.087	336.28
389.466	345.77
389.846	345.54
390.225	342.6
390.605	382.15
390.984	361.13
391.363	341.02
391.743	357.74
392.122	343.96
392.501	359.78
392.881	350.51
393.26	367.01
393.639	359.1
394.018	381.7
394.397	362.49
394.776	343.73
395.155	347.35
395.534	361.59
395.913	367.24
396.292	370.4
396.671	356.61
397.05	349.61
397.429	359.78
397.808	379.21
398.186	366.56
398.565	371.53
398.944	362.26
399.323	387.12
399.701	373.11
400.08	367.01
400.458	375.6
400.837	379.44
401.215	385.09
401.594	382.38
401.972	382.6
402.351	369.72
402.729	400
403.107	380.12
403.486	371.53
403.864	396.39
404.242	389.61
404.62	390.96
404.999	393.22
405.377	399.1
405.755	394.35
406.133	392.32
406.511	379.89
406.889	397.29
407.267	425.99
407.645	408.36
408.023	417.4
408.401	394.81
408.779	424.64
409.156	402.72
409.534	408.59
409.912	442.04
410.29	407.24
410.667	430.29
411.045	421.7
411.422	425.99
411.8	442.94
412.178	409.49
412.555	421.7
412.933	418.08
413.31	428.93
413.687	425.77
414.065	432.77
414.442	439.32
414.819	453.11
415.197	430.96
415.574	457.18
415.951	455.6
416.328	438.19
416.705	416.73
417.082	448.36
417.46	460.79
417.837	450.4
418.214	467.12
418.591	452.43
418.967	472.32
419.344	476.84
419.721	467.57
420.098	451.08
420.475	487.23
420.852	462.6
421.228	475.48
421.605	451.53
421.982	482.71
422.358	452.21
422.735	498.08
423.111	485.65
423.488	479.55
423.864	488.81
424.241	468.48
424.617	493.11
424.994	487.46
425.37	484.52
425.746	509.38
426.123	510.06
426.499	491.53
426.875	482.49
427.251	490.17
427.627	497.4
428.003	510.96
428.379	527.46
428.756	496.72
429.132	504.86
429.507	539.21
429.883	515.25
430.259	542.6
430.635	535.37
431.011	521.13
431.387	550.73
431.763	538.53
432.138	535.37
432.514	559.1
432.89	559.1
433.265	565.42
433.641	563.39
434.016	570.39
434.392	560.9
434.767	586.89
435.143	566.1
435.518	571.75
435.894	577.63
436.269	576.72
436.644	576.04
437.02	585.54
437.395	596.83
437.77	583.05
438.145	593.44
438.52	615.37
438.895	587.8
439.271	595.25
439.646	606.55
440.021	598.42
440.395	602.26
440.77	597.74
441.145	626.66
441.52	626.66
441.895	607.23
442.27	639.09
442.645	639.09
443.019	627.34
443.394	634.8
443.769	631.41
444.143	642.03
444.518	656.95
444.892	637.96
445.267	628.02
445.641	642.03
446.016	656.04
446.39	672.31
446.764	659.88
447.139	647.91
447.513	685.65
447.887	642.03
448.262	643.39
448.636	670.05
449.01	666.44
449.384	690.84
449.758	670.73
450.132	691.52
450.506	689.49
450.88	699.88
451.254	687.68
451.628	700.79
452.002	682.93
452.376	700.33
452.75	686.55
453.123	701.24
453.497	710.96
453.871	706.44
454.244	732.65
454.618	712.76
454.992	732.42
455.365	750.28
455.739	740.11
456.112	744.18
456.486	769.26
456.859	745.53
457.232	766.55
457.606	758.41
457.979	765.42
458.352	785.76
458.725	788.24
459.099	770.84
459.472	796.15
459.845	789.15
460.218	801.12
460.591	814.91
460.964	816.94
461.337	839.99
461.71	835.47
462.083	830.73
462.456	844.96
462.829	830.73
463.201	800.67
463.574	824.4
463.947	860.33
464.32	875.47
464.692	872.31
465.065	868.24
465.438	854.45
465.81	877.73
466.183	883.15
466.555	893.78
466.928	916.6
467.3	897.62
467.672	927.9
468.045	898.07
468.417	924.28
468.789	949.37
469.161	945.75
469.534	950.5
469.906	966.54
470.278	970.16
470.65	989.37
471.022	983.72
471.394	1005.41
471.766	1001.34
472.138	1042.92
472.51	997.73
472.882	1041.79
473.253	1066.88
473.625	1062.36
473.997	1086.99
474.369	1079.76
474.74	1107.33
475.112	1105.07
475.484	1107.33
475.855	1156.82
476.227	1129.93
476.598	1160.66
476.97	1173.09
477.341	1196.14
477.713	1215.35
478.084	1212.19
478.455	1224.39
478.827	1219.42
479.198	1279.08
479.569	1278.62
479.94	1277.49
480.311	1280.43
480.682	1312.07
481.053	1370.6
481.424	1352.75
481.795	1364.5
482.166	1388
482.537	1401.33
482.908	1416.25
483.279	1440.43
483.65	1448.11
484.021	1508.9
484.391	1504.61
484.762	1513.19
485.133	1474.33
485.503	1551.84
485.874	1552.52
486.244	1579.86
486.615	1589.35
486.985	1613.08
487.356	1628.9
487.726	1633.87
488.097	1653.98
488.467	1686.3
488.837	1735.11
489.207	1708.9
489.578	1759.52
489.948	1733.75
490.318	1739.86
490.688	1751.15
491.058	1817.59
491.428	1824.6
491.798	1841.55
492.168	1887.87
492.538	1855.33
492.908	1882.9
493.278	1904.37
493.648	1927.42
494.017	1940.75
494.387	1969.91
494.757	1964.71
495.126	1999.51
495.496	1973.07
495.866	2026.4
496.235	2026.4
496.605	2055.55
496.974	2054.2
497.344	2098.26
497.713	2105.72
498.082	2123.35
498.452	2114.99
498.821	2133.97
499.19	2169.67
499.559	2174.65
499.928	2182.56
500.298	2228.43
500.667	2193.4
501.036	2207.64
501.405	2263.23
501.774	2249.67
502.143	2272.5
502.512	2256.68
502.88	2298.03
503.249	2297.81
503.618	2315.89
503.987	2327.86
504.356	2354.98
504.724	2339.16
505.093	2359.95
505.462	2406.28
505.83	2393.17
506.199	2428.88
506.567	2477.69
506.936	2460.29
507.304	2465.26
507.672	2475.88
508.041	2499.16
508.409	2546.39
508.777	2539.38
509.145	2566.5
509.514	2577.12
509.882	2559.72
510.25	2607.18
510.618	2572.38
510.986	2586.16
511.354	2640.85
511.722	2636.78
512.09	2695.08
512.458	2676.78
512.826	2710.23
513.193	2698.7
513.561	2767.62
513.929	2790.22
514.297	2815.08
514.664	2806.27
515.032	2790.22
515.4	2837.23
515.767	2850.11
516.135	2899.82
516.502	2843.56
516.869	2900.95
517.237	2921.07
517.604	2915.19
517.972	2961.29
518.339	2985.25
518.706	2985.47
519.073	3004
519.44	3040.16
519.808	3056.43
520.175	3052.59
520.542	3129.2
520.909	3136.88
521.276	3115.41
521.643	3129.42
522.009	3173.26
522.376	3220.95
522.743	3214.62
523.11	3208.07
523.477	3262.3
523.843	3272.24
524.21	3299.59
524.577	3353.6
524.943	3359.25
525.31	3418.23
525.676	3431.11
526.043	3465.91
526.409	3485.12
526.776	3502.07
527.142	3524.22
527.508	3494.84
527.874	3583.65
528.241	3582.97
528.607	3604.89
528.973	3614.83
529.339	3667.71
529.705	3650.31
530.071	3734.83
530.437	3710.43
530.803	3765.56
531.169	3784.32
531.535	3778.22
531.901	3804.43
532.267	3790.87
532.632	3842.62
532.998	3867.71
533.364	3914.26
533.73	3895.73
534.095	3897.31
534.461	3978.67
534.826	4008.04
535.192	4001.72
535.557	4032.68
535.923	4058.89
536.288	4036.97
536.653	4043.52
537.019	4070.87
537.384	4080.13
537.749	4141.6
538.114	4144.31
538.479	4154.71
538.845	4188.38
539.21	4252.33
539.575	4202.39
539.94	4217.76
540.305	4286.23
540.67	4248.26
541.034	4265.21
541.399	4352.44
541.764	4324.65
542.129	4351.31
542.494	4379.79
542.858	4398.77
543.223	4412.55
543.587	4395.6
543.952	4433.57
544.316	4476.28
544.681	4440.12
545.045	4499.1
545.41	4592.66
545.774	4581.14
546.138	4576.84
546.503	4555.83
546.867	4584.98
547.231	4634.92
547.595	4666.33
547.959	4701.36
548.324	4688.7
548.688	4697.97
549.052	4694.13
549.416	4785.65
549.779	4768.7
550.143	4805.09
550.507	4831.75
550.871	4873.11
551.235	4863.39
551.599	4899.32
551.962	4940.45
552.326	4963.95
552.689	5021.13
553.053	4972.54
553.417	4973.22
553.78	5088.69
554.143	5113.1
554.507	5118.75
554.87	5147.68
555.234	5224.96
555.597	5220.89
555.96	5229.03
556.323	5254.57
556.686	5299.31
557.05	5333.21
557.413	5388.12
557.776	5440.1
558.139	5426.09
558.502	5471.06
558.865	5510.38
559.228	5560.09
559.59	5614.56
559.953	5622.47
560.316	5697.72
560.679	5733.87
561.041	5743.14
561.404	5855
561.767	5858.62
562.129	5891.38
562.492	6009.8
562.854	5955.79
563.217	5987.43
563.579	6073.07
563.941	6173.41
564.304	6206.18
564.666	6262.67
565.028	6332.73
565.39	6359.39
565.753	6338.6
566.115	6442.56
566.477	6514.87
566.839	6569.11
567.201	6625.6
567.563	6656.79
567.925	6755.09
568.287	6784.69
568.648	6797.58
569.01	6927.74
569.372	6949.44
569.734	7021.3
570.095	7110.79
570.457	7176.55
570.819	7190.79
571.18	7307.17
571.542	7356.2
571.903	7398.92
572.265	7489.08
572.626	7526.37
572.987	7594.62
573.349	7706.03
573.71	7746.25
574.071	7782.86
574.432	7878.68
574.794	8080.71
575.155	8077.99
575.516	8139.46
575.877	8251.77
576.238	8309.85
576.599	8430.3
576.96	8501.94
577.32	8553.69
577.681	8730.63
578.042	8821.03
578.403	8888.14
578.763	8962.49
579.124	9103.28
579.485	9207.23
579.845	9327.9
580.206	9464.4
580.566	9473.89
580.927	9648.12
581.287	9781
581.648	9830.94
582.008	10033.42
582.368	10111.84
582.728	10237.49
583.089	10425.5
583.449	10518.16
583.809	10648.1
584.169	10858.49
584.529	10973.06
584.889	11257.8
585.249	11274.07
585.609	11463.89
585.969	11657.56
586.329	11795.86
586.688	12041.28
587.048	12154.95
587.408	12417.31
587.768	12623.19
588.127	12900.92
588.487	12966.9
588.846	13297.97
589.206	13434.92
589.565	13615.48
589.925	13929.37
590.284	14120.77
590.643	14416.58
591.003	14665.62
591.362	14965.5
591.721	15146.51
592.08	15474.86
592.44	15673.95
592.799	16032.13
593.158	16268.74
593.517	16490.43
593.876	16760.03
594.235	17078.66
594.593	17428.03
594.952	17820.79
595.311	17985.08
595.67	18299.87
596.029	18666.87
596.387	19008.33
596.746	19364.48
597.104	19581.65
597.463	19863.45
597.822	20192.03
598.18	20580.04
598.538	20748.17
598.897	21251.43
599.255	21483.74
599.613	21971.41
599.972	22256.38
600.33	22549.7
600.688	22829.47
601.046	23220.87
601.404	23629.9
601.762	23831.93
602.12	24319.37
602.478	24692.92
602.836	25014.5
603.194	25238.45
603.552	25586.23
603.91	25800.47
604.268	26223.05
604.625	26493.55
604.983	26960.21
605.341	27122.92
605.698	27491.27
606.056	27887.64
606.413	28233.17
606.771	28498.25
607.128	28932.36
607.485	28868.63
607.843	29271.79
608.2	29693.02
608.557	30025.67
608.914	30132.56
609.272	30525.77
609.629	30836.27
609.986	31208.01
610.343	31312.19
610.7	31829.01
611.057	31958.27
611.414	32071.26
611.771	32381.54
612.127	32809.32
612.484	32840.51
612.841	33223.55
613.198	33277.33
613.554	33446.59
613.911	33973.36
614.267	33938.78
614.624	34252.67
614.98	34449.96
615.337	34658.09
615.693	34608.6
616.05	34908.02
616.406	35371.74
616.762	35355.24
617.118	35559.08
617.475	35714.1
617.831	36017.37
618.187	36086.3
618.543	36228.89
618.899	36741.19
619.255	36613.51
619.611	36676.34
619.967	37092.82
620.323	37253.72
620.678	37278.58
621.034	37244.46
621.39	37484.23
621.746	37512.7
622.101	38029.07
622.457	37810.77
622.812	37926.02
623.168	38242.4
623.523	38280.82
623.879	38424.09
624.234	38234.49
624.589	38461.38
624.945	38632.9
625.3	38679.9
625.655	38802.16
626.01	38888.26
626.365	38844.64
626.72	39012.55
627.075	39010.29
627.43	39142.04
627.785	39231.52
628.14	39291.86
628.495	39415.25
628.85	39454.57
629.205	39340
629.559	39694.79
629.914	39558.75
630.269	39657.5
630.623	39651.17
630.978	39605.3
631.332	39807.33
631.687	39852.07
632.041	39784.96
632.396	39835.12
632.75	39753.09
633.104	39796.71
633.459	39878.29
633.813	39810.04
634.167	39920.55
634.521	39941.34
634.875	40083.48
635.229	39910.83
635.583	39830.61
635.937	39899.98
636.291	39849.59
636.645	39975.69
636.999	39898.4
637.352	39953.09
637.706	39776.37
638.06	39903.82
638.413	39916.48
638.767	39884.62
639.121	40065.63
639.474	39792.64
639.828	40000.54
640.181	39940.43
640.534	40062.69
640.888	39954.67
641.241	39920.09
641.594	39873.77
641.947	40069.02
642.301	39862.24
642.654	39984.05
643.007	40085.97
643.36	40013.43
643.713	39990.83
644.066	40041.67
644.419	39816.82
644.771	39506.09
645.124	39248.25
645.477	39122.15
645.83	38835.15
646.182	39019.1
646.535	38876.05
646.888	38992.89
647.24	38867.24
647.593	39170.28
647.945	38926
648.298	38863.85
648.65	38830.86
649.002	38751.99
649.355	38858.2
649.707	38821.59
650.059	38976.16
650.411	39532.99
650.763	39474
651.115	39987.44
651.467	39869.25
651.819	39717.39
652.171	39592.19
652.523	39646.66
652.875	39729.36
653.227	39590.39
653.578	39805.3
653.93	39808.23
654.282	39580.67
654.633	39559.65
654.985	39668.58
655.337	39662.7
655.688	39608.92
656.039	39780.89
656.391	39481.91
656.742	39533.44
657.094	39597.84
657.445	39610.95
657.796	39478.3
658.147	39680.78
658.498	39501.57
658.849	39512.87
659.2	39433.55
659.551	39563.95
659.902	39574.34
660.253	39525.98
660.604	39553.1
660.955	39364.4
661.306	39474.68
661.656	39374.12
662.007	39498.86
662.358	39464.51
662.708	39545.64
663.059	39413.44
663.409	39273.56
663.76	39521.91
664.11	39703.38
664.461	39630.16
664.811	39599.42
665.161	39564.4
665.511	39437.62
665.862	39577.96
666.212	39589.93
666.562	39639.42
666.912	39508.13
667.262	39424.97
667.612	39521.23
667.962	39515.13
668.312	39354.46
668.662	39649.82
669.011	39576.15
669.361	39387.91
669.711	39281.92
670.06	39456.83
670.41	39281.02
670.76	39275.37
671.109	39489.37
671.459	39287.79
671.808	39327.57
672.157	39426.77
672.507	39067.24
672.856	39251.64
673.205	39223.84
673.554	39394.46
673.904	39078.08
674.253	39379.54
674.602	39177.06
674.951	38583.86
675.3	38590.86
675.649	39152.66
675.998	39073.34
676.346	39166.22
676.695	39147.01
677.044	39035.82
677.393	39005.99
677.741	39167.35
678.09	38974.58
678.438	38953.79
678.787	38983.85
679.135	38979.78
679.484	38627.02
679.832	38961.02
680.181	38679.68
680.529	38815.72
680.877	38664.31
681.225	38710.86
681.573	38811.2
681.922	38514.93
682.27	38617.3
682.618	38449.4
682.966	38342.06
683.314	38375.5
683.661	38300.02
684.009	38126.92
684.357	38077.88
684.705	37990.88
685.053	38144.32
685.4	38050.99
685.748	37799.02
686.095	37902.97
686.443	37776.65
686.79	37728.97
687.138	37880.15
687.485	37754.28
687.832	37722.41
688.18	37700.49
688.527	37566.26
688.874	37415.08
689.221	37391.12
689.568	37188.87
689.915	37057.57
690.262	37138.7
690.609	37102.09
690.956	36829.78
691.303	36888.76
691.65	36779.61
691.997	36712.04
692.344	36554.08
692.69	36599.5
693.037	36627.53
693.383	36205.84
693.73	36412.16
694.077	36187.09
694.423	36311.83
694.769	36124.49
695.116	35995.23
695.462	36035
695.808	35878.17
696.155	36018.05
696.501	35695.35
696.847	35614.22
697.193	35301.68
697.539	35557.5
697.885	35337.16
698.231	35261.91
698.577	35261.01
698.923	35195.47
699.269	34974.69
699.614	34769.04
699.96	34854.92
700.306	34835.93
700.651	34592.1
700.997	34608.14
701.342	34421.03
701.688	34500.12
702.033	34398.88
702.379	34326.12
702.724	34110.53
703.069	34191.88
703.415	34036.18
703.76	33833.02
704.105	33863.76
704.45	33790.31
704.795	33607.72
705.14	33598.23
705.485	33667.38
705.83	33526.36
706.175	33434.62
706.52	33311
706.865	33270.78
707.209	33323.66
707.554	32968.86
707.899	33106.49
708.243	32878.02
708.588	32813.16
708.932	32743.11
709.277	32760.06
709.621	32863.78
709.966	32598.93
710.31	32541.08
710.654	32325.04
710.998	32345.15
711.342	32466.51
711.687	32307.87
712.031	32171.82
712.375	31984.03
712.719	32083.01
713.063	32049.34
713.407	32052.5
713.75	31977.03
714.094	31955.56
714.438	31654.1
714.782	31821.32
715.125	31538.17
715.469	31752.17
715.812	31537.72
716.156	31340.88
716.499	31490.71
716.843	31487.55
717.186	31290.49
717.53	31399.41
717.873	31343.14
718.216	31249.36
718.559	31115.81
718.902	31013.89
719.246	31008.01
719.589	31035.36
719.932	30875.81
720.275	31028.12
720.617	30869.26
720.96	30797.17
721.303	30670.62
721.646	30649.38
721.989	30507.01
722.331	30635.82
722.674	30645.76
723.016	30630.17
723.359	30432.43
723.701	30355.15
724.044	30274.7
724.386	30237.41
724.729	30263.85
725.071	30182.72
725.413	30218.65
725.755	30303.4
726.097	29998.55
726.439	29916.74
726.782	30025.89
727.124	30010.98
727.465	29800.13
727.807	29813.24
728.149	29837.65
728.491	29712.23
728.833	29897.53
729.175	29632.46
729.516	29526.47
729.858	29521.05
730.199	29605.11
730.541	29534.83
730.882	29568.5
731.224	29542.74
731.565	29407.83
731.906	29382.52
732.248	29395.4
732.589	29204.44
732.93	29193.6
733.271	29281.73
733.612	29101.4
733.953	29108.4
734.294	29100.27
734.635	29028.18
734.976	29131.45
735.317	28945.02
735.658	28968.97
735.999	28915.19
736.339	28841.52
736.68	28977.33
737.021	28838.13
737.361	28705.7
737.702	28849.2
738.042	28717.23
738.383	28673.16
738.723	28656.44
739.063	28612.14
739.404	28612.37
739.744	28519.04
740.084	28444.01
740.424	28418.25
740.764	28483.56
741.104	28412.83
741.444	28289.21
741.784	28222.32
742.124	28335.09
742.464	28206.28
742.804	28193.4
743.143	28153.85
743.483	28215.54
743.823	28048.09
744.162	28068.2
744.502	28089.9
744.841	27881.09
745.181	28086.28
745.52	27901.88
745.86	27984.82
746.199	27823.69
746.538	27891.48
746.877	27878.83
747.216	27880.86
747.556	27616.01
747.895	27791.15
748.234	27642.45
748.573	27698.72
748.911	27548.44
749.25	27592.96
749.589	27423.02
749.928	27409.69
750.267	27473.64
750.605	27460.54
750.944	27384.38
751.283	27216.7
751.621	27349.58
751.96	27247.66
752.298	27161.11
752.636	27101.22
752.975	27002.69
753.313	26917.95
753.651	27023.94
753.989	27033.43
754.327	26825.3
754.666	26699.2
755.004	26807.67
755.342	26799.31
755.679	26719.99
756.017	26558.41
756.355	26675.47
756.693	26528.81
757.031	26582.37
757.368	26413.78
757.706	26361.35
758.044	26361.81
758.381	26220.34
758.719	26201.13
759.056	26267.12
759.394	25984.64
759.731	25984.87
760.068	26023.06
760.405	25949.61
760.743	25708.72
761.08	25861.48
761.417	25679.34
