Data from red_shiny_book_FLMS001491_00037.txt Node
Date: Wed Feb 08 15:24:46 GMT 2017
User: dcchb
Spectrometer: FLMS00149
Trigger mode: 0
Integration Time (sec): 2.000000E-2
Scans to average: 10
Electric dark correction enabled: true
Nonlinearity correction enabled: false
Boxcar width: 0
XAxis mode: Wavelengths
Number of Pixels in Spectrum: 2048
>>>>>Begin Spectral Data<<<<<
341.393	-2.6
341.776	-2.6
342.16	-2.6
342.543	-56.61
342.927	-59.77
343.31	-51.19
343.693	-85.76
344.077	-68.13
344.46	-72.88
344.843	-54.57
345.226	-36.95
345.61	-31.52
345.993	-27.46
346.376	-12.99
346.759	22.03
347.142	25.88
347.525	39.21
347.908	78.98
348.291	74.46
348.674	86.89
349.057	114.01
349.44	120.11
349.823	146.55
350.206	177.06
350.588	191.52
350.971	208.92
351.354	226.1
351.737	238.52
352.119	249.15
352.502	255.47
352.884	288.24
353.267	303.16
353.65	302.25
354.032	297.05
354.414	308.58
354.797	316.26
355.179	335.92
355.562	314.46
355.944	338.64
356.326	345.64
356.709	343.15
357.091	348.58
357.473	349.48
357.855	349.71
358.238	352.87
358.62	336.38
359.002	352.87
359.384	321.23
359.766	354.91
360.148	336.15
360.53	342.93
360.912	348.8
361.294	325.3
361.676	321.46
362.057	335.47
362.439	326.43
362.821	330.73
363.203	337.96
363.584	308.58
363.966	316.71
364.348	316.94
364.729	319.2
365.111	326.88
365.493	323.95
365.874	327.34
366.256	325.53
366.637	301.12
367.019	331.63
367.4	320.33
367.781	322.59
368.163	299.99
368.544	308.58
368.925	310.84
369.306	308.81
369.688	317.62
370.069	309.71
370.45	303.83
370.831	321.01
371.212	301.57
371.593	328.24
371.974	340.89
372.355	311.29
372.736	316.49
373.117	310.16
373.498	327.79
373.879	325.98
374.26	330.27
374.641	310.84
375.021	316.94
375.402	345.87
375.783	333.21
376.163	325.98
376.544	319.88
376.925	309.03
377.305	321.69
377.686	321.91
378.066	334.34
378.447	330.05
378.827	336.6
379.208	330.95
379.588	329.37
379.968	325.3
380.349	349.71
380.729	337.28
381.109	357.84
381.489	314.46
381.87	329.14
382.25	330.73
382.63	343.15
383.01	334.57
383.39	321.69
383.77	338.64
384.15	341.35
384.53	338.41
384.91	351.74
385.29	356.71
385.67	357.62
386.049	354
386.429	365.53
386.809	356.71
387.189	345.87
387.568	343.61
387.948	359.43
388.328	336.15
388.707	363.49
389.087	349.48
389.466	367.79
389.846	370.95
390.225	380.89
390.605	359.65
390.984	368.92
391.363	351.52
391.743	384.06
392.122	358.75
392.501	380.44
392.881	375.47
393.26	365.08
393.639	401.23
394.018	380.67
394.397	363.27
394.776	375.24
395.155	379.09
395.534	378.63
395.913	391.52
396.292	387.22
396.671	388.8
397.05	370.05
397.429	390.84
397.808	405.3
398.186	365.3
398.565	396.49
398.944	402.14
399.323	408.24
399.701	393.1
400.08	394.45
400.458	401.91
400.837	398.97
401.215	414.34
401.594	395.81
401.972	404.4
402.351	400.55
402.729	408.46
403.107	411.4
403.486	403.27
403.864	411.18
404.242	416.6
404.62	419.31
404.999	413.66
405.377	414.57
405.755	419.31
406.133	438.97
406.511	414.57
406.889	438.07
407.267	422.47
407.645	436.49
408.023	429.93
408.401	437.84
408.779	428.8
409.156	439.2
409.534	460.44
409.912	426.77
410.29	466.77
410.667	440.78
411.045	452.76
411.422	455.69
411.8	459.99
412.178	463.6
412.555	460.21
412.933	472.87
413.31	476.94
413.687	473.77
414.065	459.08
414.442	478.52
414.819	500.21
415.197	490.04
415.574	498.18
415.951	479.65
416.328	508.35
416.705	510.61
417.082	503.83
417.46	517.61
417.837	550.83
418.214	538.4
418.591	520.55
418.967	542.02
419.344	524.84
419.721	523.94
420.098	543.83
420.475	549.93
420.852	544.05
421.228	561.45
421.605	551.06
421.982	583.37
422.358	568.23
422.735	554.22
423.111	565.52
423.488	579.98
423.864	594.9
424.241	576.82
424.617	586.31
424.994	588.12
425.37	598.97
425.746	575.92
426.123	594.22
426.499	608.91
426.875	601.68
427.251	598.52
427.627	606.88
428.003	625.63
428.379	637.61
428.756	616.59
429.132	628.35
429.507	629.02
429.883	638.74
430.259	645.29
430.635	638.97
431.011	633.09
431.387	635.58
431.763	662.02
432.138	673.77
432.514	651.62
432.89	659.76
433.265	667.89
433.641	676.03
434.016	693.2
434.392	687.1
434.767	704.5
435.143	683.26
435.518	723.71
435.894	708.79
436.269	720.77
436.644	711.51
437.02	738.17
437.395	741.11
437.77	742.47
438.145	756.93
438.52	764.39
438.895	765.06
439.271	758.06
439.646	779.3
440.021	762.35
440.395	754.22
440.77	782.92
441.145	761.45
441.52	770.49
441.895	760.54
442.27	796.7
442.645	797.83
443.019	787.21
443.394	808
443.769	817.49
444.143	797.38
444.518	818.4
444.892	798.96
445.267	782.24
445.641	812.07
446.016	812.75
446.39	823.59
446.764	834.44
447.139	823.82
447.513	851.16
447.887	834.22
448.262	829.24
448.636	841.67
449.01	857.27
449.384	858.62
449.758	849.13
450.132	832.63
450.506	871.73
450.88	876.02
451.254	850.49
451.628	871.28
452.002	860.2
452.376	859.75
452.75	883.03
453.123	868.56
453.497	902.69
453.871	923.25
454.244	907.21
454.618	877.38
454.992	910.37
455.365	898.17
455.739	928.68
456.112	916.7
456.486	928.22
456.859	941.33
457.232	937.26
457.606	935.91
457.979	958.28
458.352	945.62
458.725	964.83
459.099	947.43
459.472	963.7
459.845	968.45
460.218	966.64
460.591	971.84
460.964	995.57
461.337	988.56
461.71	993.76
462.083	1013.19
462.456	1009.35
462.829	1033.98
463.201	1045.96
463.574	1035.79
463.947	1040.99
464.32	1086.86
464.692	1055
465.065	1047.09
465.438	1040.09
465.81	1061.55
466.183	1047.77
466.555	1091.61
466.928	1073.76
467.3	1118.05
467.672	1123.93
468.045	1144.72
468.417	1129.57
468.789	1138.84
469.161	1148.78
469.534	1182.91
469.906	1149.01
470.278	1169.12
470.65	1189.01
471.022	1189.91
471.394	1171.16
471.766	1193.3
472.138	1208.22
472.51	1249.35
472.882	1294.99
473.253	1284.15
473.625	1304.49
473.997	1312.17
474.369	1318.5
474.74	1333.64
475.112	1322.34
475.484	1321.21
475.855	1339.74
476.227	1344.03
476.598	1384.03
476.97	1380.19
477.341	1429.91
477.713	1444.82
478.084	1450.47
478.455	1496.8
478.827	1488.44
479.198	1534.54
479.569	1525.95
479.94	1546.74
480.311	1553.07
480.682	1583.57
481.053	1602.56
481.424	1614.76
481.795	1630.58
482.166	1642.33
482.537	1667.19
482.908	1695.89
483.279	1728.43
483.65	1737.24
484.021	1827.41
484.391	1835.32
484.762	1828.09
485.133	1871.7
485.503	1884.58
485.874	1925.03
486.244	1867.63
486.615	1935.66
486.985	1928.65
487.356	1952.83
487.726	1966.61
488.097	1993.05
488.467	2021.53
488.837	2101.75
489.207	2109.44
489.578	2165.48
489.948	2204.12
490.318	2202.31
490.688	2238.02
491.058	2274.4
491.428	2278.47
491.798	2294.06
492.168	2304.91
492.538	2278.02
492.908	2294.97
493.278	2314.4
493.648	2358.24
494.017	2384.68
494.387	2389.43
494.757	2452.7
495.126	2491.12
495.496	2504.91
495.866	2548.75
496.235	2593.04
496.605	2616.32
496.974	2601.4
497.344	2588.97
497.713	2606.15
498.082	2599.37
498.452	2565.02
498.821	2565.92
499.19	2587.62
499.559	2609.31
499.928	2666.03
500.298	2690.21
500.667	2678.23
501.036	2731.57
501.405	2777.22
501.774	2755.29
502.143	2830.32
502.512	2821.51
502.88	2828.29
503.249	2796.42
503.618	2750.78
503.987	2748.52
504.356	2761.17
504.724	2813.15
505.093	2798.23
505.462	2768.63
505.83	2772.47
506.199	2849.76
506.567	2898.34
506.936	2885.23
507.304	2940.37
507.672	2946.25
508.041	2997.55
508.409	2964.78
508.777	2975.85
509.145	2999.13
509.514	2955.97
509.882	2940.6
510.25	2941.05
510.618	2949.41
510.986	2883.2
511.354	2930.43
511.722	2976.31
512.09	2967.27
512.458	3007.27
512.826	3007.72
513.193	3019.02
513.561	3065.34
513.929	3095.4
514.297	3107.6
514.664	3139.24
515.032	3142.63
515.4	3127.26
515.767	3100.82
516.135	3126.81
516.502	3032.12
516.869	3058.56
517.237	3049.98
517.604	3023.31
517.972	3028.96
518.339	3046.36
518.706	3054.04
519.073	3085.91
519.44	3176.98
519.808	3196.87
520.175	3210.65
520.542	3252.23
520.909	3279.57
521.276	3249.75
521.643	3258.78
522.009	3278.44
522.376	3269.86
522.743	3237.09
523.11	3201.38
523.477	3222.63
523.843	3231.89
524.21	3224.21
524.577	3233.47
524.943	3269.18
525.31	3320.48
525.676	3359.12
526.043	3414.71
526.409	3478.67
526.776	3532.45
527.142	3545.56
527.508	3554.14
527.874	3589.4
528.241	3583.07
528.607	3572
528.973	3589.4
529.339	3512.79
529.705	3539.91
530.071	3578.78
530.437	3534.03
530.803	3567.7
531.169	3562.51
531.535	3590.98
531.901	3621.71
532.267	3695.84
532.632	3772.9
532.998	3819.67
533.364	3895.38
533.73	3918.88
534.095	3976.28
534.461	3960.46
534.826	4000.91
535.192	4011.76
535.557	4008.82
535.923	3991.65
536.288	3993.45
536.653	3959.33
537.019	3953.68
537.384	3961.14
537.749	4005.66
538.114	3980.57
538.479	4016.5
538.845	4030.29
539.21	4027.35
539.575	4136.73
539.94	4191.19
540.305	4282.71
540.67	4312.32
541.034	4378.98
541.399	4369.26
541.764	4421.01
542.129	4370.17
542.494	4421.01
542.858	4404.52
543.223	4379.21
543.587	4377.17
543.952	4353.9
544.316	4285.2
544.681	4285.65
545.045	4315.71
545.41	4379.21
545.774	4409.04
546.138	4403.16
546.503	4466.44
546.867	4515.25
547.231	4599.31
547.595	4609.03
547.959	4683.61
548.324	4629.82
548.688	4711.4
549.052	4711.85
549.416	4705.98
549.779	4656.26
550.143	4623.27
550.507	4667.11
550.871	4601.12
551.235	4561.12
551.599	4545.76
551.962	4519.99
552.326	4515.02
552.689	4490.39
553.053	4497.62
553.417	4564.74
553.78	4624.4
554.143	4704.17
554.507	4762.7
554.87	4815.58
555.234	4852.19
555.597	4886.31
555.96	4856.93
556.323	4934.22
556.686	4905.75
557.05	4922.92
557.413	4833.88
557.776	4864.39
558.139	4793.43
558.502	4797.05
558.865	4760.44
559.228	4776.03
559.59	4726.77
559.953	4757.05
560.316	4755.02
560.679	4839.76
561.041	4844.28
561.404	4922.24
561.767	4957.27
562.129	4962.47
562.492	5078.62
562.854	5153.65
563.217	5129.47
563.579	5179.19
563.941	5183.25
564.304	5189.13
564.666	5210.6
565.028	5108
565.39	5179.86
565.753	5162.01
566.115	5046.31
566.477	5058.06
566.839	4990.04
567.201	5003.82
567.563	5002.92
567.925	5024.61
568.287	5058.51
568.648	5081.79
569.01	5157.72
569.372	5295.57
569.734	5286.53
570.095	5344.61
570.457	5412.17
570.819	5509.57
571.18	5541.21
571.542	5609.46
571.903	5573.75
572.265	5603.36
572.626	5635.67
572.987	5575.56
573.349	5587.31
573.71	5553.41
574.071	5541.21
574.432	5544.37
574.794	5570.59
575.155	5561.32
575.516	5608.33
575.877	5677.7
576.238	5759.74
576.599	5829.11
576.96	5942.1
577.32	6096.68
577.681	6178.71
578.042	6390.91
578.403	6455.76
578.763	6633.16
579.124	6725.13
579.485	6936.43
579.845	7096.65
580.206	7131.22
580.566	7248.51
580.927	7384.55
581.287	7464.78
581.648	7616.86
582.008	7708.61
582.368	7953.12
582.728	8076.51
583.089	8283.74
583.449	8476.27
583.809	8714.23
584.169	9040.1
584.529	9332.3
584.889	9803.47
585.249	9979.96
585.609	10370.91
585.969	10826.72
586.329	11243.66
586.688	11619.24
587.048	12073.02
587.408	12485.66
587.768	12887.01
588.127	13257.17
588.487	13639.53
588.846	14122.45
589.206	14432.5
589.565	14870.46
589.925	15266.38
590.284	15622.75
590.643	15970.09
591.003	16442.62
591.362	16951.08
591.721	17311.52
592.08	17831.96
592.44	18342.46
592.799	18871.71
593.158	19324.8
593.517	19874.62
593.876	20567.93
594.235	21069.62
594.593	21571.75
594.952	22270.26
595.311	22653.3
595.67	23316.34
596.029	23849.2
596.387	24450.32
596.746	24932.79
597.104	25371.2
597.463	25867
597.822	26244.17
598.18	26666.53
598.538	26981.78
598.897	27603
599.255	27850
599.613	28525.69
599.972	28871.9
600.33	29421.26
600.688	29652.44
601.046	30270.73
601.404	30820.32
601.762	31214.89
602.12	31760.63
602.478	32279.26
602.836	32796.09
603.194	33112.69
603.552	33539.8
603.91	33964.42
604.268	34577.06
604.625	34967.33
604.983	35340.2
605.341	35662.45
605.698	36168.2
606.056	36480.28
606.413	36759.82
606.771	37153.49
607.128	37570.2
607.485	37682.06
607.843	37923.64
608.2	38272.1
608.557	38703.05
608.914	38641.58
609.272	39082.02
609.629	39381
609.986	39818.73
610.343	39996.12
610.7	40559.95
611.057	40710
611.414	41023.89
611.771	41309.54
612.127	41727.6
612.484	41991.33
612.841	42406.91
613.198	42436.51
613.554	42686.67
613.911	43114.01
614.267	43307.22
614.624	43464.51
614.98	43664.05
615.337	43923.48
615.693	43889.35
616.05	43915.57
616.406	44283.47
616.762	44223.13
617.118	44390.13
617.475	44527.53
617.831	44654.31
618.187	44779.5
618.543	44839.61
618.899	45205.93
619.255	45323.89
619.611	45280.73
619.967	45495.41
620.323	45816.31
620.678	45647.95
621.034	45793.26
621.39	46122.74
621.746	46085.68
622.101	46746
622.457	46457.42
622.812	46765.21
623.168	46887.47
623.523	46963.62
623.879	47153.22
624.234	47066.9
624.589	47150.51
624.945	47216.72
625.3	47208.59
625.655	47066.67
626.01	47175.82
626.365	47239.1
626.72	46975.15
627.075	47150.06
627.43	47098.31
627.785	46947.58
628.14	47157.74
628.495	47277.06
628.85	47204.97
629.205	47105.54
629.559	47447.45
629.914	47279.1
630.269	47408.58
630.623	47593.44
630.978	47449.03
631.332	47698.97
631.687	47826.65
632.041	47722.93
632.396	47860.1
632.75	47797.73
633.104	47855.58
633.459	47697.84
633.813	47808.12
634.167	47818.97
634.521	47729.93
634.875	47813.32
635.229	47652.65
635.583	47330.62
635.937	47479.32
636.291	47334.01
636.645	47287.01
636.999	47316.83
637.352	47137.18
637.706	46998.88
638.06	47183.96
638.413	47005.2
638.767	47028.71
639.121	47027.58
639.474	46978.54
639.828	47040.91
640.181	47057.86
640.534	47073
640.888	47220.11
641.241	46958.65
641.594	47170.62
641.947	47307.12
642.301	47239.77
642.654	47300.11
643.007	47133.11
643.36	47388.25
643.713	47128.14
644.066	47379.43
644.419	47081.81
644.771	46652.9
645.124	46350.08
645.477	46162.52
645.83	45827.83
646.182	45725.69
646.535	45570.21
646.888	45614.51
647.24	45282.76
647.593	45386.72
647.945	45423.33
648.298	45299.03
648.65	45135.65
649.002	45117.12
649.355	45139.04
649.707	45176.33
650.059	45285.93
650.411	45875.06
650.763	45997.77
651.115	46480.25
651.467	46176.07
651.819	46344.88
652.171	46362.96
652.523	46331.55
652.875	46216.3
653.227	46123.42
653.578	46448.61
653.93	46365.9
654.282	46129.52
654.633	45995.06
654.985	46158.67
655.337	46083.65
655.688	45922.75
656.039	46050.65
656.391	45640.49
656.742	45647.73
657.094	45666.48
657.445	45755.52
657.796	45565.02
658.147	45425.81
658.498	45373.38
658.849	45497.22
659.2	45470.78
659.551	45446.83
659.902	45563.66
660.253	45498.8
660.604	45655.41
660.955	45392.59
661.306	45673.71
661.656	45672.81
662.007	45728.18
662.358	45758.46
662.708	45677.1
663.059	45759.36
663.409	45520.05
663.76	45854.5
664.11	45861.05
664.461	45895.86
664.811	45968.4
665.161	45805.01
665.511	45585.13
665.862	45522.53
666.212	45677.56
666.562	45404.34
666.912	45468.3
667.262	45189.89
667.612	45215.87
667.962	45084.35
668.312	44972.94
668.662	45148.3
669.011	44924.81
669.361	44897.01
669.711	44935.88
670.06	44770.46
670.41	44818.37
670.76	44646.85
671.109	44968.42
671.459	44938.14
671.808	44915.77
672.157	45036.22
672.507	44772.5
672.856	44957.35
673.205	45012.26
673.554	45247.74
673.904	44912.15
674.253	45337
674.602	45078.48
674.951	44599.84
675.3	44410.02
675.649	44984.24
675.998	44987.63
676.346	44993.28
676.695	45088.42
677.044	44685.72
677.393	44708.32
677.741	44769.56
678.09	44525.27
678.438	44454.54
678.787	44444.37
679.135	44313.3
679.484	43964.38
679.832	44209.8
680.181	43884.16
680.529	43961.22
680.877	43921.9
681.225	43817.72
681.573	44029.01
681.922	43730.94
682.27	43768.45
682.618	43833.31
682.966	43819.75
683.314	43789.7
683.661	43791.73
684.009	43721.9
684.357	43560.1
684.705	43723.48
685.053	43791.5
685.4	43730.04
685.748	43689.59
686.095	43544.28
686.443	43391.51
686.79	43343.83
687.138	43422.7
687.485	43384.96
687.832	43110.84
688.18	43142.26
688.527	42949.27
688.874	42878.76
689.221	42715.15
689.568	42439.22
689.915	42366.23
690.262	42346.34
690.609	42149.51
690.956	42025.45
691.303	41977.09
691.65	41613.93
691.997	41620.04
692.344	41395.86
692.69	41412.58
693.037	41604.22
693.383	41215.98
693.73	41360.61
694.077	41133.27
694.423	41076.77
694.769	41024.8
695.116	40990.67
695.462	41021.86
695.808	41018.7
696.155	41024.35
696.501	40751.58
696.847	40932.14
697.193	40611.02
697.539	40875.2
697.885	40541.65
698.231	40346.85
698.577	40370.35
698.923	40234.31
699.269	40078.83
699.614	39913.41
699.96	39879.52
700.306	39787.99
700.651	39520.2
700.997	39409.47
701.342	39303.26
701.688	39192.53
702.033	38950.28
702.379	38978.3
702.724	38741.69
703.069	38745.76
703.415	38336.73
703.76	38294.7
704.105	38325.21
704.45	38214.25
704.795	38023.97
705.14	37963.41
705.485	37905.78
705.83	37765
706.175	37839.8
706.52	37708.27
706.865	37776.97
707.209	37721.38
707.554	37738.56
707.899	37753.24
708.243	37686.13
708.588	37514.38
708.932	37343.76
709.277	37568.62
709.621	37453.82
709.966	37242.3
710.31	37156.2
710.654	36965.47
710.998	37120.49
711.342	37188.97
711.687	36841.63
712.031	36796.66
712.375	36706.72
712.719	36578.59
713.063	36491.81
713.407	36581.07
713.75	36146.51
714.094	36163
714.438	35945.38
714.782	36044.59
715.125	35735.9
715.469	35787.65
715.812	35584.94
716.156	35532.96
716.499	35474.21
716.843	35291.16
717.186	35173.65
717.53	35368.22
717.873	35375.45
718.216	35240.32
718.559	35151.73
718.902	34888.24
719.246	35048.46
719.589	35059.98
719.932	34907.9
720.275	35036.71
720.617	34965.52
720.96	34974.33
721.303	35086.42
721.646	35129.58
721.989	34757.62
722.331	34894.11
722.674	34806.66
723.016	34716.26
723.359	34750.16
723.701	34861.34
724.044	34579.54
724.386	34341.13
724.729	34408.93
725.071	34224.75
725.413	34206.67
725.755	34121.25
726.097	33999.45
726.439	33721.94
726.782	33706.8
727.124	33782.5
727.465	33657.53
727.807	33644.2
728.149	33443.53
728.491	33257.32
728.833	33319.69
729.175	33140.26
729.516	33050.54
729.858	32952.92
730.199	33064.55
730.541	32982.3
730.882	33048.28
731.224	33147.94
731.565	32893.26
731.906	32897.1
732.248	32958.12
732.589	32875.41
732.93	32827.27
733.271	32860.72
733.612	32991.34
733.953	32995.86
734.294	32892.13
734.635	32862.3
734.976	32874.28
735.317	32759.93
735.658	32874.5
735.999	32745.01
736.339	32654.85
736.68	32834.73
737.021	32663.66
737.361	32455.3
737.702	32448.07
738.042	32451.46
738.383	32323.1
738.723	32437.68
739.063	32152.71
739.404	32152.94
739.744	31958.37
740.084	31930.12
740.424	31786.4
740.764	31772.38
741.104	31864.13
741.444	31519.51
741.784	31342.57
742.124	31411.26
742.464	31442.22
742.804	31291.49
743.143	31251.95
743.483	31309.8
743.823	31105.74
744.162	31110.93
744.502	31181.44
744.841	30983.71
745.181	31210.14
745.52	31060.99
745.86	31157.71
746.199	31023.7
746.538	31097.83
746.877	31145.96
747.216	31159.97
747.556	31075.45
747.895	31279.52
748.234	31031.61
748.573	30949.13
748.911	30965.63
749.25	30949.58
749.589	30915.68
749.928	30767.44
750.267	30797.72
750.605	30817.83
750.944	30621.45
751.283	30545.98
751.621	30511.63
751.96	30283.38
752.298	30379.65
752.636	30240.67
752.975	30108.7
753.313	29887.91
753.651	30029.15
753.989	29767.92
754.327	29610.41
754.666	29520.69
755.004	29504.42
755.342	29483.63
755.679	29418.77
756.017	29169.97
756.355	29193.47
756.693	29064.21
757.031	29099.23
757.368	28916.41
757.706	28838.9
758.044	28817.43
758.381	28877.77
758.719	28717.32
759.056	28826.02
759.394	28620.15
759.731	28647.27
760.068	28655.63
760.405	28545.35
760.743	28468.74
761.08	28489.99
761.417	28397.78
