Data from red_shiny_book_FLMS001491_00032.txt Node
Date: Wed Feb 08 15:24:45 GMT 2017
User: dcchb
Spectrometer: FLMS00149
Trigger mode: 0
Integration Time (sec): 2.000000E-2
Scans to average: 10
Electric dark correction enabled: true
Nonlinearity correction enabled: false
Boxcar width: 0
XAxis mode: Wavelengths
Number of Pixels in Spectrum: 2048
>>>>>Begin Spectral Data<<<<<
341.393	-22.74
341.776	-22.74
342.16	-22.74
342.543	-48.95
342.927	-60.93
343.31	-51.21
343.693	-54.6
344.077	-83.3
344.46	-43.3
344.843	-48.5
345.226	-43.98
345.61	-25
345.993	-6.02
346.376	10.03
346.759	7.32
347.142	16.58
347.525	16.81
347.908	71.5
348.291	62.91
348.674	71.04
349.057	99.74
349.44	121.21
349.823	130.25
350.206	160.53
350.588	204.37
350.971	226.97
351.354	229.68
351.737	218.61
352.119	248.44
352.502	259.74
352.884	290.92
353.267	298.61
353.65	283.92
354.032	290.92
354.414	321.88
354.797	318.95
355.179	299.51
355.562	312.84
355.944	320.98
356.326	363.92
356.709	327.53
357.091	346.74
357.473	346.52
357.855	335.9
358.238	317.82
358.62	356.46
359.002	367.08
359.384	346.29
359.766	339.96
360.148	346.52
360.53	328.44
360.912	340.19
361.294	354.43
361.676	342.22
362.057	329.79
362.439	346.74
362.821	327.53
363.203	333.86
363.584	339.06
363.966	344.93
364.348	337.48
364.729	326.63
365.111	311.71
365.493	335.44
365.874	322.56
366.256	317.59
366.637	314.2
367.019	319.17
367.4	324.6
367.781	319.17
368.163	297.7
368.544	313.97
368.925	299.06
369.306	337.48
369.688	319.4
370.069	313.52
370.45	332.73
370.831	304.71
371.212	322.56
371.593	321.43
371.974	320.08
372.355	315.33
372.736	331.38
373.117	298.61
373.498	304.94
373.879	332.05
374.26	316.01
374.641	331.38
375.021	315.1
375.402	323.92
375.783	335.22
376.163	324.6
376.544	306.29
376.925	338.83
377.305	332.51
377.686	322.79
378.066	324.6
378.447	325.5
378.827	329.34
379.208	346.97
379.588	334.54
379.968	336.35
380.349	338.61
380.729	339.96
381.109	337.25
381.489	324.37
381.87	353.97
382.25	334.77
382.63	327.99
383.01	350.13
383.39	351.94
383.77	331.15
384.15	319.85
384.53	349.45
384.91	342.22
385.29	347.65
385.67	336.12
386.049	345.16
386.429	360.08
386.809	367.31
387.189	351.94
387.568	334.77
387.948	361.66
388.328	354.2
388.707	353.75
389.087	365.72
389.466	366.63
389.846	361.43
390.225	352.62
390.605	374.54
390.984	359.4
391.363	364.14
391.743	357.59
392.122	372.5
392.501	377.48
392.881	370.02
393.26	377.7
393.639	380.87
394.018	370.47
394.397	351.49
394.776	386.74
395.155	378.83
395.534	398.27
395.913	369.34
396.292	377.25
396.671	389.68
397.05	377.02
397.429	382
397.808	391.26
398.186	353.97
398.565	388.32
398.944	385.84
399.323	389.91
399.701	414.76
400.08	395.33
400.458	411.83
400.837	396.68
401.215	403.46
401.594	416.12
401.972	417.02
402.351	401.88
402.729	391.03
403.107	386.97
403.486	396.68
403.864	398.49
404.242	422.45
404.62	419.73
404.999	415.89
405.377	415.89
405.755	426.51
406.133	413.41
406.511	404.59
406.889	410.92
407.267	455.67
407.645	422.45
408.023	424.71
408.401	441.2
408.779	426.51
409.156	446.63
409.534	435.33
409.912	458.15
410.29	461.54
410.667	443.69
411.045	460.86
411.422	459.96
411.8	445.5
412.178	468.1
412.555	442.78
412.933	491.37
413.31	497.92
413.687	503.35
414.065	488.21
414.442	488.89
414.819	507.64
415.197	497.92
415.574	498.38
415.951	488.43
416.328	505.16
416.705	509
417.082	495.89
417.46	495.66
417.837	500.41
418.214	551.03
418.591	548.32
418.967	518.72
419.344	518.94
419.721	545.38
420.098	531.14
420.475	535.66
420.852	541.99
421.228	567.98
421.605	549.67
421.982	544.25
422.358	548.77
422.735	585.83
423.111	558.04
423.488	572.5
423.864	565.49
424.241	576.57
424.617	565.49
424.994	594.19
425.37	606.85
425.746	587.64
426.123	585.83
426.499	598.94
426.875	628.09
427.251	617.24
427.627	599.39
428.003	615.44
428.379	624.48
428.756	618.83
429.132	621.31
429.507	629.45
429.883	648.66
430.259	624.25
430.635	652.5
431.011	661.31
431.387	640.75
431.763	650.69
432.138	673.51
432.514	660.86
432.89	663.8
433.265	657.47
433.641	681.65
434.016	688.43
434.392	699.05
434.767	687.75
435.143	698.15
435.518	697.24
435.894	718.71
436.269	725.04
436.644	718.71
437.02	726.39
437.395	725.04
437.77	748.54
438.145	746.28
438.52	741.53
438.895	757.58
439.271	755.77
439.646	765.94
440.021	776.56
440.395	764.36
440.77	766.84
441.145	769.78
441.52	771.82
441.895	749.44
442.27	774.98
442.645	800.06
443.019	807.07
443.394	784.47
443.769	777.92
444.143	807.52
444.518	807.97
444.892	835.54
445.267	794.19
445.641	786.5
446.016	807.3
446.39	824.47
446.764	826.96
447.139	823.57
447.513	840.74
447.887	856.56
448.262	846.62
448.636	846.62
449.01	871.93
449.384	844.36
449.758	827.41
450.132	837.35
450.506	832.38
450.88	844.58
451.254	850.01
451.628	847.52
452.002	865.6
452.376	890.46
452.75	873.73
453.123	895.2
453.497	899.27
453.871	926.84
454.244	923.22
454.618	908.99
454.992	911.93
455.365	903.56
455.739	888.65
456.112	907.41
456.486	904.02
456.859	938.37
457.232	954.18
457.606	931.59
457.979	947.63
458.352	970.68
458.725	990.57
459.099	981.75
459.472	950.57
459.845	963
460.218	971.13
460.591	966.16
460.964	966.39
461.337	977.91
461.71	998.25
462.083	995.99
462.456	1038.7
462.829	1028.53
463.201	1032.83
463.574	1014.97
463.947	1053.16
464.32	1047.74
464.692	1053.62
465.065	1027.85
465.438	1052.49
465.81	1062.2
466.183	1052.94
466.555	1071.47
466.928	1079.6
467.3	1081.86
467.672	1100.85
468.045	1139.49
468.417	1133.39
468.789	1160.05
469.161	1146.04
469.534	1144.91
469.906	1164.8
470.278	1159.15
470.65	1160.51
471.022	1162.99
471.394	1172.26
471.766	1177.68
472.138	1210.22
472.51	1208.64
472.882	1241.41
473.253	1246.61
473.625	1289.77
473.997	1304.01
474.369	1297
474.74	1322.54
475.112	1301.97
475.484	1351.91
475.855	1322.99
476.227	1328.64
476.598	1362.31
476.97	1365.02
477.341	1404.57
477.713	1457.45
478.084	1454.74
478.455	1475.75
478.827	1507.16
479.198	1541.29
479.569	1538.12
479.94	1559.82
480.311	1553.72
480.682	1569.08
481.053	1561.17
481.424	1600.27
481.795	1606.6
482.166	1607.95
482.537	1642.3
482.908	1687.5
483.279	1708.29
483.65	1772.02
484.021	1793.94
484.391	1852.69
484.762	1840.94
485.133	1878
485.503	1886.14
485.874	1889.98
486.244	1900.83
486.615	1922.07
486.985	1923.65
487.356	1953.25
487.726	1973.82
488.097	1954.16
488.467	2044.55
488.837	2075.74
489.207	2098.56
489.578	2155.51
489.948	2198.45
490.318	2200.93
490.688	2196.64
491.058	2235.96
491.428	2249.97
491.798	2288.39
492.168	2305.79
492.538	2291.78
492.908	2265.11
493.278	2309.63
493.648	2329.52
494.017	2364.99
494.387	2387.59
494.757	2422.39
495.126	2484.77
495.496	2491.77
495.866	2550.3
496.235	2562.5
496.605	2548.27
496.974	2600.02
497.344	2606.8
497.713	2586.91
498.082	2571.54
498.452	2563.86
498.821	2573.58
499.19	2587.14
499.559	2645.66
499.928	2644.53
500.298	2673.23
500.667	2708.04
501.036	2703.97
501.405	2758.66
501.774	2759.11
502.143	2770.63
502.512	2816.06
502.88	2796.62
503.249	2812.67
503.618	2769.05
503.987	2790.52
504.356	2757.98
504.724	2753.91
505.093	2786.45
505.462	2778.77
505.83	2766.79
506.199	2828.94
506.567	2884.08
506.936	2882.95
507.304	2924.53
507.672	2951.87
508.041	2988.48
508.409	2978.76
508.777	2980.35
509.145	2966.11
509.514	2946.45
509.882	2929.27
510.25	2916.39
510.618	2921.14
510.986	2926.56
511.354	2921.59
511.722	2939.67
512.09	2991.87
512.458	2920.69
512.826	2989.61
513.193	3023.73
513.561	3068.03
513.929	3122.04
514.297	3113.68
514.664	3117.74
515.032	3092.43
515.4	3164.52
515.767	3122.26
516.135	3095.37
516.502	3041.36
516.869	3016.95
517.237	3022.6
517.604	2985.09
517.972	3066.22
518.339	3051.3
518.706	3061.7
519.073	3074.81
519.44	3203.39
519.808	3177.85
520.175	3214.24
520.542	3259.21
520.909	3246.78
521.276	3286.1
521.643	3249.72
522.009	3308.92
522.376	3228.47
522.743	3250.62
523.11	3271.64
523.477	3241.36
523.843	3239.77
524.21	3192.54
524.577	3251.3
524.943	3256.95
525.31	3337.4
525.676	3400.45
526.043	3429.6
526.409	3442.93
526.776	3527.45
527.142	3508.69
527.508	3572.65
527.874	3595.02
528.241	3572.65
528.607	3541.46
528.973	3545.98
529.339	3571.97
529.705	3548.47
530.071	3526.09
530.437	3551.4
530.803	3488.81
531.169	3564.51
531.535	3580.33
531.901	3609.03
532.267	3629.37
532.632	3731.96
532.998	3821.45
533.364	3884.5
533.73	3910.94
534.095	3938.06
534.461	3961.79
534.826	4034.78
535.192	4012.18
535.557	3993.2
535.923	4001.11
536.288	3982.58
536.653	3977.38
537.019	3906.65
537.384	3880.43
537.749	3957.27
538.114	3907.78
538.479	4019.64
538.845	4034.78
539.21	4054.67
539.575	4101.22
539.94	4160.88
540.305	4294.89
540.67	4296.24
541.034	4298.28
541.399	4350.03
541.764	4402.68
542.129	4391.38
542.494	4400.42
542.858	4400.87
543.223	4352.96
543.587	4336.47
543.952	4307.99
544.316	4340.08
544.681	4317.71
545.045	4358.39
545.41	4328.56
545.774	4337.37
546.138	4392.06
546.503	4480.42
546.867	4491.94
547.231	4580.76
547.595	4642.45
547.959	4700.53
548.324	4657.36
548.688	4769.45
549.052	4687.87
549.416	4703.24
549.779	4667.76
550.143	4621.88
550.507	4628.44
550.871	4624.6
551.235	4516.12
551.599	4558.38
551.962	4495.11
552.326	4524.03
552.689	4529.91
553.053	4562.45
553.417	4518.16
553.78	4689.45
554.143	4644.71
554.507	4702.33
554.87	4768.32
555.234	4848.09
555.597	4880.63
555.96	4916.34
556.323	4903.23
556.686	4874.53
557.05	4872.27
557.413	4864.82
557.776	4834.76
558.139	4817.59
558.502	4754.54
558.865	4717.02
559.228	4729.45
559.59	4714.54
559.953	4698.49
560.316	4733.75
560.679	4724.03
561.041	4824.36
561.404	4859.62
561.767	4943.68
562.129	4977.58
562.492	5023.46
562.854	5081.76
563.217	5064.81
563.579	5148.65
563.941	5206.5
564.304	5171.47
564.666	5190.23
565.028	5160.4
565.39	5115.88
565.753	5090.12
566.115	5034.53
566.477	5017.81
566.839	4952.95
567.201	4997.47
567.563	5016.68
567.925	5002.89
568.287	5085.83
568.648	5072.04
569.01	5163.56
569.372	5229.55
569.734	5253.28
570.095	5367.63
570.457	5470.9
570.819	5470.45
571.18	5511.35
571.542	5549.77
571.903	5615.3
572.265	5615.3
572.626	5575.98
572.987	5570.11
573.349	5551.58
573.71	5591.12
574.071	5539.15
574.432	5555.64
574.794	5549.54
575.155	5535.76
575.516	5575.76
575.877	5617.79
576.238	5735.75
576.599	5861.4
576.96	5922.41
577.32	6056.42
577.681	6237.66
578.042	6321.95
578.403	6470.88
578.763	6569.63
579.124	6765.1
579.485	6892.78
579.845	7042.84
580.206	7133.46
580.566	7289.38
580.927	7395.14
581.287	7457.52
581.648	7575.25
582.008	7730.73
582.368	7858.41
582.728	8083.04
583.089	8235.57
583.449	8505.4
583.809	8707.2
584.169	9003.01
584.529	9287.98
584.889	9675.31
585.249	9984.23
585.609	10305.12
585.969	10806.13
586.329	11186.68
586.688	11634.81
587.048	12062.82
587.408	12523.82
587.768	12870.71
588.127	13253.52
588.487	13691.7
588.846	14058.25
589.206	14386.6
589.565	14786.81
589.925	15186.35
590.284	15565.33
590.643	16036.95
591.003	16469.26
591.362	16899.75
591.721	17358.27
592.08	17793.97
592.44	18371.35
592.799	18861.06
593.158	19381.72
593.517	19837.53
593.876	20454.24
594.235	20862.59
594.593	21649.23
594.952	22247.41
595.311	22612.6
595.67	23329.87
596.029	23788.61
596.387	24371.87
596.746	24918.07
597.104	25315.58
597.463	25562.35
597.822	26239.85
598.18	26603.68
598.538	26961.18
598.897	27528.17
599.255	27796.19
599.613	28606.56
599.972	28682.72
600.33	29334.91
600.688	29621.45
601.046	30177.82
601.404	30701.65
601.762	31074.07
602.12	31679.48
602.478	32286.92
602.836	32732.56
603.194	32910.86
603.552	33619.77
603.91	33847.78
604.268	34521.89
604.625	34838.04
604.983	35473.28
605.341	35462.66
605.698	36147.61
606.056	36438
606.413	36745.79
606.771	37127.47
607.128	37397.29
607.485	37552.32
607.843	37879.99
608.2	38322.92
608.557	38583.25
608.914	38732.63
609.272	39095.55
609.629	39448.99
609.986	39694.18
610.343	39895.31
610.7	40415.52
611.057	40718.79
611.414	40934.6
611.771	41313.12
612.127	41685.54
612.484	41878.08
612.841	42268.13
613.198	42378.86
613.554	42647.78
613.911	43067.2
614.267	43281.21
614.624	43372.05
614.98	43526.4
615.337	43864.47
615.693	43896.33
616.05	44015.65
616.406	44186.49
616.762	44235.98
617.118	44186.72
617.475	44457.45
617.831	44524.79
618.187	44659.02
618.543	44764.78
618.899	45099.46
619.255	45186.47
619.611	45141.5
619.967	45492.67
620.323	45731.54
620.678	45784.19
621.034	45689.28
621.39	46013.79
621.746	46062.6
622.101	46634.11
622.457	46443.38
622.812	46583.72
623.168	46777.84
623.523	46927.21
623.879	47026.87
624.234	46864.62
624.589	47018.74
624.945	46986.65
625.3	47128.11
625.655	47054.21
626.01	47143.25
626.365	47188.45
626.72	47184.61
627.075	47098.96
627.43	46993.88
627.785	46864.84
628.14	46982.8
628.495	47079.52
628.85	47117.94
629.205	47143.48
629.559	47388.22
629.914	47464.83
630.269	47451.72
630.623	47411.27
630.978	47454.2
631.332	47722.45
631.687	47842.67
632.041	47739.85
632.396	47780.3
632.75	47723.58
633.104	47804.03
633.459	47694.88
633.813	47729.68
634.167	47733.74
634.521	47454.88
634.875	47614.65
635.229	47547.54
635.583	47449.01
635.937	47362.46
636.291	47225.74
636.645	47181.67
636.999	46922.47
637.352	47164.49
637.706	46940.55
638.06	47176.25
638.413	47004.5
638.767	46899.42
639.121	46944.39
639.474	46799.53
639.828	46965.63
640.181	46938.96
640.534	47169.69
640.888	47040.66
641.241	46932.18
641.594	47253.31
641.947	47213.98
642.301	47178.05
642.654	47234.32
643.007	47206.08
643.36	47115.68
643.713	47087.21
644.066	47224.61
644.419	47065.29
644.771	46651.74
645.124	46291.52
645.477	46091.75
645.83	45965.2
646.182	45597.53
646.535	45404.54
646.888	45545.55
647.24	45089.29
647.593	45591.88
647.945	45389.63
648.298	45147.37
648.65	45100.82
649.002	45028.96
649.355	45237.77
649.707	45111.44
650.059	45266.24
650.411	45781.93
650.763	45803.4
651.115	46242.03
651.467	46320.9
651.819	46371.29
652.171	46178.98
652.523	46208.81
652.875	46198.42
653.227	46049.5
653.578	46451.74
653.93	46401.35
654.282	45976.05
654.633	45945.77
654.985	46096.73
655.337	46012.21
655.688	45861.48
656.039	45994.13
656.391	45553.46
656.742	45568.6
657.094	45459.68
657.445	45665.1
657.796	45466.01
658.147	45366.58
658.498	45375.61
658.849	45516.63
659.2	45340.59
659.551	45279.57
659.902	45357.31
660.253	45340.36
660.604	45516.85
660.955	45351.89
661.306	45593.69
661.656	45588.49
662.007	45623.07
662.358	45628.49
662.708	45607.47
663.059	45707.36
663.409	45449.96
663.76	45878.2
664.11	45795.49
664.461	45807.24
664.811	45739.67
665.161	45754.36
665.511	45483.63
665.862	45449.29
666.212	45639.79
666.562	45377.42
666.912	45399.34
667.262	45099.24
667.612	45164.77
667.962	45190.53
668.312	44949.86
668.662	45029.86
669.011	45007.94
669.361	44896.31
669.711	44870.32
670.06	44808.4
670.41	44628.52
670.76	44748.96
671.109	44832.35
671.459	44879.81
671.808	44727.5
672.157	44965
672.507	44707.38
672.856	44883.42
673.205	45012.69
673.554	45121.38
673.904	45001.16
674.253	45153.7
674.602	45104.21
674.951	44541.29
675.3	44372.48
675.649	45058.79
675.998	44931.56
676.346	44791
676.695	44954.38
677.044	44573.15
677.393	44716.2
677.741	44587.16
678.09	44389.65
678.438	44322.31
678.787	44422.42
679.135	44321.18
679.484	43857.24
679.832	44131.58
680.181	43799.84
680.529	43946.95
680.877	43812.49
681.225	43728.65
681.573	43952.15
681.922	43786.96
682.27	43761.19
682.618	43644.81
682.966	43633.51
683.314	43802.1
683.661	43726.17
684.009	43529.34
684.357	43570.01
684.705	43673.51
685.053	43704.92
685.4	43784.47
685.748	43413.18
686.095	43429.23
686.443	43245.73
686.79	43361.88
687.138	43407.76
687.485	43241.21
687.832	43054.09
688.18	43157.14
688.527	42863.59
688.874	42880.54
689.221	42731.39
689.568	42508.57
689.915	42246.21
690.262	42224.51
690.609	42099.54
690.956	41988.81
691.303	41907.23
691.65	41648.48
691.997	41631.76
692.344	41342.5
692.69	41417.53
693.037	41349.73
693.383	41111.77
693.73	41254.59
694.077	41070.64
694.423	41147.25
694.769	40956.07
695.116	40988.84
695.462	40977.54
695.808	40925.34
696.155	40941.61
696.501	40890.31
696.847	40740.26
697.193	40659.13
697.539	40762.18
697.885	40520.38
698.231	40335.75
698.577	40441.73
698.923	40282.87
699.269	40062.31
699.614	39877
699.96	39746.16
700.306	39731.47
700.651	39472.04
700.997	39309.11
701.342	39280.18
701.688	39067.31
702.033	38967.42
702.379	39015.33
702.724	38781.89
703.069	38715.22
703.415	38376.02
703.76	38202.24
704.105	38266.65
704.45	38164.28
704.795	38029.37
705.14	37851.52
705.485	37861.01
705.83	37722.26
706.175	37947.11
706.52	37726.32
706.865	37728.81
707.209	37582.6
707.554	37664.86
707.899	37714.35
708.243	37509.15
708.588	37615.37
708.932	37245.43
709.277	37342.15
709.621	37462.15
709.966	37176.96
710.31	37254.47
710.654	36910.3
710.998	37066.91
711.342	36930.87
711.687	36927.7
712.031	36708.05
712.375	36513.25
712.719	36414.72
713.063	36440.71
713.407	36440.93
713.75	36195.07
714.094	36169.53
714.438	35937.44
714.782	36012.02
715.125	35682.76
715.469	35723.44
715.812	35464.69
716.156	35209.33
716.499	35383.34
716.843	35293.85
717.186	35105.6
717.53	35297.91
717.873	35274.19
718.216	35180.18
718.559	34958.94
718.902	34892.27
719.246	34994.19
719.589	34957.81
719.932	34967.3
720.275	34863.8
720.617	34820.64
720.96	34917.58
721.303	34963.69
721.646	34872.84
721.989	34791.94
722.331	34981.31
722.674	34799.17
723.016	34769.11
723.359	34649.12
723.701	34597.37
724.044	34560.31
724.386	34341.78
724.729	34547.2
725.071	34302.01
725.413	34141.79
725.755	34054.33
726.097	33907.44
726.439	33676.94
726.782	33821.34
727.124	33807.33
727.465	33577.51
727.807	33457.96
728.149	33233.34
728.491	33210.51
728.833	33231.3
729.175	33173.68
729.516	33008.93
729.858	33128.71
730.199	32978.2
730.541	33020.01
730.882	32873.34
731.224	32984.75
731.565	32801.93
731.906	32961.93
732.248	32940.69
732.589	32767.81
732.93	32714.03
733.271	32756.96
733.612	32840.8
733.953	32753.35
734.294	32741.14
734.635	32788.15
734.976	32870.63
735.317	32674.93
735.658	32711.99
735.999	32679
736.339	32667.02
736.68	32590.41
737.021	32559.23
737.361	32327.37
737.702	32512
738.042	32388.16
738.383	32184.1
738.723	32326.69
739.063	32225.45
739.404	32156.53
739.744	31867.95
740.084	31864.33
740.424	31822.75
740.764	31703.43
741.104	31757.67
741.444	31557.67
741.784	31341.63
742.124	31406.94
742.464	31407.39
742.804	31338.7
743.143	31293.5
743.483	31238.59
743.823	31017.35
744.162	31072.71
744.502	31196.1
744.841	30991.59
745.181	31237.91
745.52	31002.89
745.86	31008.53
746.199	31029.78
746.538	30978.71
746.877	31098.48
747.216	31140.96
747.556	31104.35
747.895	31179.6
748.234	30936.67
748.573	30854.87
748.911	30931.47
749.25	30885.37
749.589	30728.77
749.928	30897.13
750.267	30882.21
750.605	30711.59
750.944	30680.18
751.283	30420.53
751.621	30473.18
751.96	30182.34
752.298	30260.98
752.636	30198.39
752.975	30045.17
753.313	29911.84
753.651	29924.04
753.989	29710.26
754.327	29546.88
754.666	29429.37
755.004	29466.43
755.342	29477.5
755.679	29371.97
756.017	29070.96
756.355	29214.68
756.693	29039.1
757.031	28949.83
757.368	29030.28
757.706	28902.38
758.044	28687.69
758.381	28826.45
758.719	28709.61
759.056	28685.21
759.394	28718.65
759.731	28453.57
760.068	28588.26
760.405	28508.49
760.743	28267.59
761.08	28487.02
