Data from red_cardboard_box_FLMS001491_00063.txt Node
Date: Wed Feb 08 11:32:56 GMT 2017
User: dcchb
Spectrometer: FLMS00149
Trigger mode: 0
Integration Time (sec): 2.000000E-2
Scans to average: 10
Electric dark correction enabled: true
Nonlinearity correction enabled: false
Boxcar width: 0
XAxis mode: Wavelengths
Number of Pixels in Spectrum: 2048
>>>>>Begin Spectral Data<<<<<
341.393	-19.36
341.776	-19.36
342.16	-19.36
342.543	-73.83
342.927	-64.56
343.31	-73.83
343.693	-74.96
344.077	-64.56
344.46	-65.46
344.843	-58.68
345.226	-27.73
345.61	-30.21
345.993	-18.91
346.376	17.7
346.759	9.11
347.142	17.02
347.525	44.14
347.908	60.86
348.291	79.84
348.674	75.55
349.057	110.12
349.44	132.04
349.823	134.08
350.206	144.93
350.588	199.16
350.971	219.5
351.354	203.23
351.737	224.25
352.119	240.29
352.502	263.57
352.884	281.87
353.267	280.74
353.65	299.05
354.032	318.25
354.414	318.25
354.797	322.1
355.179	313.28
355.562	323.45
355.944	318.93
356.326	327.52
356.709	332.27
357.091	335.2
357.473	332.27
357.855	334.3
358.238	351.47
358.62	340.85
359.002	337.01
359.384	346.73
359.766	331.81
360.148	327.97
360.53	349.44
360.912	342.89
361.294	343.79
361.676	337.91
362.057	322.55
362.439	348.31
362.821	334.98
363.203	348.08
363.584	327.29
363.966	335.2
364.348	337.24
364.729	316.22
365.111	320.74
365.493	299.72
365.874	316.67
366.256	323
366.637	297.46
367.019	303.79
367.4	292.94
367.781	309.44
368.163	326.39
368.544	312.83
368.925	323.68
369.306	315.77
369.688	319.16
370.069	291.81
370.45	314.64
370.831	314.64
371.212	313.06
371.593	300.85
371.974	316.22
372.355	304.47
372.736	300.18
373.117	308.54
373.498	295.2
373.879	312.38
374.26	308.31
374.641	309.22
375.021	299.72
375.402	323
375.783	301.76
376.163	344.24
376.544	320.51
376.925	320.06
377.305	313.96
377.686	319.84
378.066	319.61
378.447	322.1
378.827	335.2
379.208	305.6
379.588	345.37
379.968	342.43
380.349	319.38
380.729	320.97
381.109	314.86
381.489	344.47
381.87	331.14
382.25	310.12
382.63	333.4
383.01	342.21
383.39	320.06
383.77	342.89
384.15	337.46
384.53	341.08
384.91	355.99
385.29	335.66
385.67	315.09
386.049	341.98
386.429	331.81
386.809	344.02
387.189	338.59
387.568	338.59
387.948	350.12
388.328	332.72
388.707	348.76
389.087	341.76
389.466	348.54
389.846	357.8
390.225	364.13
390.605	349.67
390.984	356.9
391.363	344.69
391.743	363.9
392.122	360.29
392.501	360.06
392.881	348.31
393.26	336.33
393.639	347.18
394.018	338.37
394.397	360.29
394.776	360.06
395.155	345.37
395.534	338.82
395.913	351.7
396.292	358.25
396.671	379.27
397.05	369.55
397.429	372.26
397.808	376.11
398.186	352.15
398.565	353.28
398.944	371.81
399.323	376.56
399.701	369.33
400.08	351.93
400.458	359.16
400.837	370.23
401.215	376.33
401.594	367.07
401.972	368.2
402.351	367.97
402.729	377.91
403.107	365.03
403.486	375.43
403.864	365.48
404.242	393.05
404.62	376.33
404.999	380.85
405.377	372.72
405.755	387.41
406.133	393.28
406.511	360.06
406.889	410.46
407.267	377.24
407.645	393.73
408.023	403.9
408.401	411.36
408.779	410.23
409.156	403.22
409.534	416.33
409.912	414.3
410.29	431.92
410.667	414.75
411.045	393.28
411.422	405.03
411.8	428.76
412.178	408.42
412.555	427.63
412.933	389.21
413.31	407.74
413.687	410
414.065	419.72
414.442	444.58
414.819	430.34
415.197	432.15
415.574	427.4
415.951	421.53
416.328	416.56
416.705	439.61
417.082	432.83
417.46	447.29
417.837	428.53
418.214	421.75
418.591	433.73
418.967	455.43
419.344	439.61
419.721	446.84
420.098	457.46
420.475	458.14
420.852	440.29
421.228	459.04
421.605	482.54
421.982	469.66
422.358	461.75
422.735	483
423.111	464.69
423.488	465.82
423.864	469.21
424.241	485.26
424.617	488.42
424.994	478.7
425.37	481.41
425.746	466.95
426.123	482.09
426.499	465.37
426.875	484.13
427.251	507.4
427.627	506.05
428.003	484.13
428.379	501.53
428.756	493.16
429.132	505.59
429.507	497.46
429.883	501.75
430.259	510.79
430.635	503.11
431.011	523.9
431.387	533.39
431.763	518.93
432.138	543.56
432.514	533.62
432.89	527.97
433.265	524.8
433.641	548.53
434.016	550.79
434.392	535.42
434.767	550.79
435.143	564.12
435.518	562.32
435.894	557.34
436.269	570.9
436.644	565.93
437.02	574.74
437.395	549.43
437.77	580.39
438.145	576.33
438.52	607.74
438.895	573.39
439.271	595.31
439.646	601.18
440.021	603.9
440.395	580.62
440.77	588.3
441.145	598.02
441.52	589.21
441.895	586.72
442.27	600.96
442.645	632.14
443.019	615.65
443.394	623.11
443.769	628.53
444.143	621.3
444.518	612.48
444.892	607.96
445.267	628.08
445.641	642.54
446.016	617
446.39	640.73
446.764	652.26
447.139	658.81
447.513	621.07
447.887	624.01
448.262	639.83
448.636	635.76
449.01	620.39
449.384	646.83
449.758	666.72
450.132	651.13
450.506	646.16
450.88	640.51
451.254	663.56
451.628	670.34
452.002	669.88
452.376	671.92
452.75	677.34
453.123	694.52
453.497	675.31
453.871	689.09
454.244	676.66
454.618	711.92
454.992	690.45
455.365	696.32
455.739	709.88
456.112	723.89
456.486	745.36
456.859	717.11
457.232	705.14
457.606	745.59
457.979	747.4
458.352	734.97
458.725	748.3
459.099	770.22
459.472	778.13
459.845	741.52
460.218	769.77
460.591	769.09
460.964	770.9
461.337	785.36
461.71	779.03
462.083	813.61
462.456	813.38
462.829	808.18
463.201	819.03
463.574	819.71
463.947	820.16
464.32	828.52
464.692	831.91
465.065	824.46
465.438	840.95
465.81	863.1
466.183	859.26
466.555	862.42
466.928	859.71
467.3	868.07
467.672	887.05
468.045	879.14
468.417	890.89
468.789	905.36
469.161	920.27
469.534	940.84
469.906	951.01
470.278	937.22
470.65	950.1
471.022	950.78
471.394	979.93
471.766	992.59
472.138	969.76
472.51	969.08
472.882	1012.02
473.253	1006.82
473.625	1007.28
473.997	1006.15
474.369	1017.9
474.74	1044.79
475.112	1047.05
475.484	1083.66
475.855	1096.31
476.227	1109.65
476.598	1101.74
476.97	1109.42
477.341	1139.93
477.713	1170.44
478.084	1148.51
478.455	1171.79
478.827	1163.66
479.198	1181.73
479.569	1202.52
479.94	1233.03
480.311	1239.36
480.682	1256.99
481.053	1300.38
481.424	1296.76
481.795	1304.67
482.166	1322.97
482.537	1307.38
482.908	1336.53
483.279	1340.83
483.65	1382.86
484.021	1402.52
484.391	1439.81
484.762	1448.62
485.133	1437.77
485.503	1438.68
485.874	1491.1
486.244	1468.28
486.615	1522.06
486.985	1528.17
487.356	1528.39
487.726	1553.48
488.097	1597.54
488.467	1592.12
488.837	1608.84
489.207	1657.88
489.578	1643.42
489.948	1669.41
490.318	1689.97
490.688	1678.9
491.058	1708.27
491.428	1728.16
491.798	1724.32
492.168	1769.52
492.538	1762.74
492.908	1787.82
493.278	1804.32
493.648	1803.19
494.017	1800.25
494.387	1866.46
494.757	1865.56
495.126	1883.41
495.496	1927.25
495.866	1922.51
496.235	1918.44
496.605	1928.61
496.974	1948.27
497.344	1986.69
497.713	1987.59
498.082	1987.36
498.452	2051.09
498.821	2004.76
499.19	2061.03
499.559	2059.45
499.928	2070.75
500.298	2073.91
500.667	2090.19
501.036	2106
501.405	2124.76
501.774	2131.77
502.143	2143.52
502.512	2157.53
502.88	2172.22
503.249	2154.59
503.618	2221.26
503.987	2199.33
504.356	2188.71
504.724	2240.01
505.093	2261.71
505.462	2253.12
505.83	2268.26
506.199	2298.54
506.567	2318.43
506.936	2309.16
507.304	2347.13
507.672	2344.19
508.041	2362.95
508.409	2414.7
508.777	2363.4
509.145	2424.87
509.514	2408.37
509.882	2446.56
510.25	2461.47
510.618	2458.99
510.986	2483.4
511.354	2496.95
511.722	2506.67
512.09	2524.3
512.458	2516.84
512.826	2557.97
513.193	2598.87
513.561	2594.13
513.929	2591.41
514.297	2623.96
514.664	2661.02
515.032	2659.21
515.4	2687.68
515.767	2698.3
516.135	2730.85
516.502	2697.63
516.869	2734.69
517.237	2740.34
517.604	2793.22
517.972	2802.26
518.339	2830.28
518.706	2814.91
519.073	2812.88
519.44	2898.75
519.808	2875.7
520.175	2930.39
520.542	2921.58
520.909	2972.87
521.276	2960.44
521.643	2977.62
522.009	3017.84
522.376	3050.61
522.743	3080.22
523.11	3083.83
523.477	3148.46
523.843	3126.54
524.21	3158.18
524.577	3183.72
524.943	3211.06
525.31	3248.35
525.676	3221.91
526.043	3282.02
526.409	3277.27
526.776	3299.42
527.142	3293.32
527.508	3346.2
527.874	3348.01
528.241	3404.73
528.607	3393.2
528.973	3444.05
529.339	3452.86
529.705	3511.84
530.071	3506.19
530.437	3552.29
530.803	3561.11
531.169	3555.23
531.535	3579.86
531.901	3636.81
532.267	3626.87
532.632	3648.79
532.998	3633.87
533.364	3669.8
533.73	3694.66
534.095	3750.93
534.461	3740.99
534.826	3765.17
535.192	3801.1
535.557	3830.7
535.923	3809.01
536.288	3863.25
536.653	3856.24
537.019	3860.99
537.384	3859.63
537.749	3896.69
538.114	3943.7
538.479	3902.79
538.845	3940.76
539.21	3944.6
539.575	3976.46
539.94	4024.6
540.305	4001.1
540.67	4055.33
541.034	4081.55
541.399	4078.16
541.764	4108.21
542.129	4106.63
542.494	4157.93
542.858	4129.68
543.223	4167.19
543.587	4180.07
543.952	4242.22
544.316	4236.57
544.681	4217.59
545.045	4259.39
545.41	4310.47
545.774	4330.58
546.138	4325.83
546.503	4335.1
546.867	4325.61
547.231	4397.24
547.595	4404.02
547.959	4396.11
548.324	4428.88
548.688	4474.3
549.052	4523.79
549.416	4459.39
549.779	4531.02
550.143	4510.91
550.507	4565.15
550.871	4616.67
551.235	4652.15
551.599	4671.59
551.962	4693.28
552.326	4726.05
552.689	4730.34
553.053	4687.86
553.417	4795.65
553.78	4786.84
554.143	4828.87
554.507	4842.66
554.87	4867.29
555.234	4939.6
555.597	4935.76
555.96	4948.19
556.323	5000.62
556.686	5066.38
557.05	5055.53
557.413	5097.11
557.776	5093.5
558.139	5187.96
558.502	5201.74
558.865	5200.16
559.228	5275.64
559.59	5268.41
559.953	5301.85
560.316	5396.76
560.679	5396.09
561.041	5470.21
561.404	5485.58
561.767	5609.41
562.129	5533.03
562.492	5655.06
562.854	5658.68
563.217	5679.92
563.579	5752.69
563.941	5823.19
564.304	5874.27
564.666	5919.91
565.028	5970.76
565.39	6002.85
565.753	6078.1
566.115	6100.7
566.477	6145.22
566.839	6225.9
567.201	6339.79
567.563	6304.76
567.925	6360.13
568.287	6451.43
568.648	6463.86
569.01	6579.11
569.372	6576.39
569.734	6676.05
570.095	6687.8
570.457	6800.8
570.819	6806.67
571.18	6795.37
571.542	6945.88
571.903	6996.04
572.265	7012.32
572.626	7106.32
572.987	7217.28
573.349	7238.07
573.71	7312.42
574.071	7369.59
574.432	7396.03
574.794	7493.66
575.155	7618.85
575.516	7656.82
575.877	7715.57
576.238	7786.08
576.599	7873.31
576.96	7958.96
577.32	7992.4
577.681	8108.56
578.042	8244.6
578.403	8319.63
578.763	8366.86
579.124	8476.68
579.485	8608.21
579.845	8694.53
580.206	8732.95
580.566	8877.13
580.927	8962.77
581.287	9179.72
581.648	9160.51
582.008	9358.92
582.368	9526.37
582.728	9590.78
583.089	9753.71
583.449	9809.98
583.809	9930.2
584.169	10183.31
584.529	10198.67
584.889	10436.18
585.249	10508.04
585.609	10654.93
585.969	10897.86
586.329	11027.58
586.688	11119.1
587.048	11299.89
587.408	11455.81
587.768	11652.65
588.127	11844.73
588.487	12033.2
588.846	12374.21
589.206	12488.1
589.565	12598.61
589.925	13030.91
590.284	13143.23
590.643	13372.83
591.003	13567.85
591.362	13868.86
591.721	14095.97
592.08	14317.21
592.44	14629.74
592.799	14883.52
593.158	15180.46
593.517	15424.07
593.876	15735.48
594.235	15979.54
594.593	16272.64
594.952	16640.76
595.311	16905.61
595.67	17207.98
596.029	17582.66
596.387	17932.93
596.746	18205.47
597.104	18461.73
597.463	18645.91
597.822	19186.01
598.18	19383.74
598.538	19741.47
598.897	20099.43
599.255	20305.3
599.613	20918.84
599.972	21151.15
600.33	21531.48
600.688	21720.4
601.046	22223.67
601.404	22678.57
601.762	22886.25
602.12	23331.89
602.478	23623.63
602.836	23931.19
603.194	24200.11
603.552	24578.63
603.91	24801.23
604.268	25354.43
604.625	25404.6
604.983	26144.47
605.341	26283
605.698	26693.38
606.056	27055.63
606.413	27219.24
606.771	27738.1
607.128	27996.62
607.485	28154.36
607.843	28513.22
608.2	28920.44
608.557	29300.77
608.914	29535.11
609.272	29780.53
609.629	30173.51
609.986	30586.39
610.343	30679.49
610.7	31015.3
611.057	31296.87
611.414	31629.07
611.771	31785.9
612.127	32058.89
612.484	32435.6
612.841	32676.27
613.198	32822.03
613.554	32878.53
613.911	33406.2
614.267	33566.42
614.624	33687.55
614.98	34025.84
615.337	34359.39
615.693	34365.27
616.05	34548.31
616.406	34908.76
616.762	34907.63
617.118	35208.64
617.475	35510.55
617.831	35701.73
618.187	35826.02
618.543	35988.5
618.899	36351.21
619.255	36439.79
619.611	36501.26
619.967	36824.41
620.323	37033.45
620.678	36974.92
621.034	37121.13
621.39	37203.16
621.746	37361.8
622.101	37900.54
622.457	37624.84
622.812	37784.39
623.168	38012.4
623.523	38045.85
623.879	38385.05
624.234	38117.26
624.589	38473.18
624.945	38505.27
625.3	38767.19
625.655	38673.4
626.01	38809.9
626.365	38901.42
626.72	38911.59
627.075	39164.69
627.43	39264.8
627.785	39024.13
628.14	39280.17
628.495	39328.75
628.85	39367.85
629.205	39329.43
629.559	39794.73
629.914	39595.19
630.269	39713.83
630.623	39638.8
630.978	39610.55
631.332	39862.75
631.687	39959.7
632.041	39832.7
632.396	40175.06
632.75	39905.01
633.104	40004.89
633.459	39906.37
633.813	39931.22
634.167	39999.47
634.521	40018.91
634.875	40067.72
635.229	40153.14
635.583	39931.22
635.937	40005.57
636.291	39998.34
636.645	40042.18
636.999	40081.28
637.352	40149.98
637.706	39973.71
638.06	40081.95
638.413	40167.15
638.767	40160.37
639.121	40138.45
639.474	39940.72
639.828	40050.32
640.181	40241.27
640.534	40263.87
640.888	40268.84
641.241	39931.45
641.594	40147.72
641.947	40177.55
642.301	40231.33
642.654	40128.73
643.007	40320.37
643.36	40122.41
643.713	40203.99
644.066	40212.57
644.419	40112.69
644.771	39829.31
645.124	39438.81
645.477	39423.89
645.83	39164.46
646.182	39094.18
646.535	39180.51
646.888	39237.91
647.24	39129.89
647.593	39306.38
647.945	39340.73
648.298	39120.85
648.65	39138.25
649.002	38966.05
649.355	39143.45
649.707	38984.81
650.059	39172.15
650.411	39741.85
650.763	39680.84
651.115	40136.42
651.467	40108.17
651.819	40178.68
652.171	39993.82
652.523	40045.57
652.875	39974.16
653.227	39845.8
653.578	40098.45
653.93	40094.61
654.282	39928.29
654.633	39860.49
654.985	39928.96
655.337	39942.3
655.688	39893.94
656.039	40083.99
656.391	39858.46
656.742	39853.03
657.094	39867.95
657.445	39869.98
657.796	39994.05
658.147	39768.52
658.498	39820.49
658.849	39954.95
659.2	39732.13
659.551	39910.21
659.902	39880.38
660.253	39959.47
660.604	39878.57
660.955	39765.58
661.306	39773.94
661.656	39781.85
662.007	39995.63
662.358	39883.54
662.708	39951.34
663.059	39998.11
663.409	39695.75
663.76	39958.79
664.11	39872.69
664.461	39841.51
664.811	39836.76
665.161	39893.48
665.511	39847.16
665.862	39915.86
666.212	39844.67
666.562	39961.28
666.912	39784.56
667.262	39818.91
667.612	39805.13
667.962	39822.75
668.312	39856.65
668.662	39942.52
669.011	39813.04
669.361	39854.84
669.711	39767.61
670.06	39758.35
670.41	39704.34
670.76	39635.41
671.109	39720.38
671.459	39769.65
671.808	39686.94
672.157	39912.47
672.507	39538.47
672.856	39428.19
673.205	39537.79
673.554	39641.06
673.904	39602.65
674.253	39822.53
674.602	39677.45
674.951	39142.54
675.3	38920.86
675.649	39499.37
675.998	39515.19
676.346	39446.27
676.695	39546.38
677.044	39349.09
677.393	39405.14
677.741	39513.61
678.09	39284.91
678.438	39309.09
678.787	39204.92
679.135	39298.7
679.484	39064.81
679.832	39216.67
680.181	39088.99
680.529	39226.84
680.877	39122.66
681.225	39099.16
681.573	39292.6
681.922	38995.66
682.27	38785.72
682.618	38956.79
682.966	38729.9
683.314	38841.08
683.661	38701.65
684.009	38696.68
684.357	38527.42
684.705	38499.17
685.053	38465.5
685.4	38495.1
685.748	38282
686.095	38260.08
686.443	38102.12
686.79	38158.84
687.138	38259.18
687.485	38260.76
687.832	38074.1
688.18	38131.72
688.527	37971.95
688.874	37891.28
689.221	37741.68
689.568	37618.06
689.915	37529.71
690.262	37514.11
690.609	37472.53
690.956	37287.9
691.303	37177.17
691.65	37232.31
691.997	37116.83
692.344	36986.67
692.69	36967.91
693.037	36887.46
693.383	36637.07
693.73	36901.93
694.077	36628.94
694.423	36545.32
694.769	36465.55
695.116	36531.54
695.462	36524.53
695.808	36127.48
696.155	36295.61
696.501	36050.87
696.847	36204.32
697.193	35766.81
697.539	35949.41
697.885	35795.97
698.231	35661.51
698.577	35661.05
698.923	35432.13
699.269	35389.2
699.614	35230.56
699.96	35141.97
700.306	35074.85
700.651	35074.18
700.997	34921.86
701.342	34844.35
701.688	34905.82
702.033	34724.13
702.379	34647.52
702.724	34585.6
703.069	34588.09
703.415	34245.95
703.76	34333.18
704.105	34325.04
704.45	34159.17
704.795	34010.93
705.14	33978.16
705.485	33934.77
705.83	33719.86
706.175	33893.42
706.52	33741.1
706.865	33558.28
707.209	33603.93
707.554	33515.57
707.899	33608
708.243	33340.66
708.588	33394.45
708.932	33167.11
709.277	33104.06
709.621	33236.94
709.966	32767.34
710.31	32890.73
710.654	32713.33
710.998	32885.31
711.342	32804.86
711.687	32676.27
712.031	32590.85
712.375	32274.93
712.719	32514.24
713.063	32440.12
713.407	32506.79
713.75	32295.94
714.094	32337.07
714.438	32170.75
714.782	32259.34
715.125	32100.47
715.469	32144.31
715.812	31858.89
716.156	31745.68
716.499	31779.35
716.843	31721.95
717.186	31678.56
717.53	31804.66
717.873	31694.15
718.216	31602.18
718.559	31512.91
718.902	31320.38
719.246	31453.25
719.589	31322.41
719.932	31234.28
720.275	31244.67
720.617	31052.14
720.96	31039.71
721.303	31124.22
721.646	31097.56
721.989	30880.39
722.331	30957.9
722.674	30880.84
723.016	31021.85
723.359	30839.49
723.701	30815.98
724.044	30634.52
724.386	30489.66
724.729	30742.54
725.071	30684.91
725.413	30447.86
725.755	30453.96
726.097	30450.57
726.439	30138.04
726.782	30387.29
727.124	30399.95
727.465	30281.53
727.807	30268.88
728.149	30208.99
728.491	30097.58
728.833	30190.69
729.175	30089.45
729.516	29926.29
729.858	29909.34
730.199	29901.88
730.541	29922.9
730.882	29827.53
731.224	29925.39
731.565	29716.8
731.906	29699.18
732.248	29734.2
732.589	29609.46
732.93	29515
733.271	29578.73
733.612	29480.2
733.953	29755.9
734.294	29417.38
734.635	29443.36
734.976	29533.08
735.317	29227.32
735.658	29222.13
735.999	29170.38
736.339	29107.55
736.68	29312.52
737.021	29110.27
737.361	29074.33
737.702	29136.03
738.042	29035.01
738.383	28936.26
738.723	29005.86
739.063	28960.67
739.404	28998.18
739.744	28931.74
740.084	28803.16
740.424	28890.38
740.764	28811.97
741.104	28858.97
741.444	28661.46
741.784	28509.15
742.124	28671.63
742.464	28546.21
742.804	28666.66
743.143	28464.18
743.483	28550.96
743.823	28451.3
744.162	28364.52
744.502	28489.72
744.841	28134.25
745.181	28387.35
745.52	28315.48
745.86	28317.74
746.199	28297.18
746.538	28110.29
746.877	28306.67
747.216	28144.87
747.556	28098.99
747.895	28149.61
748.234	28063.06
748.573	27925.44
748.911	27897.87
749.25	27932.44
749.589	27867.13
749.928	27867.36
750.267	27758.21
750.605	27787.36
750.944	27775.84
751.283	27687.25
751.621	27745.1
751.96	27455.85
752.298	27500.14
752.636	27545.34
752.975	27348.73
753.313	27295.17
753.651	27471.21
753.989	27241.84
754.327	27273.25
754.666	27057.89
755.004	27234.61
755.342	27178.34
755.679	27052.01
756.017	26956.2
756.355	27014.95
756.693	26819.7
757.031	26952.13
757.368	26784.68
757.706	26734.51
758.044	26659.48
758.381	26675.3
758.719	26554.4
759.056	26575.42
759.394	26391.69
759.731	26273.28
760.068	26313.05
760.405	26158.03
760.743	26101.31
761.08	26266.5
761.417	25944.47
