Data from red_shiny_book_FLMS001491_00081.txt Node
Date: Wed Feb 08 15:25:28 GMT 2017
User: dcchb
Spectrometer: FLMS00149
Trigger mode: 0
Integration Time (sec): 2.000000E-2
Scans to average: 10
Electric dark correction enabled: true
Nonlinearity correction enabled: false
Boxcar width: 0
XAxis mode: Wavelengths
Number of Pixels in Spectrum: 2048
>>>>>Begin Spectral Data<<<<<
341.393	-5.2
341.776	-5.2
342.16	-5.2
342.543	-68.47
342.927	-61.47
343.31	-68.7
343.693	-71.41
344.077	-50.62
344.46	-58.08
344.843	-58.76
345.226	-45.42
345.61	-61.24
345.993	-19.21
346.376	-9.94
346.759	4.52
347.142	31.41
347.525	42.26
347.908	65.99
348.291	81.81
348.674	101.69
349.057	115.7
349.44	146.66
349.823	149.37
350.206	170.84
350.588	181.24
350.971	224.17
351.354	200.67
351.737	233.21
352.119	243.84
352.502	260.78
352.884	290.39
353.267	283.38
353.65	302.59
354.032	304.17
354.414	321.57
354.797	310.73
355.179	307.11
355.562	331.29
355.944	315.7
356.326	334.45
356.709	351.86
357.091	331.06
357.473	345.75
357.855	343.27
358.238	355.92
358.62	346.21
359.002	359.99
359.384	365.87
359.766	320.44
360.148	351.18
360.53	321.57
360.912	341.23
361.294	355.02
361.676	340.56
362.057	342.82
362.439	327.9
362.821	332.87
363.203	339.43
363.584	321.12
363.966	331.52
364.348	332.65
364.729	321.12
365.111	348.69
365.493	332.19
365.874	332.19
366.256	310.95
366.637	324.96
367.019	327.22
367.4	311.86
367.781	320.44
368.163	316.38
368.544	332.42
368.925	301.01
369.306	330.84
369.688	301.69
370.069	291.52
370.45	323.83
370.831	320.9
371.212	321.35
371.593	314.79
371.974	325.42
372.355	319.54
372.736	312.76
373.117	328.58
373.498	326.32
373.879	314.12
374.26	331.97
374.641	324.29
375.021	352.08
375.402	349.82
375.783	343.95
376.163	329.93
376.544	329.48
376.925	329.71
377.305	338.97
377.686	328.13
378.066	322.25
378.447	319.54
378.827	330.16
379.208	327.45
379.588	324.06
379.968	324.96
380.349	331.74
380.729	337.17
381.109	344.62
381.489	343.04
381.87	343.95
382.25	347.11
382.63	362.25
383.01	345.08
383.39	365.19
383.77	335.13
384.15	365.87
384.53	341.23
384.91	345.3
385.29	349.6
385.67	339.88
386.049	344.85
386.429	351.4
386.809	348.01
387.189	349.14
387.568	381.68
387.948	356.6
388.328	367.22
388.707	375.81
389.087	367.9
389.466	364.96
389.846	347.11
390.225	377.84
390.605	366.77
390.984	371.29
391.363	383.04
391.743	373.78
392.122	367.45
392.501	358.86
392.881	381.01
393.26	374.45
393.639	391.85
394.018	369.26
394.397	383.27
394.776	403.61
395.155	376.04
395.534	380.78
395.913	397.73
396.292	393.66
396.671	378.75
397.05	402.7
397.429	392.76
397.808	389.14
398.186	390.72
398.565	403.15
398.944	386.43
399.323	393.44
399.701	404.28
400.08	390.72
400.458	384.4
400.837	404.28
401.215	403.15
401.594	403.38
401.972	409.03
402.351	431.18
402.729	411.06
403.107	408.12
403.486	404.06
403.864	409.25
404.242	421.68
404.62	423.04
404.999	402.02
405.377	417.16
405.755	441.57
406.133	445.19
406.511	445.86
406.889	441.12
407.267	432.98
407.645	456.03
408.023	439.54
408.401	413.32
408.779	445.19
409.156	434.34
409.534	450.84
409.912	480.44
410.29	450.84
410.667	467.78
411.045	449.71
411.422	467.33
411.8	479.08
412.178	482.7
412.555	483.15
412.933	490.83
413.31	473.66
413.687	506.65
414.065	496.26
414.442	516.37
414.819	510.5
415.197	513.43
415.574	508.01
415.951	503.72
416.328	514.11
416.705	515.92
417.082	525.64
417.46	506.43
417.837	539.19
418.214	529.7
418.591	542.58
418.967	531.29
419.344	550.95
419.721	568.8
420.098	556.37
420.475	553.21
420.852	545.07
421.228	545.97
421.605	570.38
421.982	566.76
422.358	586.65
422.735	560.21
423.111	592.75
423.488	564.5
423.864	580.55
424.241	584.39
424.617	578.74
424.994	578.29
425.37	565.63
425.746	597.5
426.123	588.23
426.499	618.29
426.875	632.75
427.251	616.25
427.627	656.71
428.003	640.89
428.379	623.03
428.756	634.11
429.132	649.25
429.507	635.01
429.883	650.83
430.259	626.88
430.635	634.11
431.011	656.48
431.387	687.67
431.763	696.93
432.138	669.81
432.514	684.5
432.89	686.76
433.265	666.2
433.641	707.55
434.016	681.34
434.392	692.86
434.767	682.69
435.143	704.61
435.518	703.71
435.894	713.2
436.269	757.04
436.644	775.12
437.02	739.42
437.395	756.82
437.77	760.88
438.145	735.8
438.52	718.4
438.895	744.39
439.271	750.04
439.646	748.68
440.021	767.89
440.395	807.44
440.77	787.32
441.145	817.83
441.52	810.37
441.895	801.33
442.27	790.94
442.645	781
443.019	777.83
443.394	787.1
443.769	792.3
444.143	801.56
444.518	803.14
444.892	817.61
445.267	834.33
445.641	852.63
446.016	833.2
446.39	852.41
446.764	852.86
447.139	863.93
447.513	806.53
447.887	834.33
448.262	822.13
448.636	842.92
449.01	816.02
449.384	831.84
449.758	867.55
450.132	882.24
450.506	891.5
450.88	886.3
451.254	920.65
451.628	876.14
452.002	907.55
452.376	894.67
452.75	876.14
453.123	865.97
453.497	864.38
453.871	848.57
454.244	906.42
454.618	882.24
454.992	925.4
455.365	933.76
455.739	962.91
456.112	974.89
456.486	970.6
456.859	965.62
457.232	953.42
457.606	937.6
457.979	937.6
458.352	945.29
458.725	950.03
459.099	945.74
459.472	966.3
459.845	978.05
460.218	1000.65
460.591	1016.7
460.964	1060.31
461.337	1054.44
461.71	1045.85
462.083	1031.84
462.456	1018.5
462.829	1009.01
463.201	991.61
463.574	1009.46
463.947	1016.24
464.32	1012.18
464.692	1066.41
465.065	1068.45
465.438	1127.43
465.81	1126.3
466.183	1121.33
466.555	1138.95
466.928	1149.12
467.3	1146.64
467.672	1132.4
468.045	1103.25
468.417	1087.66
468.789	1112.51
469.161	1119.97
469.534	1100.54
469.906	1153.19
470.278	1183.7
470.65	1200.19
471.022	1236.35
471.394	1260.98
471.766	1283.58
472.138	1293.53
472.51	1313.64
472.882	1322.9
473.253	1291.49
473.625	1295.79
473.997	1255.33
474.369	1251.04
474.74	1271.6
475.112	1275.67
475.484	1301.66
475.855	1373.3
476.227	1386.4
476.598	1442.9
476.97	1450.36
477.341	1525.84
477.713	1524.71
478.084	1537.59
478.455	1522.67
478.827	1486.74
479.198	1505.05
479.569	1498.72
479.94	1478.15
480.311	1503.01
480.682	1561.77
481.053	1576.91
481.424	1615.1
481.795	1671.59
482.166	1716.79
482.537	1755.21
482.908	1806.73
483.279	1837.24
483.65	1866.17
484.021	1830.91
484.391	1836.79
484.762	1832.49
485.133	1778.71
485.503	1785.94
485.874	1798.82
486.244	1806.51
486.615	1822.32
486.985	1900.97
487.356	1953.85
487.726	2014.41
488.097	2069.55
488.467	2145.25
488.837	2207.17
489.207	2219.38
489.578	2232.71
489.948	2223.67
490.318	2214.86
490.688	2185.25
491.058	2185.71
491.428	2163.78
491.798	2154.29
492.168	2182.32
492.538	2225.03
492.908	2267.74
493.278	2327.85
493.648	2393.38
494.017	2458.01
494.387	2501.86
494.757	2554.28
495.126	2587.95
495.496	2588.86
495.866	2577.56
496.235	2576.66
496.605	2543.89
496.974	2483.78
497.344	2429.54
497.713	2457.11
498.082	2450.33
498.452	2460.5
498.821	2546.37
499.19	2565.81
499.559	2644
499.928	2695.75
500.298	2785.24
500.667	2812.36
501.036	2844.22
501.405	2858.23
501.774	2824.56
502.143	2815.29
502.512	2771
502.88	2743.88
503.249	2670.44
503.618	2665.47
503.987	2649.2
504.356	2654.39
504.724	2639.7
505.093	2641.06
505.462	2737.33
505.83	2811.23
506.199	2875.86
506.567	2964.22
506.936	2975.06
507.304	3092.12
507.672	3084.66
508.041	3067.26
508.409	2999.02
508.777	2975.97
509.145	2934.84
509.514	2867.04
509.882	2813.94
510.25	2786.37
510.618	2791.34
510.986	2781.62
511.354	2783.43
511.722	2890.55
512.09	2921.28
512.458	2988.17
512.826	3069.3
513.193	3116.75
513.561	3150.88
513.929	3202.4
514.297	3233.59
514.664	3218.45
515.032	3170.31
515.4	3119.24
515.767	3095.74
516.135	3043.54
516.502	2951.79
516.869	2975.06
517.237	2893.48
517.604	2907.49
517.972	2952.01
518.339	3005.8
518.706	3048.73
519.073	3099.35
519.44	3201.05
519.808	3260.25
520.175	3317.43
520.542	3400.59
520.909	3422.51
521.276	3381.83
521.643	3321.49
522.009	3339.35
522.376	3274.72
522.743	3239.91
523.11	3181.84
523.477	3109.97
523.843	3061.84
524.21	3093.03
524.577	3104.78
524.943	3159.24
525.31	3227.94
525.676	3327.82
526.043	3447.59
526.409	3473.58
526.776	3650.3
527.142	3662.28
527.508	3726
527.874	3718.32
528.241	3738.43
528.607	3714.93
528.973	3674.03
529.339	3573.01
529.705	3554.71
530.071	3514.94
530.437	3476.07
530.803	3424.77
531.169	3407.59
531.535	3464.99
531.901	3498.67
532.267	3550.87
532.632	3675.16
532.998	3751.54
533.364	3890.75
533.73	4029.95
534.095	4064.98
534.461	4140.68
534.826	4203.51
535.192	4201.02
535.557	4183.62
535.923	4123.06
536.288	4052.1
536.653	4011.87
537.019	3923.96
537.384	3854.81
537.749	3819.33
538.114	3820.01
538.479	3792.67
538.845	3845.1
539.21	3939.11
539.575	3981.14
539.94	4092.32
540.305	4253
540.67	4354.24
541.034	4415.03
541.399	4507.45
541.764	4565.3
542.129	4611.18
542.494	4619.99
542.858	4568.47
543.223	4549.94
543.587	4457.74
543.952	4389.94
544.316	4264.97
544.681	4252.09
545.045	4232.88
545.41	4197.18
545.774	4173.9
546.138	4206.9
546.503	4237.85
546.867	4318.53
547.231	4452.09
547.595	4473.1
547.959	4620.44
548.324	4711.51
548.688	4843.04
549.052	4889.36
549.416	4909.25
549.779	4958.51
550.143	4935.01
550.507	4924.16
550.871	4864.5
551.235	4776.6
551.599	4661.12
551.962	4544.51
552.326	4489.15
552.689	4441.47
553.053	4381.58
553.417	4349.72
553.78	4409.83
554.143	4427.68
554.507	4502.48
554.87	4594.23
555.234	4721.46
555.597	4830.83
555.96	4899.31
556.323	5066.99
556.686	5134.1
557.05	5160.99
557.413	5265.62
557.776	5201.45
558.139	5152.41
558.502	5116.7
558.865	5023.14
559.228	4953.32
559.59	4858.18
559.953	4759.2
560.316	4722.14
560.679	4662.48
561.041	4603.49
561.404	4631.97
561.767	4659.76
562.129	4694.57
562.492	4845.07
562.854	4931.85
563.217	5017.72
563.579	5175.23
563.941	5270.82
564.304	5351.95
564.666	5500.42
565.028	5504.04
565.39	5586.97
565.753	5552.4
566.115	5567.76
566.477	5506.97
566.839	5429.24
567.201	5350.14
567.563	5212.52
567.925	5147.44
568.287	5007.1
568.648	4928.23
569.01	4961.9
569.372	4910.83
569.734	4942.69
570.095	5018.85
570.457	5122.35
570.819	5250.94
571.18	5391.95
571.542	5552.17
571.903	5654.99
572.265	5759.62
572.626	5908.32
572.987	5969.56
573.349	6025.6
573.71	6128.65
574.071	6114.19
574.432	6093.4
574.794	6068.77
575.155	5980.18
575.516	5930.01
575.877	5873.97
576.238	5771.6
576.599	5777.02
576.96	5764.14
577.32	5740.87
577.681	5805.95
578.042	5868.77
578.403	5975.44
578.763	6147.63
579.124	6373.84
579.485	6590.56
579.845	6756.43
580.206	7032.36
580.566	7292.92
580.927	7485.45
581.287	7744.66
581.648	7971.99
582.008	8136.74
582.368	8347.8
582.728	8483.62
583.089	8589.38
583.449	8705.53
583.809	8872.54
584.169	9024.17
584.529	9058.97
584.889	9325.86
585.249	9438.4
585.609	9634.1
585.969	9880.64
586.329	10154.76
586.688	10542.55
587.048	10916.55
587.408	11341.17
587.768	11711.33
588.127	12265.89
588.487	12741.36
588.846	13248.01
589.206	13613.2
589.565	14110.14
589.925	14701.99
590.284	15045.71
590.643	15543.55
591.003	15913.03
591.362	16302.17
591.721	16698.54
592.08	17053.56
592.44	17369.94
592.799	17783.04
593.158	18060.77
593.517	18331.04
593.876	18673.18
594.235	18999.73
594.593	19332.82
594.952	19828.63
595.311	20275.17
595.67	20651.66
596.029	21332.55
596.387	21917.16
596.746	22428.34
597.104	22923.69
597.463	23330.23
597.822	24125.92
598.18	24546.02
598.538	24989.85
598.897	25741.47
599.255	25893.1
599.613	26762.46
599.972	26940.08
600.33	27454.42
600.688	27674.53
601.046	28026.61
601.404	28447.84
601.762	28617.33
602.12	29041.72
602.478	29475.16
602.836	29492.78
603.194	29686.9
603.552	30005.54
603.91	30216.83
604.268	30659.53
604.625	30948.34
604.983	31608.43
605.341	31644.14
605.698	32281.64
606.056	32694.51
606.413	33099.69
606.771	33757.98
607.128	34080.23
607.485	34449.26
607.843	34650.39
608.2	35245.85
608.557	35590.02
608.914	35918.15
609.272	36281.98
609.629	36606.5
609.986	36931.01
610.343	36802.2
610.7	37126.71
611.057	37334.84
611.414	37374.61
611.771	37432.69
612.127	37589.52
612.484	37739.12
612.841	37818.21
613.198	37806.69
613.554	38041.94
613.911	38272.89
614.267	38526.67
614.624	38690.28
614.98	39044.85
615.337	39428.12
615.693	39668.79
616.05	39744.49
616.406	40374.53
616.762	40441.87
617.118	40537.01
617.475	40868.98
617.831	41189.43
618.187	41484.56
618.543	41495.86
618.899	41957.99
619.255	41952.57
619.611	41884.1
619.967	42177.2
620.323	42074.6
620.678	41913.93
621.034	41859.92
621.39	41789.18
621.746	41935.62
622.101	42284.99
622.457	41841.84
622.812	41984.43
623.168	42007.71
623.523	42066.69
623.879	42306.68
624.234	42164.32
624.589	42318.21
624.945	42532.44
625.3	42781.25
625.655	42780.34
626.01	43018.3
626.365	43263.5
626.72	43274.57
627.075	43577.39
627.43	43460.1
627.785	43565.41
628.14	43832.52
628.495	43952.74
628.85	43797.72
629.205	43682.69
629.559	44021.89
629.914	43685.41
630.269	43617.61
630.623	43553.21
630.978	43421.46
631.332	43493.77
631.687	43473.21
632.041	43208.58
632.396	43233.89
632.75	42862.38
633.104	43048.36
633.459	42763.4
633.813	42870.74
634.167	42934.92
634.521	42956.38
634.875	43105.76
635.229	43212.42
635.583	43121.8
635.937	43218.52
636.291	43272.99
636.645	43472.76
636.999	43506.88
637.352	43582.13
637.706	43450.83
638.06	43684.28
638.413	43734.44
638.767	43465.98
639.121	43684.73
639.474	43522.47
639.828	43442.47
640.181	43450.61
640.534	43320.22
640.888	43164.29
641.241	43004.52
641.594	42863.28
641.947	42837.29
642.301	42616.28
642.654	42651.99
643.007	42510.97
643.36	42459
643.713	42302.39
644.066	42538.09
644.419	42234.6
644.771	42023.75
645.124	41682.97
645.477	41589.64
645.83	41469.42
646.182	41489.08
646.535	41487.5
646.888	41742.18
647.24	41562.3
647.593	41914.38
647.945	41837.09
648.298	41743.31
648.65	41763.2
649.002	41701.05
649.355	41915.73
649.707	41698.56
650.059	41740.82
650.411	42212
650.763	42177.42
651.115	42414.25
651.467	42198.89
651.819	42247.48
652.171	41918.22
652.523	41708.06
652.875	41652.69
653.227	41337.22
653.578	41645.23
653.93	41527.95
654.282	41240.95
654.633	41214.06
654.985	41387.84
655.337	41285.47
655.688	41307.84
656.039	41555.29
656.391	41350.1
656.742	41395.07
657.094	41662.41
657.445	41851.1
657.796	41745.79
658.147	41729.3
658.498	41729.75
658.849	42028.27
659.2	41971.33
659.551	41880.03
659.902	42136.07
660.253	42007.48
660.604	42019.23
660.955	41891.55
661.306	41999.8
661.656	41746.25
662.007	41652.69
662.358	41618.79
662.708	41592.13
663.059	41235.3
663.409	41032.37
663.76	41290.44
664.11	41146.04
664.461	41234.62
664.811	40964.35
665.161	40810.9
665.511	40754.18
665.862	40733.39
666.212	40822.2
666.562	40941.75
666.912	40885.93
667.262	40834.41
667.612	40819.04
667.962	41087.28
668.312	40928.19
668.662	41239.14
669.011	41229.2
669.361	41308.29
669.711	41351
670.06	41301.96
670.41	41362.08
670.76	41320.27
671.109	41525.01
671.459	41418.35
671.808	41305.35
672.157	41578.34
672.507	41087.06
672.856	41225.81
673.205	41133.83
673.554	41079.15
673.904	40860.85
674.253	40985.59
674.602	40709.66
674.951	40128.21
675.3	39727.99
675.649	40387.86
675.998	40252.27
676.346	40250.92
676.695	40254.31
677.044	39871.04
677.393	40116.69
677.741	40073.52
678.09	39920.31
678.438	39981.32
678.787	40097.25
679.135	40120.75
679.484	39957.37
679.832	40104.26
680.181	40111.04
680.529	40188.77
680.877	40142
681.225	40203.91
681.573	40447.98
681.922	40376.79
682.27	40275.33
682.618	40398.03
682.966	40147.87
683.314	40272.84
683.661	40228.77
684.009	39960.53
684.357	39991.04
684.705	39671.5
685.053	39796.92
685.4	39609.35
685.748	39309.25
686.095	39282.36
686.443	38936.6
686.79	38863.84
687.138	38838.3
687.485	38775.25
687.832	38673.56
688.18	38508.82
688.527	38184.53
688.874	38224.76
689.221	38059.34
689.568	38045.33
689.915	37983.63
690.262	37971.2
690.609	37969.4
690.956	37869.51
691.303	37921.49
691.65	37832.9
691.997	37882.17
692.344	37875.61
692.69	37799.23
693.037	37883.98
693.383	37559.46
693.73	37809.4
694.077	37653.93
694.423	37691.89
694.769	37563.08
695.116	37684.88
695.462	37472.46
695.808	37379.81
696.155	37334.61
696.501	37078.8
696.847	37023.89
697.193	36780.95
697.539	36798.81
697.885	36440.17
698.231	36313.62
698.577	36138.03
698.923	36035.66
699.269	35867.53
699.614	35608.1
699.96	35383.25
700.306	35417.6
700.651	35203.14
700.997	35147.32
701.342	35042.47
701.688	35007.44
702.033	35017.38
702.379	34891.74
702.724	34764.06
703.069	35003.6
703.415	34535.36
703.76	34682.48
704.105	34735.36
704.45	34680.9
704.795	34632.31
705.14	34592.31
705.485	34611.75
705.83	34540.56
706.175	34689.26
706.52	34551.86
706.865	34601.12
707.209	34425.08
707.554	34360.9
707.899	34470.28
708.243	34282.49
708.588	34116.17
708.932	34009.05
709.277	33843.18
709.621	33901.26
709.966	33592.11
710.31	33593.92
710.654	33251.78
710.998	33254.94
711.342	33187.6
711.687	33059.24
712.031	32696.54
712.375	32602.08
712.719	32581.52
713.063	32504.91
713.407	32535.64
713.75	32287.74
714.094	32291.35
714.438	32085.03
714.782	32210.9
715.125	32145.82
715.469	32153.05
715.812	31932.49
716.156	31860.18
716.499	31855.66
716.843	32108.99
717.186	31916.22
717.53	32237.12
717.873	32181.53
718.216	32187.18
718.559	32162.77
718.902	31850.46
719.246	31984.7
719.589	32099.27
719.932	31886.85
720.275	31904.25
720.617	31966.17
720.96	31760.97
721.303	31818.37
721.646	31805.94
721.989	31565.72
722.331	31651.6
722.674	31428.78
723.016	31311.04
723.359	31283.7
723.701	31191.04
724.044	31063.14
724.386	30696.82
724.729	30794.67
725.071	30627.9
725.413	30634.9
725.755	30425.19
726.097	30431.52
726.439	30205.08
726.782	30119.43
727.124	30161.24
727.465	29910.85
727.807	29983.39
728.149	29892.77
728.491	29795.6
728.833	29970.74
729.175	29862.94
729.516	29745.66
729.858	29723.96
730.199	29856.16
730.541	29832.21
730.882	29825.66
731.224	30013.22
731.565	29865.66
731.906	30054.13
732.248	30058.87
732.589	29955.82
732.93	29845.99
733.271	29996.27
733.612	30070.85
733.953	29959.44
734.294	29846.22
734.635	29659.79
734.976	29857.75
735.317	29707.69
735.658	29694.59
735.999	29631.31
736.339	29532.33
736.68	29498.43
737.021	29246.91
737.361	29049.63
737.702	29130.99
738.042	29079.24
738.383	28908.17
738.723	29030.88
739.063	28756.31
739.404	28748.4
739.744	28650.09
740.084	28483.09
740.424	28518.8
740.764	28369.65
741.104	28480.83
741.444	28192.71
741.784	28175.08
742.124	28330.78
742.464	28187.73
742.804	28135.98
743.143	28075.65
743.483	28150.67
743.823	27917.01
744.162	28109.54
744.502	28140.5
744.841	28027.74
745.181	28318.35
745.52	28195.87
745.86	28232.93
746.199	28136.89
746.538	28248.52
746.877	28265.7
747.216	28300.5
747.556	28259.37
747.895	28279.03
748.234	28033.84
748.573	27998.81
748.911	28003.56
749.25	27922.66
749.589	27760.63
749.928	27878.59
750.267	27786.61
750.605	27698.03
750.944	27643.11
751.283	27468.88
751.621	27506.17
751.96	27223.01
752.298	27113.41
752.636	27142.79
752.975	26886.3
753.313	26823.25
753.651	26766.53
753.989	26566.76
754.327	26523.37
754.666	26282.25
755.004	26359.08
755.342	26348.01
755.679	26273.21
756.017	26075.02
756.355	26164.06
756.693	26008.36
757.031	26070.73
757.368	25868.92
757.706	25946.89
758.044	25885.2
758.381	25884.07
758.719	25951.86
759.056	25947.11
759.394	25910.51
759.731	25770.85
760.068	25834.35
760.405	25705.54
760.743	25827.57
761.08	25774.46
761.417	25649.95
