Data from red_cardboard_box_FLMS001491_00034.txt Node
Date: Wed Feb 08 11:32:05 GMT 2017
User: dcchb
Spectrometer: FLMS00149
Trigger mode: 0
Integration Time (sec): 2.000000E-2
Scans to average: 10
Electric dark correction enabled: true
Nonlinearity correction enabled: false
Boxcar width: 0
XAxis mode: Wavelengths
Number of Pixels in Spectrum: 2048
>>>>>Begin Spectral Data<<<<<
341.393	-24.67
341.776	-24.67
342.16	-24.67
342.543	-55.86
342.927	-67.39
343.31	-82.07
343.693	-65.8
344.077	-56.31
344.46	-80.04
344.843	-65.35
345.226	-45.46
345.61	-11.79
345.993	-18.57
346.376	-15.86
346.759	13.74
347.142	16
347.525	42.44
347.908	51.03
348.291	99.84
348.674	114.53
349.057	103.68
349.44	126.73
349.823	157.24
350.206	171.93
350.588	205.15
350.971	229.1
351.354	232.49
351.737	247.41
352.119	243.57
352.502	254.19
352.884	274.07
353.267	295.09
353.65	301.87
354.032	318.59
354.414	302.55
354.797	301.19
355.179	296.67
355.562	314.3
355.944	338.93
356.326	331.47
356.709	333.28
357.091	356.78
357.473	332.83
357.855	340.97
358.238	328.76
358.62	324.47
359.002	354.52
359.384	328.08
359.766	341.64
360.148	353.17
360.53	328.08
360.912	331.25
361.294	321.76
361.676	331.7
362.057	332.38
362.439	323.34
362.821	338.25
363.203	326.5
363.584	321.08
363.966	311.36
364.348	312.49
364.729	314.07
365.111	320.85
365.493	328.76
365.874	322.21
366.256	345.26
366.637	310.01
367.019	323.34
367.4	326.73
367.781	312.04
368.163	294.19
368.544	336.22
368.925	312.27
369.306	303.68
369.688	303.9
370.069	307.75
370.45	312.04
370.831	306.62
371.212	307.52
371.593	326.28
371.974	332.6
372.355	318.37
372.736	299.61
373.117	329.21
373.498	305.03
373.879	316.79
374.26	333.51
374.641	305.49
375.021	320.63
375.402	314.3
375.783	322.66
376.163	312.04
376.544	314.75
376.925	338.93
377.305	331.93
377.686	321.31
378.066	330.57
378.447	326.73
378.827	323.79
379.208	330.34
379.588	324.69
379.968	328.31
380.349	322.44
380.729	329.44
381.109	321.76
381.489	338.71
381.87	334.19
382.25	329.44
382.63	342.77
383.01	333.06
383.39	329.21
383.77	325.15
384.15	332.6
384.53	357.91
384.91	343.9
385.29	342.55
385.67	337.58
386.049	337.35
386.429	335.99
386.809	336.9
387.189	333.28
387.568	332.83
387.948	335.09
388.328	363.34
388.707	344.58
389.087	359.95
389.466	348.2
389.846	349.78
390.225	368.08
390.605	349.33
390.984	341.19
391.363	356.78
391.743	346.84
392.122	360.17
392.501	352.49
392.881	358.14
393.26	327.86
393.639	353.39
394.018	350.68
394.397	353.62
394.776	345.03
395.155	354.52
395.534	341.64
395.913	359.72
396.292	362.43
396.671	369.44
397.05	387.74
397.429	344.81
397.808	387.52
398.186	366.28
398.565	363.34
398.944	378.03
399.323	375.99
399.701	368.31
400.08	376.67
400.458	358.82
400.837	366.28
401.215	371.93
401.594	356.33
401.972	374.19
402.351	383
402.729	387.29
403.107	391.59
403.486	378.93
403.864	386.61
404.242	381.19
404.62	384.35
404.999	382.09
405.377	386.84
405.755	371.02
406.133	403.56
406.511	415.54
406.889	403.56
407.267	402.21
407.645	371.7
408.023	390.91
408.401	389.55
408.779	401.75
409.156	402.43
409.534	404.24
409.912	413.28
410.29	406.95
410.667	410.12
411.045	410.12
411.422	410.57
411.8	410.34
412.178	416.44
412.555	418.03
412.933	394.52
413.31	425.26
413.687	408.76
414.065	431.81
414.442	421.42
414.819	431.81
415.197	424.35
415.574	418.93
415.951	422.55
416.328	406.27
416.705	405.37
417.082	425.03
417.46	453.51
417.837	410.57
418.214	412.83
418.591	447.86
418.967	452.38
419.344	439.27
419.721	454.63
420.098	465.71
420.475	483.56
420.852	467.97
421.228	450.57
421.605	472.04
421.982	456.67
422.358	447.63
422.735	464.35
423.111	461.87
423.488	462.09
423.864	451.25
424.241	463.9
424.617	478.59
424.994	470.91
425.37	469.32
425.746	482.43
426.123	483.79
426.499	465.03
426.875	464.35
427.251	497.35
427.627	485.14
428.003	482.66
428.379	475.2
428.756	486.72
429.132	488.31
429.507	499.15
429.883	510
430.259	503
430.635	532.6
431.011	522.88
431.387	520.85
431.763	497.12
432.138	497.57
432.514	517.68
432.89	524.92
433.265	514.52
433.641	533.73
434.016	516.33
434.392	536.21
434.767	555.2
435.143	530.11
435.518	538.25
435.894	542.99
436.269	544.8
436.644	549.55
437.02	549.32
437.395	547.51
437.77	556.78
438.145	571.92
438.52	553.39
438.895	579.38
439.271	559.72
439.646	549.77
440.021	577.8
440.395	574.86
440.77	577.12
441.145	585.93
441.52	606.27
441.895	594.52
442.27	605.59
442.645	592.48
443.019	596.78
443.394	583.22
443.769	607.63
444.143	600.62
444.518	618.47
444.892	606.5
445.267	610.11
445.641	586.16
446.016	608.76
446.39	609.21
446.764	607.4
447.139	605.59
447.513	618.25
447.887	611.02
448.262	602.2
448.636	619.38
449.01	627.06
449.384	641.3
449.758	636.55
450.132	635.65
450.506	640.62
450.88	655.99
451.254	647.62
451.628	648.75
452.002	643.78
452.376	663.67
452.75	674.74
453.123	658.25
453.497	653.95
453.871	675.87
454.244	668.41
454.618	670.22
454.992	678.36
455.365	673.39
455.739	695.98
456.112	680.62
456.486	707.96
456.859	675.87
457.232	690.33
457.606	700.28
457.979	725.81
458.352	728.98
458.725	713.39
459.099	733.95
459.472	734.18
459.845	743.44
460.218	761.52
460.591	736.44
460.964	750.9
461.337	765.14
461.71	757.68
462.083	764.91
462.456	773.04
462.829	791.35
463.201	781.63
463.574	776.89
463.947	795.87
464.32	799.48
464.692	818.24
465.065	821.86
465.438	845.81
465.81	820.73
466.183	825.92
466.555	818.69
466.928	835.19
467.3	828.41
467.672	849.43
468.045	843.55
468.417	860.05
468.789	874.06
469.161	863.44
469.534	884.45
469.906	861.86
470.278	882.19
470.65	899.59
471.022	904.57
471.394	919.26
471.766	952.02
472.138	935.53
472.51	945.24
472.882	951.12
473.253	981.85
473.625	985.92
473.997	968.29
474.369	1026.82
474.74	976.66
475.112	1017.78
475.484	1047.39
475.855	1048.52
476.227	1042.42
476.598	1076.09
476.97	1046.94
477.341	1059.82
477.713	1086.03
478.084	1087.39
478.455	1103.43
478.827	1123.77
479.198	1146.82
479.569	1110.44
479.94	1169.19
480.311	1171.23
480.682	1215.52
481.053	1236.54
481.424	1270.21
481.795	1242.86
482.166	1229.76
482.537	1252.13
482.908	1284.67
483.279	1292.8
483.65	1287.38
484.021	1347.27
484.391	1371.45
484.762	1365.12
485.133	1333.03
485.503	1375.51
485.874	1405.57
486.244	1411.22
486.615	1405.34
486.985	1452.8
487.356	1477.21
487.726	1467.26
488.097	1477.66
488.467	1495.51
488.837	1547.26
489.207	1536.64
489.578	1559.24
489.948	1544.55
490.318	1585.45
490.688	1600.37
491.058	1619.58
491.428	1633.14
491.798	1649.63
492.168	1673.81
492.538	1681.72
492.908	1693.47
493.278	1721.72
493.648	1706.13
494.017	1718.1
494.387	1768.05
494.757	1763.08
495.126	1800.81
495.496	1778.44
495.866	1801.04
496.235	1817.31
496.605	1846.46
496.974	1872.9
497.344	1834.71
497.713	1866.58
498.082	1910.42
498.452	1901.38
498.821	1910.87
499.19	1902.73
499.559	1897.53
499.928	1930.3
500.298	1963.3
500.667	1960.36
501.036	1980.47
501.405	1982.28
501.774	2005.78
502.143	2010.53
502.512	2032.67
502.88	2017.53
503.249	2047.81
503.618	2044.2
503.987	2052.33
504.356	2104.08
504.724	2076.97
505.093	2088.49
505.462	2086
505.83	2093.24
506.199	2133.69
506.567	2194.02
506.936	2184.76
507.304	2205.1
507.672	2196.74
508.041	2210.07
508.409	2211.42
508.777	2272.89
509.145	2242.61
509.514	2269.28
509.882	2282.61
510.25	2279.45
510.618	2284.87
510.986	2330.29
511.354	2367.58
511.722	2391.53
512.09	2365.09
512.458	2383.85
512.826	2416.39
513.193	2405.32
513.561	2405.32
513.929	2419.33
514.297	2473.11
514.664	2479.44
515.032	2471.08
515.4	2476.73
515.767	2487.58
516.135	2553.56
516.502	2527.35
516.869	2567.8
517.237	2576.16
517.604	2572.55
517.972	2596.73
518.339	2639.21
518.706	2641.47
519.073	2634.24
519.44	2657.97
519.808	2667.91
520.175	2703.16
520.542	2716.27
520.909	2760.56
521.276	2748.36
521.643	2789.71
522.009	2807.79
522.376	2824.29
522.743	2822.03
523.11	2826.32
523.477	2852.76
523.843	2902.48
524.21	2949.26
524.577	2939.54
524.943	2945.19
525.31	3019.09
525.676	2984.29
526.043	3033.55
526.409	3021.12
526.776	3058.63
527.142	3038.97
527.508	3125.53
527.874	3104.73
528.241	3152.64
528.607	3144.73
528.973	3177.28
529.339	3189.93
529.705	3242.13
530.071	3242.58
530.437	3242.81
530.803	3279.65
531.169	3325.52
531.535	3293.88
531.901	3294.79
532.267	3332.3
532.632	3359.87
532.998	3380.89
533.364	3412.52
533.73	3410.49
534.095	3422.47
534.461	3455.01
534.826	3454.56
535.192	3500.88
535.557	3551.95
535.923	3532.52
536.288	3551.73
536.653	3568.9
537.019	3545.4
537.384	3549.47
537.749	3587.89
538.114	3643.03
538.479	3597.15
538.845	3611.61
539.21	3670.6
539.575	3647.32
539.94	3687.77
540.305	3650.48
540.67	3676.7
541.034	3733.42
541.399	3714.89
541.764	3726.41
542.129	3804.15
542.494	3844.83
542.858	3786.75
543.223	3816.13
543.587	3856.35
543.952	3826.98
544.316	3866.75
544.681	3834.21
545.045	3879.4
545.41	3931.61
545.774	3941.55
546.138	3941.55
546.503	3970.7
546.867	3973.86
547.231	4032.39
547.595	4041.89
547.959	4037.14
548.324	4049.79
548.688	4069
549.052	4065.39
549.416	4085.5
549.779	4108.32
550.143	4147.42
550.507	4184.93
550.871	4167.76
551.235	4192.62
551.599	4226.97
551.962	4284.14
552.326	4262.44
552.689	4332.05
553.053	4320.3
553.417	4316
553.78	4390.58
554.143	4390.12
554.507	4416.79
554.87	4449.78
555.234	4511.03
555.597	4471.93
555.96	4541.31
556.323	4532.04
556.686	4570.68
557.05	4588.54
557.413	4582.44
557.776	4619.05
558.139	4696.56
558.502	4681.42
558.865	4736.78
559.228	4803.9
559.59	4827.4
559.953	4862.88
560.316	4869.66
560.679	4856.1
561.041	4968.41
561.404	4981.3
561.767	5023.78
562.129	5009.77
562.492	5076.43
562.854	5136.09
563.217	5130.44
563.579	5189.43
563.941	5261.97
564.304	5254.28
564.666	5341.96
565.028	5336.99
565.39	5412.02
565.753	5452.47
566.115	5472.81
566.477	5557.33
566.839	5586.48
567.201	5604.1
567.563	5615.18
567.925	5754.38
568.287	5750.09
568.648	5810.65
569.01	5900.14
569.372	5901.72
569.734	5953.7
570.095	6017.2
570.457	6120.7
570.819	6151.89
571.18	6150.76
571.542	6212.68
571.903	6272.11
572.265	6376.29
572.626	6344.42
572.987	6415.16
573.349	6447.7
573.71	6527.47
574.071	6656.28
574.432	6653.57
574.794	6790.06
575.155	6817.18
575.516	6860.79
575.877	6944.63
576.238	7004.07
576.599	7094.23
576.96	7096.49
577.32	7209.03
577.681	7260.56
578.042	7338.97
578.403	7401.57
578.763	7469.37
579.124	7585.97
579.485	7759.08
579.845	7778.28
580.206	7875.91
580.566	7957.04
580.927	8004.04
581.287	8214.43
581.648	8265.05
582.008	8387.76
582.368	8497.14
582.728	8598.15
583.089	8755.89
583.449	8796.79
583.809	8935.32
584.169	9038.14
584.529	9126.72
584.889	9328.98
585.249	9462.53
585.609	9574.4
585.969	9773.94
586.329	9893.48
586.688	10038.56
587.048	10186.58
587.408	10310.2
587.768	10472.68
588.127	10643.07
588.487	10820.92
588.846	11100.46
589.206	11196.95
589.565	11430.39
589.925	11666.54
590.284	11800.1
590.643	12000.55
591.003	12290.93
591.362	12495.45
591.721	12658.61
592.08	12853.18
592.44	13183.34
592.799	13334.75
593.158	13592.82
593.517	13828.52
593.876	14126.82
594.235	14289.07
594.593	14683.41
594.952	14746.69
595.311	15028.26
595.67	15378.76
596.029	15710.28
596.387	15977.84
596.746	16253.09
597.104	16432.75
597.463	16754.55
597.822	17101.65
598.18	17207.87
598.538	17506.16
598.897	17971.69
599.255	18077
599.613	18656.19
599.972	18824.77
600.33	19121.71
600.688	19261.37
601.046	19664.3
601.404	20067
601.762	20325.98
602.12	20649.13
602.478	20990.82
602.836	21250.7
603.194	21407.08
603.552	21792.15
603.91	21951.47
604.268	22346.04
604.625	22573.6
604.983	22954.61
605.341	23111.89
605.698	23518.21
606.056	23765.66
606.413	24104.18
606.771	24389.82
607.128	24678.18
607.485	24701.46
607.843	24988.45
608.2	25378.5
608.557	25772.84
608.914	25830.92
609.272	26241.3
609.629	26519.26
609.986	26754.51
610.343	26940.27
610.7	27304.1
611.057	27403.98
611.414	27553.13
611.771	27786.57
612.127	28064.98
612.484	28289.38
612.841	28478.08
613.198	28607.34
613.554	28876.94
613.911	29184.05
614.267	29212.97
614.624	29441.22
614.98	29621.33
615.337	29911.71
615.693	29886.4
616.05	30180.63
616.406	30316.67
616.762	30433.51
617.118	30658.13
617.475	30836.43
617.831	31086.37
618.187	31118.01
618.543	31327.27
618.899	31608.17
619.255	31583.31
619.611	31796.41
619.967	31949.17
620.323	32135.16
620.678	32204.76
621.034	32233.23
621.39	32269.39
621.746	32446.56
622.101	32799.1
622.457	32757.29
622.812	32863.5
623.168	33010.62
623.523	33099.2
623.879	33346.2
624.234	33201.34
624.589	33347.1
624.945	33461.45
625.3	33681.78
625.655	33609.24
626.01	33736.25
626.365	33758.17
626.72	33934.21
627.075	33988.44
627.43	33921.33
627.785	34034.09
628.14	34080.42
628.495	34266.85
628.85	34246.06
629.205	34231.83
629.559	34434.31
629.914	34296.46
630.269	34367.64
630.623	34336
630.978	34460.52
631.332	34623
631.687	34755.2
632.041	34409.45
632.396	34611.7
632.75	34574.87
633.104	34672.04
633.459	34564.92
633.813	34499.39
634.167	34590.23
634.521	34648.09
634.875	34639.95
635.229	34625.94
635.583	34564.92
635.937	34588.2
636.291	34773.05
636.645	34625.49
636.999	34526.06
637.352	34767.63
637.706	34551.59
638.06	34683.57
638.413	34640.18
638.767	34568.09
639.121	34827.06
639.474	34553.4
639.828	34664.81
640.181	34781.87
640.534	34777.8
640.888	34664.36
641.241	34551.59
641.594	34618.26
641.947	34687.41
642.301	34625.04
642.654	34649.44
643.007	34736.22
643.36	34746.16
643.713	34795.2
644.066	34901.41
644.419	34687.86
644.771	34387.08
645.124	33949.35
645.477	34133.98
645.83	33826.19
646.182	33756.36
646.535	33881.78
646.888	33894.89
647.24	33750.48
647.593	33957.03
647.945	33825.06
648.298	33896.24
648.65	33760.43
649.002	33761.56
649.355	33813.31
649.707	33700.77
650.059	33807.2
650.411	34326.29
650.763	34328.09
651.115	34676.56
651.467	34590.01
651.819	34684.92
652.171	34545.04
652.523	34578.94
652.875	34557.92
653.227	34412.39
653.578	34712.27
653.93	34547.75
654.282	34500.29
654.633	34355.21
654.985	34581.2
655.337	34439.5
655.688	34334.2
656.039	34686.73
656.391	34357.02
656.742	34339.62
657.094	34486.06
657.445	34500.29
657.796	34441.54
658.147	34437.92
658.498	34383.69
658.849	34508.2
659.2	34328.32
659.551	34232.96
659.902	34498.49
660.253	34306.63
660.604	34300.07
660.955	34307.53
661.306	34354.76
661.656	34528.09
662.007	34468.88
662.358	34395.89
662.708	34445.15
663.059	34371.71
663.409	34291.26
663.76	34413.29
664.11	34480.63
664.461	34571.7
664.811	34495.32
665.161	34423.91
665.511	34465.27
665.862	34444.02
666.212	34718.59
666.562	34532.16
666.912	34475.66
667.262	34512.27
667.612	34489.67
667.962	34506.17
668.312	34417.81
668.662	34655.54
669.011	34371.71
669.361	34484.25
669.711	34280.19
670.06	34351.14
670.41	34371.71
670.76	34238.15
671.109	34396.12
671.459	34221.2
671.808	34330.81
672.157	34420.52
672.507	34058.05
672.856	34216.69
673.205	34202.22
673.554	34283.58
673.904	34132.85
674.253	34364.25
674.602	34178.49
674.951	33740.31
675.3	33651.5
675.649	34123.58
675.998	34064.6
676.346	34191.6
676.695	34209
677.044	33898.28
677.393	34195.89
677.741	34181.43
678.09	34036.58
678.438	33928.56
678.787	34038.61
679.135	34100.76
679.484	33804.72
679.832	33980.99
680.181	33744.16
680.529	33821.67
680.877	33750.93
681.225	33639.3
681.573	33876.81
681.922	33671.16
682.27	33511.17
682.618	33602.46
682.966	33451.28
683.314	33530.6
683.661	33433.43
684.009	33374.45
684.357	33294.45
684.705	33166.09
685.053	33178.07
685.4	33140.78
685.748	32954.12
686.095	32901.92
686.443	32911.63
686.79	32689.72
687.138	32848.81
687.485	33000.9
687.832	32788.25
688.18	32773.56
688.527	32651.3
688.874	32585.77
689.221	32455.15
689.568	32351.88
689.915	32452.66
690.262	32402.27
690.609	32230.3
690.956	32087.7
691.303	32122.95
691.65	32018.55
691.997	31871.44
692.344	31881.38
692.69	31832.57
693.037	31762.74
693.383	31549.41
693.73	31698.56
694.077	31505.57
694.423	31527.72
694.769	31424.44
695.116	31282.98
695.462	31316.65
695.808	31155.07
696.155	31254.05
696.501	30975.41
696.847	30900.61
697.193	30945.81
697.539	30959.37
697.885	30748.53
698.231	30717.34
698.577	30777.23
698.923	30661.75
699.269	30475.77
699.614	30237.58
699.96	30200.52
700.306	30313.51
700.651	30206.4
700.997	30039.17
701.342	29977.7
701.688	29879.85
702.033	29883.01
702.379	29898.61
702.724	29749.01
703.069	29847.31
703.415	29439.64
703.76	29535.9
704.105	29552.17
704.45	29433.31
704.795	29349.24
705.14	29308.34
705.485	29226.08
705.83	29101.79
706.175	29167.55
706.52	28997.16
706.865	28959.42
707.209	29004.84
707.554	28888.92
707.899	28837.17
708.243	28664.06
708.588	28621.58
708.932	28491.86
709.277	28491.64
709.621	28382.26
709.966	28325.99
710.31	28494.8
710.654	28199.89
710.998	28062.72
711.342	28228.14
711.687	28097.3
712.031	27886.68
712.375	27935.49
712.719	27937.53
713.063	27933.01
713.407	27914.48
713.75	27789.74
714.094	27823.18
714.438	27685.56
714.782	27673.35
715.125	27578.67
715.469	27619.8
715.812	27440.14
716.156	27294.83
716.499	27314.04
716.843	27353.14
717.186	27103.2
717.53	27285.57
717.873	27331.22
718.216	27241.05
718.559	27037.21
718.902	26901.4
719.246	27098
719.589	26924.22
719.932	26684.23
720.275	26836.99
720.617	26839.7
720.96	26803.55
721.303	26692.14
721.646	26809.2
721.989	26655.75
722.331	26731.68
722.674	26617.11
723.016	26606.04
723.359	26672.25
723.701	26613.95
724.044	26289.66
724.386	26338.93
724.729	26410.56
725.071	26258.7
725.413	26341.64
725.755	26239.27
726.097	26248.53
726.439	26042.21
726.782	26047.86
727.124	26215.77
727.465	25935.77
727.807	26053.74
728.149	25970.8
728.491	25884.47
728.833	25917.24
729.175	25792.95
729.516	25767.42
729.858	25753.63
730.199	25866.85
730.541	25638.61
730.882	25669.11
731.224	25684.71
731.565	25606.06
731.906	25594.54
732.248	25590.7
732.589	25470.25
732.93	25306.41
733.271	25327.2
733.612	25462.11
733.953	25369.46
734.294	25342.34
734.635	25327.88
734.976	25392.96
735.317	25213.31
735.658	25173.08
735.999	25179.18
736.339	25060.09
736.68	25217.15
737.021	25170.37
737.361	25033.42
737.702	25143.03
738.042	25049.69
738.383	25001.33
738.723	25069.13
739.063	24978.74
739.404	24989.58
739.744	24859.42
740.084	24780.55
740.424	24839.76
740.764	24797.5
741.104	24795.24
741.444	24597.95
741.784	24567.67
742.124	24651.96
742.464	24557.05
742.804	24602.47
743.143	24555.92
743.483	24594.11
743.823	24374.91
744.162	24383.72
744.502	24422.14
744.841	24404.29
745.181	24427.79
745.52	24374.46
745.86	24379.88
746.199	24342.59
746.538	24328.81
746.877	24241.13
747.216	24282.71
747.556	24230.05
747.895	24175.37
748.234	24135.82
748.573	24024.41
748.911	24069.38
749.25	24047.01
749.589	23912.1
749.928	23984.64
750.267	23957.29
750.605	23840.01
750.944	23857.41
751.283	23806.11
751.621	23792.78
751.96	23625.78
752.298	23626.46
752.636	23639.34
752.975	23657.41
753.313	23522.5
753.651	23534.03
753.989	23312.79
754.327	23387.82
754.666	23243.87
755.004	23377.65
755.342	23408.83
755.679	23222.85
756.017	23136.98
756.355	23250.19
756.693	23007.04
757.031	23206.35
757.368	22986.7
757.706	23002.97
758.044	22821.73
758.381	22860.15
758.719	22797.32
759.056	22819.02
759.394	22785.12
759.731	22649.98
760.068	22703.77
760.405	22545.35
760.743	22385.81
761.08	22544.45
761.417	22381.06
761.754	22371.35
