Data from red_cardboard_box_FLMS001491_00073.txt Node
Date: Wed Feb 08 11:33:06 GMT 2017
User: dcchb
Spectrometer: FLMS00149
Trigger mode: 0
Integration Time (sec): 2.000000E-2
Scans to average: 10
Electric dark correction enabled: true
Nonlinearity correction enabled: false
Boxcar width: 0
XAxis mode: Wavelengths
Number of Pixels in Spectrum: 2048
>>>>>Begin Spectral Data<<<<<
341.393	-15.47
341.776	-15.47
342.16	-15.47
342.543	-49.59
342.927	-67.67
343.31	-61.11
343.693	-72.64
344.077	-65.86
344.46	-87.55
344.843	-36.03
345.226	-43.26
345.61	-26.99
345.993	-12.75
346.376	1.93
346.759	-2.81
347.142	32.44
347.525	31.31
347.908	55.27
348.291	77.41
348.674	95.94
349.057	114.7
349.44	133.23
349.823	131.88
350.206	163.96
350.588	211.2
350.971	214.36
351.354	256.39
351.737	224.08
352.119	250.74
352.502	263.4
352.884	265.88
353.267	266.11
353.65	283.74
354.032	285.54
354.414	335.49
354.797	313.57
355.179	317.41
355.562	326.22
355.944	325.77
356.326	338.2
356.709	335.94
357.091	329.38
357.473	341.81
357.855	332.77
358.238	336.84
358.62	341.14
359.002	348.59
359.384	344.98
359.766	327.35
360.148	338.2
360.53	330.97
360.912	310.18
361.294	342.27
361.676	335.71
362.057	333.9
362.439	334.58
362.821	324.19
363.203	343.39
363.584	318.76
363.966	345.43
364.348	317.63
364.729	316.28
365.111	298.42
365.493	312.21
365.874	323.06
366.256	313.57
366.637	315.6
367.019	313.79
367.4	321.7
367.781	302.27
368.163	314.7
368.544	307.24
368.925	313.11
369.306	300.91
369.688	322.15
370.069	320.57
370.45	297.52
370.831	328.93
371.212	290.74
371.593	308.14
371.974	307.69
372.355	312.21
372.736	308.14
373.117	289.39
373.498	291.42
373.879	310.4
374.26	307.24
374.641	317.41
375.021	326.9
375.402	327.8
375.783	300.46
376.163	316.95
376.544	322.15
376.925	318.08
377.305	311.31
377.686	293
378.066	314.92
378.447	339.55
378.827	316.05
379.208	317.63
379.588	319.89
379.968	327.35
380.349	323.51
380.729	339.55
381.109	313.57
381.489	325.99
381.87	334.36
382.25	321.7
382.63	326.45
383.01	309.27
383.39	312.44
383.77	335.49
384.15	339.55
384.53	335.71
384.91	330.97
385.29	337.97
385.67	325.09
386.049	345.43
386.429	328.93
386.809	314.24
387.189	315.83
387.568	325.32
387.948	328.71
388.328	336.16
388.707	349.72
389.087	324.19
389.466	346.78
389.846	336.39
390.225	336.84
390.605	346.11
390.984	339.33
391.363	326.45
391.743	360.34
392.122	340.68
392.501	339.33
392.881	341.81
393.26	352.89
393.639	362.15
394.018	349.5
394.397	358.76
394.776	328.93
395.155	317.18
395.534	353.56
395.913	368.7
396.292	357.41
396.671	362.38
397.05	352.89
397.429	341.14
397.808	340.91
398.186	339.1
398.565	346.11
398.944	358.54
399.323	353.56
399.701	358.31
400.08	358.99
400.458	355.15
400.837	373.9
401.215	361.47
401.594	365.54
401.972	370.74
402.351	360.12
402.729	351.08
403.107	366.22
403.486	367.12
403.864	342.72
404.242	354.24
404.62	365.09
404.999	359.44
405.377	357.41
405.755	375.48
406.133	365.32
406.511	388.82
406.889	381.36
407.267	394.02
407.645	366.9
408.023	386.33
408.401	380.91
408.779	378.87
409.156	386.56
409.534	399.66
409.912	375.94
410.29	385.88
410.667	410.29
411.045	405.31
411.422	382.26
411.8	396.95
412.178	405.09
412.555	386.11
412.933	365.77
413.31	403.51
413.687	395.37
414.065	384.07
414.442	408.03
414.819	408.25
415.197	400.34
415.574	420.91
415.951	415.03
416.328	418.87
416.705	413.9
417.082	446.67
417.46	415.03
417.837	414.58
418.214	415.94
418.591	414.58
418.967	429.04
419.344	418.87
419.721	428.36
420.098	415.03
420.475	417.29
420.852	432.66
421.228	423.39
421.605	434.47
421.982	439.44
422.358	424.07
422.735	430.17
423.111	448.93
423.488	427.01
423.864	457.06
424.241	441.92
424.617	460.91
424.994	439.44
425.37	434.69
425.746	453.9
426.123	457.52
426.499	445.09
426.875	445.54
427.251	459.1
427.627	472.88
428.003	441.25
428.379	441.02
428.756	459.32
429.132	476.5
429.507	490.06
429.883	465.88
430.259	472.21
430.635	481.02
431.011	465.2
431.387	481.7
431.763	484.18
432.138	486.44
432.514	486.89
432.89	483.96
433.265	495.26
433.641	501.58
434.016	490.06
434.392	493
434.767	491.19
435.143	520.79
435.518	501.36
435.894	513.56
436.269	499.55
436.644	484.86
437.02	504.75
437.395	511.53
437.77	527.12
438.145	532.09
438.52	532.99
438.895	513.33
439.271	536.16
439.646	527.34
440.021	544.52
440.395	551.3
440.77	542.49
441.145	543.84
441.52	519.44
441.895	533.9
442.27	539.32
442.645	536.84
443.019	528.25
443.394	558.53
443.769	565.54
444.143	545.65
444.518	571.64
444.892	556.5
445.267	538.42
445.641	561.92
446.016	567.8
446.39	569.6
446.764	593.11
447.139	561.47
447.513	561.69
447.887	531.64
448.262	562.6
448.636	586.33
449.01	566.89
449.384	580.9
449.758	570.96
450.132	571.64
450.506	579.77
450.88	570.06
451.254	584.97
451.628	589.04
452.002	602.6
452.376	583.16
452.75	596.5
453.123	610.05
453.497	605.99
453.871	626.55
454.244	606.89
454.618	630.84
454.992	632.65
455.365	622.71
455.739	618.87
456.112	624.07
456.486	628.81
456.859	619.32
457.232	618.64
457.606	635.14
457.979	648.92
458.352	651.86
458.725	654.12
459.099	659.77
459.472	640.56
459.845	654.57
460.218	660.22
460.591	662.03
460.964	682.14
461.337	670.39
461.71	682.14
462.083	696.61
462.456	671.07
462.829	680.11
463.201	706.55
463.574	696.83
463.947	682.6
464.32	701.8
464.692	737.28
465.065	710.39
465.438	724.85
465.81	724.85
466.183	740.9
466.555	757.62
466.928	752.88
467.3	747.9
467.672	766.43
468.045	757.85
468.417	757.85
468.789	753.1
469.161	784.51
469.534	801.91
469.906	782.48
470.278	809.37
470.65	801.91
471.022	830.84
471.394	818.41
471.766	834.68
472.138	834.46
472.51	823.16
472.882	838.98
473.253	839.88
473.625	870.84
473.997	860.67
474.369	859.31
474.74	877.39
475.112	884.85
475.484	892.76
475.855	914
476.227	930.5
476.598	928.24
476.97	919.88
477.341	930.5
477.713	951.06
478.084	962.59
478.455	981.57
478.827	1003.72
479.198	1001
479.569	1005.07
479.94	1004.85
480.311	1032.19
480.682	1083.94
481.053	1066.31
481.424	1066.09
481.795	1063.15
482.166	1063.83
482.537	1117.61
482.908	1139.98
483.279	1134.56
483.65	1117.61
484.021	1142.02
484.391	1170.94
484.762	1184.73
485.133	1202.13
485.503	1173.2
485.874	1223.6
486.244	1200.55
486.615	1234.22
486.985	1233.09
487.356	1257.72
487.726	1269.02
488.097	1299.53
488.467	1290.71
488.837	1320.77
489.207	1326.42
489.578	1326.87
489.948	1356.25
490.318	1352.86
490.688	1371.62
491.058	1387.44
491.428	1389.92
491.798	1419.07
492.168	1424.27
492.538	1410.71
492.908	1460.88
493.278	1457.49
493.648	1462.91
494.017	1504.49
494.387	1502.01
494.757	1519.41
495.126	1533.87
495.496	1522.8
495.866	1530.26
496.235	1566.87
496.605	1565.06
496.974	1578.84
497.344	1589.24
497.713	1616.13
498.082	1610.03
498.452	1598.28
498.821	1639.18
499.19	1622.01
499.559	1641.44
499.928	1675.79
500.298	1684.6
500.667	1686.18
501.036	1672.85
501.405	1691.38
501.774	1702.68
502.143	1704.49
502.512	1730.25
502.88	1735.9
503.249	1728.67
503.618	1759.85
503.987	1751.27
504.356	1760.76
504.724	1770.02
505.093	1806.18
505.462	1780.87
505.83	1783.81
506.199	1850.7
506.567	1792.85
506.936	1842.56
507.304	1866.74
507.672	1867.2
508.041	1904.94
508.409	1900.64
508.777	1920.3
509.145	1909.23
509.514	1871.04
509.882	1949.45
510.25	1946.97
510.618	1948.78
510.986	1957.59
511.354	1963.92
511.722	1987.87
512.09	2016.57
512.458	1991.26
512.826	2065.61
513.193	2029.45
513.561	2053.41
513.929	2028.1
514.297	2083.24
514.664	2114.87
515.032	2095.67
515.4	2127.08
515.767	2135.66
516.135	2153.06
516.502	2162.56
516.869	2174.08
517.237	2157.81
517.604	2198.49
517.972	2213.4
518.339	2246.85
518.706	2232.61
519.073	2258.82
519.44	2268.09
519.808	2283.46
520.175	2284.81
520.542	2310.12
520.909	2336.56
521.276	2348.09
521.643	2368.88
522.009	2407.07
522.376	2410.23
522.743	2374.98
523.11	2422.21
523.477	2446.39
523.843	2442.77
524.21	2505.15
524.577	2518.48
524.943	2566.16
525.31	2508.99
525.676	2571.81
526.043	2581.08
526.409	2604.58
526.776	2619.72
527.142	2597.12
527.508	2655.65
527.874	2658.59
528.241	2686.16
528.607	2691.81
528.973	2736.78
529.339	2721.19
529.705	2772.71
530.071	2751.47
530.437	2766.16
530.803	2795.53
531.169	2817.23
531.535	2798.47
531.901	2802.54
532.267	2843.89
532.632	2871.01
532.998	2882.99
533.364	2878.24
533.73	2892.93
534.095	2928.19
534.461	2922.99
534.826	2951.24
535.192	2962.76
535.557	3002.76
535.923	2982.42
536.288	2998.69
536.653	2977
537.019	3030.78
537.384	3004.34
537.749	3057.45
538.114	3043.21
538.479	3080.27
538.845	3099.25
539.21	3073.04
539.575	3074.4
539.94	3125.02
540.305	3180.83
540.67	3171.57
541.034	3216.09
541.399	3176.31
541.764	3203.66
542.129	3192.59
542.494	3220.16
542.858	3254.5
543.223	3238.91
543.587	3288.63
543.952	3319.14
544.316	3290.89
544.681	3349.87
545.045	3321.85
545.41	3372.69
545.774	3355.75
546.138	3416.53
546.503	3396.87
546.867	3415.63
547.231	3420.38
547.595	3452.92
547.959	3453.82
548.324	3498.34
548.688	3466.93
549.052	3510.54
549.416	3492.24
549.779	3521.62
550.143	3579.92
550.507	3580.37
550.871	3615.85
551.235	3599.13
551.599	3657.43
551.962	3658.56
552.326	3709.63
552.689	3658.79
553.053	3663.53
553.417	3674.83
553.78	3723.19
554.143	3713.02
554.507	3794.83
554.87	3792.12
555.234	3854.49
555.597	3848.84
555.96	3873.02
556.323	3886.13
556.686	3886.35
557.05	3944.43
557.413	3951.21
557.776	3950.53
558.139	4006.8
558.502	4016.52
558.865	4039.34
559.228	4098.55
559.59	4170.41
559.953	4170.86
560.316	4211.54
560.679	4186.46
561.041	4226.68
561.404	4327.92
561.767	4364.31
562.129	4300.13
562.492	4361.14
562.854	4388.71
563.217	4412.89
563.579	4449.73
563.941	4529.95
564.304	4552.1
564.666	4584.64
565.028	4571.53
565.39	4661.02
565.753	4692.21
566.115	4757.29
566.477	4790.96
566.839	4835.25
567.201	4879.77
567.563	4848.81
567.925	4956.15
568.287	4967
568.648	4988.92
569.01	5055.81
569.372	5143.95
569.734	5130.39
570.095	5193.21
570.457	5268.69
570.819	5213.78
571.18	5268.69
571.542	5338.07
571.903	5406.09
572.265	5452.87
572.626	5507.78
572.987	5571.28
573.349	5600.66
573.71	5657.15
574.071	5700.54
574.432	5754.55
574.794	5835
575.155	5910.25
575.516	5899.41
575.877	5990.03
576.238	5999.74
576.599	6064.37
576.96	6135.11
577.32	6174.43
577.681	6231.15
578.042	6345.05
578.403	6416
578.763	6466.85
579.124	6483.8
579.485	6641.31
579.845	6786.84
580.206	6769.21
580.566	6795.88
580.927	6852.83
581.287	7018.93
581.648	7092.37
582.008	7179.37
582.368	7285.81
582.728	7398.8
583.089	7460.5
583.449	7624.33
583.809	7676.08
584.169	7779.58
584.529	7864.1
584.889	8018.22
585.249	8084.43
585.609	8236.52
585.969	8428.83
586.329	8443.29
586.688	8656.17
587.048	8744.98
587.408	8882.61
587.768	9026.1
588.127	9160.56
588.487	9284.18
588.846	9567.11
589.206	9678.97
589.565	9775.46
589.925	10009.36
590.284	10171.61
590.643	10370.25
591.003	10515.78
591.362	10750.35
591.721	10926.39
592.08	11139.04
592.44	11368.42
592.799	11448.19
593.158	11712.36
593.517	11962.52
593.876	12261.05
594.235	12432.12
594.593	12629.4
594.952	12874.82
595.311	13019.22
595.67	13300.57
596.029	13623.27
596.387	13831.63
596.746	14175.35
597.104	14264.84
597.463	14489.92
597.822	14759.97
598.18	15077.47
598.538	15293.51
598.897	15540.06
599.255	15626.38
599.613	16134.39
599.972	16329.87
600.33	16610.31
600.688	16801.49
601.046	17206.45
601.404	17368.26
601.762	17681.02
602.12	18012.31
602.478	18302.92
602.836	18525.97
603.194	18617.72
603.552	19055.67
603.91	19152.84
604.268	19487.52
604.625	19542.21
604.983	19992.82
605.341	20042.99
605.698	20405.01
606.056	20635.74
606.413	20903.76
606.771	21182.62
607.128	21341.03
607.485	21556.62
607.843	21839.1
608.2	22166.1
608.557	22353.66
608.914	22566.31
609.272	22779.87
609.629	23100.31
609.986	23395.9
610.343	23337.59
610.7	23801.08
611.057	23836.79
611.414	24027.52
611.771	24159.27
612.127	24414.4
612.484	24640.84
612.841	24871.34
613.198	24897.33
613.554	25095.29
613.911	25393.36
614.267	25473.36
614.624	25589.06
614.98	25783.4
615.337	25926.68
615.693	26112.43
616.05	26304.07
616.406	26518.3
616.762	26590.84
617.118	26686.21
617.475	26834
617.831	26992.41
618.187	27142.24
618.543	27242.8
618.899	27610.7
619.255	27641.43
619.611	27612.51
619.967	27827.87
620.323	28043.46
620.678	27993.97
621.034	27934.31
621.39	28174.75
621.746	28169.1
622.101	28630.33
622.457	28404.35
622.812	28672.14
623.168	28794.62
623.523	28826.26
623.879	28959.59
624.234	28742.2
624.589	29035.75
624.945	29111.23
625.3	29135.18
625.655	29257.21
626.01	29293.14
626.365	29268.06
626.72	29350.54
627.075	29480.03
627.43	29447.71
627.785	29443.87
628.14	29587.6
628.495	29816.97
628.85	29811.77
629.205	29744.43
629.559	30003.41
629.914	29788.95
630.269	29952.56
630.623	30086.79
630.978	29926.57
631.332	30129.05
631.687	30159.56
632.041	29956.18
632.396	30261.93
632.75	30052.67
633.104	30148.94
633.459	30061.48
633.813	30068.49
634.167	29983.29
634.521	30139
634.875	30178.32
635.229	30221.71
635.583	30082.95
635.937	30185.32
636.291	30175.38
636.645	30157.75
636.999	30223.29
637.352	30297.18
637.706	30204.98
638.06	30248.37
638.413	30162.05
638.767	30177.41
639.121	30202.27
639.474	30131.54
639.828	30200.91
640.181	30283.85
640.534	30276.85
640.888	30319.33
641.241	30129.05
641.594	30164.98
641.947	30280.91
642.301	30204.98
642.654	30213.34
643.007	30288.6
643.36	30262.61
643.713	30294.47
644.066	30358.2
644.419	30216.28
644.771	29929.06
645.124	29598.44
645.477	29579.46
645.83	29428.96
646.182	29538.11
646.535	29459.92
646.888	29501.5
647.24	29412.24
647.593	29666.47
647.945	29502.18
648.298	29464.21
648.65	29398.9
649.002	29392.35
649.355	29465.57
649.707	29542.63
650.059	29462.63
650.411	29915.95
650.763	30023.07
651.115	30327.47
651.467	30124.98
651.819	30202.5
652.171	30244.3
652.523	30062.16
652.875	30188.03
653.227	30023.97
653.578	30295.83
653.93	30226.23
654.282	30070.3
654.633	29955.5
654.985	29969.96
655.337	30158.2
655.688	30000.69
656.039	30100.8
656.391	29950.75
656.742	30046.57
657.094	29931.32
657.445	30027.13
657.796	30063.97
658.147	30046.34
658.498	29950.3
658.849	29970.41
659.2	30055.38
659.551	29933.58
659.902	29962.05
660.253	30100.8
660.604	30059.22
660.955	29954.59
661.306	30101.71
661.656	30004.76
662.007	30039.11
662.358	30026.23
662.708	30023.97
663.059	30006.12
663.409	29891.54
663.76	30143.97
664.11	30185.32
664.461	30022.39
664.811	29980.13
665.161	30099
665.511	29895.39
665.862	30100.13
666.212	30063.29
666.562	30003.18
666.912	30103.52
667.262	30051.54
667.612	30047.7
667.962	30140.35
668.312	30030.75
668.662	30157.98
669.011	30195.72
669.361	30123.63
669.711	30146
670.06	29965.67
670.41	29988.49
670.76	30001.37
671.109	29971.99
671.459	29931.54
671.808	29917.98
672.157	30049.51
672.507	29808.61
672.856	29769.06
673.205	29968.83
673.554	30069.39
673.904	29878.44
674.253	30051.77
674.602	30026.46
674.951	29482.06
675.3	29406.36
675.649	29832.11
675.998	29822.39
676.346	29784.43
676.695	29873.69
677.044	29696.07
677.393	29812.68
677.741	29744.66
678.09	29735.62
678.438	29725.22
678.787	29684.54
679.135	29657.88
679.484	29515.74
679.832	29640.03
680.181	29399.81
680.529	29467.37
680.877	29471.44
681.225	29331.56
681.573	29609.52
681.922	29475.51
682.27	29332.92
682.618	29406.59
682.966	29351.9
683.314	29414.27
683.661	29257.89
684.009	29114.84
684.357	29053.15
684.705	29021.74
685.053	29097.22
685.4	29081.4
685.748	28889.76
686.095	28842.31
686.443	28836.21
686.79	28702.42
687.138	28815.64
687.485	28748.3
687.832	28719.15
688.18	28781.97
688.527	28556.89
688.874	28612.93
689.221	28482.99
689.568	28381.08
689.915	28328.2
690.262	28417.23
690.609	28373.17
690.956	28086.39
691.303	28212.04
691.65	28040.97
691.997	27990.58
692.344	27938.83
692.69	27887.08
693.037	27831.71
693.383	27619.06
693.73	27785.84
694.077	27536.13
694.423	27596.69
694.769	27444.6
695.116	27503.58
695.462	27387.66
695.808	27311.5
696.155	27343.59
696.501	27157.15
696.847	27182.69
697.193	26919.42
697.539	27111.96
697.885	26887.1
698.231	26757.39
698.577	26888.69
698.923	26764.85
699.269	26600.33
699.614	26567.79
699.96	26458.19
700.306	26502.48
700.651	26368.25
700.997	26360.11
701.342	26250.51
701.688	26237.4
702.033	26092.55
702.379	26223.84
702.724	26068.82
703.069	26142.26
703.415	25725.55
703.76	25826.11
704.105	25736.63
704.45	25787.25
704.795	25579.57
705.14	25561.71
705.485	25587.93
705.83	25411.44
706.175	25458.21
706.52	25562.39
706.865	25340.93
707.209	25247.15
707.554	25292.12
707.899	25293.93
708.243	25094.61
708.588	25039.24
708.932	24852.81
709.277	24915.63
709.621	24919.02
709.966	24791.57
710.31	24875.63
710.654	24516.77
710.998	24808.51
711.342	24807.38
711.687	24665.24
712.031	24557.67
712.375	24459.6
712.719	24499.6
713.063	24443.55
713.407	24531.23
713.75	24341.41
714.094	24318.58
714.438	24200.85
714.782	24332.37
715.125	24067.06
715.469	24187.29
715.812	24045.14
716.156	23944.36
716.499	23967.63
716.843	23918.82
717.186	23857.8
717.53	23831.82
717.873	23987.29
718.216	23817.58
718.559	23768.09
718.902	23592.95
719.246	23668.21
719.589	23604.7
719.932	23536.68
720.275	23599.96
720.617	23456.69
720.96	23414.2
721.303	23494.42
721.646	23423.24
721.989	23319.06
722.331	23347.54
722.674	23429.12
723.016	23372.39
723.359	23197.71
723.701	23277.26
724.044	23157.71
724.386	23097.37
724.729	23115.9
725.071	23008.34
725.413	23016.47
725.755	22952.07
726.097	22879.75
726.439	22821.67
726.782	22881.79
727.124	22959.07
727.465	22850.15
727.807	22723.37
728.149	22753.88
728.491	22697.16
728.833	22832.52
729.175	22660.55
729.516	22661.68
729.858	22496.48
730.199	22706.2
730.541	22585.97
730.882	22545.52
731.224	22580.1
731.565	22479.31
731.906	22459.42
732.248	22472.53
732.589	22315.02
732.93	22359.09
733.271	22344.85
733.612	22362.93
733.953	22291.29
734.294	22280.22
734.635	22236.83
734.976	22256.04
735.317	22109.83
735.658	22089.72
735.999	22144.18
736.339	22128.36
736.68	22199.77
737.021	22012.66
737.361	22102.14
737.702	21975.37
738.042	21988.25
738.383	21954.35
738.723	21863.28
739.063	22002.03
739.404	21896.95
739.744	21856.5
740.084	21804.75
740.424	21826.22
740.764	21796.62
741.104	21707.35
741.444	21666.68
741.784	21661.25
742.124	21661.25
742.464	21562.72
742.804	21646.34
743.143	21571.09
743.483	21610.86
743.823	21538.32
744.162	21418.77
744.502	21472.78
744.841	21350.75
745.181	21418.77
745.52	21393.24
745.86	21361.15
746.199	21372.9
746.538	21310.75
746.877	21367.02
747.216	21383.75
747.556	21337.42
747.895	21284.54
748.234	21197.76
748.573	21194.15
748.911	21158.67
749.25	21184.2
749.589	21012.68
749.928	21057.43
750.267	21031.21
750.605	20955.96
750.944	20946.92
751.283	20957.99
751.621	20915.51
751.96	20731.33
752.298	20855.4
752.636	20851.33
752.975	20677.32
753.313	20748.73
753.651	20606.14
753.989	20599.81
754.327	20515.07
754.666	20546.25
755.004	20352.81
755.342	20484.11
755.679	20424.9
756.017	20379.93
756.355	20426.71
756.693	20304
757.031	20390.1
757.368	20257.9
757.706	20259.93
758.044	20126.15
758.381	20217
758.719	20079.83
759.056	20146.49
759.394	20041.41
759.731	20039.15
760.068	19928.42
760.405	19837.35
760.743	19763.45
761.08	19764.13
761.417	19710.34
761.754	19770.68
762.091	19708.99
762.428	19483
