Data from red_shiny_book_FLMS001491_00039.txt Node
Date: Wed Feb 08 15:24:47 GMT 2017
User: dcchb
Spectrometer: FLMS00149
Trigger mode: 0
Integration Time (sec): 2.000000E-2
Scans to average: 10
Electric dark correction enabled: true
Nonlinearity correction enabled: false
Boxcar width: 0
XAxis mode: Wavelengths
Number of Pixels in Spectrum: 2048
>>>>>Begin Spectral Data<<<<<
341.393	-2.23
341.776	-2.23
342.16	-2.23
342.543	-57.6
342.927	-65.51
343.31	-53.98
343.693	-61.89
344.077	-55.34
344.46	-63.02
344.843	-47.65
345.226	-65.28
345.61	-25.28
345.993	-25.96
346.376	-10.59
346.759	16.52
347.142	26.47
347.525	36.19
347.908	55.39
348.291	87.71
348.674	97.43
349.057	89.29
349.44	124.32
349.823	144.66
350.206	169.97
350.588	194.6
350.971	225.11
351.354	239.12
351.737	243.19
352.119	230.08
352.502	267.59
352.884	275.05
353.267	277.54
353.65	303.52
354.032	293.81
354.414	300.36
354.797	327.48
355.179	327.7
355.562	327.48
355.944	325.9
356.326	337.42
356.709	343.07
357.091	340.36
357.473	338.78
357.855	352.79
358.238	343.07
358.62	348.49
359.002	337.65
359.384	350.98
359.766	374.03
360.148	352.56
360.53	342.84
360.912	353.24
361.294	343.52
361.676	333.8
362.057	363.41
362.439	338.55
362.821	333.58
363.203	322.51
363.584	328.83
363.966	332.45
364.348	345.33
364.729	350.75
365.111	332.67
365.493	332
365.874	344.2
366.256	314.14
366.637	302.62
367.019	329.06
367.4	336.74
367.781	323.64
368.163	327.25
368.544	319.34
368.925	330.64
369.306	340.13
369.688	308.49
370.069	332.45
370.45	330.42
370.831	341.04
371.212	327.25
371.593	306.01
371.974	296.52
372.355	323.64
372.736	324.54
373.117	310.98
373.498	328.16
373.879	315.05
374.26	337.19
374.641	346.91
375.021	331.09
375.402	315.95
375.783	333.35
376.163	343.52
376.544	333.8
376.925	331.32
377.305	325.9
377.686	317.76
378.066	331.54
378.447	340.13
378.827	347.59
379.208	352.79
379.588	326.35
379.968	365.89
380.349	346.23
380.729	338.78
381.109	351.43
381.489	345.1
381.87	355.95
382.25	341.49
382.63	350.08
383.01	342.17
383.39	355.73
383.77	350.98
384.15	335.16
384.53	349.85
384.91	339.91
385.29	346.23
385.67	360.92
386.049	360.7
386.429	363.86
386.809	372.45
387.189	384.42
387.568	378.55
387.948	375.61
388.328	385.1
388.707	348.95
389.087	351.21
389.466	388.49
389.846	373.35
390.225	361.83
390.605	359.11
390.984	376.74
391.363	352.11
391.743	372
392.122	360.92
392.501	376.97
392.881	355.05
393.26	392.79
393.639	372
394.018	370.19
394.397	399.79
394.776	393.46
395.155	390.98
395.534	394.14
395.913	390.98
396.292	383.52
396.671	403.18
397.05	379.68
397.429	375.39
397.808	405.44
398.186	397.08
398.565	396.4
398.944	406.12
399.323	402.73
399.701	393.69
400.08	397.76
400.458	411.99
400.837	402.96
401.215	417.19
401.594	397.31
401.972	404.31
402.351	410.86
402.729	410.41
403.107	429.4
403.486	415.61
403.864	415.38
404.242	413.12
404.62	421.71
404.999	414.71
405.377	407.48
405.755	430.53
406.133	432.79
406.511	424.42
406.889	430.3
407.267	449.73
407.645	444.31
408.023	445.89
408.401	432.11
408.779	449.73
409.156	453.35
409.534	462.16
409.912	452.9
410.29	458.55
410.667	468.49
411.045	487.93
411.422	466
411.8	448.83
412.178	480.24
412.555	481.15
412.933	494.03
413.31	477.3
413.687	503.07
414.065	504.87
414.442	490.64
414.819	501.71
415.197	502.16
415.574	523.4
415.951	503.29
416.328	530.18
416.705	514.14
417.082	508.26
417.46	532.44
417.837	577.19
418.214	524.08
418.591	531.09
418.967	530.86
419.344	557.75
419.721	537.87
420.098	543.74
420.475	552.56
420.852	561.82
421.228	551.2
421.605	565.89
421.982	556.4
422.358	574.25
422.735	574.93
423.111	562.05
423.488	599.56
423.864	583.06
424.241	596.17
424.617	612.22
424.994	597.98
425.37	571.54
425.746	599.56
426.123	591.2
426.499	617.19
426.875	608.6
427.251	583.06
427.627	604.76
428.003	615.38
428.379	627.36
428.756	616.06
429.132	637.07
429.507	645.89
429.883	647.24
430.259	666
430.635	658.32
431.011	646.56
431.387	664.42
431.763	666
432.138	670.52
432.514	667.58
432.89	661.93
433.265	645.66
433.641	702.83
434.016	680.01
434.392	713.46
434.767	705.77
435.143	707.58
435.518	700.8
435.894	724.98
436.269	731.53
436.644	713.46
437.02	738.77
437.395	728.37
437.77	742.83
438.145	761.36
438.52	778.54
438.895	771.08
439.271	750.29
439.646	774.7
440.021	776.73
440.395	775.83
440.77	762.27
441.145	773.12
441.52	775.38
441.895	796.17
442.27	785.77
442.645	809.27
443.019	793.23
443.394	796.17
443.769	809.27
444.143	816.73
444.518	817.41
444.892	825.09
445.267	816.28
445.641	826.45
446.016	816.05
446.39	801.59
446.764	835.03
447.139	821.25
447.513	849.72
447.887	853.34
448.262	827.13
448.636	833.9
449.01	857.41
449.384	852.66
449.758	860.34
450.132	869.38
450.506	860.8
450.88	879.33
451.254	864.64
451.628	848.14
452.002	890.17
452.376	872.55
452.75	889.72
453.123	873
453.497	901.02
453.871	916.39
454.244	914.58
454.618	931.08
454.992	921.36
455.365	916.16
455.739	933.34
456.112	945.54
456.486	922.26
456.859	908.25
457.232	955.71
457.606	937.4
457.979	918.42
458.352	973.11
458.725	999.55
459.099	976.05
459.472	981.7
459.845	976.95
460.218	964.3
460.591	977.18
460.964	993.67
461.337	985.09
461.71	1017.18
462.083	1019.44
462.456	1036.16
462.829	1019.21
463.201	1037.97
463.574	1043.62
463.947	1056.5
464.32	1058.98
464.692	1063.5
465.065	1061.7
465.438	1071.64
465.81	1057.63
466.183	1085.2
466.555	1097.4
466.928	1130.39
467.3	1106.44
467.672	1129.26
468.045	1125.2
468.417	1155.93
468.789	1153.22
469.161	1156.38
469.534	1183.5
469.906	1184.63
470.278	1185.31
470.65	1164.07
471.022	1199.09
471.394	1211.97
471.766	1205.42
472.138	1227.57
472.51	1256.49
472.882	1264.4
473.253	1279.09
473.625	1299.2
473.997	1321.8
474.369	1298.3
474.74	1323.16
475.112	1325.42
475.484	1325.87
475.855	1375.36
476.227	1350.5
476.598	1368.58
476.97	1361.57
477.341	1429.37
477.713	1449.26
478.084	1439.09
478.455	1497.16
478.827	1500.33
479.198	1541.91
479.569	1532.42
479.94	1585.52
480.311	1546.88
480.682	1604.05
481.053	1587.78
481.424	1643.15
481.795	1637.5
482.166	1652.19
482.537	1684.05
482.908	1720.89
483.279	1725.86
483.65	1746.2
484.021	1814.67
484.391	1846.31
484.762	1831.39
485.133	1892.41
485.503	1885.18
485.874	1901.45
486.244	1911.84
486.615	1928.79
486.985	1940.54
487.356	1974.67
487.726	2026.42
488.097	2028.45
488.467	2054.44
488.837	2087.66
489.207	2115.45
489.578	2164.27
489.948	2175.56
490.318	2212.85
490.688	2263.47
491.058	2226.86
491.428	2247.43
491.798	2310.48
492.168	2309.57
492.538	2311.83
492.908	2303.24
493.278	2316.13
493.648	2347.76
494.017	2404.26
494.387	2408.78
494.757	2433.41
495.126	2503.92
495.496	2519.96
495.866	2541.66
496.235	2563.12
496.605	2592.95
496.974	2585.72
497.344	2568.55
497.713	2607.64
498.082	2578.49
498.452	2585.72
498.821	2628.21
499.19	2577.14
499.559	2627.3
499.928	2665.95
500.298	2681.77
500.667	2723.57
501.036	2760.41
501.405	2761.09
501.774	2815.77
502.143	2788.2
502.512	2813.74
502.88	2810.35
503.249	2787.75
503.618	2802.44
503.987	2768.32
504.356	2805.15
504.724	2752.05
505.093	2779.16
505.462	2799.73
505.83	2779.16
506.199	2805.15
506.567	2917.69
506.936	2879.95
507.304	2953.85
507.672	2951.59
508.041	2975.32
508.409	2973.06
508.777	3006.73
509.145	2988.2
509.514	2952.27
509.882	2954.75
510.25	2926.5
510.618	2901.19
510.986	2938.03
511.354	2927.63
511.722	2957.92
512.09	2980.06
512.458	2969.89
512.826	3005.6
513.193	3060.06
513.561	3052.83
513.929	3093.05
514.297	3148.42
514.664	3135.54
515.032	3118.36
515.4	3108.42
515.767	3131.02
516.135	3056.9
516.502	3050.8
516.869	3062.32
517.237	3063
517.604	3026.62
517.972	3065.94
518.339	3089.66
518.706	3080.85
519.073	3078.14
519.44	3167.85
519.808	3205.37
520.175	3204.69
520.542	3238.81
520.909	3268.64
521.276	3285.14
521.643	3290.34
522.009	3276.78
522.376	3312.48
522.743	3262.09
523.11	3229.55
523.477	3230.68
523.843	3258.47
524.21	3240.4
524.577	3248.76
524.943	3271.13
525.31	3333.27
525.676	3412.37
526.043	3392.71
526.409	3477.22
526.776	3540.05
527.142	3516.09
527.508	3595.19
527.874	3624.34
528.241	3631.35
528.607	3612.36
528.973	3612.36
529.339	3616.88
529.705	3578.01
530.071	3575.75
530.437	3575.08
530.803	3570.56
531.169	3628.41
531.535	3599.71
531.901	3665.69
532.267	3695.07
532.632	3756.99
532.998	3810.32
533.364	3858.46
533.73	3901.62
534.095	3970.77
534.461	4026.14
534.826	4000.38
535.192	4013.26
535.557	4021.39
535.923	4001.28
536.288	3975.29
536.653	4022.75
537.019	3958.79
537.384	3940.94
537.749	3991.11
538.114	3935.97
538.479	4003.99
538.845	4055.97
539.21	4066.81
539.575	4182.07
539.94	4210.99
540.305	4261.16
540.67	4293.02
541.034	4372.57
541.399	4375.05
541.764	4359.91
542.129	4435.39
542.494	4411.89
542.858	4447.37
543.223	4395.62
543.587	4394.49
543.952	4333.7
544.316	4311.1
544.681	4365.34
545.045	4334.6
545.41	4417.31
545.774	4461.15
546.138	4445.11
546.503	4494.37
546.867	4499.34
547.231	4596.97
547.595	4632.45
547.959	4709.28
548.324	4748.15
548.688	4720.81
549.052	4723.52
549.416	4726.01
549.779	4751.32
550.143	4690.3
550.507	4639.91
550.871	4621.38
551.235	4582.73
551.599	4574.82
551.962	4572.11
552.326	4562.39
552.689	4575.28
553.053	4522.17
553.417	4617.99
553.78	4677.19
554.143	4687.81
554.507	4796.29
554.87	4840.13
555.234	4888.26
555.597	4887.13
555.96	4917.87
556.323	4935.04
556.686	4913.8
557.05	4888.94
557.413	4863.86
557.776	4798.09
558.139	4808.04
558.502	4790.41
558.865	4743.86
559.228	4763.07
559.59	4724.2
559.953	4728.72
560.316	4807.36
560.679	4770.75
561.041	4860.92
561.404	4886.45
561.767	4955.38
562.129	5032.21
562.492	5094.58
562.854	5140.23
563.217	5120.8
563.579	5168.03
563.941	5197.41
564.304	5198.08
564.666	5196.05
565.028	5151.76
565.39	5129.84
565.753	5131.42
566.115	5065.43
566.477	5006.9
566.839	5006.22
567.201	5039.44
567.563	5003.29
567.925	5025.43
568.287	5070.86
568.648	5068.6
569.01	5166.9
569.372	5206.45
569.734	5281.7
570.095	5412.99
570.457	5450.28
570.819	5520.56
571.18	5556.27
571.542	5607.11
571.903	5627.9
572.265	5667.9
572.626	5578.41
572.987	5607.79
573.349	5640.78
573.71	5617.73
574.071	5563.05
574.432	5544.52
574.794	5592.88
575.155	5558.75
575.516	5560.33
575.877	5677.17
576.238	5738.18
576.599	5866.99
576.96	5939.53
577.32	6113.54
577.681	6202.35
578.042	6360.54
578.403	6454.55
578.763	6606.86
579.124	6759.85
579.485	6908.55
579.845	7082.78
580.206	7186.05
580.566	7225.15
580.927	7391.47
581.287	7521.86
581.648	7684.12
582.008	7773.16
582.368	7869.43
582.728	8065.58
583.089	8280.04
583.449	8449.3
583.809	8748.27
584.169	9108.26
584.529	9292.89
584.889	9700.11
585.249	10011.06
585.609	10431.62
585.969	10789.8
586.329	11247.64
586.688	11721.53
587.048	12104.12
587.408	12422.75
587.768	12907.94
588.127	13288.49
588.487	13662.04
588.846	14130.96
589.206	14393.1
589.565	14744.5
589.925	15246.18
590.284	15635.55
590.643	16116.89
591.003	16430.33
591.362	16912.8
591.721	17380.81
592.08	17812.44
592.44	18331.3
592.799	18919.98
593.158	19340.08
593.517	19853.97
593.876	20462.99
594.235	21046.48
594.593	21573.47
594.952	22274.47
595.311	22720.11
595.67	23255.69
596.029	23886.41
596.387	24561.87
596.746	24988.07
597.104	25308.97
597.463	25821.5
597.822	26327.92
598.18	26637.75
598.538	26941.24
598.897	27638.4
599.255	27741.45
599.613	28599.5
599.972	28899.38
600.33	29352.02
600.688	29677.44
601.046	30208.73
601.404	30776.85
601.762	31268.58
602.12	31891.62
602.478	32217.03
602.836	32852.27
603.194	33041.65
603.552	33675.3
603.91	33900.61
604.268	34706.23
604.625	34793.01
604.983	35403.84
605.341	35703.72
605.698	36132.41
606.056	36437.71
606.413	36850.58
606.771	37140.29
607.128	37486.73
607.485	37515.2
607.843	38028.63
608.2	38286.48
608.557	38762.17
608.914	38692.57
609.272	39122.16
609.629	39620.68
609.986	39947
610.343	39959.66
610.7	40467.44
611.057	40695.91
611.414	41038.05
611.771	41141.55
612.127	41711.25
612.484	42022.65
612.841	42306.49
613.198	42560.04
613.554	42680.04
613.911	43132.45
614.267	43345.33
614.624	43414.25
614.98	43527.7
615.337	43954.58
615.693	43973.56
616.05	44105.54
616.406	44277.06
616.762	44268.92
617.118	44362.03
617.475	44396.6
617.831	44539.42
618.187	44758.4
618.543	45003.59
618.899	45286.3
619.255	45185.96
619.611	45245.84
619.967	45666.17
620.323	45752.05
620.678	45897.58
621.034	45961.53
621.39	46043.56
621.746	46026.39
622.101	46647.84
622.457	46666.82
622.812	46708.4
623.168	46841.51
623.523	46906.82
623.879	47149.52
624.234	46884.22
624.589	47170.77
624.945	47116.98
625.3	47102.07
625.655	47144.55
626.01	47192.69
626.365	47238.33
626.72	47112.46
627.075	47247.37
627.43	47101.39
627.785	47016.65
628.14	47012.13
628.495	47260.48
628.85	47185.23
629.205	47097.77
629.559	47552.45
629.914	47306.81
630.269	47503.64
630.623	47433.58
630.978	47469.06
631.332	47785.21
631.687	47766.68
632.041	47728.94
632.396	47832.22
632.75	47849.84
633.104	47877.41
633.459	47796.06
633.813	47761.94
634.167	47648.94
634.521	47816.85
634.875	47728.72
635.229	47599
635.583	47423.19
635.937	47390.87
636.291	47357.2
636.645	47349.52
636.999	47121.95
637.352	47315.62
637.706	47000.6
638.06	47243.76
638.413	47128.96
638.767	46910.21
639.121	47090.54
639.474	46895.29
639.828	46914.27
640.181	47147.04
640.534	47258.22
640.888	47169.86
641.241	47057.55
641.594	47165.79
641.947	47329.41
642.301	47186.81
642.654	47237.2
643.007	47310.42
643.36	47196.75
643.713	47197.43
644.066	47331.44
644.419	47001.5
644.771	46849.64
645.124	46286.49
645.477	46223.67
645.83	45923.79
646.182	45709.79
646.535	45492.84
646.888	45617.13
647.24	45369.46
647.593	45563.8
647.945	45442.22
648.298	45279.06
648.65	45136.47
649.002	45074.78
649.355	45154.1
649.707	45225.28
650.059	45240.65
650.411	45983.23
650.763	45910.91
651.115	46331.24
651.467	46201.07
651.819	46254.18
652.171	46304.57
652.523	46242.43
652.875	46367.4
653.227	46044.24
653.578	46442.65
653.93	46485.36
654.282	46239.49
654.633	46058.48
654.985	46036.56
655.337	46103
655.688	45898.26
656.039	46127.85
656.391	45661.2
656.742	45745.94
657.094	45660.75
657.445	45714.08
657.796	45571.03
658.147	45474.99
658.498	45461.66
658.849	45510.92
659.2	45450.36
659.551	45504.37
659.902	45520.87
660.253	45442.45
660.604	45660.3
660.955	45578.26
661.306	45601.77
661.656	45655.55
662.007	45783.46
662.358	45727.41
662.708	45766.28
663.059	45712.95
663.409	45585.72
663.76	45867.52
664.11	45785.49
664.461	45819.16
664.811	45739.84
665.161	45673.63
665.511	45545.27
665.862	45579.62
666.212	45720.41
666.562	45449.91
666.912	45427.99
667.262	45278.39
667.612	45198.61
667.962	45107.99
668.312	45079.29
668.662	45189.12
669.011	45036.13
669.361	44931.28
669.711	44880.88
670.06	44860.09
670.41	44768.34
670.76	44777.83
671.109	44985.06
671.459	45025.51
671.808	44896.02
672.157	44989.13
672.507	44873.42
672.856	44852.63
673.205	45027.32
673.554	45161.33
673.904	45102.57
674.253	45320.64
674.602	45071.39
674.951	44649.02
675.3	44483.15
675.649	45096.47
675.998	44901.45
676.346	45017.83
676.695	44977.15
677.044	44597.73
677.393	44785.97
677.741	44680.44
678.09	44717.04
678.438	44404.06
678.787	44457.16
679.135	44220.11
679.484	43940.12
679.832	44046.55
680.181	43870.51
680.529	44002.71
680.877	43845.2
681.225	43793.9
681.573	44147.34
681.922	43828.25
682.27	43587.36
682.618	43881.81
682.966	43832.32
683.314	43937.86
683.661	43801.81
684.009	43578.77
684.357	43708.03
684.705	43682.27
685.053	43724.75
685.4	43771.53
685.748	43576.96
686.095	43610.86
686.443	43466.23
686.79	43427.13
687.138	43581.71
687.485	43317.31
687.832	43131.1
688.18	43205.22
688.527	42830.99
688.874	42845.46
689.221	42746.7
689.568	42544.45
689.915	42400.5
690.262	42313.49
690.609	42230.1
690.956	42049.54
691.303	41843.22
691.65	41620.85
691.997	41530.69
692.344	41399.17
692.69	41434.64
693.037	41531.14
693.383	41244.82
693.73	41394.42
694.077	41185.39
694.423	41169.57
694.769	40967.99
695.116	41061.55
695.462	41071.26
695.808	41012.96
696.155	40980.42
696.501	40784.27
696.847	40898.84
697.193	40586.31
697.539	40832.4
697.885	40581.11
698.231	40459.53
698.577	40328.46
698.923	40328.91
699.269	40021.35
699.614	39993.33
699.96	40058.18
700.306	39861.8
700.651	39593.34
700.997	39527.58
701.342	39263.85
701.688	39261.59
702.033	38993.35
702.379	38858.67
702.724	38741.83
703.069	38893.47
703.415	38340.72
703.76	38422.07
704.105	38420.94
704.45	38182.53
704.795	38099.14
705.14	37967.84
705.485	37954.96
705.83	37900.5
706.175	37887.17
706.52	37731.69
706.865	37711.13
707.209	37772.14
707.554	37669.77
707.899	37691.92
708.243	37622.77
708.588	37542.32
708.932	37459.61
709.277	37488.99
709.621	37431.59
709.966	37270.91
710.31	37325.83
710.654	36992.73
710.998	37139.62
711.342	37084.7
711.687	37051.71
712.031	36815.56
712.375	36631.83
712.719	36579.41
713.063	36542.8
713.407	36625.96
713.75	36251.28
714.094	36139.87
714.438	35995.24
714.782	36021.68
715.125	35842.02
715.469	35777.17
715.812	35659.66
716.156	35226.45
716.499	35430.28
716.843	35385.54
717.186	35306.44
717.53	35490.62
717.873	35276.61
718.216	35270.74
718.559	35269.61
718.902	34917.08
719.246	35017.41
719.589	35009.96
719.932	34878.89
720.275	35000.92
720.617	34943.29
720.96	34936.74
721.303	35048.37
721.646	35003.85
721.989	34874.14
722.331	34938.54
722.674	34764.09
723.016	34786.01
723.359	34770.87
723.701	34855.83
724.044	34465.11
724.386	34390.54
724.729	34398.45
725.071	34361.61
725.413	34195.06
725.755	34250.65
726.097	34054.5
726.439	33676.43
726.782	33742.87
727.124	33934.96
727.465	33604.57
727.807	33491.13
728.149	33442.76
728.491	33320.51
728.833	33311.02
729.175	33202.55
729.516	33254.75
729.858	33052.04
730.199	33123.68
730.541	32996.9
730.882	32852.27
731.224	33006.84
731.565	32856.79
731.906	33020.63
732.248	33040.29
732.589	32878.03
732.93	32941.99
733.271	32833.74
733.612	32932.5
733.953	33026.5
734.294	32918.94
734.635	32699.28
734.976	32953.51
735.317	32726.17
735.658	32798.94
735.999	32758.94
736.339	32732.27
736.68	32693.86
737.021	32658.6
737.361	32591.49
737.702	32520.3
738.042	32429.46
738.383	32336.13
738.723	32575.89
739.063	32169.8
739.404	32221.55
739.744	32037.83
740.084	31898.17
740.424	31897.27
740.764	31731.85
741.104	31786.31
741.444	31697.95
741.784	31535.92
742.124	31536.15
742.464	31528.24
742.804	31315.36
743.143	31327.57
743.483	31220.45
743.823	31119.66
744.162	31136.84
744.502	31187.68
744.841	31060.45
745.181	31222.94
745.52	30918.31
745.86	31032.66
746.199	31087.8
746.538	31088.93
746.877	31239.88
747.216	31208.25
747.556	31136.61
747.895	31104.75
748.234	31051.19
748.573	30959.21
748.911	30989.27
749.25	30960.12
749.589	30872.44
749.928	30777.98
750.267	30890.74
750.605	30792.44
750.944	30635.38
751.283	30502.96
751.621	30465.89
751.96	30355.39
752.298	30276.52
752.636	30261.83
752.975	30057.77
753.313	29945.91
753.651	30022.52
753.989	29742.07
754.327	29684.22
754.666	29421.63
755.004	29565.8
755.342	29464.34
755.679	29385.92
756.017	29150
756.355	29252.14
756.693	29126.49
757.031	29207.62
757.368	28956.1
757.706	29011.24
758.044	28702.32
758.381	28894.64
758.719	28760.18
759.056	28741.87
759.394	28655.55
759.731	28643.57
760.068	28507.3
760.405	28582.33
760.743	28354.08
761.08	28615.32
