Data from red_shiny_book_FLMS001491_00073.txt Node
Date: Wed Feb 08 15:25:21 GMT 2017
User: dcchb
Spectrometer: FLMS00149
Trigger mode: 0
Integration Time (sec): 2.000000E-2
Scans to average: 10
Electric dark correction enabled: true
Nonlinearity correction enabled: false
Boxcar width: 0
XAxis mode: Wavelengths
Number of Pixels in Spectrum: 2048
>>>>>Begin Spectral Data<<<<<
341.393	-9.43
341.776	-9.43
342.16	-9.43
342.543	-61.86
342.927	-57.12
343.31	-80.39
343.693	-75.2
344.077	-54.86
344.46	-56.21
344.843	-51.02
345.226	-54.18
345.61	-28.87
345.993	-3.56
346.376	-12.82
346.759	-6.72
347.142	19.72
347.525	44.35
347.908	71.69
348.291	64.01
348.674	107.4
349.057	116.66
349.44	120.73
349.823	144.69
350.206	175.87
350.588	188.3
350.971	212.03
351.354	228.07
351.737	237.56
352.119	255.19
352.502	281.63
352.884	289.54
353.267	294.06
353.65	307.62
354.032	302.65
354.414	302.87
354.797	320.73
355.179	292.93
355.562	333.38
355.944	318.92
356.326	325.25
356.709	313.72
357.091	343.32
357.473	344.68
357.855	337
358.238	345.13
358.62	352.59
359.002	345.13
359.384	353.95
359.766	330.67
360.148	338.13
360.53	355.08
360.912	335.64
361.294	320.05
361.676	335.87
362.057	313.49
362.439	333.16
362.821	315.3
363.203	333.16
363.584	330.22
363.966	333.38
364.348	325.02
364.729	321.63
365.111	316.21
365.493	325.47
365.874	342.65
366.256	334.28
366.637	302.87
367.019	313.04
367.4	335.87
367.781	295.87
368.163	318.47
368.544	313.95
368.925	326.6
369.306	315.98
369.688	301.97
370.069	301.29
370.45	334.06
370.831	345.36
371.212	313.49
371.593	335.19
371.974	323.44
372.355	330.44
372.736	318.69
373.117	344.45
373.498	307.85
373.879	309.2
374.26	318.47
374.641	308.3
375.021	311.01
375.402	321.18
375.783	323.44
376.163	332.03
376.544	327.28
376.925	314.4
377.305	314.62
377.686	328.86
378.066	330.22
378.447	337.22
378.827	348.52
379.208	306.49
379.588	337.67
379.968	330.22
380.349	359.14
380.729	345.13
381.109	327.96
381.489	333.38
381.87	334.51
382.25	319.14
382.63	332.48
383.01	346.26
383.39	325.47
383.77	351.23
384.15	367.73
384.53	342.87
384.91	361.85
385.29	356.21
385.67	355.98
386.049	364.57
386.429	358.92
386.809	376.54
387.189	351.91
387.568	366.83
387.948	343.55
388.328	380.39
388.707	390.33
389.087	375.41
389.466	374.74
389.846	382.87
390.225	369.99
390.605	400.27
390.984	353.49
391.363	354.85
391.743	392.36
392.122	380.84
392.501	381.74
392.881	364.57
393.26	363.66
393.639	389.88
394.018	381.52
394.397	378.8
394.776	379.26
395.155	374.51
395.534	392.81
395.913	398.92
396.292	395.98
396.671	394.17
397.05	385.58
397.429	392.59
397.808	392.59
398.186	399.82
398.565	402.31
398.944	408.41
399.323	414.96
399.701	397.56
400.08	409.76
400.458	429.2
400.837	410.22
401.215	395.75
401.594	401.4
401.972	387.39
402.351	407.5
402.729	398.92
403.107	419.25
403.486	426.94
403.864	421.29
404.242	419.71
404.62	426.94
404.999	433.04
405.377	433.27
405.755	438.24
406.133	425.58
406.511	414.28
406.889	436.88
407.267	436.2
407.645	440.04
408.023	439.14
408.401	447.5
408.779	431.91
409.156	447.05
409.534	451.12
409.912	456.77
410.29	450.44
410.667	449.76
411.045	454.96
411.422	478.91
411.8	480.04
412.178	471.23
412.555	508.97
412.933	473.72
413.31	475.52
413.687	505.35
414.065	500.38
414.442	487.05
414.819	489.99
415.197	515.3
415.574	519.14
415.951	515.3
416.328	496.31
416.705	525.24
417.082	521.62
417.46	535.41
417.837	532.92
418.214	515.3
418.591	542.19
418.967	536.09
419.344	547.39
419.721	527.95
420.098	541.06
420.475	554.17
420.852	584.67
421.228	554.17
421.605	572.47
421.982	572.7
422.358	560.04
422.735	556.65
423.111	576.31
423.488	603.43
423.864	575.86
424.241	589.87
424.617	601.62
424.994	583.77
425.37	607.05
425.746	614.05
426.123	610.66
426.499	613.83
426.875	598.01
427.251	599.81
427.627	586.26
428.003	626.25
428.379	617.89
428.756	647.27
429.132	640.72
429.507	671.68
429.883	661.51
430.259	666.48
430.635	631
431.011	646.82
431.387	666.71
431.763	670.32
432.138	680.49
432.514	674.84
432.89	684.33
433.265	708.96
433.641	705.57
434.016	721.62
434.392	713.03
434.767	740.83
435.143	719.81
435.518	731.34
435.894	698.8
436.269	743.77
436.644	723.65
437.02	733.6
437.395	749.42
437.77	768.85
438.145	798
438.52	795.52
438.895	780.15
439.271	784.44
439.646	783.99
440.021	764.78
440.395	775.4
440.77	753.93
441.145	768.4
441.52	812.24
441.895	801.39
442.27	816.08
442.645	820.83
443.019	823.99
443.394	819.47
443.769	823.76
444.143	823.09
444.518	851.11
444.892	832.13
445.267	836.19
445.641	846.36
446.016	825.35
446.39	822.41
446.764	832.13
447.139	855.18
447.513	860.6
447.887	891.56
448.262	905.8
448.636	875.51
449.01	873.48
449.384	887.72
449.758	877.55
450.132	866.93
450.506	855.4
450.88	875.97
451.254	890.88
451.628	915.06
452.002	905.57
452.376	915.74
452.75	940.6
453.123	936.76
453.497	953.7
453.871	957.55
454.244	947.38
454.618	925
454.992	935.85
455.365	935.63
455.739	956.19
456.112	932.24
456.486	919.81
456.859	969.52
457.232	985.79
457.606	1000.26
457.979	1019.92
458.352	1021.72
458.725	1020.37
459.099	1042.51
459.472	1041.84
459.845	1012.01
460.218	1004.1
460.591	995.28
460.964	1002.29
461.337	1025.57
461.71	1034.15
462.083	1052.91
462.456	1066.47
462.829	1103.98
463.201	1086.58
463.574	1102.4
463.947	1115.06
464.32	1107.82
464.692	1130.42
465.065	1126.58
465.438	1112.57
465.81	1115.96
466.183	1110.31
466.555	1135.17
466.928	1131.1
467.3	1124.09
467.672	1147.82
468.045	1202.51
468.417	1195.51
468.789	1206.8
469.161	1230.98
469.534	1250.42
469.906	1232.11
470.278	1234.37
470.65	1249.97
471.022	1234.6
471.394	1244.54
471.766	1237.76
472.138	1267.59
472.51	1279.12
472.882	1310.3
473.253	1353.47
473.625	1381.94
473.997	1416.52
474.369	1430.98
474.74	1433.24
475.112	1431.21
475.484	1430.3
475.855	1487.48
476.227	1427.36
476.598	1451.77
476.97	1479.57
477.341	1463.97
477.713	1499
478.084	1507.36
478.455	1570.86
478.827	1573.8
479.198	1620.13
479.569	1628.71
479.94	1677.3
480.311	1726.11
480.682	1748.03
481.053	1777.41
481.424	1756.39
481.795	1737.64
482.166	1762.72
482.537	1753
482.908	1805.88
483.279	1779.67
483.65	1814.47
484.021	1863.96
484.391	1894.47
484.762	1963.62
485.133	1993.45
485.503	2006.78
485.874	2082.04
486.244	2063.96
486.615	2124.07
486.985	2125.42
487.356	2142.15
487.726	2115.26
488.097	2161.81
488.467	2139.44
488.837	2155.48
489.207	2227.57
489.578	2210.17
489.948	2267.57
490.318	2341.92
490.688	2349.6
491.058	2442.03
491.428	2494.23
491.798	2469.6
492.168	2570.61
492.538	2537.84
492.908	2587.11
493.278	2578.29
493.648	2523.15
494.017	2536.94
494.387	2532.87
494.757	2532.19
495.126	2555.92
495.496	2597.95
495.866	2627.11
496.235	2667.78
496.605	2668.91
496.974	2741.23
497.344	2787.55
497.713	2835.46
498.082	2852.41
498.452	2894.44
498.821	2902.81
499.19	2904.39
499.559	2897.16
499.928	2881.56
500.298	2831.39
500.667	2802.92
501.036	2828.91
501.405	2830.72
501.774	2814.22
502.143	2878.62
502.512	2913.65
502.88	2957.72
503.249	2980.32
503.618	3024.16
503.987	3113.65
504.356	3154.1
504.724	3160.2
505.093	3125.62
505.462	3098.28
505.83	3095.79
506.199	3057.15
506.567	3094.89
506.936	3011.5
507.304	3025.51
507.672	3013.31
508.041	3035.46
508.409	3074.1
508.777	3085.4
509.145	3142.8
509.514	3133.31
509.882	3242.01
510.25	3259.18
510.618	3320.87
510.986	3307.31
511.354	3357.26
511.722	3357.03
512.09	3315.68
512.458	3275.68
512.826	3266.41
513.193	3208.79
513.561	3215.57
513.929	3175.79
514.297	3204.72
514.664	3222.8
515.032	3268.9
515.4	3244.72
515.767	3323.58
516.135	3365.39
516.502	3409.01
516.869	3479.96
517.237	3463.24
517.604	3497.37
517.972	3530.59
518.339	3538.27
518.706	3499.17
519.073	3466.86
519.44	3437.25
519.808	3381.66
520.175	3380.53
520.542	3384.6
520.909	3380.98
521.276	3346.18
521.643	3357.71
522.009	3403.58
522.376	3495.56
522.743	3522.68
523.11	3595.89
523.477	3674.31
523.843	3723.35
524.21	3771.48
524.577	3792.27
524.943	3792.5
525.31	3783.69
525.676	3841.99
526.043	3757.25
526.409	3743.69
526.776	3719.73
527.142	3666.4
527.508	3643.58
527.874	3703.46
528.241	3706.63
528.607	3715.89
528.973	3752.95
529.339	3812.84
529.705	3938.26
530.071	4026.17
530.437	4064.36
530.803	4124.69
531.169	4177.35
531.535	4232.49
531.901	4211.92
532.267	4232.49
532.632	4241.3
532.998	4220.51
533.364	4176.22
533.73	4137.8
534.095	4149.1
534.461	4099.61
534.826	4082.89
535.192	4079.95
535.557	4124.02
535.923	4176.22
536.288	4244.46
536.653	4295.08
537.019	4364.46
537.384	4450.11
537.749	4546.38
538.114	4629.77
538.479	4658.69
538.845	4694.4
539.21	4688.07
539.575	4683.78
539.94	4654.85
540.305	4653.04
540.67	4625.7
541.034	4622.76
541.399	4547.06
541.764	4535.53
542.129	4505.25
542.494	4541.63
542.858	4535.76
543.223	4549.54
543.587	4635.41
543.952	4775.3
544.316	4794.51
544.681	4858.46
545.045	4914.5
545.41	5033.6
545.774	5112.24
546.138	5120.83
546.503	5093.48
546.867	5130.09
547.231	5151.56
547.595	5087.61
547.959	5054.16
548.324	4984.11
548.688	4901.85
549.052	4862.3
549.416	4820.95
549.779	4794.28
550.143	4816.2
550.507	4838.35
550.871	4865.69
551.235	4907.5
551.599	4959.25
551.962	5080.15
552.326	5111.79
552.689	5192.91
553.053	5266.81
553.417	5343.19
553.78	5447.37
554.143	5392.23
554.507	5381.38
554.87	5391.78
555.234	5340.93
555.597	5266.36
555.96	5260.94
556.323	5173.03
556.686	5093.26
557.05	5048.74
557.413	5041.73
557.776	5004.67
558.139	5062.07
558.502	5073.6
558.865	5086.93
559.228	5183.65
559.59	5234.95
559.953	5337.54
560.316	5435.85
560.679	5514.04
561.041	5650.98
561.404	5712.45
561.767	5702.05
562.129	5681.94
562.492	5731.66
562.854	5671.77
563.217	5632.22
563.579	5650.76
563.941	5487.6
564.304	5492.12
564.666	5466.13
565.028	5410.76
565.39	5346.13
565.753	5330.54
566.115	5380.48
566.477	5382.29
566.839	5431.78
567.201	5501.83
567.563	5587.25
567.925	5704.09
568.287	5792.45
568.648	5925.1
569.01	5963.52
569.372	6076.28
569.734	6074.93
570.095	6186.33
570.457	6178.2
570.819	6146.34
571.18	6116.05
571.542	6127.35
571.903	6022.72
572.265	6040.12
572.626	5945.89
572.987	5916.29
573.349	5890.52
573.71	5910.86
574.071	5872.44
574.432	5889.62
574.794	6014.36
575.155	6091.87
575.516	6091.87
575.877	6264.07
576.238	6374.13
576.599	6579.09
576.96	6743.38
577.32	6849.14
577.681	6955.13
578.042	7099.08
578.403	7233.99
578.763	7320.54
579.124	7371.39
579.485	7506.53
579.845	7564.38
580.206	7556.47
580.566	7619.52
580.927	7754.65
581.287	7778.38
581.648	7879.4
582.008	8078.94
582.368	8155.32
582.728	8360.51
583.089	8639.15
583.449	8816.32
583.809	9072.59
584.169	9450.43
584.529	9720.03
584.889	10201.14
585.249	10548.93
585.609	10938.07
585.969	11278.4
586.329	11667.77
586.688	11995.9
587.048	12554.53
587.408	12893.73
587.768	13146.15
588.127	13509.08
588.487	13837.88
588.846	14163.3
589.206	14465.66
589.565	14699.33
589.925	15105.42
590.284	15422.48
590.643	15785.18
591.003	16158.95
591.362	16643.91
591.721	17022.66
592.08	17417
592.44	18131.33
592.799	18559.12
593.158	19044.75
593.517	19692.65
593.876	20111.39
594.235	20649.23
594.593	21205.6
594.952	21871.8
595.311	22175.52
595.67	22784.99
596.029	23295.72
596.387	23862.93
596.746	24187.67
597.104	24621.56
597.463	24972.96
597.822	25353.29
598.18	25578.59
598.538	25906.04
598.897	26412.92
599.255	26522.52
599.613	27316.85
599.972	27412.9
600.33	27829.38
600.688	28089.04
601.046	28687.44
601.404	29331.04
601.762	29507.76
602.12	30211.69
602.478	30636.31
602.836	31076.75
603.194	31329.4
603.552	31922.61
603.91	32111.98
604.268	32728.46
604.625	33101.78
604.983	33593.98
605.341	33717.59
605.698	34172.27
606.056	34650.22
606.413	34754.62
606.771	35061.51
607.128	35356.64
607.485	35418.56
607.843	35590.76
608.2	35966.79
608.557	36192.33
608.914	36326.78
609.272	36731.07
609.629	36934.23
609.986	37164.95
610.343	37250.6
610.7	37745.28
611.057	38098.94
611.414	38243.57
611.771	38533.96
612.127	38964.68
612.484	39242.87
612.841	39523.09
613.198	39694.15
613.554	39981.6
613.911	40340.24
614.267	40476.96
614.624	40652.77
614.98	40980.22
615.337	41310.61
615.693	41388.35
616.05	41432.19
616.406	41764.83
616.762	41517.83
617.118	41650.49
617.475	41602.8
617.831	41678.73
618.187	41841.44
618.543	41826.98
618.899	42092.74
619.255	41994.43
619.611	42203.24
619.967	42376.12
620.323	42562.55
620.678	42486.4
621.034	42581.54
621.39	42699.72
621.746	42895.2
622.101	43532.92
622.457	43331.35
622.812	43596.65
623.168	43727.04
623.523	43913.25
623.879	44333.35
624.234	44073.93
624.589	44186.24
624.945	44317.54
625.3	44317.76
625.655	44433.24
626.01	44299.23
626.365	44411.09
626.72	44322.05
627.075	44186.24
627.43	44198.44
627.785	43919.81
628.14	44093.36
628.495	44189.4
628.85	43839.58
629.205	43874.84
629.559	44069.63
629.914	43937.43
630.269	44159.12
630.623	44110.99
630.978	43994.61
631.332	44360.7
631.687	44434.14
632.041	44353.92
632.396	44610.41
632.75	44485.21
633.104	44605.66
633.459	44644.98
633.813	44677.07
634.167	44698.77
634.521	44805.66
634.875	44943.96
635.229	44762.04
635.583	44524.08
635.937	44671.2
636.291	44552.11
636.645	44478.21
636.999	44360.25
637.352	44356.86
637.706	44103.08
638.06	44176.07
638.413	43865.34
638.767	43760.49
639.121	43767.49
639.474	43637.78
639.828	43760.26
640.181	43605.92
640.534	43791.9
640.888	43598.46
641.241	43632.58
641.594	43706.25
641.947	43729.08
642.301	43757.32
642.654	43955.74
643.007	43984.89
643.36	43943.31
643.713	43874.38
644.066	44175.84
644.419	43936.75
644.771	43691.56
645.124	43287.96
645.477	43224.68
645.83	43106.49
646.182	42874.18
646.535	42746.5
646.888	42894.75
647.24	42440.75
647.593	42745.37
647.945	42568.2
648.298	42394.87
648.65	42135.9
649.002	41964.15
649.355	42037.6
649.707	41746.76
650.059	41814.1
650.411	42411.14
650.763	42388.09
651.115	42845.71
651.467	42664.25
651.819	42738.14
652.171	42673.96
652.523	42627.41
652.875	42854.75
653.227	42535.21
653.578	43040.51
653.93	42951.02
654.282	42753.73
654.633	42932.03
654.985	43014.07
655.337	43015.65
655.688	43108.75
656.039	43235.3
656.391	43060.39
656.742	42945.14
657.094	43033.28
657.445	43065.14
657.796	42876.22
658.147	42606.17
658.498	42645.71
658.849	42562.33
659.2	42452.27
659.551	42351.71
659.902	42248.44
660.253	42221.55
660.604	42215.9
660.955	41851.61
661.306	41998.95
661.656	42036.92
662.007	41848.67
662.358	41980.42
662.708	42011.38
663.059	41891.16
663.409	41841.67
663.76	42229.23
664.11	42169.34
664.461	42246.63
664.811	42350.58
665.161	42328.21
665.511	42319.62
665.862	42400.75
666.212	42570.69
666.562	42621.53
666.912	42520.29
667.262	42560.07
667.612	42486.4
667.962	42462.44
668.312	42492.72
668.662	42486.62
669.011	42315.55
669.361	42270.58
669.711	42005.51
670.06	41988.11
670.41	41734.78
670.76	41720.54
671.109	41799.18
671.459	41464.28
671.808	41479.87
672.157	41661.33
672.507	41237.62
672.856	41039.2
673.205	41158.97
673.554	41324.62
673.904	41188.8
674.253	41626.08
674.602	41304.96
674.951	40869.26
675.3	40632.21
675.649	41351.29
675.998	41473.32
676.346	41559.87
676.695	41623.82
677.044	41414.79
677.393	41593.77
677.741	41797.6
678.09	41607.32
678.438	41697.27
678.787	41702.91
679.135	41713.08
679.484	41338.86
679.832	41517.61
680.181	41205.07
680.529	41220.67
680.877	41147.22
681.225	40922.14
681.573	41203.49
681.922	40786.1
682.27	40547.92
682.618	40592.89
682.966	40497.97
683.314	40598.09
683.661	40269.51
684.009	40066.57
684.357	39857.99
684.705	39892.57
685.053	39941.61
685.4	39897.09
685.748	39624.78
686.095	39585.91
686.443	39659.8
686.79	39703.87
687.138	39754.94
687.485	39727.83
687.832	39662.29
688.18	39688.73
688.527	39690.09
688.874	39715.17
689.221	39601.28
689.568	39581.84
689.915	39794.26
690.262	39583.65
690.609	39626.81
690.956	39447.61
691.303	39503.88
691.65	39213.26
691.997	39106.6
692.344	38930.56
692.69	38910.45
693.037	38919.94
693.383	38482.89
693.73	38517.91
694.077	38171.26
694.423	38072.28
694.769	37956.12
695.116	37824.82
695.462	37668.67
695.808	37531.95
696.155	37423.93
696.501	37196.82
696.847	37239.98
697.193	36963.38
697.539	37119.98
697.885	36805.87
698.231	36598.19
698.577	36782.82
698.923	36647.91
699.269	36590.73
699.614	36494.69
699.96	36634.8
700.306	36474.13
700.651	36443.84
700.997	36571.98
701.342	36562.48
701.688	36489.72
702.033	36362.72
702.379	36316.39
702.724	36487.91
703.069	36394.58
703.415	35934.7
703.76	36020.35
704.105	35987.81
704.45	35880.69
704.795	35567.93
705.14	35544.43
705.485	35499.46
705.83	35388.05
706.175	35266.93
706.52	35111.22
706.865	34910.55
707.209	34799.37
707.554	34638.69
707.899	34549.2
708.243	34308.53
708.588	34315.09
708.932	33992.16
709.277	34054.08
709.621	33861.31
709.966	33688.44
710.31	33820.64
710.654	33533.41
710.998	33496.35
711.342	33709.23
711.687	33636.23
712.031	33456.58
712.375	33329.35
712.719	33544.03
713.063	33469.23
713.407	33668.78
713.75	33443.24
714.094	33444.15
714.438	33501.32
714.782	33467.43
715.125	33366.64
715.469	33442.57
715.812	33287.32
716.156	33114.21
716.499	33257.26
716.843	33278.73
717.186	33134.55
717.53	33246.64
717.873	33082.35
718.216	33041.22
718.559	32838.97
718.902	32513.78
719.246	32658.41
719.589	32427.68
719.932	32191.53
720.275	32172.77
720.617	32013.68
720.96	31990.18
721.303	31911.53
721.646	31858.43
721.989	31612.56
722.331	31725.55
722.674	31560.58
723.016	31475.39
723.359	31443.07
723.701	31636.06
724.044	31335.28
724.386	31209.63
724.729	31373.69
725.071	31229.29
725.413	31361.72
725.755	31234.26
726.097	31181.16
726.439	31084.89
726.782	31163.53
727.124	31305.45
727.465	31140.03
727.807	31103.19
728.149	31151.33
728.491	31039.47
728.833	31158.56
729.175	31195.85
729.516	31027.72
729.858	31106.36
730.199	31062.74
730.541	31074.72
730.882	30944.33
731.224	30947.04
731.565	30698.91
731.906	30746.14
732.248	30858.23
732.589	30487.62
732.93	30490.33
733.271	30424.79
733.612	30299.6
733.953	30165.37
734.294	30068.19
734.635	29719.05
734.976	29860.97
735.317	29698.48
735.658	29747.52
735.999	29622.55
736.339	29568.32
736.68	29696.22
737.021	29458.72
737.361	29348.66
737.702	29358.61
738.042	29308.21
738.383	29378.49
738.723	29414.42
739.063	29298.5
739.404	29308.44
739.744	29462.11
740.084	29320.19
740.424	29412.16
740.764	29343.92
741.104	29691.93
741.444	29404.48
741.784	29366.97
742.124	29347.76
742.464	29313.41
742.804	29492.61
743.143	29354.76
743.483	29337.36
743.823	29343.92
744.162	29315.22
744.502	29216.69
744.841	29289.23
745.181	29137.82
745.52	29104.83
745.86	29100.76
746.199	28828.45
746.538	28797.27
746.877	28830.03
747.216	28724.5
747.556	28546.65
747.895	28521.57
748.234	28384.62
748.573	28214.23
748.911	28160.22
749.25	28104.63
749.589	27879.32
749.928	27928.14
750.267	27972.2
750.605	27820.12
750.944	27712.77
751.283	27541.03
751.621	27638.88
751.96	27500.8
752.298	27521.14
752.636	27496.96
752.975	27320.24
753.313	27277.53
753.651	27445.89
753.989	27313.01
754.327	27397.3
754.666	27285.21
755.004	27314.37
755.342	27299
755.679	27311.43
756.017	27155.27
756.355	27382.61
756.693	27228.95
757.031	27224.2
757.368	27087.93
757.706	26991.44
758.044	26984.66
758.381	27050.87
758.719	26847.71
759.056	26874.38
759.394	26772.23
759.731	26540.38
760.068	26720.71
760.405	26480.04
760.743	26360.49
