Data from red_cardboard_box_FLMS001491_00070.txt Node
Date: Wed Feb 08 11:32:57 GMT 2017
User: dcchb
Spectrometer: FLMS00149
Trigger mode: 0
Integration Time (sec): 2.000000E-2
Scans to average: 10
Electric dark correction enabled: true
Nonlinearity correction enabled: false
Boxcar width: 0
XAxis mode: Wavelengths
Number of Pixels in Spectrum: 2048
>>>>>Begin Spectral Data<<<<<
341.393	-6.75
341.776	-6.75
342.16	-6.75
342.543	-65.28
342.927	-57.15
343.31	-66.86
343.693	-69.8
344.077	-68.9
344.46	-60.08
344.843	-49.46
345.226	-52.17
345.61	-20.31
345.993	-10.59
346.376	-11.5
346.759	4.77
347.142	34.38
347.525	54.04
347.908	58.11
348.291	62.17
348.674	91.55
349.057	104.66
349.44	116.64
349.823	138.33
350.206	172
350.588	190.76
350.971	220.14
351.354	221.72
351.737	236.63
352.119	261.49
352.502	290.87
352.884	276.41
353.267	272.34
353.65	302.62
354.032	303.07
354.414	309.85
354.797	325.67
355.179	323.18
355.562	343.52
355.944	340.13
356.326	327.93
356.709	323.18
357.091	339.23
357.473	341.04
357.855	354.37
358.238	351.66
358.62	346.01
359.002	339.23
359.384	353.24
359.766	333.8
360.148	336.74
360.53	353.92
360.912	345.56
361.294	327.48
361.676	339.23
362.057	305.78
362.439	337.87
362.821	347.82
363.203	327.03
363.584	347.59
363.966	339.91
364.348	331.09
364.729	316.4
365.111	310.75
365.493	317.99
365.874	324.31
366.256	319.79
366.637	309.62
367.019	320.25
367.4	333.13
367.781	313.24
368.163	309.85
368.544	309.17
368.925	325.9
369.306	303.98
369.688	299.23
370.069	322.73
370.45	314.82
370.831	300.36
371.212	296.74
371.593	344.65
371.974	306.91
372.355	302.39
372.736	313.47
373.117	332.45
373.498	306.46
373.879	307.14
374.26	319.57
374.641	302.17
375.021	343.07
375.402	325.22
375.783	335.84
376.163	314.82
376.544	327.03
376.925	294.48
377.305	320.25
377.686	309.4
378.066	317.08
378.447	327.03
378.827	347.82
379.208	324.54
379.588	331.32
379.968	333.8
380.349	362.05
380.729	335.39
381.109	310.75
381.489	340.81
381.87	334.26
382.25	320.25
382.63	338.1
383.01	322.73
383.39	337.65
383.77	330.42
384.15	328.61
384.53	341.26
384.91	334.71
385.29	324.54
385.67	347.82
386.049	368.15
386.429	340.13
386.809	338.78
387.189	359.57
387.568	342.17
387.948	344.43
388.328	354.14
388.707	354.14
389.087	353.24
389.466	343.3
389.846	356.86
390.225	362.05
390.605	336.97
390.984	350.53
391.363	356.63
391.743	349.4
392.122	341.04
392.501	353.24
392.881	338.32
393.26	369.28
393.639	360.92
394.018	361.15
394.397	364.09
394.776	353.01
395.155	376.74
395.534	365.44
395.913	362.05
396.292	392.79
396.671	364.54
397.05	376.06
397.429	369.28
397.808	366.35
398.186	372.67
398.565	369.28
398.944	390.75
399.323	374.48
399.701	381.26
400.08	390.07
400.458	383.07
400.837	374.71
401.215	379.68
401.594	376.52
401.972	386.23
402.351	393.69
402.729	367.02
403.107	376.97
403.486	399.11
403.864	395.27
404.242	383.52
404.62	407.7
404.999	375.39
405.377	405.22
405.755	380.36
406.133	396.63
406.511	379.68
406.889	398.89
407.267	393.01
407.645	377.65
408.023	397.31
408.401	408.61
408.779	407.48
409.156	420.36
409.534	407.48
409.912	404.09
410.29	402.28
410.667	399.79
411.045	399.34
411.422	416.29
411.8	402.05
412.178	426.68
412.555	434.82
412.933	420.13
413.31	417.42
413.687	428.72
414.065	428.49
414.442	431.88
414.819	427.59
415.197	441.37
415.574	431.88
415.951	443.41
416.328	446.12
416.705	451.54
417.082	446.34
417.46	461.71
417.837	448.83
418.214	452.9
418.591	444.54
418.967	453.12
419.344	447.93
419.721	467.59
420.098	468.04
420.475	454.25
420.852	459.9
421.228	477.53
421.605	451.09
421.982	470.98
422.358	479.56
422.735	463.97
423.111	465.1
423.488	482.28
423.864	470.75
424.241	480.24
424.617	500.81
424.994	480.47
425.37	499.9
425.746	475.5
426.123	500.13
426.499	490.41
426.875	486.12
427.251	494.48
427.627	500.58
428.003	504.65
428.379	514.59
428.756	520.92
429.132	504.65
429.507	529.51
429.883	511.88
430.259	503.52
430.635	533.8
431.011	541.03
431.387	527.7
431.763	538.55
432.138	541.26
432.514	550.07
432.89	541.26
433.265	547.81
433.641	572.22
434.016	534.93
434.392	557.3
434.767	569.28
435.143	539.22
435.518	563.63
435.894	537.87
436.269	562.5
436.644	581.26
437.02	587.36
437.395	573.8
437.77	572.89
438.145	578.32
438.52	575.83
438.895	590.75
439.271	584.87
439.646	579.9
440.021	593.01
440.395	593.01
440.77	594.81
441.145	576.51
441.52	602.95
441.895	609.5
442.27	600.92
442.645	607.7
443.019	601.14
443.394	631.42
443.769	617.64
444.143	622.38
444.518	626
444.892	632.1
445.267	625.1
445.641	628.03
446.016	626.9
446.39	634.81
446.764	637.3
447.139	643.63
447.513	651.76
447.887	651.08
448.262	634.81
448.636	637.98
449.01	658.77
449.384	674.36
449.758	654.25
450.132	681.59
450.506	659.22
450.88	663.06
451.254	668.03
451.628	657.19
452.002	661.93
452.376	677.3
452.75	670.52
453.123	674.13
453.497	698.54
453.871	707.81
454.244	703.74
454.618	704.19
454.992	703.74
455.365	689.95
455.739	732.21
456.112	715.49
456.486	723.17
456.859	701.48
457.232	727.47
457.606	724.08
457.979	725.21
458.352	726.34
458.725	753
459.099	769.27
459.472	760.01
459.845	778.76
460.218	779.67
460.591	799.1
460.964	782.83
461.337	787.13
461.71	801.59
462.083	790.52
462.456	791.87
462.829	785.09
463.201	821.02
463.574	817.18
463.947	811.08
464.32	836.39
464.692	836.16
465.065	823.74
465.438	853.34
465.81	840.01
466.183	855.15
466.555	874.58
466.928	868.48
467.3	874.58
467.672	875.03
468.045	880.23
468.417	915.03
468.789	894.92
469.161	919.1
469.534	916.61
469.906	930.63
470.278	950.29
470.65	948.25
471.022	982.15
471.394	971.75
471.766	957.97
472.138	991.19
472.51	1022.15
472.882	985.99
473.253	1009.95
473.625	1013.33
473.997	1025.54
474.369	1047.68
474.74	1056.5
475.112	1035.71
475.484	1075.48
475.855	1080.9
476.227	1091.3
476.598	1130.85
476.97	1118.87
477.341	1148.25
477.713	1142.6
478.084	1155.03
478.455	1195.7
478.827	1198.87
479.198	1228.24
479.569	1215.82
479.94	1228.92
480.311	1242.71
480.682	1256.04
481.053	1312.31
481.424	1302.14
481.795	1301.24
482.166	1324.74
482.537	1314.8
482.908	1362.7
483.279	1392.99
483.65	1381.69
484.021	1391.4
484.391	1429.82
484.762	1444.96
485.133	1450.61
485.503	1459.65
485.874	1490.38
486.244	1495.36
486.615	1493.1
486.985	1548.46
487.356	1535.13
487.726	1557.05
488.097	1589.59
488.467	1584.85
488.837	1600.21
489.207	1651.51
489.578	1656.03
489.948	1677.05
490.318	1692.64
490.688	1684.28
491.058	1728.12
491.428	1737.61
491.798	1763.37
492.168	1772.64
492.538	1779.42
492.908	1824.39
493.278	1827.55
493.648	1827.55
494.017	1846.31
494.387	1852.41
494.757	1883.14
495.126	1919.07
495.496	1877.72
495.866	1942.58
496.235	1945.51
496.605	1962.69
496.974	1949.81
497.344	1969.92
497.713	1986.42
498.082	2006.53
498.452	2028.22
498.821	1992.74
499.19	2052.63
499.559	2072.29
499.928	2068.9
500.298	2070.48
500.667	2093.53
501.036	2096.02
501.405	2150.03
501.774	2137.83
502.143	2173.53
502.512	2171.04
502.88	2167.88
503.249	2178.28
503.618	2162.01
503.987	2209.24
504.356	2229.57
504.724	2260.08
505.093	2270.48
505.462	2270.93
505.83	2240.87
506.199	2330.36
506.567	2317.03
506.936	2304.83
507.304	2336.01
507.672	2353.86
508.041	2355.22
508.409	2388.21
508.777	2411.94
509.145	2439.51
509.514	2421.43
509.882	2446.29
510.25	2461.88
510.618	2458.72
510.986	2510.7
511.354	2513.86
511.722	2513.63
512.09	2542.79
512.458	2531.49
512.826	2569.23
513.193	2592.95
513.561	2613.29
513.929	2612.39
514.297	2646.29
514.664	2676.34
515.032	2672.05
515.4	2697.81
515.767	2680.18
516.135	2708.21
516.502	2699.62
516.869	2746.62
517.237	2769.22
517.604	2788.66
517.972	2816.45
518.339	2838.82
518.706	2846.96
519.073	2853.29
519.44	2885.6
519.808	2902.55
520.175	2920.86
520.542	2949.78
520.909	2933.96
521.276	2967.41
521.643	3007.63
522.009	3009.67
522.376	3063.22
522.743	3037.69
523.11	3102.55
523.477	3125.14
523.843	3168.76
524.21	3216.44
524.577	3223.22
524.943	3199.72
525.31	3209.21
525.676	3233.62
526.043	3288.98
526.409	3271.58
526.776	3335.76
527.142	3325.59
527.508	3366.72
527.874	3369.66
528.241	3394.29
528.607	3399.94
528.973	3419.6
529.339	3486.72
529.705	3490.78
530.071	3543.44
530.437	3536.43
530.803	3562.42
531.169	3586.83
531.535	3549.99
531.901	3597.45
532.267	3602.42
532.632	3606.94
532.998	3628.86
533.364	3713.6
533.73	3741.62
534.095	3740.04
534.461	3766.03
534.826	3811.23
535.192	3815.75
535.557	3810.1
535.923	3825.69
536.288	3872.24
536.653	3837.67
537.019	3859.81
537.384	3900.49
537.749	3908.4
538.114	3916.08
538.479	3935.97
538.845	3971.45
539.21	3960.38
539.575	3976.65
539.94	4048.74
540.305	4022.52
540.67	4034.5
541.034	4096.64
541.399	4086.02
541.764	4134.83
542.129	4151.11
542.494	4185.91
542.858	4157.43
543.223	4196.98
543.587	4191.56
543.952	4188.62
544.316	4197.66
544.681	4216.64
545.045	4263.87
545.41	4311.78
545.774	4302.74
546.138	4317.2
546.503	4369.18
546.867	4323.98
547.231	4397.88
547.595	4448.05
547.959	4439.46
548.324	4515.16
548.688	4450.76
549.052	4528.95
549.416	4513.36
549.779	4511.77
550.143	4548.16
550.507	4622.05
550.871	4658.21
551.235	4601.94
551.599	4653.47
551.962	4682.62
552.326	4759.23
552.689	4707.7
553.053	4755.61
553.417	4805.33
553.78	4794.93
554.143	4855.72
554.507	4878.77
554.87	4943.4
555.234	4963.51
555.597	4951.31
555.96	4996.96
556.323	5046.68
556.686	5093
557.05	5095.71
557.413	5116.5
557.776	5140.91
558.139	5195.82
558.502	5221.59
558.865	5174.36
559.228	5271.98
559.59	5304.3
559.953	5403.95
560.316	5371.41
560.679	5460.9
561.041	5504.06
561.404	5533.22
561.767	5564.85
562.129	5618.86
562.492	5640.56
562.854	5730.05
563.217	5711.97
563.579	5800.55
563.941	5795.58
564.304	5873.09
564.666	5936.14
565.028	5963.71
565.39	6000.32
565.753	6058.4
566.115	6079.87
566.477	6167.55
566.839	6210.26
567.201	6310.82
567.563	6290.26
567.925	6422.68
568.287	6477.37
568.648	6519.63
569.01	6611.83
569.372	6623.81
569.734	6661.77
570.095	6727.31
570.457	6791.26
570.819	6852.73
571.18	6875.1
571.542	6964.59
571.903	7049.11
572.265	7069.67
572.626	7128.2
572.987	7218.6
573.349	7212.95
573.71	7286.16
574.071	7412.94
574.432	7490.68
574.794	7564.8
575.155	7610
575.516	7686.15
575.877	7755.98
576.238	7772.03
576.599	7860.16
576.96	8008.86
577.32	8021.74
577.681	8148.06
578.042	8269.19
578.403	8331.11
578.763	8432.8
579.124	8534.27
579.485	8566.13
579.845	8722.51
580.206	8799.34
580.566	8868.27
580.927	8991.66
581.287	9151.65
581.648	9229.16
582.008	9316.17
582.368	9436.62
582.728	9608.36
583.089	9708.02
583.449	9797.28
583.809	9991.86
584.169	10195.92
584.529	10211.96
584.889	10431.39
585.249	10504.61
585.609	10703.25
585.969	10839.74
586.329	11007.2
586.688	11268.21
587.048	11283.8
587.408	11416
587.768	11754.52
588.127	11897.57
588.487	12084.23
588.846	12405.13
589.206	12406.48
589.565	12682.63
589.925	12984.77
590.284	13110.19
590.643	13401.94
591.003	13655.94
591.362	13845.77
591.721	14055.7
592.08	14332.76
592.44	14685.29
592.799	14932.07
593.158	15132.51
593.517	15395.56
593.876	15654.76
594.235	15991.25
594.593	16266.04
594.952	16593.49
595.311	16942.41
595.67	17171.78
596.029	17613.35
596.387	17928.14
596.746	18179.89
597.104	18479.32
597.463	18735.13
597.822	19180.54
598.18	19408.11
598.538	19753.18
598.897	20177.35
599.255	20201.08
599.613	21011.45
599.972	21081.96
600.33	21570.08
600.688	21742.06
601.046	22076.74
601.404	22561.24
601.762	22876.94
602.12	23258.85
602.478	23711.27
602.836	23982
603.194	24150.35
603.552	24601.19
603.91	24755.54
604.268	25318.91
604.625	25543.76
604.983	25983.3
605.341	26266.46
605.698	26613.79
606.056	26959.55
606.413	27367.9
606.771	27604.73
607.128	28117.26
607.485	28213.75
607.843	28421.88
608.2	28951.36
608.557	29273.38
608.914	29396.09
609.272	29862.52
609.629	30044.21
609.986	30490.53
610.343	30672.67
610.7	31041.25
611.057	31292.76
611.414	31644.62
611.771	31876.25
612.127	32110.37
612.484	32444.37
612.841	32744.48
613.198	32923.91
613.554	32861.09
613.911	33473.72
614.267	33577.68
614.624	33783.09
614.98	34041.17
615.337	34393.7
615.693	34538.56
616.05	34656.29
616.406	34956.85
616.762	34995.72
617.118	35315.94
617.475	35457.18
617.831	35724.74
618.187	35852.64
618.543	36105.52
618.899	36481.1
619.255	36430.71
619.611	36453.76
619.967	36776.69
620.323	37133.06
620.678	37174.87
621.034	37059.62
621.39	37305.04
621.746	37316.56
622.101	38042.87
622.457	37848.75
622.812	38013.04
623.168	38082.64
623.523	38261.17
623.879	38411.9
624.234	38389.75
624.589	38484.44
624.945	38630.42
625.3	38748.61
625.655	38869.29
626.01	38934.15
626.365	39022.28
626.72	38988.38
627.075	39148.6
627.43	39197.19
627.785	39250.75
628.14	39278.77
628.495	39400.12
628.85	39460.46
629.205	39325.1
629.559	39694.35
629.914	39589.5
630.269	39808.47
630.623	39706.33
630.978	39680.57
631.332	39981.35
631.687	40077.62
632.041	39909.04
632.396	39994.23
632.75	40083.95
633.104	40152.42
633.459	39968.24
633.813	40040.78
634.167	40122.82
634.521	40107.45
634.875	40249.82
635.229	40229.7
635.583	40138.18
635.937	40046.21
636.291	40180.89
636.645	40085.53
636.999	40083.49
637.352	40072.87
637.706	40044.63
638.06	40237.61
638.413	40141.35
638.767	40248.01
639.121	40172.98
639.474	40232.64
639.828	40172.08
640.181	40279.2
640.534	40327.78
640.888	40157.62
641.241	40054.12
641.594	40145.41
641.947	40263.83
642.301	40220.67
642.654	40365.52
643.007	40346.54
643.36	40341.34
643.713	40146.77
644.066	40537.95
644.419	40102.48
644.771	39925.76
645.124	39569.38
645.477	39466.11
645.83	39305.89
646.182	39147.93
646.535	39202.39
646.888	39383.63
647.24	39212.33
647.593	39534.13
647.945	39327.58
648.298	39160.13
648.65	39055.95
649.002	39005.33
649.355	39270.41
649.707	39098.44
650.059	39316.06
650.411	39726.67
650.763	39873.56
651.115	40237.84
651.467	40148.35
651.819	40177.5
652.171	40223.15
652.523	40064.74
652.875	40115.36
653.227	40020.44
653.578	40306.77
653.93	40208.24
654.282	39923.95
654.633	40003.27
654.985	39908.13
655.337	40123.94
655.688	40073.32
656.039	40161.68
656.391	39881.24
656.742	39850.96
657.094	39990.62
657.445	40131.18
657.796	40038.75
658.147	40027.9
658.498	39944.51
658.849	40079.88
659.2	39943.61
659.551	39737.74
659.902	39880.56
660.253	39905.65
660.604	39981.8
660.955	39738.19
661.306	39998.98
661.656	39906.78
662.007	39951.52
662.358	39971.86
662.708	40037.17
663.059	39877.4
663.409	39653.9
663.76	40114.91
664.11	40073.32
664.461	40041.24
664.811	40073.1
665.161	39890.28
665.511	39835.37
665.862	39961.46
666.212	39945.42
666.562	39973.44
666.912	39841.24
667.262	39875.14
667.612	39851.86
667.962	39986.1
668.312	39858.64
668.662	40017.73
669.011	39965.53
669.361	39911.97
669.711	39981.58
670.06	39834.24
670.41	39752.66
670.76	39599.21
671.109	39828.13
671.459	39849.6
671.808	39725.99
672.157	39850.96
672.507	39615.71
672.856	39618.65
673.205	39686.67
673.554	39775.93
673.904	39730.28
674.253	39897.74
674.602	39818.42
674.951	39148.83
675.3	39047.82
675.649	39570.51
675.998	39459.33
676.346	39554.47
676.695	39622.49
677.044	39397.18
677.393	39434.7
677.741	39595.82
678.09	39417.75
678.438	39413
678.787	39356.73
679.135	39578.2
679.484	39248.71
679.832	39373
680.181	39114.03
680.529	39281.71
680.877	39200.81
681.225	39191.31
681.573	39441.03
681.922	39149.51
682.27	39034.71
682.618	38989.29
682.966	38897.08
683.314	38941.38
683.661	38783.42
684.009	38672.68
684.357	38646.02
684.705	38523.76
685.053	38490.09
685.4	38563.31
685.748	38314.5
686.095	38518.56
686.443	38242.41
686.79	38267.72
687.138	38229.98
687.485	38195.41
687.832	38150.21
688.18	38278.57
688.527	37980.27
688.874	37896.66
689.221	37901.4
689.568	37805.14
689.915	37674.52
690.262	37718.36
690.609	37590.45
690.956	37446.73
691.303	37459.38
691.65	37183.68
691.997	37311.59
692.344	37063.46
692.69	37155.89
693.037	36969.23
693.383	36753.64
693.73	36891.04
694.077	36731.94
694.423	36690.59
694.769	36653.98
695.116	36576.02
695.462	36404.27
695.808	36304.61
696.155	36360.88
696.501	36000.66
696.847	36236.36
697.193	35775.36
697.539	36096.71
697.885	35742.59
698.231	35693.33
698.577	35702.82
698.923	35611.97
699.269	35427.12
699.614	35280.23
699.96	35166.79
700.306	35412.88
700.651	35079.33
700.997	34958.21
701.342	34864.42
701.688	34806.12
702.033	34771.54
702.379	34749.85
702.724	34652.9
703.069	34796.85
703.415	34413.36
703.76	34383.08
704.105	34339.24
704.45	34285.45
704.795	34029.42
705.14	34005.01
705.485	34022.18
705.83	33898.8
706.175	33984.67
706.52	33731.8
706.865	33805.47
707.209	33576.32
707.554	33473.27
707.899	33642.99
708.243	33354.18
708.588	33399.83
708.932	33145.37
709.277	33140.85
709.621	33201.19
709.966	32948.77
710.31	32946.73
710.654	32663.8
710.998	32719.62
711.342	32842.78
711.687	32835.32
712.031	32641.66
712.375	32457.03
712.719	32518.04
713.063	32477.37
713.407	32554.43
713.75	32414.77
714.094	32363.02
714.438	32182.68
714.782	32325.05
715.125	32222.23
715.469	32175
715.812	31953.99
716.156	32007.77
716.499	31876.48
716.843	31749.93
717.186	31751.06
717.53	31895.01
717.873	31833.77
718.216	31669.48
718.559	31671.29
718.902	31371.18
719.246	31502.02
719.589	31352.42
719.932	31312.65
720.275	31330.5
720.617	31210.51
720.96	31150.4
721.303	31239.43
721.646	31073.34
721.989	30900.46
722.331	31083.96
722.674	31064.07
723.016	31024.07
723.359	30926.45
723.701	30889.16
724.044	30653.23
724.386	30669.05
724.729	30712.22
725.071	30608.71
725.413	30703.85
725.755	30571.43
726.097	30456.4
726.439	30296.18
726.782	30375.27
727.124	30566.91
727.465	30203.08
727.807	30279.91
728.149	30224.09
728.491	30210.08
728.833	30258.67
729.175	30020.03
729.516	29978.68
729.858	30074.04
730.199	30115.85
730.541	29993.82
730.882	29976.19
731.224	29965.57
731.565	29845.12
731.906	29806.7
732.248	29761.51
732.589	29647.61
732.93	29664.11
733.271	29659.36
733.612	29565.58
733.953	29538.91
734.294	29447.62
734.635	29360.61
734.976	29538.01
735.317	29335.98
735.658	29225.47
735.999	29343.44
736.339	29297.56
736.68	29338.92
737.021	29292.14
737.361	29090.79
737.702	29230.67
738.042	29165.82
738.383	29178.47
738.723	29151.8
739.063	28937.35
739.404	29058.93
739.744	29023.45
740.084	28845.6
740.424	28905.48
740.764	28819.84
741.104	28971.02
741.444	28707.3
741.784	28644.25
742.124	28691.7
742.464	28691.03
742.804	28699.61
743.143	28557.7
743.483	28515.89
743.823	28521.99
744.162	28406.74
744.502	28565.15
744.841	28378.49
745.181	28442.22
745.52	28346.85
745.86	28427.08
746.199	28338.27
746.538	28244.26
746.877	28366.74
747.216	28189.34
747.556	28240.42
747.895	28154.32
748.234	28110.93
748.573	28113.64
748.911	28022.34
749.25	27980.76
749.589	27901.44
749.928	27860.76
750.267	27946.41
750.605	27735.8
750.944	27765.63
751.283	27777.6
751.621	27761.33
751.96	27585.97
752.298	27478.63
752.636	27507.55
752.975	27506.88
753.313	27439.31
753.651	27493.32
753.989	27359.08
754.327	27355.69
754.666	27103.04
755.004	27175.81
755.342	27236.15
755.679	27107.11
756.017	26965.65
756.355	27155.7
756.693	27014.69
757.031	26860.34
757.368	26783.05
757.706	26654.92
758.044	26652.89
758.381	26642.49
758.719	26543.96
759.056	26599.1
759.394	26444.98
759.731	26370.41
760.068	26280.02
760.405	26231.88
760.743	26151.43
761.08	26288.15
761.417	26050.19
