Data from red_cardboard_box_FLMS001491_00052.txt Node
Date: Wed Feb 08 11:32:46 GMT 2017
User: dcchb
Spectrometer: FLMS00149
Trigger mode: 0
Integration Time (sec): 2.000000E-2
Scans to average: 10
Electric dark correction enabled: true
Nonlinearity correction enabled: false
Boxcar width: 0
XAxis mode: Wavelengths
Number of Pixels in Spectrum: 2048
>>>>>Begin Spectral Data<<<<<
341.393	-16.84
341.776	-16.84
342.16	-16.84
342.543	-38.3
342.927	-54.35
343.31	-77.85
343.693	-46.67
344.077	-65.2
344.46	-64.07
344.843	-25.42
345.226	-40.56
345.61	-24.07
345.993	-14.58
346.376	-7.34
346.759	0.56
347.142	23.62
347.525	42.6
347.908	64.07
348.291	64.07
348.674	73.33
349.057	97.51
349.44	134.12
349.823	150.39
350.206	163.27
350.588	196.49
350.971	235.14
351.354	252.76
351.737	236.04
352.119	268.13
352.502	281.91
352.884	283.04
353.267	287.79
353.65	308.35
354.032	304.29
354.414	342.48
354.797	325.98
355.179	334.57
355.562	334.12
355.944	346.77
356.326	337.73
356.709	340.44
357.091	335.7
357.473	340.67
357.855	336.6
358.238	351.74
358.62	342.25
359.002	357.84
359.384	343.61
359.766	344.74
360.148	367.11
360.53	354.23
360.912	337.28
361.294	340.67
361.676	335.92
362.057	348.58
362.439	331.18
362.821	343.83
363.203	329.82
363.584	347.45
363.966	333.66
364.348	325.3
364.729	331.18
365.111	326.21
365.493	318.75
365.874	335.02
366.256	295.7
366.637	326.43
367.019	312.87
367.4	344.28
367.781	336.6
368.163	333.21
368.544	311.52
368.925	321.91
369.306	314.23
369.688	324.17
370.069	335.02
370.45	307.68
370.831	311.29
371.212	323.27
371.593	320.1
371.974	317.17
372.355	330.95
372.736	322.59
373.117	318.97
373.498	328.24
373.879	344.96
374.26	312.42
374.641	316.49
375.021	325.3
375.402	319.88
375.783	330.95
376.163	345.87
376.544	309.48
376.925	328.24
377.305	333.66
377.686	322.14
378.066	335.25
378.447	301.8
378.827	335.02
379.208	324.17
379.588	331.63
379.968	362.59
380.349	323.04
380.729	326.66
381.109	360.78
381.489	359.2
381.87	325.3
382.25	335.47
382.63	341.8
383.01	341.57
383.39	344.51
383.77	353.1
384.15	340.67
384.53	340.44
384.91	360.1
385.29	345.64
385.67	345.64
386.049	348.8
386.429	344.51
386.809	358.97
387.189	349.48
387.568	342.7
387.948	364.62
388.328	344.28
388.707	347.67
389.087	336.6
389.466	381.35
389.846	366.43
390.225	345.64
390.605	363.27
390.984	367.11
391.363	357.84
391.743	375.02
392.122	374.57
392.501	383.61
392.881	361.46
393.26	372.08
393.639	358.75
394.018	357.17
394.397	375.92
394.776	370.72
395.155	358.07
395.534	373.44
395.913	374.57
396.292	368.92
396.671	369.37
397.05	381.8
397.429	366.88
397.808	385.87
398.186	368.46
398.565	389.48
398.944	386.32
399.323	376.15
399.701	404.85
400.08	386.77
400.458	373.89
400.837	406.2
401.215	386.32
401.594	383.38
401.972	406.2
402.351	379.76
402.729	390.16
403.107	364.4
403.486	403.94
403.864	395.13
404.242	397.84
404.62	400.33
404.999	402.59
405.377	407.56
405.755	398.29
406.133	393.32
406.511	383.83
406.889	394.45
407.267	408.46
407.645	431.06
408.023	430.16
408.401	414.79
408.779	426.99
409.156	419.76
409.534	405.3
409.912	423.83
410.29	428.8
410.667	426.77
411.045	434.23
411.422	427.67
411.8	440.33
412.178	441.91
412.555	421.57
412.933	449.14
413.31	427.67
413.687	426.77
414.065	452.53
414.442	456.15
414.819	441.23
415.197	469.71
415.574	446.2
415.951	450.72
416.328	436.49
416.705	463.15
417.082	471.29
417.46	472.19
417.837	452.76
418.214	462.25
418.591	476.71
418.967	479.65
419.344	479.87
419.721	472.42
420.098	472.64
420.475	482.59
420.852	467.45
421.228	486.43
421.605	455.24
421.982	498.18
422.358	477.39
422.735	521.46
423.111	504.28
423.488	492.08
423.864	504.73
424.241	492.98
424.617	488.69
424.994	509.48
425.37	495.47
425.746	522.36
426.123	517.84
426.499	514.68
426.875	503.38
427.251	500.89
427.627	533.66
428.003	541.12
428.379	508.12
428.756	518.74
429.132	543.6
429.507	566.43
429.883	527.1
430.259	544.51
430.635	554.9
431.011	561.91
431.387	557.84
431.763	567.78
432.138	576.14
432.514	557.61
432.89	561
433.265	563.71
433.641	603.94
434.016	598.06
434.392	587.22
434.767	597.61
435.143	609.14
435.518	584.5
435.894	582.47
436.269	586.76
436.644	597.39
437.02	593.77
437.395	616.59
437.77	618.63
438.145	612.07
438.52	624.96
438.895	604.84
439.271	620.44
439.646	640.1
440.021	643.71
440.395	635.12
440.77	621.57
441.145	662.02
441.52	664.95
441.895	643.26
442.27	649.81
442.645	659.3
443.019	645.29
443.394	657.72
443.769	661.56
444.143	635.12
444.518	673.09
444.892	665.41
445.267	682.35
445.641	680.1
446.016	672.86
446.39	666.31
446.764	694.78
447.139	696.59
447.513	689.81
447.887	693.43
448.262	676.93
448.636	710.15
449.01	711.73
449.384	725.97
449.758	665.18
450.132	710.38
450.506	720.32
450.88	706.54
451.254	708.34
451.628	719.19
452.002	729.81
452.376	735.46
452.75	738.4
453.123	733.65
453.497	732.3
453.871	738.17
454.244	782.01
454.618	756.7
454.992	750.83
455.365	733.2
455.739	792.18
456.112	800.32
456.486	785.63
456.859	806.65
457.232	778.4
457.606	782.47
457.979	820.43
458.352	806.65
458.725	800.54
459.099	810.49
459.472	810.94
459.845	830.83
460.218	827.66
460.591	838.28
460.964	815.46
461.337	865.17
461.71	873.99
462.083	885.06
462.456	855.91
462.829	876.7
463.201	885.74
463.574	892.52
463.947	895.91
464.32	881.45
464.692	902.01
465.065	897.04
465.438	931.61
465.81	948.56
466.183	962.35
466.555	961.9
466.928	952.18
467.3	978.84
467.672	990.82
468.045	980.65
468.417	972.06
468.789	1004.38
469.161	996.92
469.534	999.63
469.906	1003.7
470.278	1026.3
470.65	1036.02
471.022	1026.75
471.394	1082.12
471.766	1033.08
472.138	1076.24
472.51	1109.69
472.882	1088.22
473.253	1136.35
473.625	1121.67
473.997	1140.2
474.369	1130.48
474.74	1142
475.112	1159.63
475.484	1192.4
475.855	1186.3
476.227	1194.88
476.598	1222
476.97	1243.7
477.341	1259.06
477.713	1281.66
478.084	1290.47
478.455	1284.82
478.827	1317.59
479.198	1330.47
479.569	1355.11
479.94	1372.28
480.311	1392.17
480.682	1401.43
481.053	1425.84
481.424	1445.27
481.795	1434.65
482.166	1470.13
482.537	1466.06
482.908	1518.94
483.279	1521.65
483.65	1541.54
484.021	1566.85
484.391	1577.25
484.762	1599.17
485.133	1596.23
485.503	1629.22
485.874	1679.39
486.244	1671.03
486.615	1699.28
486.985	1708.99
487.356	1752.84
487.726	1742.89
488.097	1796.9
488.467	1786.73
488.837	1826.96
489.207	1839.16
489.578	1860.86
489.948	1886.62
490.318	1898.59
490.688	1890.01
491.058	1939.95
491.428	1970.46
491.798	1955.09
492.168	1984.02
492.538	2001.19
492.908	2036.67
493.278	2062.21
493.648	2057.23
494.017	2066.05
494.387	2109.89
494.757	2148.98
495.126	2123.9
495.496	2134.97
495.866	2148.31
496.235	2169.1
496.605	2220.85
496.974	2211.35
497.344	2222.43
497.713	2235.76
498.082	2257.45
498.452	2297
498.821	2273.95
499.19	2305.36
499.559	2343.33
499.928	2350.11
500.298	2345.81
500.667	2348.75
501.036	2361.18
501.405	2389.43
501.774	2391.69
502.143	2427.85
502.512	2433.5
502.88	2453.61
503.249	2430.11
503.618	2451.57
503.987	2463.78
504.356	2525.92
504.724	2529.54
505.093	2572.25
505.462	2541.29
505.83	2570.21
506.199	2624.9
506.567	2602.76
506.936	2604.79
507.304	2643.89
507.672	2654.51
508.041	2665.81
508.409	2677.1
508.777	2714.84
509.145	2694.73
509.514	2740.83
509.882	2772.24
510.25	2761.62
510.618	2793.26
510.986	2857.66
511.354	2804.33
511.722	2854.95
512.09	2898.12
512.458	2892.47
512.826	2901.28
513.193	2918.68
513.561	2946.25
513.929	2931.79
514.297	3016.53
514.664	2992.8
515.032	3031.9
515.4	3038.45
515.767	3054.04
516.135	3075.51
516.502	3047.72
516.869	3121.39
517.237	3149.18
517.604	3157.77
517.972	3174.49
518.339	3180.37
518.706	3242.74
519.073	3255.39
519.44	3269.63
519.808	3309.4
520.175	3306.69
520.542	3306.01
520.909	3357.31
521.276	3347.37
521.643	3430.31
522.009	3472.56
522.376	3491.09
522.743	3509.4
523.11	3498.33
523.477	3537.65
523.843	3581.94
524.21	3621.71
524.577	3618.55
524.943	3658.55
525.31	3711.88
525.676	3667.36
526.043	3708.94
526.409	3817.64
526.776	3811.76
527.142	3818.54
527.508	3814.7
527.874	3864.87
528.241	3864.87
528.607	3916.39
528.973	3956.39
529.339	3959.56
529.705	3931.99
530.071	4017.86
530.437	4048.14
530.803	4055.37
531.169	4091.08
531.535	4130.4
531.901	4152.77
532.267	4153.9
532.632	4189.61
532.998	4193
533.364	4238.65
533.73	4217.63
534.095	4235.48
534.461	4267.8
534.826	4334.01
535.192	4356.61
535.557	4370.62
535.923	4376.04
536.288	4429.83
536.653	4433.22
537.019	4423.05
537.384	4412.65
537.749	4455.59
538.114	4482.93
538.479	4529.94
538.845	4552.54
539.21	4509.15
539.575	4584.63
539.94	4633.66
540.305	4617.17
540.67	4625.3
541.034	4637.51
541.399	4695.58
541.764	4708.01
542.129	4714.79
542.494	4723.15
542.858	4757.05
543.223	4763.15
543.587	4804.96
543.952	4798.4
544.316	4834.11
544.681	4863.26
545.045	4855.35
545.41	4894.67
545.774	4887.22
546.138	4925.63
546.503	4974.45
546.867	4976.71
547.231	5027.1
547.595	5042.92
547.959	5085.63
548.324	5114.78
548.688	5112.52
549.052	5159.3
549.416	5197.26
549.779	5230.94
550.143	5228.68
550.507	5272.97
550.871	5292.18
551.235	5279.75
551.599	5383.7
551.962	5399.75
552.326	5373.31
552.689	5469.57
553.053	5461.89
553.417	5519.29
553.78	5586.18
554.143	5544.83
554.507	5576.46
554.87	5629.12
555.234	5696.23
555.597	5697.59
555.96	5741.66
556.323	5788.21
556.686	5759.28
557.05	5820.75
557.413	5902.33
557.776	5888.55
558.139	5938.94
558.502	5989.11
558.865	5999.5
559.228	6063.91
559.59	6092.38
559.953	6192.27
560.316	6258.25
560.679	6269.55
561.041	6288.31
561.404	6380.74
561.767	6422.32
562.129	6477.68
562.492	6540.51
562.854	6591.35
563.217	6561.52
563.579	6667.73
563.941	6762.65
564.304	6786.38
564.666	6870.89
565.028	6879.25
565.39	6964.45
565.753	7035.63
566.115	7091
566.477	7101.17
566.839	7153.82
567.201	7309.3
567.563	7329.19
567.925	7424.1
568.287	7507.94
568.648	7500.25
569.01	7613.47
569.372	7656.18
569.734	7708.16
570.095	7824.77
570.457	7898.66
570.819	8023.63
571.18	8016.63
571.542	8082.16
571.903	8191.31
572.265	8250.74
572.626	8339.33
572.987	8385.66
573.349	8463.85
573.71	8593.33
574.071	8660.22
574.432	8716.72
574.794	8888.47
575.155	8909.48
575.516	9075.58
575.877	9139.99
576.238	9158.74
576.599	9321
576.96	9438.28
577.32	9488.9
577.681	9575.23
578.042	9707.43
578.403	9854.77
578.763	9897.03
579.124	10039.17
579.485	10177.25
579.845	10292.5
580.206	10273.06
580.566	10546.95
580.927	10642.77
581.287	10864.46
581.648	10913.95
582.008	11115.75
582.368	11179.48
582.728	11446.82
583.089	11601.62
583.449	11711.22
583.809	11873.25
584.169	12092.45
584.529	12224.2
584.889	12545.55
585.249	12621.25
585.609	12717.07
585.969	13041.13
586.329	13245.87
586.688	13443.6
587.048	13633.88
587.408	13876.36
587.768	14084.94
588.127	14329.68
588.487	14485.83
588.846	14849.67
589.206	14961.08
589.565	15285.81
589.925	15679.25
590.284	15919.92
590.643	16203.3
591.003	16505.22
591.362	16888.26
591.721	17026.56
592.08	17490.95
592.44	17736.37
592.799	18098.62
593.158	18486.63
593.517	18760.75
593.876	19185.15
594.235	19433.5
594.593	19781.74
594.952	20193.93
595.311	20612.23
595.67	20843.18
596.029	21445.42
596.387	21829.6
596.746	22209.47
597.104	22331.5
597.463	22737.37
597.822	23200.86
598.18	23544.35
598.538	23964.91
598.897	24451
599.255	24696.41
599.613	25290.75
599.972	25716.72
600.33	26066.77
600.688	26371.17
601.046	26880.54
601.404	27369.79
601.762	27735.2
602.12	28181.74
602.478	28587.61
602.836	28880.48
603.194	29244.32
603.552	29719.11
603.91	30162.71
604.268	30585.98
604.625	30829.81
604.983	31412.62
605.341	31601.54
605.698	32205.82
606.056	32495.98
606.413	32899.81
606.771	33351.78
607.128	33668.61
607.485	33808.04
607.843	34221.59
608.2	34707.67
608.557	35065.41
608.914	35547.43
609.272	35774.31
609.629	36047.75
609.986	36571.13
610.343	36643.22
610.7	37237.33
611.057	37243.2
611.414	37571.1
611.771	37946.01
612.127	38304.64
612.484	38453.34
612.841	38983.49
613.198	38993.66
613.554	39182.81
613.911	39704.61
614.267	39995.9
614.624	40046.07
614.98	40348.43
615.337	40638.59
615.693	40790
616.05	41030.67
616.406	41385.92
616.762	41468.85
617.118	41752.01
617.475	41857.54
617.831	42139.34
618.187	42400.81
618.543	42565.55
618.899	42933
619.255	42960.11
619.611	43026.1
619.967	43367.11
620.323	43610.94
620.678	43618.4
621.034	43571.4
621.39	43813.88
621.746	43890.94
622.101	44398.04
622.457	44322.34
622.812	44432.39
623.168	44636
623.523	44734.08
623.879	44908.31
624.234	44746.51
624.589	45096.55
624.945	45283.67
625.3	45251.8
625.655	45209.77
626.01	45408.64
626.365	45510.78
626.72	45612.25
627.075	45652.7
627.43	45619.48
627.785	45680.72
628.14	45913.26
628.495	46045.46
628.85	46014.95
629.205	45960.71
629.559	46286.13
629.914	46110.76
630.269	46179.01
630.623	46264.89
630.978	46256.98
631.332	46448.38
631.687	46532.45
632.041	46388.95
632.396	46597.53
632.75	46433.69
633.104	46562.28
633.459	46345.11
633.813	46320.7
634.167	46508.04
634.521	46582.84
634.875	46587.14
635.229	46629.4
635.583	46436.41
635.937	46471.66
636.291	46615.38
636.645	46511.88
636.999	46481.38
637.352	46665.55
637.706	46357.09
638.06	46732.67
638.413	46625.1
638.767	46519.57
639.121	46614.71
639.474	46427.14
639.828	46522.51
640.181	46724.08
640.534	46723.4
640.888	46553.92
641.241	46432.34
641.594	46592.11
641.947	46671.2
642.301	46689.73
642.654	46648.83
643.007	46600.47
643.36	46705.55
643.713	46621.71
644.066	46729.96
644.419	46405.45
644.771	46148.05
645.124	45848.17
645.477	45763.88
645.83	45500.61
646.182	45607.5
646.535	45485.02
646.888	45613.15
647.24	45453.16
647.593	45780.6
647.945	45563.43
648.298	45484.57
648.65	45409.99
649.002	45319.6
649.355	45508.07
649.707	45447.96
650.059	45595.75
650.411	46096.53
650.763	46065.79
651.115	46617.87
651.467	46276.18
651.819	46378.1
652.171	46394.6
652.523	46578.55
652.875	46350.31
653.227	46211.33
653.578	46599.57
653.93	46525.44
654.282	46339.01
654.633	46103.53
654.985	46373.13
655.337	46171.33
655.688	46217.43
656.039	46473.47
656.391	46126.13
656.742	46334.71
657.094	46224.66
657.445	46391.89
657.796	46296.07
658.147	46244.09
658.498	46168.16
658.849	46243.42
659.2	46161.61
659.551	46070.99
659.902	46163.64
660.253	46038
660.604	46176.53
660.955	46026.02
661.306	46249.74
661.656	46126.36
662.007	46182.4
662.358	46211.78
662.708	46196.64
663.059	46191.21
663.409	45907.38
663.76	46191.67
664.11	46295.17
664.461	46259.24
664.811	46196.41
665.161	46100.82
665.511	46035.96
665.862	46135.62
666.212	46141.95
666.562	46235.73
666.912	46134.04
667.262	46158.67
667.612	46224.89
667.962	46150.76
668.312	46061.73
668.662	46270.08
669.011	46128.17
669.361	46045.23
669.711	46148.28
670.06	45990.09
670.41	46059.92
670.76	45936.53
671.109	46035.96
671.459	45877.1
671.808	45957.1
672.157	46014.27
672.507	45785.12
672.856	45793.03
673.205	46010.43
673.554	45782.41
673.904	45849.53
674.253	46149.63
674.602	45852.92
674.951	45331.58
675.3	45221.75
675.649	45739.25
675.998	45667.16
676.346	45746.48
676.695	45920.94
677.044	45569.08
677.393	45785.12
677.741	45734.5
678.09	45613.83
678.438	45605.24
678.787	45668.97
679.135	45566.37
679.484	45377
679.832	45507.39
680.181	45349.88
680.529	45458.13
680.877	45494.06
681.225	45372.25
681.573	45575.19
681.922	45191.92
682.27	45154.86
682.618	45147.17
682.966	45082.54
683.314	45170.9
683.661	44986.95
684.009	44876.45
684.357	44708.77
684.705	44734.98
685.053	44715.32
685.4	44605.04
685.748	44394.65
686.095	44441.66
686.443	44355.78
686.79	44303.35
687.138	44404.6
687.485	44364.14
687.832	44179.52
688.18	44379.51
688.527	43945.17
688.874	44042.34
689.221	43974.32
689.568	43778.4
689.915	43637.61
690.262	43741.56
690.609	43435.13
690.956	43445.3
691.303	43373.44
691.65	43162.59
691.997	43232.42
692.344	43050.28
692.69	43111.75
693.037	42949.49
693.383	42838.08
693.73	42929.15
694.077	42619.56
694.423	42627.47
694.769	42580.46
695.116	42428.83
695.462	42365.78
695.808	42297.31
696.155	42147.48
696.501	41956.98
696.847	41829.07
697.193	41629.98
697.539	41946.58
697.885	41658.45
698.231	41574.16
698.577	41608.06
698.923	41480.15
699.269	41243.55
699.614	40990.45
699.96	40974.63
700.306	41007.4
700.651	40781.64
700.997	40762.43
701.342	40728.31
701.688	40652.83
702.033	40497.35
702.379	40536
702.724	40163.8
703.069	40389.79
703.415	39966.07
703.76	39911.83
704.105	39989.12
704.45	39983.92
704.795	39643.59
705.14	39578.51
705.485	39573.31
705.83	39419.64
706.175	39563.14
706.52	39492.41
706.865	39289.48
707.209	39266.43
707.554	39016.04
707.899	39236.14
708.243	38812.43
708.588	38848.81
708.932	38668.47
709.277	38691.3
709.621	38637.29
709.966	38407.24
710.31	38501.47
710.654	38099.68
710.998	38247.47
711.342	38275.26
711.687	38121.6
712.031	38011.32
712.375	37778.1
712.719	37932.22
713.063	37779.91
713.407	38008.61
713.75	37855.61
714.094	37702.4
714.438	37594.38
714.782	37585.57
715.125	37369.3
715.469	37504.44
715.812	37327.49
716.156	37088.18
716.499	37220.6
716.843	37249.98
717.186	37038.01
717.53	37231.9
717.873	36967.05
718.216	36942.87
718.559	36844.34
718.902	36533.39
719.246	36800.05
719.589	36654.06
719.932	36411.58
720.275	36371.81
720.617	36457.69
720.96	36402.09
721.303	36374.75
721.646	36358.48
721.989	36111.71
722.331	36346.28
722.674	36111.48
723.016	36196.45
723.359	36088.43
723.701	36144.47
724.044	36003.01
724.386	35680.53
724.729	35856.57
725.071	35711.94
725.413	35676.24
725.755	35695.9
726.097	35393.53
726.439	35210.49
726.782	35445.28
727.124	35559.18
727.465	35243.48
727.807	35285.96
728.149	35216.36
728.491	35070.15
728.833	35251.16
729.175	34971.85
729.516	35032.86
729.858	34900.21
730.199	35023.37
730.541	34834
730.882	34862.02
731.224	35103.6
731.565	34585.19
731.906	34627
732.248	34730.73
732.589	34664.74
732.93	34485.08
733.271	34498.19
733.612	34525.31
733.953	34584.97
734.294	34389.72
734.635	34324.63
734.976	34431.52
735.317	34177.75
735.658	34215.26
735.999	34205.77
736.339	34047.81
736.68	34168.93
737.021	34087.8
737.361	33922.38
737.702	34091.65
738.042	34044.64
738.383	33827.02
738.723	33987.02
739.063	33908.37
739.404	33855.27
739.744	33695.72
740.084	33627.48
740.424	33730.07
740.764	33636.74
741.104	33666.12
741.444	33514.94
741.784	33252.8
742.124	33524.43
742.464	33414.83
742.804	33301.61
743.143	33377.54
743.483	33323.08
743.823	33131.9
744.162	33060.49
744.502	33095.51
744.841	33051
745.181	33166.02
745.52	32994.5
745.86	32983.43
746.199	32978.23
746.538	32849.87
746.877	33002.18
747.216	32904.11
747.556	32802.87
747.895	32801.74
748.234	32705.24
748.573	32724.22
748.911	32626.83
749.25	32619.37
749.589	32441.75
749.928	32550.67
750.267	32431.12
750.605	32344.8
750.944	32308.19
751.283	32333.73
751.621	32378.02
751.96	32190.9
752.298	32227.29
752.636	32179.61
752.975	31928.31
753.313	31858.71
753.651	32025.03
753.989	31792.5
754.327	31786.85
754.666	31592.73
755.004	31772.61
755.342	31597.02
755.679	31649.22
756.017	31357.71
756.355	31580.07
756.693	31257.37
757.031	31350.93
757.368	31267.54
757.706	31090.82
758.044	31014.89
758.381	31121.1
758.719	31013.99
759.056	30940.77
759.394	30868.91
759.731	30733.32
760.068	30503.04
760.405	30363.38
760.743	30545.3
761.08	30525.19
761.417	30326.1
761.754	30297.85
