Data from red_shiny_book_FLMS001491_00079.txt Node
Date: Wed Feb 08 15:25:22 GMT 2017
User: dcchb
Spectrometer: FLMS00149
Trigger mode: 0
Integration Time (sec): 2.000000E-2
Scans to average: 10
Electric dark correction enabled: true
Nonlinearity correction enabled: false
Boxcar width: 0
XAxis mode: Wavelengths
Number of Pixels in Spectrum: 2048
>>>>>Begin Spectral Data<<<<<
341.393	-17.87
341.776	-17.87
342.16	-17.87
342.543	-65.32
342.927	-44.76
343.31	-42.95
343.693	-63.29
344.077	-52.67
344.46	-61.71
344.843	-53.57
345.226	-52.89
345.61	-41.37
345.993	-2.05
346.376	-12.67
346.759	5.64
347.142	26.65
347.525	34.34
347.908	50.38
348.291	84.28
348.674	71.85
349.057	110.04
349.44	116.37
349.823	150.94
350.206	142.81
350.588	198.4
350.971	207.44
351.354	220.77
351.737	242.24
352.119	240.21
352.502	263.26
352.884	293.09
353.267	278.62
353.65	291.73
354.032	296.93
354.414	304.61
354.797	310.03
355.179	319.07
355.562	339.19
355.944	319.53
356.326	345.29
356.709	336.93
357.091	336.7
357.473	348.45
357.855	341.67
358.238	347.55
358.62	327.43
359.002	337.83
359.384	335.34
359.766	322.92
360.148	330.82
360.53	331.95
360.912	359.3
361.294	358.17
361.676	353.87
362.057	313.65
362.439	349.13
362.821	329.69
363.203	341.9
363.584	332.63
363.966	321.56
364.348	349.81
364.729	327.21
365.111	328.11
365.493	332.63
365.874	332.63
366.256	351.84
366.637	329.02
367.019	294.89
367.4	307.55
367.781	317.27
368.163	318.62
368.544	306.19
368.925	318.4
369.306	312.52
369.688	323.37
370.069	306.64
370.45	324.05
370.831	330.37
371.212	316.14
371.593	313.88
371.974	334.67
372.355	306.87
372.736	323.82
373.117	345.29
373.498	321.56
373.879	343.93
374.26	312.75
374.641	339.64
375.021	334.44
375.402	331.05
375.783	319.98
376.163	340.77
376.544	344.61
376.925	325.4
377.305	325.63
377.686	334.21
378.066	351.62
378.447	329.92
378.827	330.15
379.208	330.6
379.588	328.56
379.968	344.16
380.349	316.59
380.729	336.02
381.109	334.44
381.489	344.16
381.87	334.21
382.25	334.21
382.63	321.79
383.01	336.25
383.39	348
383.77	321.56
384.15	354.55
384.53	342.12
384.91	355.68
385.29	340.32
385.67	358.62
386.049	351.16
386.429	357.94
386.809	347.32
387.189	347.1
387.568	351.84
387.948	355.23
388.328	370.15
388.707	343.93
389.087	364.95
389.466	356.81
389.846	351.62
390.225	366.08
390.605	356.36
390.984	369.92
391.363	368.11
391.743	382.12
392.122	373.08
392.501	374.89
392.881	359.75
393.26	354.1
393.639	360.43
394.018	375.8
394.397	392.29
394.776	395.46
395.155	371.5
395.534	387.77
395.913	387.55
396.292	386.19
396.671	404.95
397.05	390.26
397.429	394.78
397.808	370.82
398.186	395.46
398.565	381.67
398.944	386.42
399.323	397.94
399.701	390.71
400.08	400.88
400.458	404.04
400.837	413.53
401.215	429.58
401.594	414.44
401.972	391.39
402.351	397.49
402.729	416.02
403.107	424.16
403.486	432.74
403.864	429.81
404.242	415.12
404.62	401.56
404.999	423.93
405.377	420.77
405.755	405.85
406.133	440.88
406.511	427.32
406.889	431.16
407.267	449.01
407.645	444.49
408.023	451.95
408.401	481.33
408.779	466.19
409.156	468.9
409.534	480.2
409.912	451.05
410.29	459.18
410.667	453.76
411.045	476.13
411.422	491.05
411.8	470.03
412.178	490.59
412.555	485.85
412.933	492.18
413.31	486.3
413.687	495.57
414.065	473.87
414.442	502.35
414.819	515
415.197	520.2
415.574	522.46
415.951	523.81
416.328	512.51
416.705	529.01
417.082	530.14
417.46	521.78
417.837	531.72
418.214	521.33
418.591	529.92
418.967	533.98
419.344	551.16
419.721	551.61
420.098	536.02
420.475	559.07
420.852	574.21
421.228	565.39
421.605	561.55
421.982	562
422.358	566.07
422.735	588.22
423.111	568.56
423.488	573.76
423.864	562.91
424.241	618.05
424.617	606.98
424.994	623.92
425.37	600.65
425.746	591.83
426.123	593.42
426.499	599.52
426.875	603.36
427.251	605.17
427.627	618.27
428.003	648.56
428.379	629.35
428.756	654.21
429.132	642.68
429.507	671.15
429.883	652.85
430.259	639.97
430.635	626.64
431.011	676.58
431.387	648.33
431.763	661.21
432.138	675.22
432.514	690.36
432.89	679.97
433.265	708.22
433.641	722.9
434.016	725.62
434.392	710.25
434.767	707.99
435.143	714.32
435.518	727.65
435.894	706.63
436.269	741.66
436.644	722.9
437.02	744.6
437.395	760.64
437.77	769.91
438.145	783.69
438.52	770.59
438.895	773.07
439.271	764.03
439.646	783.92
440.021	792.51
440.395	783.24
440.77	759.74
441.145	775.78
441.52	785.5
441.895	786.41
442.27	837.48
442.645	836.8
443.019	850.58
443.394	813.52
443.769	834.54
444.143	826.63
444.518	835.9
444.892	838.16
445.267	840.64
445.641	837.93
446.016	832.51
446.39	860.3
446.764	860.53
447.139	865.05
447.513	849.46
447.887	856.69
448.262	914.31
448.636	879.28
449.01	874.77
449.384	880.87
449.758	883.58
450.132	883.13
450.506	866.18
450.88	872.96
451.254	881.77
451.628	904.82
452.002	927.42
452.376	926.97
452.75	924.93
453.123	936.46
453.497	942.79
453.871	925.39
454.244	963.35
454.618	958.83
454.992	932.84
455.365	932.39
455.739	945.95
456.112	961.99
456.486	945.5
456.859	959.06
457.232	985.72
457.606	984.82
457.979	1002.22
458.352	998.15
458.725	1042.44
459.099	999.06
459.472	1034.08
459.845	1005.84
460.218	1014.42
460.591	992.95
460.964	1005.84
461.337	1002.9
461.71	1044.93
462.083	1058.94
462.456	1058.72
462.829	1062.78
463.201	1095.32
463.574	1111.6
463.947	1101.65
464.32	1123.35
464.692	1124.93
465.065	1095.1
465.438	1103.01
465.81	1125.38
466.183	1100.75
466.555	1123.8
466.928	1144.59
467.3	1149.33
467.672	1182.55
468.045	1180.97
468.417	1247.41
468.789	1219.84
469.161	1242.89
469.534	1235.89
469.906	1263.68
470.278	1251.25
470.65	1224.13
471.022	1302.78
471.394	1274.75
471.766	1254.19
472.138	1254.64
472.51	1284.92
472.882	1324.47
473.253	1372.38
473.625	1374.41
473.997	1396.11
474.369	1412.15
474.74	1471.13
475.112	1437.01
475.484	1447.41
475.855	1468.87
476.227	1464.13
476.598	1453.96
476.97	1473.62
477.341	1480.62
477.713	1487.63
478.084	1496.44
478.455	1540.51
478.827	1600.85
479.198	1620.51
479.569	1657.34
479.94	1692.37
480.311	1717.23
480.682	1769.66
481.053	1781.86
481.424	1758.81
481.795	1756.78
482.166	1752.48
482.537	1755.42
482.908	1797
483.279	1808.07
483.65	1845.36
484.021	1866.6
484.391	1916.32
484.762	1949.09
485.133	1992.48
485.503	2039.03
485.874	2091.46
486.244	2107.73
486.615	2128.07
486.985	2126.26
487.356	2149.31
487.726	2174.62
488.097	2145.24
488.467	2150.44
488.837	2128.52
489.207	2198.8
489.578	2200.15
489.948	2283.09
490.318	2284.22
490.688	2353.14
491.058	2409.41
491.428	2471.33
491.798	2514.72
492.168	2586.58
492.538	2545.68
492.908	2589.07
493.278	2575.06
493.648	2554.72
494.017	2559.47
494.387	2537.32
494.757	2569.41
495.126	2502.97
495.496	2593.36
495.866	2603.31
496.235	2641.72
496.605	2682.63
496.974	2714.04
497.344	2853.47
497.713	2841.04
498.082	2884.88
498.452	2891.66
498.821	2885.56
499.19	2895.5
499.559	2907.48
499.928	2898.21
500.298	2851.89
500.667	2819.57
501.036	2865.67
501.405	2823.64
501.774	2863.19
502.143	2881.94
502.512	2901.83
502.88	2982.28
503.249	3003.3
503.618	3058.89
503.987	3104.09
504.356	3112.67
504.724	3131.43
505.093	3137.53
505.462	3126.91
505.83	3106.57
506.199	3046.23
506.567	3064.54
506.936	3050.08
507.304	3025.67
507.672	3019.12
508.041	3061.6
508.409	3103.86
508.777	3078.55
509.145	3152.45
509.514	3176.63
509.882	3206
510.25	3238.77
510.618	3344.08
510.986	3367.35
511.354	3378.65
511.722	3358.77
512.09	3420.23
512.458	3308.37
512.826	3285.1
513.193	3213.46
513.561	3200.58
513.929	3182.73
514.297	3180.92
514.664	3193.57
515.032	3253.23
515.4	3314.47
515.767	3310.41
516.135	3356.96
516.502	3370.74
516.869	3446.45
517.237	3483.74
517.604	3523.96
517.972	3547.92
518.339	3534.81
518.706	3503.85
519.073	3489.61
519.44	3463.62
519.808	3392.67
520.175	3367.13
520.542	3351.99
520.909	3360.8
521.276	3324.42
521.643	3370.52
522.009	3409.84
522.376	3517.63
522.743	3514.7
523.11	3670.4
523.477	3646.67
523.843	3745.2
524.21	3780
524.577	3766.89
524.943	3775.25
525.31	3807.12
525.676	3792.88
526.043	3818.87
526.409	3707.46
526.776	3708.59
527.142	3678.99
527.508	3665.2
527.874	3669.95
528.241	3679.89
528.607	3697.06
528.973	3759.66
529.339	3842.82
529.705	3951.52
530.071	4034.46
530.437	4130.72
530.803	4138.18
531.169	4181.8
531.535	4243.72
531.901	4240.33
532.267	4296.14
532.632	4239.42
532.998	4213.89
533.364	4194.23
533.73	4164.17
534.095	4136.6
534.461	4126.66
534.826	4084.17
535.192	4098.64
535.557	4158.29
535.923	4158.29
536.288	4247.11
536.653	4324.17
537.019	4364.39
537.384	4480.09
537.749	4607.77
538.114	4616.81
538.479	4635.34
538.845	4706.3
539.21	4717.15
539.575	4737.04
539.94	4703.59
540.305	4662.91
540.67	4578.17
541.034	4546.98
541.399	4573.2
541.764	4526.19
542.129	4530.49
542.494	4492.3
542.858	4502.01
543.223	4591.96
543.587	4653.87
543.952	4740.65
544.316	4763.48
544.681	4794.44
545.045	5041.21
545.41	4991.72
545.774	5115.56
546.138	5115.11
546.503	5164.82
546.867	5149.23
547.231	5136.57
547.595	5069.68
547.959	5085.5
548.324	4970.25
548.688	4933.87
549.052	4887.77
549.416	4829.92
549.779	4799.41
550.143	4830.82
550.507	4850.48
550.871	4868.78
551.235	4908.78
551.599	4974.54
551.962	5083.24
552.326	5164.82
552.689	5234.2
553.053	5286.17
553.417	5336.79
553.78	5391.26
554.143	5413.4
554.507	5411.37
554.87	5356
555.234	5369.56
555.597	5233.52
555.96	5185.84
556.323	5122.56
556.686	5074.43
557.05	5091.6
557.413	5061.32
557.776	5013.41
558.139	5079.17
558.502	5040.08
558.865	5130.02
559.228	5200.98
559.59	5299.06
559.953	5336.57
560.316	5485.72
560.679	5582.44
561.041	5627.41
561.404	5703.11
561.767	5746.05
562.129	5697.69
562.492	5783.79
562.854	5722.77
563.217	5625.15
563.579	5601.42
563.941	5534.98
564.304	5492.5
564.666	5443.01
565.028	5428.77
565.39	5396.23
565.753	5367.53
566.115	5358.72
566.477	5435.32
566.839	5425.38
567.201	5519.61
567.563	5577.69
567.925	5758.03
568.287	5779.27
568.648	5863.33
569.01	6022.65
569.372	6069.88
569.734	6148.07
570.095	6186.26
570.457	6161.41
570.819	6169.54
571.18	6179.48
571.542	6132.03
571.903	6083.22
572.265	6080.05
572.626	5945.37
572.987	5905.37
573.349	5865.59
573.71	5857.01
574.071	5861.53
574.432	5894.75
574.794	6025.14
575.155	6028.75
575.516	6187.85
575.877	6294.96
576.238	6397.78
576.599	6557.55
576.96	6748.06
577.32	6892.01
577.681	6988.73
578.042	7169.97
578.403	7259.23
578.763	7400.7
579.124	7419
579.485	7473.24
579.845	7578.54
580.206	7590.75
580.566	7583.06
580.927	7714.36
581.287	7818.31
581.648	7858.54
582.008	8028.7
582.368	8142.82
582.728	8383.49
583.089	8504.62
583.449	8781.45
583.809	9136.02
584.169	9387.08
584.529	9756.57
584.889	10140.51
585.249	10506.15
585.609	10860.72
585.969	11288.5
586.329	11623.86
586.688	12127.8
587.048	12388.36
587.408	12845.98
587.768	13200.32
588.127	13520.99
588.487	13826.06
588.846	14266.96
589.206	14476.22
589.565	14643.89
589.925	15106.26
590.284	15476.19
590.643	15808.16
591.003	16268.03
591.362	16590.28
591.721	17010.61
592.08	17454.22
592.44	18061.21
592.799	18586.84
593.158	19004.23
593.517	19542.52
593.876	20188.38
594.235	20624.53
594.593	21248.92
594.952	21788.57
595.311	22180.19
595.67	22717.58
596.029	23367.51
596.387	23810.66
596.746	24291.78
597.104	24466.91
597.463	24939.67
597.822	25430.73
598.18	25722.47
598.538	25945.52
598.897	26473.64
599.255	26608.55
599.613	27292.15
599.972	27394.29
600.33	27918.57
600.688	28121.51
601.046	28582.96
601.404	29146.11
601.762	29572.32
602.12	30090.95
602.478	30506.08
602.836	31170.01
603.194	31332.95
603.552	31928.41
603.91	32201.4
604.268	32742.85
604.625	33110.08
604.983	33592.1
605.341	33743.28
605.698	34307.33
606.056	34618.74
606.413	34759.52
606.771	35134.2
607.128	35426.62
607.485	35410.35
607.843	35578.26
608.2	35972.6
608.557	36163.1
608.914	36226.38
609.272	36596.54
609.629	36918.34
609.986	37166.24
610.343	37246.92
610.7	37828.14
611.057	37970.96
611.414	38173.9
611.771	38584.28
612.127	39006.64
612.484	39116.02
612.841	39480.08
613.198	39626.29
613.554	40026.5
613.911	40404.57
614.267	40456.1
614.624	40649.09
614.98	40923.88
615.337	41233.7
615.693	41299.46
616.05	41402.74
616.406	41688.16
616.762	41592.56
617.118	41638.44
617.475	41626.91
617.831	41779.9
618.187	41822.16
618.543	41952.33
618.899	41996.4
619.255	42097.41
619.611	42174.7
619.967	42419.44
620.323	42584.85
620.678	42531.75
621.034	42670.05
621.39	42861.91
621.746	42916.6
622.101	43517.03
622.457	43316.59
622.812	43574.89
623.168	43720.19
623.523	43892.62
623.879	44150.01
624.234	43990.02
624.589	44249.44
624.945	44220.97
625.3	44510.68
625.655	44402.66
626.01	44346.16
626.365	44464.35
626.72	44246.05
627.075	44297.13
627.43	44162.89
627.785	44114.08
628.14	44131.48
628.495	44093.29
628.85	43943.01
629.205	43964.93
629.559	44257.58
629.914	44042.67
630.269	44144.81
630.623	44030.24
630.978	44197.02
631.332	44418.48
631.687	44298.71
632.041	44331.48
632.396	44550.9
632.75	44520.4
633.104	44607.63
633.459	44590
633.813	44662.31
634.167	44730.34
634.521	44824.8
634.875	44872.25
635.229	44655.53
635.583	44510
635.937	44613.28
636.291	44482.43
636.645	44498.02
636.999	44335.32
637.352	44374.64
637.706	44071.82
638.06	44105.04
638.413	44061.65
638.767	43925.84
639.121	43893.75
639.474	43676.58
639.828	43550.25
640.181	43704.6
640.534	43693.98
640.888	43548.22
641.241	43572.4
641.594	43755.67
641.947	43673.19
642.301	43651.04
642.654	43934.42
643.007	43989.11
643.36	43953.41
643.713	43963.12
644.066	44111.37
644.419	44037.47
644.771	43890.36
645.124	43302.12
645.477	43354.33
645.83	42956.37
646.182	42937.39
646.535	42793.89
646.888	42739.88
647.24	42510.51
647.593	42719.31
647.945	42510.73
648.298	42317.74
648.65	42170.85
649.002	41793.92
649.355	42077.3
649.707	41802.5
650.059	41847.47
650.411	42275.71
650.763	42435.93
651.115	42854.45
651.467	42749.37
651.819	42691.97
652.171	42546.66
652.523	42655.59
652.875	42721.8
653.227	42531.97
653.578	43028.68
653.93	42909.59
654.282	42942.59
654.633	42934.45
654.985	43075.24
655.337	43112.07
655.688	43064.62
656.039	43289.47
656.391	42922.02
656.742	43082.69
657.094	42853.55
657.445	43061.9
657.796	42889.48
658.147	42756.83
658.498	42681.58
658.849	42632.54
659.2	42482.48
659.551	42278.42
659.902	42344.64
660.253	42205.2
660.604	42169.72
660.955	42026.23
661.306	42141.93
661.656	42021.71
662.007	41934.93
662.358	42033
662.708	41986.45
663.059	42004.76
663.409	41781.94
663.76	42209.95
664.11	42167.69
664.461	42345.09
664.811	42530.17
665.161	42371.08
665.511	42392.77
665.862	42480.22
666.212	42542.37
666.562	42705.53
666.912	42524.97
667.262	42461.24
667.612	42539.88
667.962	42561.35
668.312	42365.2
668.662	42511.64
669.011	42335.14
669.361	42287.01
669.711	42068.48
670.06	41942.39
670.41	41837.53
670.76	41732.45
671.109	41797.53
671.459	41597.31
671.808	41466.24
672.157	41535.16
672.507	41109.64
672.856	41197.09
673.205	41248.39
673.554	41276.87
673.904	41168.17
674.253	41578.1
674.602	41423.08
674.951	40960.49
675.3	40712.81
675.649	41417.43
675.998	41468.95
676.346	41528.61
676.695	41678.66
677.044	41452
677.393	41680.02
677.741	41634.6
678.09	41628.95
678.438	41468.5
678.787	41666.01
679.135	41675.95
679.484	41448.84
679.832	41469.86
680.181	41268.96
680.529	41313.93
680.877	41161.16
681.225	41086.82
681.573	41237.77
681.922	40782.42
682.27	40665.36
682.618	40610.67
682.966	40473.72
683.314	40521.18
683.661	40259.27
684.009	40066.28
684.357	39944.7
684.705	39970.23
685.053	39807.3
685.4	39833.29
685.748	39597.36
686.095	39661.77
686.443	39588.78
686.79	39658.6
687.138	39765.04
687.485	39715.55
687.832	39646.63
688.18	39885.72
688.527	39566.86
688.874	39718.72
689.221	39662.45
689.568	39698.83
689.915	39690.92
690.262	39579.74
690.609	39565.95
690.956	39462.9
691.303	39594.2
691.65	39197.83
691.997	39224.04
692.344	38961.9
692.69	38926.87
693.037	38795.12
693.383	38443.72
693.73	38620.44
694.077	38073.11
694.423	38126.67
694.769	38042.15
695.116	38004.64
695.462	37788.14
695.808	37540.24
696.155	37447.59
696.501	37206.47
696.847	37222.51
697.193	36865.46
697.539	36905.91
697.885	36803.99
698.231	36771.45
698.577	36876.08
698.923	36816.64
699.269	36631.57
699.614	36573.71
699.96	36445.58
700.306	36695.29
700.651	36491.23
700.997	36533.04
701.342	36469.54
701.688	36482.42
702.033	36346.37
702.379	36388.86
702.724	36466.6
703.069	36394.51
703.415	36073.84
703.76	36100.96
704.105	36001.3
704.45	35961.07
704.795	35704.81
705.14	35609.9
705.485	35602.67
705.83	35359.51
706.175	35287.19
706.52	35087.88
706.865	34950.25
707.209	34831.16
707.554	34651.73
707.899	34669.81
708.243	34392.98
708.588	34147.11
708.932	33997.96
709.277	33971.75
709.621	33976.49
709.966	33730.85
710.31	33739.21
710.654	33470.97
710.998	33462.61
711.342	33609.5
711.687	33548.03
712.031	33466.9
712.375	33437.98
712.719	33480.24
713.063	33548.48
713.407	33661.47
713.75	33461.25
714.094	33472.1
714.438	33447.92
714.782	33497.41
715.125	33558.88
715.469	33578.99
715.812	33228.26
716.156	33249.06
716.499	33330.41
716.843	33417.41
717.186	33048.38
717.53	33270.07
717.873	33094.48
718.216	33043.41
718.559	32950.76
718.902	32628.28
719.246	32600.03
719.589	32474.39
719.932	32296.31
720.275	32100.38
720.617	32172.02
720.96	31903.1
721.303	31907.4
721.646	31828.75
721.989	31624.69
722.331	31735.2
722.674	31621.75
723.016	31476.22
723.359	31461.98
723.701	31486.84
724.044	31258.37
724.386	31316
724.729	31343.79
725.071	31201.2
725.413	31171.37
725.755	31366.39
726.097	31287.52
726.439	31168.66
726.782	31295.89
727.124	31407.52
727.465	31156
727.807	31269.45
728.149	31127.75
728.491	31064.93
728.833	31341.08
729.175	31157.36
729.516	31086.17
729.858	31123.69
730.199	31195.1
730.541	30970.24
730.882	30894.77
731.224	30965.73
731.565	30630.59
731.906	30769.8
732.248	30725.73
732.589	30445.06
732.93	30430.82
733.271	30368
733.612	30209.81
733.953	30095.92
734.294	29992.87
734.635	29919.88
734.976	29916.94
735.317	29853.44
735.658	29704.52
735.999	29632.88
736.339	29501.81
736.68	29693.44
737.021	29459.1
737.361	29399.44
737.702	29497.29
738.042	29398.76
738.383	29342.72
738.723	29457.97
739.063	29359.89
739.404	29545.2
739.744	29417.07
740.084	29272.21
740.424	29530.51
740.764	29355.37
741.104	29587.23
741.444	29505.2
741.784	29286.45
742.124	29433.11
742.464	29330.29
742.804	29410.06
743.143	29366.67
743.483	29398.31
743.823	29286
744.162	29358.54
744.502	29240.12
744.841	29114.93
745.181	29161.7
745.52	29031.76
745.86	29106.79
746.199	28878.32
746.538	28938.89
746.877	28926.23
747.216	28696.86
747.556	28564.21
747.895	28497.99
748.234	28352.46
748.573	28328.28
748.911	28050.77
749.25	28122.86
749.589	27984.33
749.928	27963.09
750.267	27928.07
750.605	27738.01
750.944	27769.43
751.283	27642.87
751.621	27626.83
751.96	27419.83
752.298	27426.38
752.636	27364.92
752.975	27289.66
753.313	27307.29
753.651	27388.19
753.989	27285.37
754.327	27294.41
754.666	27281.75
755.004	27268.42
755.342	27389.77
755.679	27284.69
756.017	27253.96
756.355	27315.2
756.693	27242.66
757.031	27330.34
757.368	27186.62
757.706	27136.45
758.044	27065.49
758.381	27101.42
758.719	26978.26
759.056	26917.24
759.394	26761.54
759.731	26667.31
760.068	26670.25
760.405	26471.61
760.743	26337.6
761.08	26451.95
