Data from red_shiny_book_FLMS001491_00065.txt Node
Date: Wed Feb 08 15:25:13 GMT 2017
User: dcchb
Spectrometer: FLMS00149
Trigger mode: 0
Integration Time (sec): 2.000000E-2
Scans to average: 10
Electric dark correction enabled: true
Nonlinearity correction enabled: false
Boxcar width: 0
XAxis mode: Wavelengths
Number of Pixels in Spectrum: 2048
>>>>>Begin Spectral Data<<<<<
341.393	1.91
341.776	1.91
342.16	1.91
342.543	-54.14
342.927	-41.03
343.31	-71.31
343.693	-70.18
344.077	-79.67
344.46	-65.21
344.843	-33.12
345.226	-37.19
345.61	-33.12
345.993	-8.71
346.376	0.78
346.759	8.91
347.142	28.8
347.525	43.71
347.908	63.6
348.291	74.22
348.674	79.42
349.057	99.08
349.44	125.97
349.823	140.21
350.206	175.46
350.588	196.25
350.971	224.05
351.354	234.44
351.737	245.97
352.119	259.53
352.502	263.59
352.884	272.18
353.267	299.07
353.65	291.84
354.032	303.14
354.414	305.85
354.797	322.12
355.179	336.14
355.562	318.96
355.944	341.11
356.326	331.62
356.709	349.92
357.091	354.67
357.473	339.07
357.855	346.76
358.238	338.62
358.62	348.34
359.002	357.6
359.384	325.06
359.766	332.75
360.148	332.97
360.53	337.27
360.912	326.42
361.294	339.75
361.676	339.98
362.057	321.9
362.439	340.43
362.821	332.07
363.203	349.24
363.584	344.72
363.966	310.37
364.348	316.25
364.729	319.41
365.111	317.38
365.493	332.97
365.874	324.61
366.256	314.89
366.637	315.57
367.019	305.18
367.4	319.86
367.781	328.9
368.163	299.75
368.544	297.94
368.925	304.05
369.306	331.16
369.688	303.14
370.069	302.69
370.45	305.85
370.831	311.96
371.212	324.61
371.593	314.67
371.974	317.83
372.355	313.54
372.736	317.6
373.117	312.63
373.498	297.49
373.879	319.86
374.26	301.11
374.641	313.31
375.021	306.98
375.402	290.03
375.783	312.63
376.163	311.05
376.544	320.32
376.925	325.06
377.305	332.52
377.686	310.15
378.066	316.93
378.447	334.33
378.827	310.83
379.208	319.19
379.588	315.57
379.968	323.71
380.349	333.88
380.729	318.73
381.109	335.46
381.489	329.13
381.87	327.32
382.25	318.06
382.63	327.32
383.01	332.97
383.39	322.8
383.77	344.04
384.15	331.84
384.53	330.71
384.91	336.59
385.29	352.63
385.67	350.37
386.049	342.69
386.429	343.37
386.809	338.4
387.189	349.92
387.568	348.79
387.948	329.58
388.328	357.15
388.707	358.96
389.087	359.64
389.466	339.3
389.846	345.4
390.225	352.41
390.605	355.8
390.984	345.17
391.363	328.68
391.743	341.33
392.122	364.16
392.501	348.11
392.881	391.95
393.26	365.29
393.639	345.63
394.018	332.75
394.397	357.6
394.776	369.81
395.155	390.15
395.534	367.32
395.913	384.5
396.292	367.55
396.671	364.16
397.05	373.87
397.429	375.68
397.808	366.19
398.186	358.28
398.565	376.36
398.944	348.11
399.323	344.04
399.701	358.51
400.08	359.64
400.458	398.96
400.837	375
401.215	380.88
401.594	369.81
401.972	382.91
402.351	365.51
402.729	368.68
403.107	386.53
403.486	387.66
403.864	378.39
404.242	387.43
404.62	389.47
404.999	376.36
405.377	372.52
405.755	383.14
406.133	395.57
406.511	398.28
406.889	395.57
407.267	387.66
407.645	419.07
408.023	383.37
408.401	378.85
408.779	411.39
409.156	400.99
409.534	411.16
409.912	396.47
410.29	425.4
410.667	409.81
411.045	412.74
411.422	418.39
411.8	422.91
412.178	420.43
412.555	427.88
412.933	427.88
413.31	425.85
413.687	441.44
414.065	448.22
414.442	437.6
414.819	433.31
415.197	444.83
415.574	463.82
415.951	447.32
416.328	449.13
416.705	457.94
417.082	464.95
417.46	464.49
417.837	461.56
418.214	448.67
418.591	464.04
418.967	468.11
419.344	486.64
419.721	473.31
420.098	476.7
420.475	484.83
420.852	478.5
421.228	488.9
421.605	473.53
421.982	500.65
422.358	506.98
422.735	502.91
423.111	498.39
423.488	495.91
423.864	502.01
424.241	512.85
424.617	506.3
424.994	495.68
425.37	502.91
425.746	512.85
426.123	481.22
426.499	509.69
426.875	522.35
427.251	507.2
427.627	541.33
428.003	534.32
428.379	535.9
428.756	526.86
429.132	545.17
429.507	548.11
429.883	545.85
430.259	544.04
430.635	537.71
431.011	551.72
431.387	544.49
431.763	558.28
432.138	569.35
432.514	579.74
432.89	577.03
433.265	572.06
433.641	592.85
434.016	594.89
434.392	583.36
434.767	579.74
435.143	578.84
435.518	592.17
435.894	622.23
436.269	628.78
436.644	606.64
437.02	621.33
437.395	611.38
437.77	611.83
438.145	615.9
438.52	619.29
438.895	605.05
439.271	619.07
439.646	629.46
440.021	611.16
440.395	642.12
440.77	647.09
441.145	641.44
441.52	632.17
441.895	642.57
442.27	667.65
442.645	658.39
443.019	669.23
443.394	645.96
443.769	658.61
444.143	652.96
444.518	651.38
444.892	657.93
445.267	652.06
445.641	683.47
446.016	683.47
446.39	676.92
446.764	708.78
447.139	685.96
447.513	682.79
447.887	675.79
448.262	689.8
448.636	664.71
449.01	676.92
449.384	683.24
449.758	678.27
450.132	701.32
450.506	685.05
450.88	683.24
451.254	702.68
451.628	708.55
452.002	726.41
452.376	712.62
452.75	719.85
453.123	722.79
453.497	723.47
453.871	705.84
454.244	728.67
454.618	725.28
454.992	725.28
455.365	730.02
455.739	747.42
456.112	761.89
456.486	755.79
456.859	767.76
457.232	749.01
457.606	753.98
457.979	758.72
458.352	742.45
458.725	737.48
459.099	758.72
459.472	769.57
459.845	740.19
460.218	766.18
460.591	765.95
460.964	755.56
461.337	789
461.71	801.21
462.083	798.04
462.456	779.97
462.829	793.98
463.201	807.99
463.574	778.16
463.947	813.41
464.32	806.18
464.692	804.37
465.065	768.67
465.438	812.73
465.81	814.31
466.183	818.83
466.555	811.83
466.928	847.53
467.3	858.16
467.672	864.03
468.045	842.79
468.417	850.25
468.789	869.91
469.161	869.45
469.534	868.32
469.906	869.91
470.278	856.35
470.65	862.22
471.022	876.69
471.394	901.54
471.766	912.39
472.138	911.04
472.51	939.96
472.882	959.85
473.253	967.98
473.625	968.66
473.997	981.99
474.369	961.66
474.74	938.61
475.112	960.53
475.484	945.84
475.855	942.45
476.227	983.58
476.598	996.23
476.97	1007.3
477.341	1034.87
477.713	1053.86
478.084	1078.71
478.455	1077.36
478.827	1109.22
479.198	1116.68
479.569	1104.93
479.94	1120.3
480.311	1133.85
480.682	1140.63
481.053	1134.76
481.424	1140.18
481.795	1139.5
482.166	1151.48
482.537	1183.12
482.908	1200.52
483.279	1227.64
483.65	1254.98
484.021	1287.3
484.391	1273.96
484.762	1313.51
485.133	1318.48
485.503	1312.61
485.874	1328.88
486.244	1317.35
486.615	1312.83
486.985	1358.26
487.356	1367.52
487.726	1346.73
488.097	1412.94
488.467	1425.82
488.837	1451.59
489.207	1471.02
489.578	1531.13
489.948	1537.23
490.318	1542.88
490.688	1520.74
491.058	1581.75
491.428	1592.83
491.798	1584.92
492.168	1567.29
492.538	1612.71
492.908	1580.62
493.278	1595.76
493.648	1626.27
494.017	1612.03
494.387	1659.72
494.757	1684.12
495.126	1695.2
495.496	1733.61
495.866	1723.22
496.235	1802.31
496.605	1780.62
496.974	1800.05
497.344	1774.52
497.713	1776.1
498.082	1748.75
498.452	1770.22
498.821	1748.08
499.19	1760.05
499.559	1754.63
499.928	1802.31
500.298	1792.82
500.667	1840.73
501.036	1880.73
501.405	1906.26
501.774	1849.77
502.143	1873.5
502.512	1912.82
502.88	1949.65
503.249	1951.46
503.618	1958.47
503.987	1904.23
504.356	1848.86
504.724	1884.12
505.093	1856.55
505.462	1836.43
505.83	1887.73
506.199	1880.73
506.567	1894.29
506.936	1954.62
507.304	1949.2
507.672	1978.35
508.041	1998.92
508.409	2023.1
508.777	2019.03
509.145	1992.81
509.514	1981.29
509.882	2014.74
510.25	1952.82
510.618	1966.6
510.986	1937.9
511.354	1907.39
511.722	1922.99
512.09	1919.6
512.458	1916.21
512.826	1918.24
513.193	1947.62
513.561	1987.39
513.929	2023.77
514.297	2043.89
514.664	2019.25
515.032	2043.21
515.4	2099.03
515.767	2054.51
516.135	2035.53
516.502	2027.16
516.869	1991.23
517.237	2005.47
517.604	1963.89
517.972	1959.82
518.339	1961.63
518.706	1929.09
519.073	1918.47
519.44	1982.87
519.808	1963.89
520.175	1967.5
520.542	2004.11
520.909	2058.8
521.276	2068.07
521.643	2091.34
522.009	2073.26
522.376	2083.43
522.743	2092.25
523.11	2070.78
523.477	2064.45
523.843	2016.09
524.21	1995.3
524.577	2013.83
524.943	2007.5
525.31	1999.14
525.676	2035.07
526.043	2025.36
526.409	2046.37
526.776	2101.96
527.142	2101.74
527.508	2137.22
527.874	2206.37
528.241	2216.09
528.607	2229.87
528.973	2260.6
529.339	2254.05
529.705	2243.88
530.071	2265.58
530.437	2288.17
530.803	2219.93
531.169	2206.59
531.535	2223.09
531.901	2192.13
532.267	2165.24
532.632	2210.44
532.998	2223.09
533.364	2251.79
533.73	2316.2
534.095	2343.99
534.461	2405.91
534.826	2412.46
535.192	2436.42
535.557	2467.6
535.923	2495.17
536.288	2525.46
536.653	2550.77
537.019	2506.93
537.384	2459.92
537.749	2475.29
538.114	2454.95
538.479	2449.75
538.845	2455.85
539.21	2430.77
539.575	2415.63
539.94	2463.76
540.305	2491.33
540.67	2505.57
541.034	2551.44
541.399	2613.36
541.764	2644.32
542.129	2667.6
542.494	2700.82
542.858	2740.14
543.223	2778.33
543.587	2753.02
543.952	2778.56
544.316	2767.71
544.681	2720.25
545.045	2724.77
545.41	2691.33
545.774	2671.89
546.138	2671.89
546.503	2673.93
546.867	2682.74
547.231	2643.65
547.595	2678.9
547.959	2671.67
548.324	2742.4
548.688	2762.74
549.052	2781.27
549.416	2843.19
549.779	2858.1
550.143	2892.9
550.507	2946.91
550.871	2940.36
551.235	2867.14
551.599	2866.92
551.962	2907.37
552.326	2845.67
552.689	2816.3
553.053	2780.36
553.417	2762.29
553.78	2730.2
554.143	2712.12
554.507	2698.33
554.87	2715.28
555.234	2715.06
555.597	2722.06
555.96	2751.21
556.323	2797.31
556.686	2819.46
557.05	2894.03
557.413	2910.08
557.776	2973.81
558.139	2974.26
558.502	2990.3
558.865	2968.83
559.228	3021.71
559.59	2981.04
559.953	2898.33
560.316	2920.7
560.679	2929.06
561.041	2860.81
561.404	2806.8
561.767	2835.28
562.129	2756.41
562.492	2784.21
562.854	2774.94
563.217	2832.11
563.579	2818.56
563.941	2891.32
564.304	2902.85
564.666	2927.48
565.028	3008.61
565.39	3033.69
565.753	3042.73
566.115	3109.17
566.477	3089.28
566.839	3105.78
567.201	3145.1
567.563	3117.76
567.925	3104.88
568.287	3035.5
568.648	3011.32
569.01	2995.95
569.372	2988.27
569.734	3002.96
570.095	2981.94
570.457	2968.38
570.819	2988.95
571.18	3006.57
571.542	3006.35
571.903	3044.09
572.265	3120.92
572.626	3180.35
572.987	3226.23
573.349	3308.49
573.71	3382.83
574.071	3433.68
574.432	3444.3
574.794	3529.05
575.155	3563.85
575.516	3559.55
575.877	3593.9
576.238	3607.24
576.599	3670.51
576.96	3623.73
577.32	3609.5
577.681	3688.14
578.042	3704.63
578.403	3756.16
578.763	3809.94
579.124	3891.07
579.485	4042.7
579.845	4165.19
580.206	4219.42
580.566	4408.34
580.927	4570.15
581.287	4750.03
581.648	4946.64
582.008	5155.9
582.368	5308.89
582.728	5539.84
583.089	5788.2
583.449	5940.51
583.809	6168.07
584.169	6406.03
584.529	6609.64
584.889	6810.54
585.249	7014.38
585.609	7261.6
585.969	7486.23
586.329	7651.42
586.688	8042.83
587.048	8303.16
587.408	8606.65
587.768	8922.58
588.127	9263.13
588.487	9652.95
588.846	10078.25
589.206	10452.48
589.565	10828.51
589.925	11302.63
590.284	11750.3
590.643	12069.84
591.003	12645.87
591.362	13048.8
591.721	13491.95
592.08	13908.21
592.44	14387.07
592.799	14762.65
593.158	15218.46
593.517	15598.33
593.876	16004.42
594.235	16297.52
594.593	16804.63
594.952	17167.11
595.311	17508.79
595.67	17897.93
596.029	18458.6
596.387	18812.94
596.746	19319.59
597.104	19676.42
597.463	20081.6
597.822	20606.34
598.18	20960
598.538	21426.88
598.897	21995.23
599.255	22339.62
599.613	23079.27
599.972	23326.72
600.33	23857.32
600.688	24258.44
601.046	24702.5
601.404	25140.91
601.762	25511.29
602.12	25986.31
602.478	26345.39
602.836	26719.85
603.194	26821.31
603.552	27222.21
603.91	27426.72
604.268	27911.68
604.625	28079.36
604.983	28467.6
605.341	28563.64
605.698	29082.5
606.056	29491.07
606.413	29728.58
606.771	30196.14
607.128	30463.48
607.485	30725.84
607.843	31064.37
608.2	31396.56
608.557	31849.88
608.914	31994.96
609.272	32516.98
609.629	32828.84
609.986	33248.04
610.343	33316.06
610.7	33827.23
611.057	33940
611.414	34126.43
611.771	34358.74
612.127	34658.17
612.484	34671.28
612.841	35037.6
613.198	34852.52
613.554	35158.04
613.911	35416.12
614.267	35544.02
614.624	35767.97
614.98	35752.83
615.337	36180.39
615.693	36253.83
616.05	36315.98
616.406	36683.2
616.762	36746.93
617.118	36937.66
617.475	37008.17
617.831	37453.13
618.187	37509.85
618.543	37804.08
618.899	38096.05
619.255	38088.36
619.611	38155.25
619.967	38545.75
620.323	38658.97
620.678	38748.68
621.034	38501.01
621.39	38653.32
621.746	38741.23
622.101	39244.49
622.457	38988
622.812	39011.28
623.168	39162.23
623.523	39168.56
623.879	39287.43
624.234	39050.82
624.589	39238.16
624.945	39345.96
625.3	39408.1
625.655	39384.83
626.01	39630.02
626.365	39662.56
626.72	39668.21
627.075	39742.1
627.43	39794.53
627.785	39853.74
628.14	40112.04
628.495	40166.95
628.85	40176.9
629.205	40176.67
629.559	40420.28
629.914	40405.14
630.269	40412.14
630.623	40313.62
630.978	40337.34
631.332	40532.37
631.687	40510.45
632.041	40267.06
632.396	40411.92
632.75	40093.96
633.104	40320.85
633.459	40005.83
633.813	40031.14
634.167	39943.23
634.521	40025.04
634.875	39917.02
635.229	40095.54
635.583	39796.57
635.937	39855.32
636.291	39907.98
636.645	39870.91
636.999	39818.49
637.352	40047.41
637.706	39835.66
638.06	40069.78
638.413	40034.98
638.767	39991.59
639.121	39987.97
639.474	39882.44
639.828	39948.88
640.181	40082.66
640.534	40135.99
640.888	39941.42
641.241	39867.07
641.594	39886.28
641.947	40004.47
642.301	39857.58
642.654	39840.86
643.007	39739.39
643.36	39670.92
643.713	39557.93
644.066	39786.85
644.419	39382.11
644.771	39166.07
645.124	38734
645.477	38513.66
645.83	38487
646.182	38255.82
646.535	38120.9
646.888	38283.16
647.24	38131.98
647.593	38406.32
647.945	38395.93
648.298	38240.22
648.65	38256.72
649.002	38092.88
649.355	38378.75
649.707	38212.88
650.059	38441.8
650.411	38936.93
650.763	38945.52
651.115	39213.76
651.467	39357.93
651.819	39078.17
652.171	39108.9
652.523	38892.41
652.875	38904.39
653.227	38736.71
653.578	38951.39
653.93	38830.49
654.282	38614.9
654.633	38418.75
654.985	38563.38
655.337	38479.99
655.688	38462.36
656.039	38540.55
656.391	38215.82
656.742	38264.4
657.094	38382.82
657.445	38458.97
657.796	38305.76
658.147	38427.34
658.498	38413.78
658.849	38613.55
659.2	38422.59
659.551	38345.31
659.902	38616.26
660.253	38331.52
660.604	38543.72
660.955	38542.81
661.306	38621.46
661.656	38658.07
662.007	38448.81
662.358	38564.96
662.708	38475.7
663.059	38408.58
663.409	38348.02
663.76	38384.63
664.11	38384.17
664.461	38296.27
664.811	38308.02
665.161	38283.61
665.511	38084.07
665.862	38000
666.212	38152.99
666.562	38116.38
666.912	38071.41
667.262	37769.95
667.612	37842.04
667.962	37903.28
668.312	37712.78
668.662	37942.15
669.011	37888.82
669.361	37679.33
669.711	37835.71
670.06	37953.23
670.41	37881.59
670.76	37790.07
671.109	37966.78
671.459	37831.42
671.808	37872.32
672.157	38102.15
672.507	37924.98
672.856	37971.08
673.205	37939.44
673.554	38125.2
673.904	37818.99
674.253	38116.61
674.602	37910.74
674.951	37292.68
675.3	37223.3
675.649	37799.1
675.998	37585.1
676.346	37626.23
676.695	37555.04
677.044	37342.62
677.393	37313.92
677.741	37350.08
678.09	37279.57
678.438	37239.57
678.787	37370.19
679.135	37154.15
679.484	36990.99
679.832	36982.18
680.181	36832.8
680.529	36995.28
680.877	36883.87
681.225	36921.84
681.573	37223.07
681.922	36861.73
682.27	36848.4
682.618	36828.51
682.966	36662.19
683.314	36975.17
683.661	36890.65
684.009	36709.19
684.357	36653.82
684.705	36697.89
685.053	36613.6
685.4	36584.9
685.748	36436.65
686.095	36492.25
686.443	36404.11
686.79	36243.21
687.138	36200.05
687.485	36287.05
687.832	36047.29
688.18	36048.87
688.527	35666.05
688.874	35822.66
689.221	35595.32
689.568	35467.87
689.915	35226.29
690.262	35375.21
690.609	35094.32
690.956	35096.58
691.303	35060.87
691.65	34847.32
691.997	34806.64
692.344	34603.93
692.69	34685.74
693.037	34744.04
693.383	34416.14
693.73	34699.75
694.077	34406.65
694.423	34427.89
694.769	34475.58
695.116	34429.7
695.462	34289.82
695.808	34342.7
696.155	34269.25
696.501	34207.79
696.847	34067
697.193	33866.33
697.539	34026.77
697.885	33791.53
698.231	33710.4
698.577	33723.73
698.923	33707.24
699.269	33460.91
699.614	33235.84
699.96	33127.14
700.306	33138.66
700.651	32970.98
700.997	32948.39
701.342	32752.91
701.688	32653.25
702.033	32418.91
702.379	32506.14
702.724	32397.67
703.069	32352.69
703.415	31934.85
703.76	32084.45
704.105	32025.92
704.45	31974.63
704.795	31791.35
705.14	31747.06
705.485	31691.47
705.83	31545.71
706.175	31784.12
706.52	31560.4
706.865	31437.69
707.209	31473.62
707.554	31486.28
707.899	31477.92
708.243	31296.68
708.588	31317.24
708.932	31172.61
709.277	31236.11
709.621	31108.43
709.966	30924.26
710.31	31005.39
710.654	30699.86
710.998	30885.84
711.342	30815.79
711.687	30684.26
712.031	30555.45
712.375	30384.84
712.719	30454.21
713.063	30337.83
713.407	30356.81
713.75	30068.23
714.094	30124.28
714.438	29944.4
714.782	29956.6
715.125	29710.73
715.469	29774.91
715.812	29712.31
716.156	29567.46
716.499	29519.32
716.843	29540.79
717.186	29364.98
717.53	29356.62
717.873	29548.25
718.216	29393
718.559	29294.02
718.902	29154.13
719.246	29150.07
719.589	29052.22
719.932	29094.48
720.275	29190.07
720.617	29005.44
720.96	29071.2
721.303	29171.08
721.646	29122.05
721.989	28891.09
722.331	28983.97
722.674	28983.97
723.016	28950.98
723.359	28807.48
723.701	28829.4
724.044	28610.42
724.386	28568.84
724.729	28715.5
725.071	28472.8
725.413	28519.12
725.755	28363.42
726.097	28266.02
726.439	28241.84
726.782	28130.43
727.124	28253.14
727.465	27989.19
727.807	28066.25
728.149	27816.77
728.491	27810.44
728.833	27798.01
729.175	27656.55
729.516	27493.61
729.858	27570.67
730.199	27481.86
730.541	27470.56
730.882	27416.78
731.224	27512.82
731.565	27311.92
731.906	27519.6
732.248	27465.82
732.589	27201.19
732.93	27337.46
733.271	27255.65
733.612	27336.33
733.953	27436.67
734.294	27214.3
734.635	27203.45
734.976	27192.83
735.317	27210.46
735.658	27255.88
735.999	27179.95
736.339	27119.39
736.68	27216.56
737.021	27179.72
737.361	26926.62
737.702	27047.07
738.042	26877.36
738.383	26897.92
738.723	26928.2
739.063	26886.4
739.404	26977.92
739.744	26641.43
740.084	26580.87
740.424	26560.98
740.764	26517.59
741.104	26564.6
741.444	26305.4
741.784	26375
742.124	26311.95
742.464	26160.31
742.804	26027.89
743.143	26036.7
743.483	26011.62
743.823	25877.38
744.162	26003.26
744.502	25881.45
744.841	25747.67
745.181	26001.45
745.52	25761.91
745.86	25854.33
746.199	25683.27
746.538	25886.65
746.877	25729.37
747.216	25846.2
747.556	25704.06
747.895	25788.35
748.234	25647.11
748.573	25577.05
748.911	25599.43
749.25	25704.28
749.589	25518.3
749.928	25673.32
750.267	25568.92
750.605	25479.43
750.944	25475.36
751.283	25262.03
751.621	25299.55
751.96	25184.3
752.298	25174.8
752.636	25170.74
752.975	24942.72
753.313	24938.43
753.651	24961.48
753.989	24830.86
754.327	24813.46
754.666	24699.56
755.004	24655.95
755.342	24602.39
755.679	24559
756.017	24326.01
756.355	24323.75
756.693	24322.17
757.031	24297.09
757.368	24017.09
757.706	24024.78
758.044	24008.73
758.381	23893.03
758.719	23821.62
759.056	23840.6
759.394	23827.49
759.731	23560.38
760.068	23638.57
760.405	23549.76
760.743	23477.67
761.08	23581.17
761.417	23531.68
761.754	23486.94
762.091	23496.88
762.428	23358.81
