Data from red_shiny_book_FLMS001491_00045.txt Node
Date: Wed Feb 08 15:24:54 GMT 2017
User: dcchb
Spectrometer: FLMS00149
Trigger mode: 0
Integration Time (sec): 2.000000E-2
Scans to average: 10
Electric dark correction enabled: true
Nonlinearity correction enabled: false
Boxcar width: 0
XAxis mode: Wavelengths
Number of Pixels in Spectrum: 2048
>>>>>Begin Spectral Data<<<<<
341.393	-0.83
341.776	-0.83
342.16	-0.83
342.543	-99.36
342.927	-65.69
343.31	-69.76
343.693	-62.53
344.077	-62.3
344.46	-63.66
344.843	-62.3
345.226	-51.91
345.61	-46.26
345.993	-21.85
346.376	-1.74
346.759	12.73
347.142	26.51
347.525	41.2
347.908	44.14
348.291	82.78
348.674	104.25
349.057	130.69
349.44	117.81
349.823	137.92
350.206	161.42
350.588	200.52
350.971	225.38
351.354	231.02
351.737	229.67
352.119	252.72
352.502	272.15
352.884	273.51
353.267	277.13
353.65	293.17
354.032	297.01
354.414	325.49
354.797	321.64
355.179	324.58
355.562	332.04
355.944	329.78
356.326	333.17
356.709	353.51
357.091	344.92
357.473	363.45
357.855	344.47
358.238	339.04
358.62	363.68
359.002	362.77
359.384	369.33
359.766	359.16
360.148	344.92
360.53	342.66
360.912	339.27
361.294	342.43
361.676	338.82
362.057	353.06
362.439	340.17
362.821	329.78
363.203	341.53
363.584	347.41
363.966	345.82
364.348	332.94
364.729	353.73
365.111	330.46
365.493	343.56
365.874	323.45
366.256	323.9
366.637	321.19
367.019	345.82
367.4	334.53
367.781	321.64
368.163	308.99
368.544	324.58
368.925	316.67
369.306	341.08
369.688	325.03
370.069	312.38
370.45	301.08
370.831	313.96
371.212	318.03
371.593	352.6
371.974	329.33
372.355	324.58
372.736	320.74
373.117	344.24
373.498	327.97
373.879	351.25
374.26	330.68
374.641	330.01
375.021	344.92
375.402	333.62
375.783	333.17
376.163	355.99
376.544	327.29
376.925	354.64
377.305	332.49
377.686	332.94
378.066	317.12
378.447	348.54
378.827	356.67
379.208	352.15
379.588	345.82
379.968	337.46
380.349	343.79
380.729	351.25
381.109	341.76
381.489	334.3
381.87	353.06
382.25	344.92
382.63	355.54
383.01	363.45
383.39	367.29
383.77	330.91
384.15	357.35
384.53	374.75
384.91	355.09
385.29	375.2
385.67	368.2
386.049	363
386.429	366.39
386.809	356.67
387.189	360.29
387.568	343.56
387.948	379.04
388.328	360.74
388.707	373.85
389.087	373.17
389.466	382.89
389.846	386.28
390.225	384.02
390.605	370
390.984	374.98
391.363	387.18
391.743	390.12
392.122	405.94
392.501	389.66
392.881	390.12
393.26	397.8
393.639	389.21
394.018	385.6
394.397	374.75
394.776	399.61
395.155	391.02
395.534	393.96
395.913	387.86
396.292	415.88
396.671	412.49
397.05	420.17
397.429	398.03
397.808	408.42
398.186	412.72
398.565	395.77
398.944	418.14
399.323	393.96
399.701	410.68
400.08	404.58
400.458	426.27
400.837	432.6
401.215	418.82
401.594	440.06
401.972	419.72
402.351	421.08
402.729	434.18
403.107	427.4
403.486	448.19
403.864	448.87
404.242	450.45
404.62	457.23
404.999	446.84
405.377	432.15
405.755	459.72
406.133	443.67
406.511	428.53
406.889	466.27
407.267	460.62
407.645	469.66
408.023	471.7
408.401	469.89
408.779	463.79
409.156	475.09
409.534	477.35
409.912	459.72
410.29	490.91
410.667	498.81
411.045	494.75
411.422	510.11
411.8	529.1
412.178	525.71
412.555	518.7
412.933	502.43
413.31	552.37
413.687	534.29
414.065	541.07
414.442	542.2
414.819	529.1
415.197	539.27
415.574	562.32
415.951	534.52
416.328	553.5
416.705	564.58
417.082	559.38
417.46	566.38
417.837	553.73
418.214	568.42
418.591	567.97
418.967	581.75
419.344	583.56
419.721	612.94
420.098	589.21
420.475	611.58
420.852	599.15
421.228	603.67
421.605	608.64
421.982	603.9
422.358	593.95
422.735	596.21
423.111	606.61
423.488	624.46
423.864	629.66
424.241	651.58
424.617	668.53
424.994	662.43
425.37	637.12
425.746	663.56
426.123	642.54
426.499	656.55
426.875	663.56
427.251	666.49
427.627	651.8
428.003	684.35
428.379	674.4
428.756	688.19
429.132	715.53
429.507	715.31
429.883	686.61
430.259	693.84
430.635	689.77
431.011	705.14
431.387	722.99
431.763	741.75
432.138	741.97
432.514	758.02
432.89	759.37
433.265	775.64
433.641	766.83
434.016	770.45
434.392	786.26
434.767	755.53
435.143	742.42
435.518	802.08
435.894	791.91
436.269	808.41
436.644	837.11
437.02	837.11
437.395	840.95
437.77	863.32
438.145	851.57
438.52	853.61
438.895	857
439.271	823.78
439.646	862.87
440.021	835.08
440.395	845.7
440.77	870.1
441.145	881.18
441.52	906.26
441.895	906.26
442.27	901.29
442.645	926.15
443.019	898.35
443.394	903.78
443.769	896.09
444.143	888.18
444.518	861.74
444.892	897.22
445.267	954.85
445.641	929.54
446.016	949.42
446.39	945.36
446.764	948.07
447.139	973.38
447.513	955.07
447.887	961.85
448.262	938.8
448.636	924.79
449.01	969.31
449.384	951.23
449.758	968.86
450.132	959.82
450.506	995.75
450.88	999.59
451.254	1012.02
451.628	1035.07
452.002	1028.74
452.376	1029.2
452.75	1027.16
453.123	1002.08
453.497	1010.21
453.871	1021.29
454.244	1023.77
454.618	1026.71
454.992	1058.8
455.365	1065.13
455.739	1092.92
456.112	1098.35
456.486	1124.56
456.859	1126.59
457.232	1093.38
457.606	1099.7
457.979	1059.93
458.352	1083.66
458.725	1121.4
459.099	1118.01
459.472	1126.37
459.845	1154.62
460.218	1139.48
460.591	1186.71
460.964	1173.37
461.337	1204.33
461.71	1197.1
462.083	1212.47
462.456	1222.41
462.829	1195.97
463.201	1196.2
463.574	1163.88
463.947	1200.94
464.32	1218.12
464.692	1256.08
465.065	1234.84
465.438	1301.96
465.81	1324.56
466.183	1355.06
466.555	1346.02
466.928	1363.88
467.3	1339.7
467.672	1354.61
468.045	1336.53
468.417	1308.96
468.789	1302.64
469.161	1332.46
469.534	1354.16
469.906	1390.99
470.278	1390.32
470.65	1450.2
471.022	1509.64
471.394	1516.64
471.766	1509.64
472.138	1549.18
472.51	1552.12
472.882	1559.13
473.253	1531.56
473.625	1533.14
473.997	1523.19
474.369	1512.12
474.74	1530.43
475.112	1591.22
475.484	1631.44
475.855	1716.86
476.227	1718.9
476.598	1747.14
476.97	1759.35
477.341	1843.41
477.713	1821.27
478.084	1829.63
478.455	1823.53
478.827	1824.66
479.198	1845.9
479.569	1821.49
479.94	1843.19
480.311	1897.42
480.682	1910.98
481.053	1987.36
481.424	2048.15
481.795	2103.74
482.166	2181.26
482.537	2174.25
482.908	2237.53
483.279	2227.81
483.65	2228.49
484.021	2242.27
484.391	2245.44
484.762	2189.17
485.133	2192.78
485.503	2263.51
485.874	2265.1
486.244	2301.48
486.615	2426
486.985	2514.81
487.356	2561.13
487.726	2606.56
488.097	2686.78
488.467	2671.86
488.837	2709.38
489.207	2718.87
489.578	2706.44
489.948	2704.63
490.318	2687.23
490.688	2670.06
491.058	2695.82
491.428	2756.38
491.798	2763.61
492.168	2891.29
492.538	2951.63
492.908	3051.97
493.278	3100.55
493.648	3139.2
494.017	3184.85
494.387	3167.44
494.757	3187.78
495.126	3203.6
495.496	3143.94
495.866	3131.74
496.235	3091.51
496.605	3112.53
496.974	3133.55
497.344	3170.38
497.713	3191.4
498.082	3273.66
498.452	3388.23
498.821	3401.11
499.19	3500.54
499.559	3510.71
499.928	3561.78
500.298	3609.92
500.667	3600.2
501.036	3522.92
501.405	3536.93
501.774	3470.49
502.143	3428.91
502.512	3392.75
502.88	3355.01
503.249	3405.63
503.618	3458.28
503.987	3494.89
504.356	3594.33
504.724	3691.72
505.093	3727.2
505.462	3815.56
505.83	3864.38
506.199	3871.83
506.567	3825.73
506.936	3845.17
507.304	3809.01
507.672	3781.44
508.041	3692.63
508.409	3644.49
508.777	3625.96
509.145	3663.93
509.514	3680.88
509.882	3714.55
510.25	3754.32
510.618	3841.55
510.986	3946.18
511.354	4004.49
511.722	4075.67
512.09	4109.34
512.458	4142.33
512.826	4127.42
513.193	4124.48
513.561	4020.3
513.929	3968.1
514.297	3981.66
514.664	3902.79
515.032	3901.89
515.4	3907.54
515.767	3935.11
516.135	3978.27
516.502	4002
516.869	4127.65
517.237	4192.5
517.604	4269.34
517.972	4311.14
518.339	4398.37
518.706	4417.13
519.073	4392.27
519.44	4369.22
519.808	4386.17
520.175	4293.97
520.542	4270.01
520.909	4148.66
521.276	4098.95
521.643	4147.98
522.009	4163.12
522.376	4178.72
522.743	4289.45
523.11	4344.36
523.477	4414.19
523.843	4514.3
524.21	4611.7
524.577	4754.97
524.943	4735.99
525.31	4824.58
525.676	4851.92
526.043	4902.77
526.409	4813.05
526.776	4750.45
527.142	4666.16
527.508	4661.64
527.874	4588.42
528.241	4556.33
528.607	4570.8
528.973	4610.57
529.339	4693.73
529.705	4772.15
530.071	4937.57
530.437	5033.61
530.803	5121.07
531.169	5264.34
531.535	5315.86
531.901	5325.58
532.267	5388.86
532.632	5469.98
532.998	5432.24
533.364	5345.69
533.73	5246.03
534.095	5219.59
534.461	5154.29
534.826	5128.07
535.192	5119.03
535.557	5121.07
535.923	5169.2
536.288	5211.01
536.653	5376.43
537.019	5438.35
537.384	5612.8
537.749	5734.61
538.114	5816.87
538.479	5960.37
538.845	5960.37
539.21	6017.31
539.575	5926.24
539.94	5978.22
540.305	5892.35
540.67	5845.57
541.034	5747.94
541.399	5696.19
541.764	5585.46
542.129	5610.77
542.494	5585.46
542.858	5640.83
543.223	5715.17
543.587	5766.25
543.952	5888.96
544.316	6064.09
544.681	6196.74
545.045	6280.58
545.41	6453.91
545.774	6460.01
546.138	6521.03
546.503	6508.6
546.867	6512.44
547.231	6470.86
547.595	6353.8
547.959	6292.33
548.324	6218.66
548.688	6106.12
549.052	6024.77
549.416	5973.47
549.779	6013.02
550.143	5961.95
550.507	6091.44
550.871	6149.06
551.235	6230.19
551.599	6441.26
551.962	6496.4
552.326	6646.9
552.689	6802.15
553.053	6804.86
553.417	6886.22
553.78	6947.23
554.143	6912.66
554.507	6854.81
554.87	6744.07
555.234	6627.02
555.597	6543.18
555.96	6450.75
556.323	6350.41
556.686	6259.57
557.05	6326.91
557.413	6313.12
557.776	6354.03
558.139	6404.65
558.502	6541.59
558.865	6698.43
559.228	6805.32
559.59	6954.24
559.953	7103.61
560.316	7197.85
560.679	7313.78
561.041	7356.71
561.404	7380.22
561.767	7337.96
562.129	7250.05
562.492	7251.86
562.854	7071.98
563.217	6921.24
563.579	6901.13
563.941	6740.91
564.304	6741.36
564.666	6730.29
565.028	6705.66
565.39	6762.83
565.753	6864.3
566.115	6943.84
566.477	7104.97
566.839	7253.44
567.201	7478.29
567.563	7580.66
567.925	7671.73
568.287	7789.7
568.648	7851.62
569.01	7883.48
569.372	7954.21
569.734	7888.68
570.095	7773.2
570.457	7784.5
570.819	7623.37
571.18	7514
571.542	7420.21
571.903	7376.15
572.265	7259.77
572.626	7266.09
572.987	7306.32
573.349	7357.62
573.71	7480.55
574.071	7619.53
574.432	7767.78
574.794	8074.66
575.155	8229.01
575.516	8350.59
575.877	8576.57
576.238	8735.89
576.599	8858.59
576.96	8949.89
577.32	9068.53
577.681	9077.57
578.042	9113.28
578.403	9000.06
578.763	8950.57
579.124	8926.84
579.485	8915.32
579.845	8975.43
580.206	9004.58
580.566	9065.37
580.927	9212.03
581.287	9394.63
581.648	9515.75
582.008	9860.38
582.368	10192.34
582.728	10560.7
583.089	10972.44
583.449	11245.88
583.809	11745.75
584.169	12140.32
584.529	12434.32
584.889	12911.14
585.249	13196.33
585.609	13441.53
585.969	13763.78
586.329	14050.32
586.688	14327.6
587.048	14531.21
587.408	14820.47
587.768	14988.38
588.127	15295.71
588.487	15560.57
588.846	16099.53
589.206	16348.79
589.565	16828.1
589.925	17331.14
590.284	17780.62
590.643	18429.19
591.003	18982.17
591.362	19736.27
591.721	20307.11
592.08	20885.17
592.44	21496.91
592.799	22180.73
593.158	22671.56
593.517	23326.46
593.876	23779.33
594.235	24395.36
594.593	24695.01
594.952	25181.56
595.311	25516.91
595.67	25905.15
596.029	26442.31
596.387	26703.55
596.746	27158.68
597.104	27390.31
597.463	27948.26
597.822	28384.64
598.18	28735.36
598.538	29215.57
598.897	30017.59
599.255	30299.61
599.613	31318.34
599.972	31697.77
600.33	32407.35
600.688	32972.76
601.046	33530.04
601.404	34276.91
601.762	34807.52
602.12	35425.81
602.478	35921.61
602.836	36209.29
603.194	36359.79
603.552	36853.79
603.91	36947.35
604.268	37344.63
604.625	37593.21
604.983	37966.08
605.341	38174.66
605.698	38576.68
606.056	38771.71
606.413	39010.34
606.771	39490.33
607.128	39819.36
607.485	40019.36
607.843	40382.29
608.2	40846.45
608.557	41437.63
608.914	41826.09
609.272	42387.2
609.629	42994.65
609.986	43305.6
610.343	43550.34
610.7	44190.55
611.057	44265.57
611.414	44446.81
611.771	44863.75
612.127	45190.52
612.484	45270.52
612.841	45468.03
613.198	45375.6
613.554	45515.03
613.911	45769.71
614.267	45789.83
614.624	45738.53
614.98	45931.29
615.337	46170.16
615.693	46331.06
616.05	46444.5
616.406	46785.51
616.762	46633.87
617.118	46757.49
617.475	47078.83
617.831	47352.5
618.187	47671.13
618.543	47994.51
618.899	48280.16
619.255	48387.05
619.611	48461.62
619.967	48897.77
620.323	49150.87
620.678	49045.33
621.034	49063.19
621.39	49143.41
621.746	49084.43
622.101	49585.21
622.457	49233.58
622.812	49122.85
623.168	49311.77
623.523	49267.7
623.879	49254.82
624.234	48986.81
624.589	49067.93
624.945	49190.64
625.3	49281.71
625.655	49215.27
626.01	49342.5
626.365	49406
626.72	49472.67
627.075	49538.43
627.43	49636.28
627.785	49762.83
628.14	50016.61
628.495	50159.2
628.85	50205.53
629.205	50258.64
629.559	50492.75
629.914	50463.6
630.269	50487.33
630.623	50491.17
630.978	50344.28
631.332	50577.72
631.687	50554.9
632.041	50270.61
632.396	50238.98
632.75	50106.55
633.104	49979.77
633.459	49815.03
633.813	49847.12
634.167	49753.11
634.521	49635.83
634.875	49718.09
635.229	49624.98
635.583	49297.53
635.937	49500.46
636.291	49619.33
636.645	49605.09
636.999	49578.88
637.352	49844.41
637.706	49754.47
638.06	50060
638.413	49964.86
638.767	49929.38
639.121	50086.21
639.474	49918.08
639.828	50106.55
640.181	50143.84
640.534	50085.31
640.888	50044.4
641.241	49800.12
641.594	49897.29
641.947	49954.01
642.301	49652.1
642.654	49557.19
643.007	49653.45
643.36	49456.85
643.713	49266.57
644.066	49388.6
644.419	48946.58
644.771	48752.24
645.124	48374.17
645.477	48178.69
645.83	47940.96
646.182	47983.89
646.535	47871.13
646.888	48105.7
647.24	47879.94
647.593	48251.23
647.945	48328.74
648.298	48217.33
648.65	48278.12
649.002	48116.32
649.355	48395.41
649.707	48358.8
650.059	48470.21
650.411	48947.03
650.763	49002.4
651.115	49402.84
651.467	49139.34
651.819	49130.76
652.171	48941.83
652.523	48694.61
652.875	48673.59
653.227	48464.56
653.578	48661.16
653.93	48489.19
654.282	48249.2
654.633	48145.25
654.985	48132.36
655.337	48082.2
655.688	48071.57
656.039	48243.32
656.391	47883.56
656.742	47919.49
657.094	48040.16
657.445	48191.8
657.796	48217.79
658.147	48155.64
658.498	48309.08
658.849	48506.37
659.2	48557.89
659.551	48441.96
659.902	48730.77
660.253	48621.39
660.604	48770.31
660.955	48508.4
661.306	48711.33
661.656	48680.15
662.007	48495.07
662.358	48531.22
662.708	48482.41
663.059	48354.05
663.409	48016.21
663.76	48210.33
664.11	48102.31
664.461	48061.18
664.811	47838.81
665.161	47781.64
665.511	47606.28
665.862	47559.95
666.212	47675.2
666.562	47715.88
666.912	47529.89
667.262	47544.36
667.612	47561.31
667.962	47794.07
668.312	47542.78
668.662	47891.92
669.011	47934.86
669.361	47994.74
669.711	47887.63
670.06	47987.06
670.41	47933.73
670.76	47985.48
671.109	48281.29
671.459	48216.88
671.808	48099.82
672.157	48189.09
672.507	47909.55
672.856	47933.27
673.205	47912.94
673.554	47871.58
673.904	47686.5
674.253	47910.68
674.602	47637.24
674.951	46980.53
675.3	46693.31
675.649	47164.03
675.998	47114.31
676.346	47027.08
676.695	47137.81
677.044	46682.01
677.393	46814.21
677.741	46907.31
678.09	46723.14
678.438	46646.53
678.787	46801.33
679.135	46785.73
679.484	46604.72
679.832	46899.4
680.181	46686.07
680.529	46878.84
680.877	46869.57
681.225	46997.93
681.573	47249.22
681.922	47001.09
682.27	46953.86
682.618	47091.04
682.966	46929.01
683.314	47098.72
683.661	46978.04
684.009	46762.68
684.357	46616.92
684.705	46530.82
685.053	46600.2
685.4	46437.04
685.748	46002.7
686.095	45967.45
686.443	45790.51
686.79	45571.3
687.138	45741.69
687.485	45493.79
687.832	45351.19
688.18	45332.66
688.527	45065.78
688.874	44938.32
689.221	44893.81
689.568	44803.64
689.915	44603.64
690.262	44679.35
690.609	44636.64
690.956	44658.33
691.303	44633.25
691.65	44551.89
691.997	44492.23
692.344	44413.37
692.69	44498.34
693.037	44561.38
693.383	44357.77
693.73	44647.71
694.077	44430.09
694.423	44478
694.769	44201.39
695.116	44163.88
695.462	44153.71
695.808	43982.42
696.155	44017.67
696.501	43675.31
696.847	43483
697.193	43191.03
697.539	43289.33
697.885	42897.47
698.231	42627.2
698.577	42572.74
698.923	42383.81
699.269	42238.51
699.614	41905.41
699.96	41868.8
700.306	41873.32
700.651	41532.31
700.997	41548.58
701.342	41453.44
701.688	41381.13
702.033	41428.36
702.379	41223.85
702.724	41165.32
703.069	41356.72
703.415	40860.92
703.76	41073.34
704.105	41201.25
704.45	41066.79
704.795	40908.6
705.14	40945.66
705.485	40944.98
705.83	40761.94
706.175	41024.08
706.52	40864.98
706.865	40683.07
707.209	40841.03
707.554	40634.48
707.899	40693.01
708.243	40456.41
708.588	40310.88
708.932	40001.05
709.277	40040.15
709.621	39992.01
709.966	39560.39
710.31	39368.08
710.654	39069.78
710.998	39031.13
711.342	39053.96
711.687	38848.09
712.031	38585.72
712.375	38436.57
712.719	38525.16
713.063	38294.66
713.407	38513.86
713.75	38238.16
714.094	38233.87
714.438	38152.74
714.782	38183.25
715.125	38110.93
715.469	38312.51
715.812	38120.42
716.156	37849.24
716.499	38068
716.843	38128.11
717.186	38005.85
717.53	38272.28
717.873	38278.61
718.216	38274.32
718.559	38093.31
718.902	38013.76
719.246	37913.65
719.589	37896.02
719.932	37821.22
720.275	37769.02
720.617	37811.73
720.96	37494.9
721.303	37355.7
721.646	37454.45
721.989	37224.63
722.331	37186.44
722.674	36932.21
723.016	36889.95
723.359	36745.09
723.701	36648.82
724.044	36521.82
724.386	36115.51
724.729	36041.61
725.071	36133.58
725.413	35974.49
725.755	35945.11
726.097	35765.68
726.439	35653.6
726.782	35703.76
727.124	35798
727.465	35540.61
727.807	35532.02
728.149	35625.8
728.491	35614.28
728.833	35576.54
729.175	35622.64
729.516	35711.45
729.858	35688.17
730.199	35909.63
730.541	35796.64
730.882	35615.86
731.224	35964.55
731.565	35642.07
731.906	35708.74
732.248	35705.35
732.589	35635.52
732.93	35595.74
733.271	35531.79
733.612	35401.4
733.953	35496.76
734.294	35225.13
734.635	35218.58
734.976	35150.56
735.317	34936.78
735.658	34802.09
735.999	34804.35
736.339	34612.49
736.68	34626.28
737.021	34489.33
737.361	34200.98
737.702	34261.09
738.042	34131.6
738.383	34034.66
738.723	34170.92
739.063	33785.17
739.404	33892.51
739.744	33821.55
740.084	33569.81
740.424	33659.98
740.764	33714.66
741.104	33823.59
741.444	33671.73
741.784	33652.07
742.124	33690.48
742.464	33777.04
742.804	33884.6
743.143	33624.5
743.483	33687.09
743.823	33623.59
744.162	33764.38
744.502	33827.2
744.841	33652.07
745.181	33777.04
745.52	33776.81
745.86	33868.78
746.199	33582.46
746.538	33655.23
746.877	33584.72
747.216	33564.16
747.556	33320.32
747.895	33364.17
748.234	33179.76
748.573	33045.08
748.911	32914.23
749.25	32975.02
749.589	32804.18
749.928	32742.49
750.267	32711.53
750.605	32483.96
750.944	32322.16
751.283	32096.85
751.621	32123.97
751.96	32069.06
752.298	31777.99
752.636	31844.88
752.975	31637.66
753.313	31528.73
753.651	31643.53
753.989	31387.04
754.327	31381.84
754.666	31434.72
755.004	31332.81
755.342	31373.93
755.679	31393.6
756.017	31214.39
756.355	31383.2
756.693	31320.15
757.031	31371.68
757.368	31255.52
757.706	31256.42
758.044	31204.22
758.381	31342.75
758.719	31289.42
759.056	31283.77
759.394	31162.42
759.731	30995.87
760.068	30985.47
760.405	30856.21
