Data from red_shiny_book_FLMS001491_00083.txt Node
Date: Wed Feb 08 15:25:29 GMT 2017
User: dcchb
Spectrometer: FLMS00149
Trigger mode: 0
Integration Time (sec): 2.000000E-2
Scans to average: 10
Electric dark correction enabled: true
Nonlinearity correction enabled: false
Boxcar width: 0
XAxis mode: Wavelengths
Number of Pixels in Spectrum: 2048
>>>>>Begin Spectral Data<<<<<
341.393	-11.43
341.776	-11.43
342.16	-11.43
342.543	-51.43
342.927	-65.21
343.31	-54.14
343.693	-71.99
344.077	-44.87
344.46	-44.42
344.843	-57.75
345.226	-35.61
345.61	-41.48
345.993	-26.12
346.376	-8.71
346.759	1.45
347.142	31.51
347.525	51.62
347.908	64.05
348.291	69.48
348.674	66.99
349.057	99.98
349.44	118.29
349.823	144.05
350.206	176.14
350.588	212.07
350.971	214.1
351.354	216.82
351.737	238.74
352.119	259.3
352.502	264.05
352.884	280.54
353.267	287.32
353.65	291.84
354.032	298.17
354.414	318.73
354.797	320.77
355.179	333.2
355.562	310.83
355.944	343.82
356.326	331.16
356.709	340.88
357.091	343.14
357.473	349.69
357.855	336.81
358.238	350.15
358.62	342.01
359.002	360.09
359.384	361.67
359.766	335.01
360.148	345.4
360.53	349.47
360.912	344.27
361.294	329.81
361.676	338.62
362.057	313.08
362.439	355.34
362.821	317.6
363.203	325.06
363.584	341.56
363.966	347.89
364.348	332.75
364.729	337.04
365.111	310.83
365.493	305.4
365.874	313.31
366.256	325.97
366.637	330.26
367.019	328.23
367.4	318.96
367.781	315.8
368.163	309.47
368.544	292.29
368.925	301.11
369.306	329.81
369.688	294.55
370.069	313.31
370.45	303.82
370.831	319.86
371.212	315.34
371.593	301.33
371.974	308.11
372.355	310.6
372.736	328.23
373.117	335.01
373.498	337.72
373.879	318.06
374.26	319.86
374.641	333.42
375.021	308.79
375.402	308.79
375.783	306.76
376.163	326.87
376.544	353.31
376.925	320.54
377.305	332.52
377.686	341.33
378.066	326.87
378.447	344.04
378.827	338.85
379.208	326.42
379.588	342.01
379.968	354.21
380.349	338.62
380.729	335.23
381.109	335.68
381.489	348.79
381.87	342.24
382.25	313.99
382.63	330.71
383.01	353.76
383.39	328.45
383.77	339.75
384.15	369.35
384.53	343.59
384.91	358.73
385.29	348.79
385.67	346.98
386.049	340.65
386.429	366.64
386.809	358.73
387.189	339.75
387.568	359.41
387.948	356.02
388.328	368
388.707	360.77
389.087	366.64
389.466	357.15
389.846	351.05
390.225	373.65
390.605	369.35
390.984	375.68
391.363	355.12
391.743	364.84
392.122	375.23
392.501	369.58
392.881	375.91
393.26	371.61
393.639	384.04
394.018	378.62
394.397	390.6
394.776	384.5
395.155	382.91
395.534	370.71
395.913	392.4
396.292	409.58
396.671	383.14
397.05	386.98
397.429	413.42
397.808	406.87
398.186	401.67
398.565	399.41
398.944	411.84
399.323	397.15
399.701	394.66
400.08	397.83
400.458	407.32
400.837	386.53
401.215	389.02
401.594	418.62
401.972	409.58
402.351	412.74
402.729	427.66
403.107	415.91
403.486	431.05
403.864	404.16
404.242	414.33
404.62	404.61
404.999	416.59
405.377	422.23
405.755	416.59
406.133	445.06
406.511	414.33
406.889	420.88
407.267	444.38
407.645	431.73
408.023	430.6
408.401	435.34
408.779	439.18
409.156	456.13
409.534	442.35
409.912	456.58
410.29	477.83
410.667	473.08
411.045	479.18
411.422	478.73
411.8	459.97
412.178	480.99
412.555	487.54
412.933	469.47
413.31	486.19
413.687	501.1
414.065	489.8
414.442	512.18
414.819	514.66
415.197	493.87
415.574	522.8
415.951	501.1
416.328	513.31
416.705	523.02
417.082	489.8
417.46	529.58
417.837	538.62
418.214	542.68
418.591	558.73
418.967	547.43
419.344	549.24
419.721	545.62
420.098	544.72
420.475	541.55
420.852	555.79
421.228	556.47
421.605	556.69
421.982	564.15
422.358	550.59
422.735	588.78
423.111	587.65
423.488	587.2
423.864	578.84
424.241	566.41
424.617	570.03
424.994	570.25
425.37	578.16
425.746	583.13
426.123	595.56
426.499	610.25
426.875	640.76
427.251	629.46
427.627	645.73
428.003	643.7
428.379	646.86
428.756	655
429.132	642.57
429.507	624.72
429.883	627.2
430.259	652.06
430.635	640.08
431.011	661.32
431.387	661.78
431.763	675.34
432.138	683.92
432.514	702.91
432.89	687.09
433.265	709.68
433.641	692.96
434.016	667.2
434.392	661.32
434.767	683.47
435.143	685.96
435.518	707.42
435.894	752.85
436.269	727.09
436.644	736.12
437.02	754.2
437.395	751.04
437.77	741.77
438.145	755.11
438.52	774.32
438.895	734.09
439.271	742.45
439.646	765.05
440.021	779.29
440.395	765.28
440.77	783.81
441.145	789.23
441.52	804.6
441.895	831.72
442.27	798.27
442.645	776.12
443.019	794.65
443.394	774.54
443.769	798.72
444.143	807.08
444.518	813.18
444.892	824.71
445.267	834.43
445.641	859.74
446.016	824.26
446.39	846.63
446.764	835.56
447.139	836.24
447.513	827.65
447.887	823.35
448.262	814.54
448.636	794.88
449.01	823.81
449.384	865.16
449.758	870.58
450.132	880.08
450.506	902.22
450.88	891.83
451.254	884.6
451.628	916.01
452.002	889.57
452.376	883.92
452.75	906.06
453.123	859.06
453.497	866.74
453.871	876.46
454.244	897.25
454.618	899.06
454.992	941.77
455.365	962.11
455.739	953.75
456.112	954.65
456.486	951.03
456.859	940.41
457.232	937.93
457.606	945.16
457.979	941.32
458.352	945.84
458.725	943.8
459.099	966.4
459.472	961.43
459.845	977.47
460.218	1011.6
460.591	1030.35
460.964	1028.77
461.337	1052.5
461.71	1064.93
462.083	1045.27
462.456	1030.35
462.829	1008.21
463.201	1015.89
463.574	999.17
463.947	1009.34
464.32	1030.81
464.692	1038.94
465.065	1071.03
465.438	1118.26
465.81	1130.01
466.183	1125.49
466.555	1148.77
466.928	1146.74
467.3	1132.05
467.672	1124.82
468.045	1122.56
468.417	1106.06
468.789	1119.84
469.161	1104.48
469.534	1126.62
469.906	1159.62
470.278	1191.71
470.65	1219.95
471.022	1269.9
471.394	1285.94
471.766	1287.75
472.138	1278.03
472.51	1326.17
472.882	1285.49
473.253	1289.33
473.625	1270.8
473.997	1274.87
474.369	1271.25
474.74	1248.2
475.112	1303.12
475.484	1316.45
475.855	1363.68
476.227	1402.77
476.598	1437.58
476.97	1472.15
477.341	1508.31
477.713	1522.09
478.084	1538.59
478.455	1525.03
478.827	1522.54
479.198	1492.04
479.569	1479.16
479.94	1506.5
480.311	1532.26
480.682	1539.04
481.053	1567.97
481.424	1623.56
481.795	1676.21
482.166	1739.04
482.537	1801.63
482.908	1798.47
483.279	1813.61
483.65	1883.89
484.021	1830.79
484.391	1843.44
484.762	1842.76
485.133	1810.22
485.503	1753.5
485.874	1805.25
486.244	1829.66
486.615	1866.72
486.985	1913.27
487.356	1977.9
487.726	1999.37
488.097	2103.77
488.467	2148.74
488.837	2233.94
489.207	2243.2
489.578	2224.22
489.948	2229.87
490.318	2204.11
490.688	2208.4
491.058	2183.77
491.428	2163.66
491.798	2156.88
492.168	2181.96
492.538	2227.38
492.908	2267.16
493.278	2295.41
493.648	2381.51
494.017	2481.84
494.387	2525.23
494.757	2553.48
495.126	2617.88
495.496	2594.38
495.866	2583.76
496.235	2606.81
496.605	2560.48
496.974	2518
497.344	2513.25
497.713	2448.4
498.082	2475.51
498.452	2461.73
498.821	2536.08
499.19	2570.43
499.559	2622.18
499.928	2672.12
500.298	2722.29
500.667	2821.27
501.036	2817.2
501.405	2857.88
501.774	2865.56
502.143	2833.47
502.512	2831.44
502.88	2759.12
503.249	2688.84
503.618	2666.24
503.987	2665.34
504.356	2671.89
504.724	2660.37
505.093	2720.25
505.462	2745.34
505.83	2801.38
506.199	2849.74
506.567	2980.81
506.936	3001.6
507.304	3085.22
507.672	3044.99
508.041	3054.03
508.409	3060.36
508.777	3030.75
509.145	2963.18
509.514	2931.55
509.882	2857.88
510.25	2831.21
510.618	2804.32
510.986	2838.67
511.354	2827.6
511.722	2898.33
512.09	2943.07
512.458	3017.19
512.826	3063.97
513.193	3179
513.561	3185.78
513.929	3221.71
514.297	3229.62
514.664	3261.03
515.032	3198.66
515.4	3169.28
515.767	3080.7
516.135	3057.19
516.502	2949.17
516.869	2931.32
517.237	2930.19
517.604	2926.12
517.972	2996.86
518.339	3037.76
518.706	3107.14
519.073	3140.13
519.44	3237.98
519.808	3302.61
520.175	3331.54
520.542	3426.22
520.909	3396.39
521.276	3396.62
521.643	3396.62
522.009	3354.13
522.376	3292.22
522.743	3254.48
523.11	3180.58
523.477	3145.55
523.843	3100.58
524.21	3125.44
524.577	3129.51
524.943	3172.22
525.31	3239.34
525.676	3355.94
526.043	3450.86
526.409	3532.21
526.776	3614.69
527.142	3686.33
527.508	3740.11
527.874	3750.73
528.241	3739.89
528.607	3717.74
528.973	3668.03
529.339	3632.09
529.705	3533.79
530.071	3543.28
530.437	3453.12
530.803	3452.44
531.169	3464.87
531.535	3456.05
531.901	3509.39
532.267	3616.27
532.632	3734.01
532.998	3814.91
533.364	3950.73
533.73	4002.25
534.095	4097.84
534.461	4171.29
534.826	4216.71
535.192	4199.76
535.557	4194.79
535.923	4107.11
536.288	4118.63
536.653	4026.43
537.019	3946.21
537.384	3851.07
537.749	3861.24
538.114	3824.63
538.479	3810.62
538.845	3877.06
539.21	3906.21
539.575	3998.41
539.94	4095.81
540.305	4261.68
540.67	4339.87
541.034	4466.87
541.399	4515.23
541.764	4598.17
542.129	4646.3
542.494	4674.33
542.858	4646.53
543.223	4546.65
543.587	4490.38
543.952	4415.58
544.316	4347.33
544.681	4319.31
545.045	4211.51
545.41	4151.85
545.774	4190.05
546.138	4250.38
546.503	4271.85
546.867	4393.66
547.231	4444.05
547.595	4545.29
547.959	4650.82
548.324	4733.31
548.688	4863.93
549.052	4920.2
549.416	4953.64
549.779	4957.93
550.143	4988.89
550.507	4918.84
550.871	4882.68
551.235	4794.32
551.599	4688.34
551.962	4609.24
552.326	4532.41
552.689	4491.51
553.053	4405.18
553.417	4388.01
553.78	4479.08
554.143	4451.96
554.507	4568.34
554.87	4652.41
555.234	4792.52
555.597	4840.2
555.96	4957.26
556.323	5092.85
556.686	5204.93
557.05	5210.36
557.413	5286.06
557.776	5237.48
558.139	5227.53
558.502	5162
558.865	4974.21
559.228	4973.3
559.59	4835.68
559.953	4802.68
560.316	4748.22
560.679	4650.15
561.041	4646.98
561.404	4644.72
561.767	4677.26
562.129	4722.46
562.492	4853.3
562.854	4930.82
563.217	5069.57
563.579	5151.38
563.941	5294.65
564.304	5422.1
564.666	5527.19
565.028	5536.22
565.39	5561.31
565.753	5597.24
566.115	5605.38
566.477	5504.36
566.839	5431.59
567.201	5344.37
567.563	5198.15
567.925	5173.97
568.287	5063.47
568.648	4991.38
569.01	4971.04
569.372	4992.51
569.734	4987.54
570.095	5077.93
570.457	5159.51
570.819	5320.18
571.18	5445.83
571.542	5538.71
571.903	5660.06
572.265	5800.17
572.626	5934.18
572.987	6035.42
573.349	6112.48
573.71	6161.74
574.071	6159.48
574.432	6146.38
574.794	6075.65
575.155	6050.34
575.516	5992.48
575.877	5928.53
576.238	5859.61
576.599	5805.37
576.96	5739.61
577.32	5777.57
577.681	5815.31
578.042	5926.95
578.403	6049.88
578.763	6254.4
579.124	6380.5
579.485	6661.17
579.845	6878.11
580.206	7088.73
580.566	7343.63
580.927	7556.74
581.287	7827.69
581.648	7962.15
582.008	8250.96
582.368	8379.54
582.728	8595.35
583.089	8642.36
583.449	8795.12
583.809	8897.27
584.169	9035.79
584.529	9122.12
584.889	9341.77
585.249	9440.53
585.609	9697.02
585.969	9980.63
586.329	10291.58
586.688	10654.51
587.048	10980.83
587.408	11356.86
587.768	11823.06
588.127	12311.64
588.487	12734.68
588.846	13349.13
589.206	13692.39
589.565	14201.08
589.925	14790.67
590.284	15158.57
590.643	15671.1
591.003	16095.95
591.362	16501.59
591.721	16779.77
592.08	17164.17
592.44	17572.74
592.799	17819.07
593.158	18187.42
593.517	18558.71
593.876	18787.63
594.235	19137.67
594.593	19579.47
594.952	19896.07
595.311	20386.91
595.67	20861.25
596.029	21482.25
596.387	22057.6
596.746	22649.22
597.104	23022.77
597.463	23646.71
597.822	24281.27
598.18	24654.82
598.538	25213.22
598.897	25889.59
599.255	26024.05
599.613	26961.65
599.972	27195.54
600.33	27756.21
600.688	27758.24
601.046	28280.03
601.404	28750.76
601.762	28921.37
602.12	29291.31
602.478	29521.81
602.836	29736.04
603.194	29921.12
603.552	30193.2
603.91	30417.6
604.268	30892.62
604.625	31269.79
604.983	31709.32
605.341	31925.59
605.698	32503.65
606.056	32834.49
606.413	33364.65
606.771	33822.71
607.128	34304.06
607.485	34586.99
607.843	34869.92
608.2	35480.52
608.557	35861.98
608.914	36020.17
609.272	36405.24
609.629	36807.04
609.986	37018.56
610.343	37111.44
610.7	37423.97
611.057	37548.72
611.414	37485.44
611.771	37714.81
612.127	37729.5
612.484	38080
612.841	38210.17
613.198	38141.69
613.554	38388.69
613.911	38701.68
614.267	38853.77
614.624	39059.18
614.98	39331.72
615.337	39745.72
615.693	39909.11
616.05	40045.15
616.406	40534.63
616.762	40653.95
617.118	40950.89
617.475	41146.14
617.831	41523.07
618.187	41578.44
618.543	41803.29
618.899	42218.65
619.255	42202.61
619.611	42098.2
619.967	42340.68
620.323	42334.13
620.678	42176.62
621.034	42069.5
621.39	42084.42
621.746	42057.52
622.101	42459.77
622.457	42121.7
622.812	42168.48
623.168	42327.8
623.523	42379.78
623.879	42476.95
624.234	42397.85
624.589	42567.12
624.945	42766.88
625.3	43035.8
625.655	43118.51
626.01	43338.39
626.365	43428.56
626.72	43527.09
627.075	43695.22
627.43	43822
627.785	43891.37
628.14	44148.99
628.495	44135.21
628.85	44172.04
629.205	44096.34
629.559	44282.55
629.914	44026.74
630.269	44043.01
630.623	43676.46
630.978	43733.19
631.332	43691.61
631.687	43727.99
632.041	43482.35
632.396	43544.49
632.75	43203.71
633.104	43415.68
633.459	43107.67
633.813	43163.03
634.167	43210.26
634.521	43284.84
634.875	43426.98
635.229	43510.59
635.583	43303.37
635.937	43434.89
636.291	43537.94
636.645	43648.67
636.999	43697.25
637.352	43854.76
637.706	43688.67
638.06	44055.44
638.413	43970.47
638.767	43869
639.121	43887.08
639.474	43698.84
639.828	43719.63
640.181	43710.81
640.534	43580.87
640.888	43468.56
641.241	43140.89
641.594	43156.03
641.947	43210.49
642.301	42905.19
642.654	42767.34
643.007	42777.96
643.36	42646.21
643.713	42599.43
644.066	42893.21
644.419	42604.63
644.771	42185.43
645.124	41810.07
645.477	41855.95
645.83	41621.83
646.182	41860.69
646.535	41769.4
646.888	41919.22
647.24	41927.13
647.593	42264.98
647.945	42134.13
648.298	42108.82
648.65	41983.4
649.002	41957.41
649.355	42048.26
649.707	41920.8
650.059	42020.01
650.411	42487.12
650.763	42392.2
651.115	42800.78
651.467	42552.43
651.819	42295.48
652.171	42145.43
652.523	41994.02
652.875	41883.52
653.227	41710.41
653.578	41921.26
653.93	41719.68
654.282	41535.5
654.633	41562.85
654.985	41608.5
655.337	41530.98
655.688	41666.57
656.039	41860.24
656.391	41597.65
656.742	41627.93
657.094	41902.27
657.445	42185.88
657.796	41949.96
658.147	42023.4
658.498	42120.57
658.849	42285.77
659.2	42202.15
659.551	42078.99
659.902	42406.67
660.253	42163.28
660.604	42290.74
660.955	42030.41
661.306	42284.18
661.656	41945.89
662.007	42014.81
662.358	41738.66
662.708	41739.11
663.059	41656.4
663.409	41247.6
663.76	41538.44
664.11	41345.23
664.461	41352.01
664.811	41256.42
665.161	41155.4
665.511	40897.78
665.862	41121.28
666.212	41117.89
666.562	41232.91
666.912	41034.73
667.262	41038.12
667.612	41283.31
667.962	41334.61
668.312	41300.03
668.662	41570.31
669.011	41512.91
669.361	41525.33
669.711	41569.4
670.06	41535.73
670.41	41488.95
670.76	41554.71
671.109	41889.39
671.459	41769.85
671.808	41672.45
672.157	41826.34
672.507	41433.59
672.856	41387.03
673.205	41378.45
673.554	41350.88
673.904	41091
674.253	41268.84
674.602	40902.3
674.951	40166.05
675.3	40082.43
675.649	40708.86
675.998	40526.72
676.346	40436.1
676.695	40715.64
677.044	40138.03
677.393	40275.65
677.741	40344.57
678.09	40280.85
678.438	40059.84
678.787	40406.95
679.135	40319.72
679.484	40269.55
679.832	40440.84
680.181	40235.88
680.529	40410.11
680.877	40482.65
681.225	40503.89
681.573	40788.18
681.922	40503.67
682.27	40503.67
682.618	40646.49
682.966	40503.89
683.314	40527.39
683.661	40377.79
684.009	40266.38
684.357	40145.48
684.705	39977.35
685.053	40122.43
685.4	39782.56
685.748	39551.6
686.095	39547.31
686.443	39224.38
686.79	39114.55
687.138	39192.74
687.485	39029.58
687.832	38764.05
688.18	38889.92
688.527	38581.46
688.874	38475.47
689.221	38523.61
689.568	38265.53
689.915	38242.48
690.262	38263.73
690.609	38166.55
690.956	38196.38
691.303	38274.12
691.65	38085.2
691.997	38249.94
692.344	37930.85
692.69	38043.17
693.037	38206.1
693.383	37957.52
693.73	38149.83
694.077	37958.42
694.423	38005.88
694.769	37870.06
695.116	37778.99
695.462	37803.17
695.808	37597.75
696.155	37721.82
696.501	37303.75
696.847	37205.67
697.193	36873.25
697.539	37022.63
697.885	36729.53
698.231	36539.7
698.577	36530.66
698.923	36280.27
699.269	36094.52
699.614	35752.15
699.96	35835.31
700.306	35721.65
700.651	35482.1
700.997	35389.9
701.342	35269.23
701.688	35327.08
702.033	35120.53
702.379	35195.56
702.724	34975.45
703.069	35257.7
703.415	34798.51
703.76	35001.89
704.105	35003.92
704.45	34981.1
704.795	34744.27
705.14	34860.65
705.485	34883.93
705.83	34719.64
706.175	34976.58
706.52	34834.89
706.865	34806.87
707.209	34732.97
707.554	34603.26
707.899	34673.09
708.243	34445.52
708.588	34379.08
708.932	34201.69
709.277	34173.21
709.621	34176.38
709.966	33724.86
710.31	33873.11
710.654	33511.31
710.998	33448.03
711.342	33318.77
711.687	33320.58
712.031	33043.75
712.375	32846.69
712.719	32834.94
713.063	32646.02
713.407	32586.13
713.75	32471.34
714.094	32533.25
714.438	32440.38
714.782	32437.21
715.125	32160.38
715.469	32353.15
715.812	32199.03
716.156	32141.17
716.499	32116.77
716.843	32327.16
717.186	32151.8
717.53	32284
717.873	32413.71
718.216	32350.21
718.559	32295.52
718.902	31979.15
719.246	32308.4
719.589	32202.87
719.932	32200.61
720.275	32164.45
720.617	32061.18
720.96	32007.62
721.303	32030.67
721.646	31952.03
721.989	31715.2
722.331	31786.16
722.674	31713.62
723.016	31632.71
723.359	31353.85
723.701	31318.82
724.044	31199.73
724.386	30871.83
724.729	31087.87
725.071	30732.85
725.413	30714.09
725.755	30603.14
726.097	30543.7
726.439	30305.06
726.782	30256.7
727.124	30460.77
727.465	30151.62
727.807	30259.87
728.149	30090.83
728.491	29964.51
728.833	30100.55
729.175	29999.99
729.516	30079.31
729.858	30025.52
730.199	30075.92
730.541	30063.72
730.882	30033.89
731.224	30311.39
731.565	29993.43
731.906	30195.69
732.248	30310.26
732.589	30187.33
732.93	30035.02
733.271	30040.21
733.612	30101.23
733.953	30212.64
734.294	30060.1
734.635	29944.4
734.976	30023.04
735.317	29882.7
735.658	29877.51
735.999	29854.23
736.339	29648.81
736.68	29643.16
737.021	29569.49
737.361	29282.94
737.702	29392.32
738.042	29239.33
738.383	29054.93
738.723	29144.19
739.063	28995.72
739.404	28909.17
739.744	28782.39
740.084	28699.91
740.424	28632.34
740.764	28540.59
741.104	28659.91
741.444	28369.52
741.784	28467.6
742.124	28599.12
742.464	28457.88
742.804	28406.81
743.143	28330.65
743.483	28353.93
743.823	28246.81
744.162	28362.97
744.502	28433.25
744.841	28295.63
745.181	28542.17
745.52	28243.2
745.86	28483.19
746.199	28381.73
746.538	28544.89
746.877	28462.4
747.216	28469.18
747.556	28438.9
747.895	28392.35
748.234	28286.81
748.573	28272.58
748.911	28275.74
749.25	28142.86
749.589	28034.84
749.928	28022.64
750.267	27960.72
750.605	27955.52
750.944	27824.9
751.283	27607.96
751.621	27666.94
751.96	27355.54
752.298	27263.56
752.636	27251.13
752.975	27152.61
753.313	26986.51
753.651	27010.91
753.989	26816.79
754.327	26801.65
754.666	26611.15
755.004	26509.91
755.342	26619.06
755.679	26503.13
756.017	26253.87
756.355	26274.66
756.693	26144.72
757.031	26317.15
757.368	26126.42
757.706	26182.46
758.044	26150.6
758.381	26215.23
758.719	26130.26
759.056	26161.44
759.394	26043.48
759.731	25951.51
760.068	25964.61
760.405	25928
760.743	25884.16
