Data from red_shiny_book_FLMS001491_00003.txt Node
Date: Wed Feb 08 15:23:33 GMT 2017
User: dcchb
Spectrometer: FLMS00149
Trigger mode: 0
Integration Time (sec): 2.000000E-2
Scans to average: 10
Electric dark correction enabled: true
Nonlinearity correction enabled: false
Boxcar width: 0
XAxis mode: Wavelengths
Number of Pixels in Spectrum: 2048
>>>>>Begin Spectral Data<<<<<
341.393	-17.56
341.776	-17.56
342.16	-17.56
342.543	-61.4
342.927	-66.82
343.31	-73.37
343.693	-71.57
344.077	-62.07
344.46	-56.88
344.843	-56.88
345.226	-36.99
345.61	-24.34
345.993	-15.52
346.376	-6.48
346.759	11.37
347.142	22.67
347.525	34.19
347.908	61.09
348.291	88.66
348.674	86.17
349.057	99.95
349.44	126.62
349.823	147.64
350.206	167.75
350.588	203.23
350.971	218.14
351.354	218.37
351.737	224.92
352.119	285.71
352.502	269.89
352.884	280.74
353.267	294.75
353.65	312.83
354.032	327.07
354.414	311.93
354.797	318.71
355.179	329.33
355.562	321.87
355.944	334.3
356.326	347.41
356.709	365.48
357.091	354.64
357.473	343.34
357.855	371.81
358.238	357.8
358.62	341.53
359.002	353.51
359.384	338.37
359.766	351.02
360.148	364.58
360.53	337.24
360.912	339.27
361.294	333.62
361.676	331.59
362.057	351.02
362.439	348.99
362.821	332.49
363.203	349.67
363.584	340.17
363.966	341.08
364.348	345.82
364.729	323
365.111	331.36
365.493	338.82
365.874	345.15
366.256	336.56
366.637	327.07
367.019	313.96
367.4	335.43
367.781	331.14
368.163	317.12
368.544	331.81
368.925	327.75
369.306	317.12
369.688	328.2
370.069	337.24
370.45	304.92
370.831	339.27
371.212	328.42
371.593	337.46
371.974	290.68
372.355	307.63
372.736	329.1
373.117	341.98
373.498	344.02
373.879	344.92
374.26	329.78
374.641	330.01
375.021	334.75
375.402	354.19
375.783	323.23
376.163	349.67
376.544	339.72
376.925	337.01
377.305	359.84
377.686	330.68
378.066	354.64
378.447	347.86
378.827	340.17
379.208	326.84
379.588	334.53
379.968	339.27
380.349	363.45
380.729	353.28
381.109	363.9
381.489	360.74
381.87	372.04
382.25	354.64
382.63	360.97
383.01	345.15
383.39	363
383.77	337.91
384.15	367.29
384.53	383.11
384.91	367.29
385.29	358.48
385.67	361.19
386.049	358.25
386.429	367.74
386.809	377.91
387.189	383.11
387.568	370.68
387.948	362.09
388.328	395.77
388.707	385.37
389.087	386.05
389.466	381.08
389.846	390.34
390.225	372.04
390.605	396.9
390.984	375.65
391.363	385.6
391.743	395.09
392.122	415.65
392.501	392.15
392.881	406.39
393.26	394.41
393.639	418.14
394.018	389.66
394.397	385.37
394.776	395.54
395.155	407.07
395.534	412.94
395.913	400.51
396.292	438.7
396.671	417.91
397.05	414.07
397.429	419.72
397.808	407.74
398.186	423.79
398.565	412.49
398.944	414.75
399.323	412.72
399.701	436.9
400.08	434.64
400.458	455.65
400.837	432.6
401.215	444.13
401.594	447.29
401.972	447.06
402.351	457.23
402.729	437.8
403.107	454.97
403.486	457.91
403.864	449.55
404.242	446.84
404.62	460.85
404.999	449.1
405.377	472.15
405.755	473.96
406.133	466.95
406.511	492.26
406.889	471.24
407.267	468.76
407.645	490.45
408.023	470.79
408.401	477.12
408.779	478.02
409.156	490.45
409.534	509.66
409.912	508.98
410.29	515.09
410.667	532.26
411.045	511.47
411.422	504.92
411.8	513.05
412.178	536.33
412.555	530.9
412.933	544.24
413.31	551.24
413.687	544.46
414.065	541.75
414.442	559.15
414.819	548.3
415.197	560.73
415.574	586.95
415.951	581.52
416.328	574.74
416.705	576.78
417.082	570
417.46	583.56
417.837	595.54
418.214	605.7
418.591	618.36
418.967	621.75
419.344	631.92
419.721	614.74
420.098	635.99
420.475	590.56
420.852	626.04
421.228	633.05
421.605	633.5
421.982	638.02
422.358	630.11
422.735	658.58
423.111	662.2
423.488	680.96
423.864	652.71
424.241	690.22
424.617	669.66
424.994	645.48
425.37	682.09
425.746	678.92
426.123	678.92
426.499	700.84
426.875	701.75
427.251	725.7
427.627	732.03
428.003	726.15
428.379	720.96
428.756	715.53
429.132	707.62
429.507	724.12
429.883	726.15
430.259	724.12
430.635	770.67
431.011	752.14
431.387	773.84
431.763	793.27
432.138	774.97
432.514	779.94
432.89	777.68
433.265	770.9
433.641	793.04
434.016	814.51
434.392	821.07
434.767	830.33
435.143	842.53
435.518	855.64
435.894	857.68
436.269	869.43
436.644	893.15
437.02	896.32
437.395	887.5
437.77	874.4
438.145	897.22
438.52	863.78
438.895	878.92
439.271	892.25
439.646	929.99
440.021	941.74
440.395	961.4
440.77	926.6
441.145	941.06
441.52	940.84
441.895	942.64
442.27	940.16
442.645	929.54
443.019	942.87
443.394	917.33
443.769	947.39
444.143	941.97
444.518	986.71
444.892	984.23
445.267	1018.35
445.641	1006.82
446.016	998.91
446.39	1011.34
446.764	986.71
447.139	990.1
447.513	961.18
447.887	972.7
448.262	967.95
448.636	996.88
449.01	1009.76
449.384	1017.9
449.758	1057.22
450.132	1065.35
450.506	1057.44
450.88	1078.69
451.254	1049.99
451.628	1044.56
452.002	1036.88
452.376	1051.57
452.75	1022.42
453.123	1068.07
453.497	1067.84
453.871	1079.36
454.244	1134.96
454.618	1130.44
454.992	1145.8
455.365	1126.82
455.739	1175.41
456.112	1129.76
456.486	1121.17
456.859	1105.35
457.232	1146.03
457.606	1129.53
457.979	1092.47
458.352	1151.9
458.725	1159.81
459.099	1217.21
459.472	1240.94
459.845	1251.11
460.218	1263.77
460.591	1245.24
460.964	1216.99
461.337	1254.95
461.71	1237.78
462.083	1218.34
462.456	1241.85
462.829	1225.8
463.201	1237.33
463.574	1280.26
463.947	1308.51
464.32	1341.5
464.692	1363.65
465.065	1383.76
465.438	1366.14
465.81	1379.92
466.183	1381.28
466.555	1378.79
466.928	1358
467.3	1339.02
467.672	1360.26
468.045	1382.41
468.417	1363.88
468.789	1415.17
469.161	1468.05
469.534	1498.34
469.906	1510.99
470.278	1541.5
470.65	1550.99
471.022	1571.1
471.394	1546.02
471.766	1552.8
472.138	1509.86
472.51	1529.52
472.882	1546.24
473.253	1581.05
473.625	1590.99
473.997	1608.39
474.369	1652
474.74	1737.2
475.112	1781.72
475.484	1798.89
475.855	1823.53
476.227	1846.12
476.598	1856.52
476.97	1842.73
477.341	1835.05
477.713	1823.75
478.084	1834.37
478.455	1854.03
478.827	1873.02
479.198	1908.95
479.569	1940.58
479.94	2029.17
480.311	2075.04
480.682	2131.54
481.053	2213.8
481.424	2214.7
481.795	2232.1
482.166	2216.96
482.537	2194.14
482.908	2189.39
483.279	2216.96
483.65	2203.18
484.021	2242.5
484.391	2259.9
484.762	2300.12
485.133	2347.13
485.503	2441.59
485.874	2515.71
486.244	2597.97
486.615	2639.78
486.985	2670.96
487.356	2716.61
487.726	2715.03
488.097	2709.15
488.467	2667.12
488.837	2661.7
489.207	2666.67
489.578	2669.6
489.948	2723.61
490.318	2776.72
490.688	2831.63
491.058	2930.16
491.428	3020.33
491.798	3086.77
492.168	3135.36
492.538	3188.91
492.908	3216.71
493.278	3251.51
493.648	3179.87
494.017	3156.37
494.387	3153.66
494.757	3135.81
495.126	3138.52
495.496	3136.26
495.866	3138.07
496.235	3203.15
496.605	3281.79
496.974	3399.08
497.344	3473.2
497.713	3481.11
498.082	3556.81
498.452	3628.45
498.821	3636.59
499.19	3606.98
499.559	3631.84
499.928	3569.24
500.298	3460.54
500.667	3483.14
501.036	3438.17
501.405	3426.2
501.774	3468.23
502.143	3496.93
502.512	3535.8
502.88	3645.62
503.249	3731.05
503.618	3803.36
503.987	3885.39
504.356	3925.62
504.724	3939.63
505.093	3915.9
505.462	3933.98
505.83	3840.2
506.199	3828.9
506.567	3766.75
506.936	3725.4
507.304	3719.97
507.672	3720.2
508.041	3757.94
508.409	3761.55
508.777	3807.65
509.145	3950.48
509.514	3987.54
509.882	4068.44
510.25	4121.32
510.618	4205.61
510.986	4214.2
511.354	4190.92
511.722	4197.25
512.09	4132.84
512.458	4081.77
512.826	3999.97
513.193	3944.37
513.561	3926.75
513.929	3917.93
514.297	3945.73
514.664	3969.91
515.032	4029.12
515.4	4164.25
515.767	4245.61
516.135	4317.47
516.502	4364.02
516.869	4460.97
517.237	4482.44
517.604	4401.99
517.972	4455.77
518.339	4387.07
518.706	4281.99
519.073	4276.57
519.44	4147.53
519.808	4154.09
520.175	4100.98
520.542	4127.87
520.909	4164.93
521.276	4193.18
521.643	4289
522.009	4403.57
522.376	4501.87
522.743	4601.98
523.11	4713.39
523.477	4785.93
523.843	4775.31
524.21	4840.85
524.577	4800.17
524.943	4811.7
525.31	4673.62
525.676	4649.67
526.043	4606.05
526.409	4515.88
526.776	4528.77
527.142	4475.89
527.508	4553.85
527.874	4609.44
528.241	4749.78
528.607	4803.11
528.973	4925.36
529.339	5069.99
529.705	5218.92
530.071	5324
530.437	5380.95
530.803	5402.87
531.169	5376.65
531.535	5354.51
531.901	5255.53
532.267	5210.1
532.632	5157.9
532.998	5085.59
533.364	5044.23
533.73	4978.24
534.095	5065.47
534.461	5083.1
534.826	5197.67
535.192	5305.47
535.557	5412.13
535.923	5519.02
536.288	5646.7
536.653	5746.36
537.019	5842.85
537.384	5966.92
537.749	5967.6
538.114	5940.93
538.479	5861.84
538.845	5879.92
539.21	5737.32
539.575	5628.4
539.94	5601.51
540.305	5500.49
540.67	5467.27
541.034	5516.08
541.399	5554.05
541.764	5680.37
542.129	5752.69
542.494	5912.46
542.858	6048.27
543.223	6136.63
543.587	6265.89
543.952	6312.9
544.316	6437.19
544.681	6464.99
545.045	6530.52
545.41	6489.84
545.774	6407.13
546.138	6332.33
546.503	6240.36
546.867	6226.12
547.231	6112.9
547.595	6007.14
547.959	5979.8
548.324	5965.79
548.688	6042.4
549.052	6119.91
549.416	6153.58
549.779	6266.12
550.143	6366.91
550.507	6546.57
550.871	6685.32
551.235	6733.45
551.599	6814.58
551.962	6888.93
552.326	6860.23
552.689	6813.45
553.053	6752.89
553.417	6710.4
553.78	6686.22
554.143	6562.16
554.507	6434.93
554.87	6309.96
555.234	6289.62
555.597	6228.83
555.96	6312.45
556.323	6341.15
556.686	6429.05
557.05	6536.62
557.413	6700.91
557.776	6784.75
558.139	6945.42
558.502	7052.54
558.865	7132.99
559.228	7278.3
559.59	7255.25
559.953	7275.36
560.316	7315.13
560.679	7236.04
561.041	7123.73
561.404	7044.86
561.767	6944.07
562.129	6793.79
562.492	6764.64
562.854	6693.23
563.217	6600.35
563.579	6600.35
563.941	6741.14
564.304	6847.57
564.666	6892.77
565.028	7048.7
565.39	7246.66
565.753	7401.68
566.115	7516.26
566.477	7679.19
566.839	7743.14
567.201	7857.94
567.563	7882.35
567.925	7840.09
568.287	7795.12
568.648	7688.91
569.01	7594
569.372	7516.48
569.734	7374.57
570.095	7311.74
570.457	7273.33
570.819	7198.75
571.18	7129.15
571.542	7154.23
571.903	7224.51
572.265	7333.44
572.626	7574.79
572.987	7739.08
573.349	7897.94
573.71	8099.07
574.071	8285.05
574.432	8355.33
574.794	8661.54
575.155	8714.19
575.516	8734.76
575.877	8769.11
576.238	8770.69
576.599	8756.68
576.96	8681.88
577.32	8593.74
577.681	8600.52
578.042	8523.24
578.403	8503.12
578.763	8534.76
579.124	8547.42
579.485	8713.97
579.845	8880.97
580.206	9076.67
580.566	9344.01
580.927	9607.05
581.287	9966.14
581.648	10266.24
582.008	10682.5
582.368	10997.52
582.728	11351.64
583.089	11669.82
583.449	12044.5
583.809	12239.97
584.169	12545.05
584.529	12701.66
584.889	12971.25
585.249	13159.95
585.609	13331.7
585.969	13580.05
586.329	13857.33
586.688	14124.44
587.048	14419.58
587.408	14703.41
587.768	15137.98
588.127	15585.42
588.487	16024.28
588.846	16673.08
589.206	17215.21
589.565	17700.4
589.925	18561.84
590.284	19037.54
590.643	19701.25
591.003	20341.68
591.362	20931.5
591.721	21552.05
592.08	21880.17
592.44	22575.52
592.799	23067.26
593.158	23397.87
593.517	23797.19
593.876	24167.8
594.235	24513.1
594.593	24921.68
594.952	25328.22
595.311	25611.37
595.67	26094.3
596.029	26773.6
596.387	27257.21
596.746	27775.61
597.104	28236.84
597.463	28885.19
597.822	29531.72
598.18	30093.52
598.538	30706.83
598.897	31481.5
599.255	31851.89
599.613	33046.21
599.972	33328.69
600.33	33997.82
600.688	34224.71
601.046	34914.18
601.404	35426.26
601.762	35708.28
602.12	36194.37
602.478	36500.58
602.836	36889.04
603.194	36885.65
603.552	37104.18
603.91	37543.72
604.268	37835.91
604.625	37907.55
604.983	38426.18
605.341	38766.73
605.698	39283.56
606.056	39795.41
606.413	40055.06
606.771	40742.73
607.128	41216.61
607.485	41531.41
607.843	42001.9
608.2	42575.45
608.557	43048.88
608.914	43385.82
609.272	43908.52
609.629	44135.41
609.986	44607.71
610.343	44570.42
610.7	45131.09
611.057	45299.67
611.414	45180.8
611.771	45516.16
612.127	45564.07
612.484	45508.48
612.841	45800
613.198	45725.87
613.554	45753.44
613.911	46011.52
614.267	46273.2
614.624	46422.35
614.98	46556.13
615.337	46897.82
615.693	47099.62
616.05	47263.01
616.406	47817.12
616.762	47833.62
617.118	48082.42
617.475	48313.6
617.831	48688.51
618.187	48886.02
618.543	48978.9
618.899	49376.63
619.255	49439.22
619.611	49269.51
619.967	49588.15
620.323	49633.34
620.678	49595.38
621.034	49500.46
621.39	49475.15
621.746	49281.71
622.101	49724.64
622.457	49236.52
622.812	49359.45
623.168	49436.28
623.523	49493.01
623.879	49760.8
624.234	49434.48
624.589	49733.68
624.945	49828.59
625.3	49967.12
625.655	50034.46
626.01	50328.46
626.365	50419.76
626.72	50521.68
627.075	50648.91
627.43	50724.39
627.785	50801.67
628.14	50948.79
628.495	50994.21
628.85	50898.39
629.205	50933.65
629.559	51223.81
629.914	50991.5
630.269	50918.28
630.623	50875.8
630.978	50765.52
631.332	50787.89
631.687	50683.26
632.041	50472.19
632.396	50563.71
632.75	50286.43
633.104	50330.5
633.459	50116.27
633.813	50177.06
634.167	50270.39
634.521	50330.72
634.875	50308.58
635.229	50430.61
635.583	50387.9
635.937	50442.59
636.291	50511.96
636.645	50671.96
636.999	50732.75
637.352	50808.45
637.706	50717.16
638.06	50849.13
638.413	50773.65
638.767	50639.87
639.121	50762.58
639.474	50558.52
639.828	50512.87
640.181	50537.27
640.534	50394
640.888	50285.3
641.241	49962.37
641.594	50028.81
641.947	50054.57
642.301	49789.95
642.654	49761.7
643.007	49615.04
643.36	49761.93
643.713	49605.09
644.066	49780.68
644.419	49564.87
644.771	49418.21
645.124	49080.59
645.477	49062.06
645.83	48889.18
646.182	48929.63
646.535	49067.93
646.888	49066.35
647.24	48966.24
647.593	49317.87
647.945	49348.38
648.298	49139.8
648.65	49090.76
649.002	49063.41
649.355	49202.62
649.707	48936.19
650.059	49201.49
650.411	49424.53
650.763	49278.32
651.115	49688.93
651.467	49336.17
651.819	49325.78
652.171	49025.9
652.523	48905.45
652.875	48874.49
653.227	48742.74
653.578	48898.22
653.93	48782.74
654.282	48557.21
654.633	48544.56
654.985	48648.06
655.337	48727.15
655.688	48827.49
656.039	49043.07
656.391	48847.6
656.742	49049.18
657.094	49009.18
657.445	49288.94
657.796	49230.41
658.147	49254.14
658.498	49270.87
658.849	49454.14
659.2	49388.6
659.551	49248.27
659.902	49430.41
660.253	49329.62
660.604	49278.32
660.955	49006.69
661.306	49110.87
661.656	48908.84
662.007	48834.94
662.358	48627.04
662.708	48467.72
663.059	48543.65
663.409	48278.35
663.76	48474.05
664.11	48299.82
664.461	48159.26
664.811	48319.93
665.161	48204.45
665.511	48230.89
665.862	48201.06
666.212	48434.73
666.562	48482.64
666.912	48507.27
667.262	48550.88
667.612	48566.93
667.962	48694.84
668.312	48730.99
668.662	48888.28
669.011	48906.58
669.361	48810.54
669.711	48905.23
670.06	48863.87
670.41	48830.65
670.76	48746.81
671.109	48788.39
671.459	48606.93
671.808	48604.89
672.157	48608.96
672.507	48242.64
672.856	48229.08
673.205	48090.11
673.554	48060.95
673.904	47821.64
674.253	48041.52
674.602	47785.48
674.951	47250.13
675.3	46984.15
675.649	47464.36
675.998	47525.15
676.346	47462.1
676.695	47655.31
677.044	47343.68
677.393	47551.81
677.741	47591.14
678.09	47662.09
678.438	47637.24
678.787	47898.25
679.135	47860.73
679.484	47773.05
679.832	47888.75
680.181	47794.75
680.529	47966.27
680.877	47802.43
681.225	47839.04
681.573	48004.68
681.922	47822.54
682.27	47718.59
682.618	47693.73
682.966	47495.32
683.314	47568.54
683.661	47263.01
684.009	46956.58
684.357	46866.63
684.705	46657.83
685.053	46678.62
685.4	46499.86
685.748	46344.16
686.095	46145.52
686.443	46018.3
686.79	45900.78
687.138	45912.08
687.485	45913.21
687.832	45722.94
688.18	45855.59
688.527	45638.87
688.874	45671.86
689.221	45597.29
689.568	45544.64
689.915	45597.52
690.262	45780.79
690.609	45713.44
690.956	45593.67
691.303	45684.52
691.65	45726.55
691.997	45661.47
692.344	45488.82
692.69	45397.97
693.037	45533.79
693.383	45175.15
693.73	45308.26
694.077	44958.89
694.423	45046.8
694.769	44750.53
695.116	44491.1
695.462	44496.53
695.808	44123.88
696.155	44350.32
696.501	43840.5
696.847	43601.64
697.193	43394.18
697.539	43340.85
697.885	42972.27
698.231	42970.24
698.577	42844.14
698.923	42670.36
699.269	42575.45
699.614	42428.11
699.96	42418.16
700.306	42372.06
700.651	42237.15
700.997	42252.29
701.342	42262.46
701.688	42277.6
702.033	42321.9
702.379	42380.2
702.724	42305.62
703.069	42370.93
703.415	42094.78
703.76	42234.89
704.105	42249.36
704.45	42036.03
704.795	41899.99
705.14	41847.11
705.485	41730.5
705.83	41706.77
706.175	41718.97
706.52	41611.41
706.865	41165.54
707.209	41276.73
707.554	40936.17
707.899	40924.87
708.243	40651.66
708.588	40338.67
708.932	40139.58
709.277	39994.05
709.621	40019.58
709.966	39633.38
710.31	39671.57
710.654	39185.48
710.998	39394.74
711.342	39312.94
711.687	39280.17
712.031	39010.8
712.375	39039.27
712.719	39068.65
713.063	38980.51
713.407	39208.98
713.75	39087.86
714.094	39070.68
714.438	39037.69
714.782	39103.22
715.125	38997.69
715.469	39222.09
715.812	39090.79
716.156	38947.52
716.499	39081.08
716.843	39093.05
717.186	38913.62
717.53	38986.39
717.873	39038.14
718.216	39045.37
718.559	38639.73
718.902	38436.12
719.246	38399.96
719.589	38338.5
719.932	38135.11
720.275	37972.63
720.617	37915.68
720.96	37687.22
721.303	37644.28
721.646	37610.83
721.989	37253.55
722.331	37359.77
722.674	37168.36
723.016	37110.73
723.359	37014.24
723.701	36971.08
724.044	36729.73
724.386	36439.56
724.729	36595.04
725.071	36547.81
725.413	36677.98
725.755	36625.1
726.097	36420.58
726.439	36289.51
726.782	36417.87
727.124	36668.94
727.465	36445.44
727.807	36528.83
728.149	36489.96
728.491	36534.93
728.833	36602.05
729.175	36432.56
729.516	36480.47
729.858	36559.56
730.199	36594.14
730.541	36417.87
730.882	36328.61
731.224	36538.77
731.565	36294.03
731.906	36267.59
732.248	36294.48
732.589	35924.55
732.93	35929.97
733.271	35695.4
733.612	35697.66
733.953	35627.61
734.294	35370.44
734.635	35151.69
734.976	35273.95
735.317	35097
735.658	34816.56
735.999	34748.31
736.339	34675.54
736.68	34708.54
737.021	34698.37
737.361	34473.06
737.702	34555.09
738.042	34486.4
738.383	34353.29
738.723	34541.99
739.063	34432.39
739.404	34527.75
739.744	34349.45
740.084	34408.21
740.424	34563.91
740.764	34515.32
741.104	34683.68
741.444	34393.52
741.784	34477.58
742.124	34682.77
742.464	34640.97
742.804	34581.99
743.143	34613.85
743.483	34624.92
743.823	34551.48
744.162	34477.58
744.502	34390.13
744.841	34265.61
745.181	34422.67
745.52	34191.04
745.86	34240.75
746.199	34194.65
746.538	33934.09
746.877	34045.5
747.216	33784.27
747.556	33560.77
747.895	33567.32
748.234	33201.68
748.573	33154.45
748.911	33090.05
749.25	32898.64
749.589	32933.22
749.928	32805.99
750.267	32780.9
750.605	32631.98
750.944	32496.39
751.283	32346.34
751.621	32513.57
751.96	32333.23
752.298	32385.66
752.636	32284.42
752.975	32214.36
753.313	32116.51
753.651	32358.54
753.989	32165.1
754.327	32091.2
754.666	32152.22
755.004	32149.96
755.342	32182.05
755.679	32179.79
756.017	31940.25
756.355	32087.59
756.693	32088.72
757.031	32109.51
757.368	31897.54
757.706	32034.03
758.044	31798.56
758.381	31945.22
758.719	31676.98
759.056	31762.17
759.394	31544.33
759.731	31395.18
760.068	31474.72
