Data from red_shiny_book_FLMS001491_00048.txt Node
Date: Wed Feb 08 15:24:55 GMT 2017
User: dcchb
Spectrometer: FLMS00149
Trigger mode: 0
Integration Time (sec): 2.000000E-2
Scans to average: 10
Electric dark correction enabled: true
Nonlinearity correction enabled: false
Boxcar width: 0
XAxis mode: Wavelengths
Number of Pixels in Spectrum: 2048
>>>>>Begin Spectral Data<<<<<
341.393	1.96
341.776	1.96
342.16	1.96
342.543	-83.01
342.927	-45.04
343.31	-86.17
343.693	-81.42
344.077	-66.28
344.46	-69
344.843	-33.74
345.226	-41.65
345.61	-27.19
345.993	-6.17
346.376	15.07
346.759	9.87
347.142	26.14
347.525	44.67
347.908	69.31
348.291	74.96
348.674	70.66
349.057	100.94
349.44	126.48
349.823	147.5
350.206	182.3
350.588	197.44
350.971	226.36
351.354	247.38
351.737	244.44
352.119	289.87
352.502	294.61
352.884	279.24
353.267	293.03
353.65	297.1
354.032	294.38
354.414	292.8
354.797	312.46
355.179	330.77
355.562	335.06
355.944	330.99
356.326	343.2
356.709	372.8
357.091	342.75
357.473	344.78
357.855	341.16
358.238	347.94
358.62	331.67
359.002	345.68
359.384	345.91
359.766	368.28
360.148	341.62
360.53	348.17
360.912	343.2
361.294	343.88
361.676	351.11
362.057	350.88
362.439	343.2
362.821	326.47
363.203	320.82
363.584	331.45
363.966	328.28
364.348	344.33
364.729	331.9
365.111	322.41
365.493	328.51
365.874	316.98
366.256	323.54
366.637	319.24
367.019	324.44
367.4	339.36
367.781	326.02
368.163	328.51
368.544	315.4
368.925	308.17
369.306	328.28
369.688	334.38
370.069	337.32
370.45	340.71
370.831	326.93
371.212	332.35
371.593	337.32
371.974	316.31
372.355	353.82
372.736	340.26
373.117	325.34
373.498	345.68
373.879	338.9
374.26	319.92
374.641	316.98
375.021	319.24
375.402	340.03
375.783	329.41
376.163	342.97
376.544	321.73
376.925	327.6
377.305	330.09
377.686	345.01
378.066	326.25
378.447	355.4
378.827	355.85
379.208	348.17
379.588	344.33
379.968	323.76
380.349	334.16
380.729	341.84
381.109	345.46
381.489	327.6
381.87	341.16
382.25	354.27
382.63	370.09
383.01	354.04
383.39	351.78
383.77	359.92
384.15	355.4
384.53	355.4
384.91	327.83
385.29	353.37
385.67	363.99
386.049	375.74
386.429	382.74
386.809	342.97
387.189	366.47
387.568	370.77
387.948	355.85
388.328	387.26
388.707	376.87
389.087	377.09
389.466	385.91
389.846	382.52
390.225	396.08
390.605	410.99
390.984	382.29
391.363	376.64
391.743	371.67
392.122	378.45
392.501	395.4
392.881	393.14
393.26	393.14
393.639	397.89
394.018	399.92
394.397	388.62
394.776	399.47
395.155	394.27
395.534	410.54
395.913	409.18
396.292	405.57
396.671	432.91
397.05	420.03
397.429	413.93
397.808	413.93
398.186	411.9
398.565	417.09
398.944	424.1
399.323	417.32
399.701	413.93
400.08	426.13
400.458	439.92
400.837	414.16
401.215	429.52
401.594	419.58
401.972	426.81
402.351	435.17
402.729	426.58
403.107	435.85
403.486	449.86
403.864	452.57
404.242	445.34
404.62	446.47
404.999	441.73
405.377	453.7
405.755	446.7
406.133	439.24
406.511	445.57
406.889	462.74
407.267	470.2
407.645	462.29
408.023	478.11
408.401	467.04
408.779	456.41
409.156	463.42
409.534	467.49
409.912	469.97
410.29	493.93
410.667	481.5
411.045	493.25
411.422	503.42
411.8	523.98
412.178	536.19
412.555	512.46
412.933	518.56
413.31	506.58
413.687	504.55
414.065	538.45
414.442	539.8
414.819	523.31
415.197	538.9
415.574	542.97
415.951	556.3
416.328	559.01
416.705	563.98
417.082	569.86
417.46	572.34
417.837	554.94
418.214	554.94
418.591	575.06
418.967	581.61
419.344	602.63
419.721	590.65
420.098	579.35
420.475	582.96
420.852	611.89
421.228	603.3
421.605	594.49
421.982	624.32
422.358	580.71
422.735	578.22
423.111	602.17
423.488	635.39
423.864	645.34
424.241	661.15
424.617	660.93
424.994	638.33
425.37	657.09
425.746	655.96
426.123	653.47
426.499	656.64
426.875	645.34
427.251	655.73
427.627	673.58
428.003	691.66
428.379	712.68
428.756	696.63
429.132	724.43
429.507	725.33
429.883	693.92
430.259	717.42
430.635	700.02
431.011	717.65
431.387	706.35
431.763	733.92
432.138	768.5
432.514	750.87
432.89	739.57
433.265	782.06
433.641	793.13
434.016	772.34
434.392	783.41
434.767	787.25
435.143	781.15
435.518	792.22
435.894	783.41
436.269	829.06
436.644	844.2
437.02	828.38
437.395	823.64
437.77	882.62
438.145	861.83
438.52	829.96
438.895	856.4
439.271	863.41
439.646	836.29
440.021	862.28
440.395	887.82
440.77	867.93
441.145	896.85
441.52	896.63
441.895	890.98
442.27	929.4
442.645	918.32
443.019	923.75
443.394	902.73
443.769	891.88
444.143	859.34
444.518	900.7
444.892	883.97
445.267	931.66
445.641	944.99
446.016	959.45
446.39	945.44
446.764	967.14
447.139	962.62
447.513	951.99
447.887	957.64
448.262	946.8
448.636	958.55
449.01	919.23
449.384	952.9
449.758	966.01
450.132	968.49
450.506	982.05
450.88	1013.24
451.254	1004.87
451.628	1008.72
452.002	1030.64
452.376	1017.98
452.75	1017.98
453.123	1008.49
453.497	999.23
453.871	980.24
454.244	1019.11
454.618	1034.7
454.992	1051.65
455.365	1052.11
455.739	1110.63
456.112	1110.41
456.486	1136.62
456.859	1116.96
457.232	1109.05
457.606	1073.12
457.979	1078.09
458.352	1089.17
458.725	1097.08
459.099	1122.39
459.472	1149.96
459.845	1144.31
460.218	1169.39
460.591	1174.59
460.964	1186.11
461.337	1221.14
461.71	1228.15
462.083	1244.42
462.456	1217.75
462.829	1179.33
463.201	1191.31
463.574	1171.88
463.947	1175.04
464.32	1214.81
464.692	1246.9
465.065	1254.13
465.438	1294.36
465.81	1301.82
466.183	1351.31
466.555	1325.54
466.928	1320.57
467.3	1347.69
467.672	1356.96
468.045	1357.86
468.417	1317.41
468.789	1308.14
469.161	1309.95
469.534	1355.15
469.906	1376.39
470.278	1418.2
470.65	1446.9
471.022	1476.95
471.394	1509.27
471.766	1531.87
472.138	1537.74
472.51	1534.8
472.882	1534.8
473.253	1523.51
473.625	1551.08
473.997	1521.02
474.369	1537.52
474.74	1568.7
475.112	1588.81
475.484	1626.1
475.855	1673.78
476.227	1716.27
476.598	1746.32
476.97	1796.94
477.341	1843.04
477.713	1819.77
478.084	1809.6
478.455	1832.42
478.827	1844.85
479.198	1835.59
479.569	1834.68
479.94	1850.73
480.311	1900.67
480.682	1923.27
481.053	1995.13
481.424	2042.14
481.795	2152.64
482.166	2148.35
482.537	2187.89
482.908	2221.34
483.279	2225.41
483.65	2227.22
484.021	2241.9
484.391	2220.44
484.762	2223.15
485.133	2205.3
485.503	2252.3
485.874	2288.91
486.244	2356.03
486.615	2415.46
486.985	2499.98
487.356	2565.96
487.726	2609.58
488.097	2671.95
488.467	2690.03
488.837	2720.76
489.207	2695.68
489.578	2740.65
489.948	2725.06
490.318	2727.54
490.688	2662.23
491.058	2709.91
491.428	2736.81
491.798	2789.91
492.168	2876.46
492.538	2942.68
492.908	3032.17
493.278	3104.48
493.648	3111.49
494.017	3171.15
494.387	3169.34
494.757	3162.33
495.126	3184.03
495.496	3099.73
495.866	3141.77
496.235	3101.54
496.605	3106.06
496.974	3132.05
497.344	3185.16
497.713	3197.13
498.082	3284.14
498.452	3377.24
498.821	3445.94
499.19	3501.53
499.559	3517.35
499.928	3581.98
500.298	3585.15
500.667	3567.07
501.036	3502.66
501.405	3507.41
501.774	3451.82
502.143	3396.68
502.512	3405.26
502.88	3364.59
503.249	3357.36
503.618	3466.96
503.987	3552.6
504.356	3587.41
504.724	3639.61
505.093	3738.81
505.462	3790.11
505.83	3813.39
506.199	3867.62
506.567	3838.47
506.936	3831.47
507.304	3822.65
507.672	3739.49
508.041	3696.56
508.409	3697.46
508.777	3683.45
509.145	3653.39
509.514	3686.16
509.882	3730.45
510.25	3800.73
510.618	3922.99
510.986	3962.31
511.354	4012.03
511.722	4071.91
512.09	4104.68
512.458	4129.54
512.826	4129.09
513.193	4120.95
513.561	4075.98
513.929	4009.54
514.297	3951.01
514.664	3929.32
515.032	3913.95
515.4	3900.62
515.767	3890.9
516.135	3948.98
516.502	3947.4
516.869	4086.6
517.237	4188.07
517.604	4226.26
517.972	4336.09
518.339	4390.32
518.706	4429.19
519.073	4392.58
519.44	4368.4
519.808	4358.01
520.175	4285.47
520.542	4222.19
520.909	4179.93
521.276	4105.13
521.643	4128.41
522.009	4137.45
522.376	4159.37
522.743	4230.55
523.11	4314.62
523.477	4472.81
523.843	4588.28
524.21	4682.97
524.577	4732.69
524.943	4793.02
525.31	4826.92
525.676	4835.06
526.043	4836.86
526.409	4820.37
526.776	4705.34
527.142	4676.42
527.508	4637.77
527.874	4597.1
528.241	4562.07
528.607	4593.93
528.973	4625.8
529.339	4637.55
529.705	4786.92
530.071	4934.49
530.437	5031.66
530.803	5080.47
531.169	5244.09
531.535	5308.94
531.901	5411.99
532.267	5416.74
532.632	5449.73
532.998	5389.62
533.364	5352.78
533.73	5264.65
534.095	5219.68
534.461	5181.94
534.826	5170.41
535.192	5082.73
535.557	5139.68
535.923	5121.38
536.288	5247.25
536.653	5401.37
537.019	5472.1
537.384	5588.93
537.749	5713.68
538.114	5809.49
538.479	5855.59
538.845	5961.13
539.21	5971.3
539.575	5990.96
539.94	5940.79
540.305	5906.67
540.67	5846.78
541.034	5682.27
541.399	5671.42
541.764	5633.91
542.129	5574.02
542.494	5593.91
542.858	5654.7
543.223	5681.59
543.587	5825.99
543.952	5924.07
544.316	6068.47
544.681	6139.43
545.045	6292.19
545.41	6463.49
545.774	6522.24
546.138	6540.55
546.503	6506.88
546.867	6500.78
547.231	6479.76
547.595	6445.18
547.959	6306.2
548.324	6158.41
548.688	6110.05
549.052	6015.14
549.416	5967.46
549.779	5990.73
550.143	6026.21
550.507	6092.2
550.871	6190.95
551.235	6275.02
551.599	6421.68
551.962	6517.72
552.326	6593.65
552.689	6778.73
553.053	6815.8
553.417	6879.3
553.78	6954.32
554.143	6856.47
554.507	6864.83
554.87	6735.8
555.234	6713.2
555.597	6541.9
555.96	6478.63
556.323	6412.87
556.686	6307.79
557.05	6245.64
557.413	6343.04
557.776	6341.91
558.139	6426.65
558.502	6575.58
558.865	6663.71
559.228	6822.12
559.59	6951.61
559.953	7084.94
560.316	7255.33
560.679	7267.53
561.041	7309.79
561.404	7370.13
561.767	7323.35
562.129	7184.83
562.492	7224.6
562.854	7101.89
563.217	6936.7
563.579	6891.73
563.941	6798.85
564.304	6826.19
564.666	6750.94
565.028	6693.76
565.39	6773.76
565.753	6818.96
566.115	6965.4
566.477	7130.36
566.839	7262.11
567.201	7434.31
567.563	7526.96
567.925	7703.23
568.287	7801.53
568.648	7850.57
569.01	7939.38
569.372	7977.57
569.734	7863
570.095	7800.18
570.457	7690.12
570.819	7613.74
571.18	7564.48
571.542	7417.36
571.903	7358.15
572.265	7316.12
572.626	7270.02
572.987	7293.07
573.349	7353.41
573.71	7492.39
574.071	7604.25
574.432	7835.2
574.794	8050.57
575.155	8239.03
575.516	8365.13
575.877	8614.39
576.238	8703.66
576.599	8895.51
576.96	8962.18
577.32	9010.54
577.681	9049.86
578.042	9088.05
578.403	9002.63
578.763	8950.43
579.124	8944.55
579.485	8857.78
579.845	8961.28
580.206	8982.97
580.566	9059.58
580.927	9209.18
581.287	9405.11
581.648	9648.94
582.008	9924.41
582.368	10255.48
582.728	10587.22
583.089	10909.25
583.449	11419.52
583.809	11715.55
584.169	12180.4
584.529	12505.14
584.889	12944
585.249	13102.41
585.609	13416.3
585.969	13819.45
586.329	14010.63
586.688	14249.95
587.048	14580.11
587.408	14783.5
587.768	15010.61
588.127	15301.67
588.487	15635
588.846	16005.61
589.206	16323.57
589.565	16846.49
589.925	17337.1
590.284	17926.46
590.643	18420.69
591.003	19052.99
591.362	19740.65
591.721	20348.55
592.08	20866.95
592.44	21645.91
592.799	22220.81
593.158	22676.4
593.517	23193.9
593.876	23868.68
594.235	24190.25
594.593	24665.72
594.952	25109.33
595.311	25471.8
595.67	25913.37
596.029	26417.99
596.387	26701.6
596.746	27087.35
597.104	27550.39
597.463	27912.19
597.822	28434.44
598.18	28830.13
598.538	29295.43
598.897	29992.14
599.255	30330.88
599.613	31481.36
599.972	31786.44
600.33	32509.58
600.688	32906.41
601.046	33614.19
601.404	34278.35
601.762	34806.7
602.12	35518.77
602.478	35801.25
602.836	36304.06
603.194	36428.12
603.552	36843.03
603.91	37029.24
604.268	37480.07
604.625	37693.18
604.983	38038.48
605.341	38019.49
605.698	38462.42
606.056	38972.24
606.413	39082.52
606.771	39408.38
607.128	39937.18
607.485	39935.38
607.843	40467.57
608.2	41000.21
608.557	41559.97
608.914	41823.01
609.272	42355.65
609.629	42742.08
609.986	43413.03
610.343	43652.34
610.7	44332.32
611.057	44392.89
611.414	44561.47
611.771	44963.94
612.127	45188.12
612.484	45305.86
612.841	45553.53
613.198	45504.95
613.554	45483.93
613.911	45801.66
614.267	45807.54
614.624	45792.62
614.98	45902.9
615.337	46199.84
615.693	46208.21
616.05	46379.27
616.406	46779.49
616.762	46665.82
617.118	46913.95
617.475	47231
617.831	47511.45
618.187	47689.52
618.543	47936.52
618.899	48313.24
619.255	48377.64
619.611	48672.32
619.967	48862.6
620.323	49022.37
620.678	49141.01
621.034	49039.54
621.39	49141.69
621.746	49139.88
622.101	49569.93
622.457	49261.01
622.812	49210.84
623.168	49394.79
623.523	49350.27
623.879	49357.73
624.234	49094.01
624.589	49167.22
624.945	49191.86
625.3	49189.6
625.655	49204.06
626.01	49371.29
626.365	49279.99
626.72	49444.96
627.075	49590.26
627.43	49755.01
627.785	49732.63
628.14	49891.72
628.495	50142.79
628.85	50150.7
629.205	50144.6
629.559	50487.42
629.914	50491.94
630.269	50523.35
630.623	50507.08
630.978	50441.31
631.332	50601.76
631.687	50489.45
632.041	50324.26
632.396	50332.62
632.75	50160.87
633.104	50109.12
633.459	49925.62
633.813	49841.33
634.167	49729.7
634.521	49610.83
634.875	49783.25
635.229	49571.06
635.583	49457.39
635.937	49536.25
636.291	49521.34
636.645	49724.72
636.999	49616.93
637.352	49893.98
637.706	49725.18
638.06	49943.93
638.413	50030.93
638.767	49966.98
639.121	50105.5
639.474	49994.1
639.828	50052.4
640.181	50209.91
640.534	50219.17
640.888	50078.16
641.241	49864.15
641.594	49829.13
641.947	49857.83
642.301	49679.75
642.654	49676.14
643.007	49561.56
643.36	49390.5
643.713	49283.38
644.066	49429.59
644.419	49034.35
644.771	48734.24
645.124	48419.67
645.477	48251.77
645.83	48021.04
646.182	48019.01
646.535	47879.35
646.888	48074.82
647.24	47890.87
647.593	48317.75
647.945	48238.66
648.298	48211.54
648.65	48169.96
649.002	48211.54
649.355	48447.92
649.707	48409.73
650.059	48511.65
650.411	48973.78
650.763	49127.9
651.115	49430.95
651.467	49270.95
651.819	49087.45
652.171	49046.78
652.523	48842.03
652.875	48705.32
653.227	48567.92
653.578	48679.78
653.93	48472.1
654.282	48237.31
654.633	48042.51
654.985	48190.53
655.337	48112.11
655.688	48068.95
656.039	48282.73
656.391	47870.31
656.742	48030.3
657.094	48068.72
657.445	48195.05
657.796	48141.94
658.147	48134.93
658.498	48259
658.849	48561.36
659.2	48534.92
659.551	48455.83
659.902	48663.06
660.253	48559.1
660.604	48741.92
660.955	48532.66
661.306	48747.57
661.656	48610.63
662.007	48576.96
662.358	48550.52
662.708	48520.24
663.059	48332.67
663.409	48023.3
663.76	48268.94
664.11	48088.16
664.461	47949.18
664.811	47885.45
665.161	47789.18
665.511	47647.49
665.862	47611.11
666.212	47648.62
666.562	47719.35
666.912	47701.27
667.262	47588.96
667.612	47620.82
667.962	47699.24
668.312	47718
668.662	47981.27
669.011	47794.83
669.361	47855.62
669.711	47881.16
670.06	48032.56
670.41	47867.6
670.76	48049.06
671.109	48197.76
671.459	48267.13
671.808	48033.02
672.157	48307.81
672.507	47939.69
672.856	47897.65
673.205	47955.5
673.554	47943.98
673.904	47759.13
674.253	47854.49
674.602	47616.08
674.951	47010.67
675.3	46746.27
675.649	47326.37
675.998	47038.47
676.346	46998.69
676.695	47109.43
677.044	46789.43
677.393	47024
677.741	46889.54
678.09	46847.74
678.438	46631.25
678.787	46835.53
679.135	46734.52
679.484	46725.71
679.832	46963.44
680.181	46754.63
680.529	46970.22
680.877	46834.63
681.225	46898.81
681.573	47290.21
681.922	47030.33
682.27	46926.38
682.618	47120.5
682.966	46900.84
683.314	47175.19
683.661	46953.05
684.009	46825.14
684.357	46668.98
684.705	46478.71
685.053	46573.62
685.4	46293.63
685.748	46217.02
686.095	45989.23
686.443	45718.28
686.79	45666.3
687.138	45590.6
687.485	45691.84
687.832	45416.36
688.18	45298.17
688.527	44992.64
688.874	44972.76
689.221	44927.56
689.568	44799.66
689.915	44730.5
690.262	44768.24
690.609	44702.71
690.956	44593.33
691.303	44686.89
691.65	44571.64
691.997	44560.11
692.344	44431.53
692.69	44451.42
693.037	44700.9
693.383	44350.85
693.73	44483.73
694.077	44302.04
694.423	44436.95
694.769	44326
695.116	44201.48
695.462	44116.28
695.808	44003.74
696.155	44045.32
696.501	43622.51
696.847	43585.22
697.193	43098.01
697.539	43310.88
697.885	42870.44
698.231	42537.79
698.577	42533.73
698.923	42412.37
699.269	42177.8
699.614	41910.01
699.96	41764.25
700.306	41860.98
700.651	41509.57
700.997	41381.21
701.342	41517.26
701.688	41280.88
702.033	41242.46
702.379	41151.84
702.724	41184.61
703.069	41280.43
703.415	40915.46
703.76	41044.95
704.105	41188.68
704.45	41135.57
704.795	41066.42
705.14	40818.07
705.485	41091.96
705.83	40877.27
706.175	40969.47
706.52	40899.87
706.865	40804.51
707.209	40891.51
707.554	40631.18
707.899	40704.4
708.243	40464.4
708.588	40259.89
708.932	39966.11
709.277	39937.41
709.621	39904.42
709.966	39501.94
710.31	39477.31
710.654	39188.05
710.998	39070.99
711.342	39113.03
711.687	38738.35
712.031	38575.19
712.375	38468.75
712.719	38511.46
713.063	38311.01
713.407	38438.01
713.75	38295.87
714.094	38365.47
714.438	38106.05
714.782	38227.85
715.125	37931.81
715.469	38246.38
715.812	38070.79
716.156	37829.67
716.499	37999.61
716.843	38185.14
717.186	38112.15
717.53	38186.04
717.873	38281.86
718.216	38120.06
718.559	38183.11
718.902	37768.43
719.246	37937.46
719.589	37956.9
719.932	37726.17
720.275	37691.59
720.617	37707.64
720.96	37604.36
721.303	37536.12
721.646	37581.54
721.989	37178.39
722.331	37230.81
722.674	37079.86
723.016	36905.85
723.359	36737.27
723.701	36613.2
724.044	36323.04
724.386	36173.89
724.729	36285.08
725.071	36068.36
725.413	35986.78
725.755	36018.64
726.097	35938.65
726.439	35723.28
726.782	35651.87
727.124	35839.66
727.465	35574.81
727.807	35663.62
728.149	35685.09
728.491	35649.84
728.833	35654.13
729.175	35558.77
729.516	35497.53
729.858	35621.37
730.199	35812.32
730.541	35710.18
730.882	35742.72
731.224	35923.28
731.565	35645.77
731.906	35642.16
732.248	35815.94
732.589	35679.22
732.93	35546.57
733.271	35540.46
733.612	35493.23
733.953	35622.04
734.294	35358.32
734.635	35170.08
734.976	35122.85
735.317	34821.16
735.658	34898.9
735.999	34736.19
736.339	34477.67
736.68	34577.78
737.021	34273.83
737.361	34165.58
737.702	34333.04
738.042	34109.09
738.383	33969.43
738.723	33902.99
739.063	33846.05
739.404	33941.41
739.744	33727.63
740.084	33720.17
740.424	33641.3
740.764	33731.7
741.104	33772.83
741.444	33754.97
741.784	33630.68
742.124	33789.78
742.464	33714.07
742.804	33693.73
743.143	33578.71
743.483	33754.3
743.823	33685.37
744.162	33649.89
744.502	33825.03
744.841	33590.68
745.181	33884.01
745.52	33728.99
745.86	33623.9
746.199	33708.65
746.538	33620.29
746.877	33641.98
747.216	33636.11
747.556	33379.62
747.895	33427.3
748.234	33229.79
748.573	33087.65
748.911	32876.13
749.25	33035.67
749.589	32650.14
749.928	32794.32
750.267	32583.25
750.605	32465.52
750.944	32280.21
751.283	32130.38
751.621	32134.45
751.96	31847
752.298	31857.4
752.636	31788.92
752.975	31607.01
753.313	31676.61
753.651	31605.88
753.989	31503.96
754.327	31452.21
754.666	31391.87
755.004	31478.2
755.342	31442.72
755.679	31378.54
756.017	31241.59
756.355	31480.01
756.693	31297.86
757.031	31375.83
757.368	31245.66
757.706	31208.6
758.044	31218.77
758.381	31282.5
758.719	31133.57
759.056	31165.89
759.394	31215.61
759.731	31128.15
760.068	30940.81
760.405	30883.64
