Data from red_cardboard_box_FLMS001491_00092.txt Node
Date: Wed Feb 08 11:33:24 GMT 2017
User: dcchb
Spectrometer: FLMS00149
Trigger mode: 0
Integration Time (sec): 2.000000E-2
Scans to average: 10
Electric dark correction enabled: true
Nonlinearity correction enabled: false
Boxcar width: 0
XAxis mode: Wavelengths
Number of Pixels in Spectrum: 2048
>>>>>Begin Spectral Data<<<<<
341.393	-10.89
341.776	-10.89
342.16	-10.89
342.543	-58.57
342.927	-63.09
343.31	-81.62
343.693	-69.19
344.077	-65.35
344.46	-55.41
344.843	-56.54
345.226	-31.91
345.61	-30.1
345.993	-27.16
346.376	-5.69
346.759	9
347.142	30.24
347.525	30.01
347.908	81.54
348.291	70.24
348.674	95.77
349.057	106.17
349.44	103.91
349.823	141.2
350.206	175.32
350.588	209.67
350.971	219.84
351.354	243.12
351.737	236.79
352.119	265.49
352.502	272.04
352.884	285.6
353.267	305.94
353.65	302.32
354.032	303.68
354.414	314.98
354.797	320.4
355.179	312.49
355.562	310.01
355.944	323.11
356.326	334.64
356.709	340.51
357.091	337.8
357.473	357.69
357.855	343.23
358.238	353.62
358.62	341.19
359.002	333.06
359.384	355.65
359.766	315.88
360.148	332.6
360.53	339.84
360.912	352.94
361.294	352.49
361.676	339.16
362.057	327.63
362.439	333.51
362.821	341.19
363.203	324.92
363.584	328.76
363.966	309.55
364.348	353.39
364.729	310.46
365.111	347.75
365.493	342.77
365.874	308.2
366.256	329.89
366.637	336.67
367.019	335.99
367.4	303
367.781	314.3
368.163	330.34
368.544	305.94
368.925	323.11
369.306	299.61
369.688	354.75
370.069	307.52
370.45	324.02
370.831	310.46
371.212	306.16
371.593	333.06
371.974	316.11
372.355	314.53
372.736	321.31
373.117	322.89
373.498	326.05
373.879	305.26
374.26	308.2
374.641	332.38
375.021	295.32
375.402	328.31
375.783	345.49
376.163	339.61
376.544	314.75
376.925	325.6
377.305	321.08
377.686	321.31
378.066	347.97
378.447	312.04
378.827	347.07
379.208	349.33
379.588	351.59
379.968	328.08
380.349	343.68
380.729	356.33
381.109	357.01
381.489	343
381.87	335.99
382.25	326.5
382.63	345.49
383.01	333.06
383.39	324.47
383.77	339.61
384.15	338.93
384.53	340.29
384.91	339.84
385.29	334.41
385.67	352.49
386.049	347.29
386.429	354.07
386.809	336.67
387.189	357.46
387.568	364.69
387.948	346.39
388.328	352.94
388.707	351.36
389.087	373.06
389.466	363.79
389.846	380.29
390.225	361.08
390.605	357.69
390.984	366.73
391.363	378.48
391.743	348.65
392.122	347.52
392.501	371.02
392.881	367.86
393.26	354.52
393.639	382.32
394.018	370.12
394.397	361.3
394.776	365.82
395.155	357.01
395.534	381.19
395.913	383.9
396.292	390.68
396.671	355.2
397.05	391.13
397.429	381.42
397.808	371.47
398.186	355.65
398.565	410.12
398.944	392.04
399.323	399.5
399.701	393.85
400.08	395.43
400.458	373.96
400.837	386.16
401.215	410.12
401.594	374.41
401.972	387.74
402.351	416.22
402.729	394.07
403.107	392.94
403.486	411.25
403.864	405.37
404.242	418.48
404.62	408.31
404.999	419.16
405.377	408.08
405.755	400.63
406.133	418.93
406.511	415.54
406.889	416.44
407.267	414.18
407.645	426.16
408.023	439.27
408.401	408.76
408.779	433.62
409.156	441.53
409.534	436.78
409.912	452.83
410.29	453.05
410.667	425.94
411.045	431.81
411.422	425.03
411.8	433.84
412.178	445.14
412.555	449.89
412.933	454.41
413.31	443.56
413.687	468.65
414.065	452.38
414.442	456.67
414.819	459.83
415.197	470
415.574	472.04
415.951	469.32
416.328	507.29
416.705	477.23
417.082	484.69
417.46	501.64
417.837	489.89
418.214	505.48
418.591	489.66
418.967	488.08
419.344	490.11
419.721	494.86
420.098	504.58
420.475	476.56
420.852	530.11
421.228	495.99
421.605	519.49
421.982	525.82
422.358	518.14
422.735	524.24
423.111	517.23
423.488	533.28
423.864	527.85
424.241	533.28
424.617	539.38
424.994	514.52
425.37	540.51
425.746	529.44
426.123	535.99
426.499	566.72
426.875	562.88
427.251	545.48
427.627	573.95
428.003	552.49
428.379	552.94
428.756	565.82
429.132	549.55
429.507	573.95
429.883	576.67
430.259	565.59
430.635	588.87
431.011	560.62
431.387	597.91
431.763	599.94
432.138	626.83
432.514	584.12
432.89	591.35
433.265	595.42
433.641	619.6
434.016	602.43
434.392	621.64
434.767	611.47
435.143	634.07
435.518	639.04
435.894	663.89
436.269	658.02
436.644	651.01
437.02	671.58
437.395	658.7
437.77	661.41
438.145	648.08
438.52	682.2
438.895	648.53
439.271	683.56
439.646	694.85
440.021	703.89
440.395	694.85
440.77	696.21
441.145	657.57
441.52	680.84
441.895	695.31
442.27	717.45
442.645	719.49
443.019	729.43
443.394	714.97
443.769	721.07
444.143	715.87
444.518	721.29
444.892	707.06
445.267	735.31
445.641	724.68
446.016	722.2
446.39	728.07
446.764	744.34
447.139	765.36
447.513	734.18
447.887	761.52
448.262	763.1
448.636	750.67
449.01	762.88
449.384	766.72
449.758	768.3
450.132	745.25
450.506	789.32
450.88	785.7
451.254	794.74
451.628	782.08
452.002	783.44
452.376	811.69
452.75	812.59
453.123	823.44
453.497	813.95
453.871	822.31
454.244	845.36
454.618	818.47
454.992	846.72
455.365	858.01
455.739	862.08
456.112	869.09
456.486	865.92
456.859	900.05
457.232	891.23
457.606	898.47
457.979	909.31
458.352	896.66
458.725	888.97
459.099	907.28
459.472	925.81
459.845	912.48
460.218	923.32
460.591	950.67
460.964	959.71
461.337	970.1
461.71	977.56
462.083	980.04
462.456	983.66
462.829	966.26
463.201	981.63
463.574	1003.77
463.947	989.08
464.32	1048.74
464.692	1014.85
465.065	1030.89
465.438	1059.82
465.81	1072.92
466.183	1059.14
466.555	1104.11
466.928	1092.36
467.3	1089.87
467.672	1091.68
468.045	1123.54
468.417	1124.67
468.789	1121.74
469.161	1139.14
469.534	1131.45
469.906	1149.08
470.278	1173.26
470.65	1184.11
471.022	1193.15
471.394	1202.41
471.766	1222.75
472.138	1239.02
472.51	1224.56
472.882	1245.8
473.253	1274.73
473.625	1308.17
473.997	1278.79
474.369	1295.06
474.74	1308.4
475.112	1362.18
475.484	1349.07
475.855	1380.03
476.227	1364.89
476.598	1433.59
476.97	1417.1
477.341	1446.47
477.713	1482.86
478.084	1457.32
478.455	1517.43
478.827	1486.25
479.198	1533.25
479.569	1551.33
479.94	1603.76
480.311	1608.28
480.682	1621.16
481.053	1685.79
481.424	1683.08
481.795	1686.24
482.166	1733.25
482.537	1717.88
482.908	1736.64
483.279	1782.28
483.65	1813.92
484.021	1825.67
484.391	1784.77
484.762	1888.72
485.133	1878.78
485.503	1907.03
485.874	1958.78
486.244	1971.43
486.615	1968.72
486.985	1975.27
487.356	2029.73
487.726	2083.52
488.097	2103.41
488.467	2092.11
488.837	2125.33
489.207	2127.59
489.578	2178.21
489.948	2189.28
490.318	2179.79
490.688	2243.97
491.058	2292.55
491.428	2297.07
491.798	2312.44
492.168	2368.71
492.538	2379.33
492.908	2412.32
493.278	2446.67
493.648	2430.4
494.017	2450.97
494.387	2486.22
494.757	2503.17
495.126	2504.98
495.496	2512.43
495.866	2562.6
496.235	2589.49
496.605	2636.27
496.974	2577.29
497.344	2648.25
497.713	2651.41
498.082	2694.35
498.452	2712.88
498.821	2732.32
499.19	2712.88
499.559	2765.31
499.928	2783.84
500.298	2784.74
500.667	2827
501.036	2820.67
501.405	2872.88
501.774	2828.81
502.143	2878.75
502.512	2903.16
502.88	2880.79
503.249	2961.01
503.618	2938.64
503.987	2973.66
504.356	3001.91
504.724	2999.2
505.093	2980.44
505.462	3011.86
505.83	3082.14
506.199	3090.95
506.567	3090.95
506.936	3087.33
507.304	3159.65
507.672	3177.28
508.041	3215.69
508.409	3229.25
508.777	3213.66
509.145	3281.45
509.514	3260.44
509.882	3246.43
510.25	3312.19
510.618	3334.11
510.986	3346.31
511.354	3380.66
511.722	3409.81
512.09	3462.69
512.458	3418.4
512.826	3503.59
513.193	3509.02
513.561	3486.87
513.929	3532.75
514.297	3557.6
514.664	3620.2
515.032	3582.46
515.4	3603.48
515.767	3661.33
516.135	3685.28
516.502	3655
516.869	3751.05
517.237	3766.86
517.604	3760.31
517.972	3796.69
518.339	3796.47
518.706	3841.66
519.073	3867.43
519.44	3910.59
519.808	3945.39
520.175	3975.22
520.542	3995.56
520.909	4002.34
521.276	4030.36
521.643	4080.53
522.009	4071.49
522.376	4142
522.743	4151.71
523.11	4183.8
523.477	4223.35
523.843	4247.08
524.21	4319.62
524.577	4326.17
524.943	4384.7
525.31	4412.72
525.676	4437.81
526.043	4419.73
526.409	4494.98
526.776	4556.22
527.142	4517.13
527.508	4555.54
527.874	4600.29
528.241	4610.68
528.607	4675.54
528.973	4694.07
529.339	4712.15
529.705	4760.51
530.071	4802.54
530.437	4852.71
530.803	4863.78
531.169	4886.83
531.535	4903.33
531.901	4939.94
532.267	4972.71
532.632	4977.23
532.998	4987.62
533.364	5029.43
533.73	5057.45
534.095	5106.04
534.461	5108.98
534.826	5163.21
535.192	5153.49
535.557	5207.5
535.923	5212.25
536.288	5323.21
536.653	5314.39
537.019	5300.84
537.384	5292.7
537.749	5364.34
538.114	5370.21
538.479	5407.27
538.845	5432.36
539.21	5477.1
539.575	5476.88
539.94	5497.44
540.305	5535.63
540.67	5534.5
541.034	5605.46
541.399	5599.13
541.764	5627.15
542.129	5647.72
542.494	5637.32
542.858	5669.87
543.223	5684.33
543.587	5783.76
543.952	5722.97
544.316	5803.87
544.681	5823.31
545.045	5814.04
545.41	5867.6
545.774	5906.47
546.138	5916.41
546.503	5960.7
546.867	5981.04
547.231	6010.42
547.595	5989.4
547.959	6074.83
548.324	6105.33
548.688	6099.91
549.052	6134.49
549.416	6175.84
549.779	6190.08
550.143	6221.49
550.507	6254.93
550.871	6305.1
551.235	6327.02
551.599	6421.03
551.962	6410.41
552.326	6427.13
552.689	6509.84
553.053	6527.92
553.417	6557.53
553.78	6610.86
554.143	6627.35
554.507	6638.43
554.87	6664.64
555.234	6775.37
555.597	6764.75
555.96	6798.65
556.323	6834.58
556.686	6846.11
557.05	6918.65
557.413	6989.6
557.776	7004.29
558.139	7109.15
558.502	7150.05
558.865	7104.63
559.228	7223.5
559.59	7288.13
559.953	7297.84
560.316	7506.43
560.679	7409.71
561.041	7519.76
561.404	7631.62
561.767	7658.74
562.129	7625.52
562.492	7729.47
562.854	7848.79
563.217	7861.22
563.579	7909.58
563.941	7940.77
564.304	8086.07
564.666	8151.16
565.028	8193.41
565.39	8279.97
565.753	8330.13
566.115	8396.35
566.477	8520.86
566.839	8540.3
567.201	8642.44
567.563	8733.97
567.925	8810.8
568.287	8784.81
568.648	8897.8
569.01	8985.94
569.372	9080.85
569.734	9154.07
570.095	9252.6
570.457	9329.2
570.819	9349.99
571.18	9439.03
571.542	9624.79
571.903	9640.16
572.265	9718.8
572.626	9821.39
572.987	9892.13
573.349	10017.32
573.71	10101.39
574.071	10167.83
574.432	10253.25
574.794	10398.33
575.155	10441.04
575.516	10518.78
575.877	10745.66
576.238	10764.42
576.599	10863.63
576.96	10944.08
577.32	11085.77
577.681	11264.29
578.042	11361.01
578.403	11466.55
578.763	11636.94
579.124	11722.36
579.485	11845.52
579.845	12008.68
580.206	12100.43
580.566	12250.48
580.927	12459.97
581.287	12657.03
581.648	12694.99
582.008	12899.96
582.368	13027.86
582.728	13280.96
583.089	13415.88
583.449	13607.96
583.809	13825.81
584.169	14012.47
584.529	14206.59
584.889	14459.69
585.249	14623.3
585.609	14722.06
585.969	15086.79
586.329	15253.57
586.688	15509.83
587.048	15706.44
587.408	16029.59
587.768	16198.18
588.127	16459.41
588.487	16677.94
588.846	17094.42
589.206	17272.5
589.565	17673.39
589.925	17915.19
590.284	18183.66
590.643	18483.77
591.003	18885.56
591.362	19248.94
591.721	19535.04
592.08	19816.39
592.44	20232.42
592.799	20649.13
593.158	20859.75
593.517	21299.96
593.876	21699.95
594.235	22018.14
594.593	22442.76
594.952	22840.04
595.311	23149.63
595.67	23565.89
596.029	24087.01
596.387	24515.25
596.746	24972.41
597.104	25237.71
597.463	25614.88
597.822	26123.11
598.18	26363.11
598.538	26763.1
598.897	27302.74
599.255	27533.7
599.613	28315.15
599.972	28451.41
600.33	29006.2
600.688	29129.59
601.046	29864.26
601.404	30356.22
601.762	30590.79
602.12	31201.4
602.478	31619.69
602.836	31958.21
603.194	32199.56
603.552	32635.03
603.91	33028.69
604.268	33643.59
604.625	33857.15
604.983	34432.5
605.341	34575.32
605.698	35100.96
606.056	35628.4
606.413	35736.65
606.771	36442.39
607.128	36789.95
607.485	36862.72
607.843	37355.59
608.2	37782.02
608.557	38256.58
608.914	38365.5
609.272	38803.91
609.629	39265.82
609.986	39562.99
610.343	39642.08
610.7	40178.56
611.057	40449.74
611.414	40711.88
611.771	40915.27
612.127	41263.05
612.484	41423.95
612.841	41981.68
613.198	41954.79
613.554	42223.03
613.911	42677.71
614.267	42846.06
614.624	42983.69
614.98	43223.23
615.337	43630.22
615.693	43642.43
616.05	43945.92
616.406	44291.22
616.762	44252.58
617.118	44421.39
617.475	44825.45
617.831	44842.39
618.187	45025.44
618.543	45233.34
618.899	45700
619.255	45712.2
619.611	45922.37
619.967	46164.85
620.323	46327.1
620.678	46310.38
621.034	46308.12
621.39	46493.2
621.746	46584.95
622.101	47128.21
622.457	46892.74
622.812	47016.57
623.168	47141.77
623.523	47272.16
623.879	47530.01
624.234	47413.17
624.589	47597.8
624.945	47629.44
625.3	47906.49
625.655	47834.18
626.01	47924.8
626.365	48003.89
626.72	48013.84
627.075	48207.73
627.43	48182.87
627.785	48142.19
628.14	48333.38
628.495	48468.06
628.85	48419.02
629.205	48381.74
629.559	48607.72
629.914	48601.84
630.269	48702.86
630.623	48664.44
630.978	48638.23
631.332	48813.36
631.687	48950.99
632.041	48842.29
632.396	48942.17
632.75	48881.84
633.104	48963.87
633.459	48790.09
633.813	48910.54
634.167	48958.9
634.521	48898.33
634.875	49029.18
635.229	49018.78
635.583	48819.46
635.937	48911.67
636.291	48878.22
636.645	48909.63
636.999	48904.89
637.352	49005.22
637.706	48773.14
638.06	49007.71
638.413	48914.6
638.767	49000.03
639.121	48950.76
639.474	48814.95
639.828	48853.14
640.181	48873.7
640.534	49006.13
640.888	48926.58
641.241	48732.01
641.594	48876.64
641.947	49019.23
642.301	48964.32
642.654	48884.77
643.007	49040.25
643.36	48936.3
643.713	48923.87
644.066	49061.27
644.419	48743.31
644.771	48516.65
645.124	48128.86
645.477	48189.88
645.83	47908.08
646.182	47904.46
646.535	47780.4
646.888	47940.84
647.24	47817.68
647.593	48029.88
647.945	47878.7
648.298	47602.77
648.65	47656.33
649.002	47603.45
649.355	47814.07
649.707	47708.08
650.059	47896.1
650.411	48303.77
650.763	48325.24
651.115	48700.6
651.467	48689.52
651.819	48857.66
652.171	48608.85
652.523	48534.73
652.875	48616.08
653.227	48396.65
653.578	48707.6
653.93	48617.21
654.282	48472.36
654.633	48384.45
654.985	48548.74
655.337	48551
655.688	48590.09
656.039	48564.78
656.391	48346.93
656.742	48327.73
657.094	48382.19
657.445	48518.23
657.796	48442.3
658.147	48278.24
658.498	48459.02
658.849	48489.08
659.2	48332.92
659.551	48254.51
659.902	48407.27
660.253	48398.01
660.604	48269.65
660.955	48100.61
661.306	48376.31
661.656	48278.69
662.007	48414.73
662.358	48311.46
662.708	48357.78
663.059	48279.82
663.409	48034.4
663.76	48388.06
664.11	48510.09
664.461	48459.02
664.811	48403.66
665.161	48430.32
665.511	48276.43
665.862	48375.63
666.212	48339.03
666.562	48426.48
666.912	48297.44
667.262	48331.57
667.612	48211.57
667.962	48334.96
668.312	48241.18
668.662	48457.67
669.011	48303.32
669.361	48226.94
669.711	48345.81
670.06	48219.93
670.41	48129.31
670.76	48036.43
671.109	48238.69
671.459	48174.06
671.808	48078.92
672.157	48282.3
672.507	47922.99
672.856	48012.03
673.205	48094.51
673.554	48212.02
673.904	47954.4
674.253	48197.11
674.602	48081.86
674.951	47534.75
675.3	47283.01
675.649	48009.99
675.998	47944.01
676.346	47892.26
676.695	48059.26
677.044	47735.43
677.393	47889.55
677.741	47904.91
678.09	47678.25
678.438	47725.48
678.787	47801.86
679.135	47743.79
679.484	47595.99
679.832	47648.2
680.181	47392.38
680.529	47619.95
680.877	47431.25
681.225	47446.17
681.573	47585.37
681.922	47287.75
682.27	47193.74
682.618	47284.82
682.966	47146.06
683.314	47234.42
683.661	47123.92
684.009	46994.43
684.357	46868.33
684.705	46826.97
685.053	46868.78
685.4	46760.54
685.748	46695.9
686.095	46708.79
686.443	46525.74
686.79	46471.96
687.138	46486.19
687.485	46610.26
687.832	46295.46
688.18	46479.19
688.527	46200.78
688.874	46175.92
689.221	46068.12
689.568	45929.82
689.915	45898.19
690.262	45809.37
690.609	45800.11
690.956	45706.78
691.303	45632.2
691.65	45502.72
691.997	45335.71
692.344	45279.67
692.69	45249.39
693.037	45199.9
693.383	44981.37
693.73	45036.06
694.077	44708.16
694.423	44773.24
694.769	44700.48
695.116	44715.17
695.462	44534.61
695.808	44373.71
696.155	44460.26
696.501	44053.26
696.847	44296.42
697.193	43855.75
697.539	44040.16
697.885	43832.25
698.231	43744.8
698.577	43732.82
698.923	43616.89
699.269	43318.59
699.614	43192.49
699.96	43153.17
700.306	43195.88
700.651	42972.16
700.997	42767.19
701.342	42740.53
701.688	42734.65
702.033	42657.59
702.379	42664.37
702.724	42573.08
703.069	42461.67
703.415	41985.29
703.76	42123.6
704.105	42141.22
704.45	42043.15
704.795	41826.88
705.14	41751.63
705.485	41685.19
705.83	41411.52
706.175	41653.1
706.52	41443.61
706.865	41352.54
707.209	41280.45
707.554	41136.96
707.899	41293.11
708.243	40989.84
708.588	41010.4
708.932	40733.58
709.277	40705.55
709.621	40722.28
709.966	40512.56
710.31	40471.89
710.654	40173.14
710.998	40362.96
711.342	40256.75
711.687	40237.54
712.031	39932.92
712.375	39843.2
712.719	40038.68
713.063	39880.49
713.407	39921.62
713.75	39786.93
714.094	39757.78
714.438	39478.47
714.782	39626.71
715.125	39453.61
715.469	39430.11
715.812	39319.15
716.156	39221.53
716.499	39116.67
716.843	39184.92
717.186	38897.24
717.53	39136.56
717.873	39107.18
718.216	38886.17
718.559	38834.19
718.902	38516.91
719.246	38632.84
719.589	38400.08
719.932	38384.94
720.275	38341.1
720.617	38261.55
720.96	38315.56
721.303	38180.2
721.646	38358.05
721.989	38078.73
722.331	38161.89
722.674	37926.19
723.016	38073.53
723.359	38013.2
723.701	37951.73
724.044	37793.09
724.386	37617.95
724.729	37750.6
725.071	37659.98
725.413	37575.47
725.755	37486.66
726.097	37319.2
726.439	37309.26
726.782	37240.33
727.124	37439.2
727.465	37203.05
727.807	37266.55
728.149	37074.91
728.491	37014.8
728.833	37096.84
729.175	36959.21
729.516	36914.69
729.858	36792.44
730.199	36868.37
730.541	36720.57
730.882	36778.65
731.224	36791.53
731.565	36549.28
731.906	36561.93
732.248	36492.56
732.589	36369.4
732.93	36338.44
733.271	36206.46
733.612	36304.09
733.953	36288.27
734.294	36030.2
734.635	36165.56
734.976	36232.68
735.317	36066.35
735.658	35874.27
735.999	36080.59
736.339	35986.58
736.68	35989.97
737.021	35779.58
737.361	35601.06
737.702	35924.89
738.042	35720.83
738.383	35574.39
738.723	35733.71
739.063	35583.65
739.404	35662.07
739.744	35536.42
740.084	35349.08
740.424	35455.52
740.764	35507.27
741.104	35418.01
741.444	35127.17
741.784	35253.72
742.124	35267.5
742.464	35067.96
742.804	35011.92
743.143	35134.63
743.483	35032.48
743.823	34888.76
744.162	34879.94
744.502	35046.27
744.841	34919.27
745.181	34827.52
745.52	34691.93
745.86	34698.71
746.199	34691.47
746.538	34571.03
746.877	34679.72
747.216	34598.6
747.556	34409.45
747.895	34612.38
748.234	34436.34
748.573	34301.65
748.911	34326.96
749.25	34255.33
749.589	34118.38
749.928	34230.92
750.267	34186.18
750.605	34072.73
750.944	33987.99
751.283	33955.9
751.621	33892.63
751.96	33693.76
752.298	33829.8
752.636	33704.38
752.975	33578.74
753.313	33477.04
753.651	33577.38
753.989	33346.65
754.327	33430.94
754.666	33224.62
755.004	33297.39
755.342	33279.08
755.679	33005.19
756.017	33002.71
756.355	33121.57
756.693	32957.96
757.031	32971.07
757.368	32693.56
757.706	32710.51
758.044	32606.11
758.381	32652.43
758.719	32441.36
759.056	32524.53
759.394	32275.72
759.731	32235.95
760.068	32159.34
