Data from red_cardboard_box_FLMS001491_00039.txt Node
Date: Wed Feb 08 11:32:06 GMT 2017
User: dcchb
Spectrometer: FLMS00149
Trigger mode: 0
Integration Time (sec): 2.000000E-2
Scans to average: 10
Electric dark correction enabled: true
Nonlinearity correction enabled: false
Boxcar width: 0
XAxis mode: Wavelengths
Number of Pixels in Spectrum: 2048
>>>>>Begin Spectral Data<<<<<
341.393	-30.39
341.776	-30.39
342.16	-30.39
342.543	-45.76
342.927	-54.57
343.31	-65.87
343.693	-63.16
344.077	-78.75
344.46	-58.64
344.843	-38.98
345.226	-44.18
345.61	-24.52
345.993	-21.81
346.376	-5.76
346.759	0.11
347.142	25.65
347.525	31.07
347.908	71.3
348.291	60
348.674	110.17
349.057	103.39
349.44	111.97
349.823	130.05
350.206	139.09
350.588	198.98
350.971	228.58
351.354	241.01
351.737	233.78
352.119	239.2
352.502	238.3
352.884	282.82
353.267	276.72
353.65	291.63
354.032	294.79
354.414	323.04
354.797	302.7
355.179	325.53
355.562	314
355.944	339.99
356.326	324.62
356.709	331.63
357.091	340.67
357.473	337.05
357.855	354.68
358.238	332.99
358.62	346.09
359.002	341.8
359.384	344.74
359.766	337.73
360.148	347
360.53	335.02
360.912	334.79
361.294	343.61
361.676	331.63
362.057	321.69
362.439	335.47
362.821	326.88
363.203	334.57
363.584	326.66
363.966	321.69
364.348	323.72
364.729	312.65
365.111	306.32
365.493	323.27
365.874	300.22
366.256	294.12
366.637	320.33
367.019	301.8
367.4	307
367.781	318.52
368.163	308.35
368.544	305.64
368.925	307.9
369.306	311.52
369.688	297.96
370.069	284.4
370.45	320.33
370.831	306.77
371.212	331.86
371.593	313.78
371.974	332.31
372.355	303.83
372.736	299.99
373.117	324.85
373.498	314.91
373.879	309.94
374.26	294.34
374.641	309.48
375.021	301.12
375.402	312.87
375.783	328.24
376.163	343.38
376.544	311.07
376.925	298.18
377.305	312.87
377.686	316.71
378.066	321.69
378.447	317.62
378.827	326.43
379.208	315.58
379.588	323.04
379.968	323.72
380.349	319.65
380.729	332.99
381.109	316.49
381.489	346.32
381.87	325.53
382.25	323.95
382.63	299.31
383.01	305.42
383.39	321.46
383.77	335.25
384.15	307.45
384.53	313.78
384.91	338.86
385.29	330.05
385.67	326.43
386.049	349.03
386.429	342.48
386.809	327.34
387.189	342.25
387.568	351.74
387.948	345.19
388.328	342.02
388.707	331.63
389.087	343.38
389.466	346.09
389.846	346.54
390.225	353.1
390.605	348.13
390.984	359.65
391.363	332.31
391.743	343.15
392.122	357.17
392.501	371.18
392.881	345.19
393.26	345.19
393.639	355.13
394.018	364.17
394.397	325.98
394.776	328.69
395.155	351.97
395.534	362.36
395.913	357.62
396.292	357.62
396.671	360.33
397.05	353.55
397.429	342.93
397.808	368.24
398.186	356.94
398.565	349.48
398.944	368.01
399.323	350.16
399.701	359.65
400.08	387.22
400.458	363.04
400.837	375.47
401.215	359.88
401.594	390.61
401.972	367.11
402.351	355.13
402.729	366.21
403.107	353.55
403.486	395.81
403.864	374.79
404.242	388.13
404.62	375.7
404.999	365.3
405.377	361.91
405.755	373.44
406.133	386.09
406.511	384.28
406.889	393.77
407.267	371.18
407.645	379.99
408.023	386.54
408.401	386.54
408.779	390.61
409.156	393.55
409.534	381.57
409.912	402.14
410.29	412.31
410.667	406.43
411.045	416.6
411.422	421.57
411.8	418.41
412.178	407.11
412.555	406.88
412.933	417.73
413.31	404.85
413.687	417.96
414.065	403.04
414.442	394.45
414.819	423.6
415.197	435.58
415.574	436.49
415.951	430.84
416.328	426.54
416.705	425.19
417.082	460.67
417.46	434.45
417.837	431.06
418.214	457.95
418.591	423.6
418.967	420.67
419.344	440.55
419.721	433.1
420.098	415.02
420.475	439.65
420.852	462.02
421.228	449.82
421.605	454.56
421.982	450.27
422.358	443.04
422.735	452.76
423.111	448.01
423.488	463.15
423.864	453.21
424.241	472.19
424.617	468.12
424.994	471.29
425.37	471.74
425.746	460.67
426.123	464.06
426.499	469.03
426.875	454.56
427.251	462.7
427.627	493.21
428.003	483.04
428.379	495.92
428.756	485.3
429.132	484.85
429.507	497.95
429.883	488.01
430.259	493.89
430.635	502.02
431.011	500.21
431.387	486.2
431.763	520.78
432.138	518.74
432.514	509.93
432.89	492.08
433.265	528.23
433.641	527.33
434.016	524.39
434.392	526.88
434.767	536.82
435.143	535.24
435.518	556.71
435.894	547.9
436.269	523.72
436.644	551.51
437.02	576.82
437.395	557.16
437.77	547.44
438.145	577.05
438.52	565.3
438.895	577.95
439.271	558.06
439.646	577.05
440.021	595.8
440.395	571.62
440.77	567.33
441.145	572.75
441.52	598.74
441.895	599.42
442.27	588.12
442.645	586.99
443.019	574.34
443.394	586.99
443.769	594.67
444.143	598.52
444.518	590.83
444.892	607.1
445.267	576.14
445.641	584.73
446.016	611.85
446.39	625.63
446.764	603.26
447.139	612.98
447.513	622.7
447.887	595.13
448.262	618.85
448.636	620.44
449.01	640.1
449.384	629.02
449.758	610.49
450.132	639.42
450.506	657.04
450.88	643.03
451.254	652.75
451.628	657.72
452.002	634.45
452.376	636.48
452.75	646.42
453.123	654.11
453.497	664.05
453.871	655.01
454.244	657.27
454.618	653.66
454.992	675.12
455.365	686.2
455.739	670.38
456.112	675.58
456.486	683.26
456.859	712.64
457.232	705.18
457.606	694.33
457.979	700.43
458.352	718.29
458.725	728
459.099	761.45
459.472	743.14
459.845	732.75
460.218	738.85
460.591	739.75
460.964	756.03
461.337	751.28
461.71	768.68
462.083	780.43
462.456	749.25
462.829	770.04
463.201	769.36
463.574	789.47
463.947	759.64
464.32	793.99
464.692	793.76
465.065	802.35
465.438	800.54
465.81	811.84
466.183	796.7
466.555	836.02
466.928	846.64
467.3	838.28
467.672	822.92
468.045	878.28
468.417	853.65
468.789	842.58
469.161	868.34
469.534	856.14
469.906	889.36
470.278	883.03
470.65	898.17
471.022	898.85
471.394	928.9
471.766	910.15
472.138	937.72
472.51	945.17
472.882	946.53
473.253	948.34
473.625	960.09
473.997	978.39
474.369	1003.02
474.74	1002.12
475.112	1012.29
475.484	1037.15
475.855	1037.6
476.227	1029.01
476.598	1057.03
476.97	1082.12
477.341	1072.85
477.713	1088.45
478.084	1100.2
478.455	1112.4
478.827	1132.06
479.198	1160.08
479.569	1144.94
479.94	1143.59
480.311	1166.41
480.682	1204.83
481.053	1226.75
481.424	1240.76
481.795	1239.18
482.166	1257.93
482.537	1268.1
482.908	1282.57
483.279	1297.03
483.65	1298.61
484.021	1338.38
484.391	1354.43
484.762	1327.76
485.133	1368.66
485.503	1378.83
485.874	1383.13
486.244	1394.65
486.615	1436.91
486.985	1435.56
487.356	1459.06
487.726	1493.18
488.097	1497.02
488.467	1479.17
488.837	1550.81
489.207	1547.42
489.578	1561.2
489.948	1561.43
490.318	1595.78
490.688	1596.46
491.058	1626.06
491.428	1660.63
491.798	1626.74
492.168	1671.93
492.538	1687.07
492.908	1666.51
493.278	1706.06
493.648	1727.75
494.017	1717.13
494.387	1737.02
494.757	1730.69
495.126	1763
495.496	1765.49
495.866	1818.82
496.235	1793.29
496.605	1830.57
496.974	1835.09
497.344	1850.01
497.713	1868.09
498.082	1894.75
498.452	1887.3
498.821	1897.24
499.19	1896.79
499.559	1924.58
499.928	1956.9
500.298	1949.44
500.667	1958.93
501.036	1974.98
501.405	2006.84
501.774	1978.14
502.143	2020.62
502.512	2026.27
502.88	2045.71
503.249	2027.63
503.618	2006.61
503.987	2066.27
504.356	2075.31
504.724	2069.89
505.093	2124.12
505.462	2121.19
505.83	2119.15
506.199	2131.81
506.567	2191.24
506.936	2157.34
507.304	2164.12
507.672	2204.35
508.041	2172.49
508.409	2228.75
508.777	2256.55
509.145	2260.62
509.514	2248.87
509.882	2262.65
510.25	2294.52
510.618	2299.94
510.986	2307.85
511.354	2339.94
511.722	2351.24
512.09	2381.07
512.458	2343.1
512.826	2371.8
513.193	2397.56
513.561	2400.95
513.929	2427.39
514.297	2469.88
514.664	2487.51
515.032	2445.25
515.4	2495.41
515.767	2477.56
516.135	2508.97
516.502	2510.56
516.869	2570.89
517.237	2582.87
517.604	2561.85
517.972	2586.71
518.339	2638.01
518.706	2611.34
519.073	2619.03
519.44	2631.46
519.808	2722.3
520.175	2656.09
520.542	2711.23
520.909	2785.12
521.276	2744.45
521.643	2779.02
522.009	2778.12
522.376	2807.5
522.743	2848.85
523.11	2861.96
523.477	2852.92
523.843	2888.85
524.21	2901.96
524.577	2960.94
524.943	2980.37
525.31	2988.51
525.676	2994.38
526.043	3026.25
526.409	3013.59
526.776	3033.25
527.142	3049.52
527.508	3099.24
527.874	3152.57
528.241	3142.4
528.607	3129.97
528.973	3136.98
529.339	3151.22
529.705	3173.59
530.071	3229.41
530.437	3237.99
530.803	3251.55
531.169	3273.7
531.535	3299.91
531.901	3299.01
532.267	3342.85
532.632	3307.82
532.998	3391.21
533.364	3392.57
533.73	3405
534.095	3399.35
534.461	3434.15
534.826	3505.33
535.192	3494.71
535.557	3483.41
535.923	3499
536.288	3499.68
536.653	3536.52
537.019	3545.78
537.384	3566.12
537.749	3575.16
538.114	3555.27
538.479	3622.39
538.845	3628.49
539.21	3575.39
539.575	3631.88
539.94	3648.15
540.305	3693.35
540.67	3677.76
541.034	3771.54
541.399	3786.45
541.764	3724.53
542.129	3755.27
542.494	3774.25
542.858	3790.52
543.223	3773.35
543.587	3835.27
543.952	3870.07
544.316	3875.04
544.681	3863.97
545.045	3866.68
545.41	3918.43
545.774	3925.43
546.138	3922.04
546.503	3937.18
546.867	3948.71
547.231	4002.27
547.595	3990.74
547.959	4037.07
548.324	4090.63
548.688	4069.16
549.052	4058.54
549.416	4129.5
549.779	4111.19
550.143	4144.41
550.507	4167.46
550.871	4222.15
551.235	4195.03
551.599	4232.54
551.962	4218.08
552.326	4240.23
552.689	4283.84
553.053	4279.32
553.417	4309.38
553.78	4383.95
554.143	4385.08
554.507	4392.77
554.87	4431.18
555.234	4449.26
555.597	4486.77
555.96	4489.94
556.323	4532.88
556.686	4556.83
557.05	4585.76
557.413	4580.56
557.776	4682.7
558.139	4645.64
558.502	4703.94
558.865	4710.05
559.228	4752.76
559.59	4790.72
559.953	4790.27
560.316	4865.3
560.679	4899.87
561.041	4907.1
561.404	4963.37
561.767	5006.99
562.129	5031.62
562.492	5053.99
562.854	5097.38
563.217	5126.98
563.579	5187.55
563.941	5231.84
564.304	5283.36
564.666	5320.88
565.028	5348.9
565.39	5392.97
565.753	5472.96
566.115	5502.34
566.477	5505.28
566.839	5564.26
567.201	5621.43
567.563	5693.3
567.925	5706.18
568.287	5739.4
568.648	5801.09
569.01	5929
569.372	5886.74
569.734	5965.38
570.095	5966.96
570.457	5983.68
570.819	6034.98
571.18	6153.4
571.542	6291.02
571.903	6262.1
572.265	6279.95
572.626	6351.81
572.987	6368.53
573.349	6470.45
573.71	6550.45
574.071	6586.61
574.432	6653.5
574.794	6802.42
575.155	6796.32
575.516	6813.72
575.877	6903.66
576.238	6989.53
576.599	7056.65
576.96	7105.69
577.32	7151.34
577.681	7289.41
578.042	7338
578.403	7383.87
578.763	7514.72
579.124	7538.9
579.485	7676.52
579.845	7781.6
580.206	7875.39
580.566	7917.19
580.927	8048.71
581.287	8202.84
581.648	8228.15
582.008	8390.85
582.368	8461.13
582.728	8572.54
583.089	8678.98
583.449	8824.29
583.809	8998.97
584.169	9071.06
584.529	9090.95
584.889	9314.44
585.249	9455.91
585.609	9498.85
585.969	9738.39
586.329	9889.12
586.688	10004.82
587.048	10108.32
587.408	10266.51
587.768	10434.19
588.127	10630.79
588.487	10760.96
588.846	11115.07
589.206	11169.08
589.565	11376.76
589.925	11543.99
590.284	11743.53
590.643	11977.43
591.003	12215.84
591.362	12494.7
591.721	12586.45
592.08	12784.41
592.44	13124.51
592.799	13310.72
593.158	13572.19
593.517	13796.81
593.876	14053.3
594.235	14233.86
594.593	14501.43
594.952	14845.37
595.311	15010.57
595.67	15380.73
596.029	15681.28
596.387	15995.4
596.746	16197.65
597.104	16391.32
597.463	16700.69
597.822	17013.22
598.18	17248.25
598.538	17624.28
598.897	17876.25
599.255	18028.79
599.613	18565.05
599.972	18707.64
600.33	19018.82
600.688	19332.94
601.046	19618.81
601.404	20111.67
601.762	20263.31
602.12	20622.62
602.478	20878.43
602.836	21226.67
603.194	21402.04
603.552	21681.35
603.91	21895.13
604.268	22313.88
604.625	22613.76
604.983	22960.19
605.341	23051.26
605.698	23442.66
606.056	23679.72
606.413	23976.88
606.771	24272.02
607.128	24634.72
607.485	24723.98
607.843	24964.88
608.2	25360.35
608.557	25607.8
608.914	25767.35
609.272	26178.18
609.629	26455.01
609.986	26683.48
610.343	26836.02
610.7	27207.99
611.057	27373.86
611.414	27511.25
611.771	27715.77
612.127	28102.88
612.484	28202.54
612.841	28525.46
613.198	28669.19
613.554	28752.58
613.911	29105.11
614.267	29264.2
614.624	29334.71
614.98	29566.57
615.337	29884.3
615.693	30025.76
616.05	29997.52
616.406	30392.99
616.762	30471.18
617.118	30536.71
617.475	30819.64
617.831	30967.21
618.187	31270.7
618.543	31282.23
618.899	31613.75
619.255	31696.68
619.611	31609.68
619.967	31949.78
620.323	31995.2
620.678	32173.73
621.034	32215.54
621.39	32380.96
621.746	32392.93
622.101	32867.5
622.457	32624.57
622.812	32761.06
623.168	32913.82
623.523	33108.17
623.879	33151.33
624.234	33157.21
624.589	33387.71
624.945	33348.16
625.3	33628.83
625.655	33555.84
626.01	33608.95
626.365	33810.3
626.72	33775.5
627.075	33812.11
627.43	33923.29
627.785	33910.18
628.14	33954.47
628.495	34216.39
628.85	34209.61
629.205	34100.01
629.559	34363.28
629.914	34307.46
630.269	34315.82
630.623	34317.85
630.978	34306.1
631.332	34505.19
631.687	34622.03
632.041	34415.03
632.396	34522.14
632.75	34565.53
633.104	34501.35
633.459	34504.74
633.813	34561.24
634.167	34651.41
634.521	34563.95
634.875	34753.55
635.229	34527.79
635.583	34503.84
635.937	34594.23
636.291	34661.8
636.645	34657.73
636.999	34552.65
637.352	34643.95
637.706	34509.04
638.06	34693.44
638.413	34599.43
638.767	34605.08
639.121	34674.68
639.474	34535.02
639.828	34637.62
640.181	34768.92
640.534	34762.81
640.888	34678.75
641.241	34604.4
641.594	34531.18
641.947	34699.99
642.301	34613.21
642.654	34704.74
643.007	34727.34
643.36	34610.05
643.713	34681.23
644.066	34850.27
644.419	34457.96
644.771	34325.31
645.124	33976.62
645.477	33875.15
645.83	33764.2
646.182	33750.64
646.535	33665.22
646.888	33844.19
647.24	33692.33
647.593	34042.83
647.945	33764.2
648.298	33714.25
648.65	33785.67
649.002	33689.85
649.355	33869.5
649.707	33714.71
650.059	33886.23
650.411	34301.81
650.763	34275.37
651.115	34840.1
651.467	34468.13
651.819	34615.02
652.171	34519.43
652.523	34516.72
652.875	34419.77
653.227	34297.97
653.578	34665.42
653.93	34606.43
654.282	34448.92
654.633	34389.49
654.985	34481.24
655.337	34524.4
655.688	34261.59
656.039	34509.49
656.391	34219.55
656.742	34340
657.094	34533.44
657.445	34549.04
657.796	34581.35
658.147	34334.13
658.498	34370.28
658.849	34390.17
659.2	34338.42
659.551	34257.74
659.902	34397.85
660.253	34398.76
660.604	34454.57
660.955	34178.42
661.306	34394.01
661.656	34298.65
662.007	34476.72
662.358	34425.87
662.708	34582.93
663.059	34418.87
663.409	34257.52
663.76	34530.73
664.11	34390.17
664.461	34645.53
664.811	34483.05
665.161	34437.85
665.511	34277.4
665.862	34487.12
666.212	34421.35
666.562	34442.37
666.912	34383.84
667.262	34348.36
667.612	34347.46
667.962	34465.65
668.312	34366.22
668.662	34661.35
669.011	34447.12
669.361	34374.58
669.711	34460.9
670.06	34353.11
670.41	34265.65
670.76	34267.01
671.109	34405.99
671.459	34268.59
671.808	34147.46
672.157	34392.88
672.507	34056.62
672.856	34054.81
673.205	34241.92
673.554	34129.16
673.904	34126.67
674.253	34270.62
674.602	34161.47
674.951	33610.08
675.3	33479.23
675.649	34102.49
675.998	34120.35
676.346	33980.69
676.695	34248.93
677.044	33935.49
677.393	33953.57
677.741	34056.39
678.09	33933.46
678.438	33930.75
678.787	33937.07
679.135	33960.35
679.484	33794.03
679.832	33801.94
680.181	33624.77
680.529	33888.71
680.877	33635.61
681.225	33706.35
681.573	33735.05
681.922	33646.69
682.27	33431.1
682.618	33477.42
682.966	33507.71
683.314	33656.63
683.661	33443.98
684.009	33257.54
684.357	33123.54
684.705	33147.94
685.053	33073.37
685.4	33065.68
685.748	33005.35
686.095	32942.52
686.443	32756.54
686.79	32862.07
687.138	32867.95
687.485	32906.59
687.832	32601.74
688.18	32707.95
688.527	32582.53
688.874	32574.17
689.221	32440.62
689.568	32429.99
689.915	32372.82
690.262	32359.26
690.609	32250.56
690.956	32173.05
691.303	32082.66
691.65	31978.93
691.997	31959.95
692.344	31806.51
692.69	31726.74
693.037	31730.13
693.383	31599.28
693.73	31699.62
694.077	31480.19
694.423	31542.56
694.769	31394.77
695.116	31309.8
695.462	31246.98
695.808	31091.05
696.155	31162.91
696.501	30936.93
696.847	30985.51
697.193	30890.6
697.539	30825.97
697.885	30657.16
698.231	30556.82
698.577	30530.16
698.923	30485.41
699.269	30382.36
699.614	30185.53
699.96	30236.38
700.306	30240
700.651	30123.16
700.997	29933.34
701.342	29872.1
701.688	30028.48
702.033	29833
702.379	29831.64
702.724	29645.21
703.069	29762.27
703.415	29446.8
703.76	29548.49
704.105	29447.7
704.45	29338.1
704.795	29313.69
705.14	29114.83
705.485	29193.47
705.83	29175.84
706.175	29139.23
706.52	28983.53
706.865	28917.09
707.209	28867.15
707.554	28816.3
707.899	28858.79
708.243	28682.52
708.588	28591.9
708.932	28532.92
709.277	28474.84
709.621	28473.71
709.966	28215.42
710.31	28374.28
710.654	28095.19
710.998	28214.06
711.342	28123.89
711.687	28195.76
712.031	28050.45
712.375	27744.47
712.719	27927.06
713.063	27828.76
713.407	27969.32
713.75	27795.31
714.094	27824.01
714.438	27690.68
714.782	27677.35
715.125	27531.82
715.469	27622.21
715.812	27361.65
716.156	27254.09
716.499	27279.62
716.843	27437.58
717.186	27222
717.53	27358.94
717.873	27269.9
718.216	27198.95
718.559	27171.6
718.902	26955.56
719.246	27007.31
719.589	26939.29
719.932	26803.02
720.275	26830.59
720.617	26744.27
720.96	26722.12
721.303	26682.8
721.646	26700.43
721.989	26587.89
722.331	26685.74
722.674	26638.51
723.016	26492.07
723.359	26489.36
723.701	26603.71
724.044	26423.15
724.386	26073.78
724.729	26413.2
725.071	26326.65
725.413	26162.81
725.755	26205.3
726.097	26205.07
726.439	26084.85
726.782	25985.64
727.124	26115.36
727.465	25991.75
727.807	25989.71
728.149	25914.01
728.491	25817.51
728.833	25872.65
729.175	25760.57
729.516	25698.65
729.858	25729.61
730.199	25763.73
730.541	25720.79
730.882	25672.21
731.224	25713.56
731.565	25594.02
731.906	25575.94
732.248	25556.5
732.589	25340.46
732.93	25427.02
733.271	25415.26
733.612	25355.6
733.953	25458.43
734.294	25253.46
734.635	25255.49
734.976	25393.57
735.317	25163.52
735.658	25221.6
735.999	25074.26
736.339	24974.15
736.68	25138.44
737.021	25099.79
737.361	24931.43
737.702	25202.39
738.042	24947.48
738.383	24914.94
738.723	24929.85
739.063	24892.57
739.404	24927.59
739.744	24886.24
740.084	24702.51
740.424	24816.18
740.764	24623.19
741.104	24825.22
741.444	24589.75
741.784	24545.23
742.124	24668.84
742.464	24651.22
742.804	24612.12
743.143	24440.83
743.483	24573.48
743.823	24378.46
744.162	24446.25
744.502	24434.72
744.841	24350.21
745.181	24452.35
745.52	24349.08
745.86	24298.23
746.199	24232.02
746.538	24235.86
746.877	24254.16
747.216	24227.27
747.556	24158.57
747.895	24122.42
748.234	24056.66
748.573	23987.73
748.911	24004.23
749.25	23959.71
749.589	23865.47
749.928	23858.69
750.267	23884.91
750.605	23812.37
750.944	23900.28
751.283	23743.44
751.621	23842.88
751.96	23698.7
752.298	23644.69
752.636	23674.07
752.975	23504.58
753.313	23523.34
753.651	23527.18
753.989	23306.62
754.327	23427.29
754.666	23241.08
755.004	23230.91
755.342	23202.67
755.679	23207.19
756.017	23096.23
756.355	23241.08
756.693	22962.22
757.031	23169.22
757.368	22932.62
757.706	22996.12
758.044	22884.48
758.381	22836.35
758.719	22779.85
759.056	22878.61
759.394	22760.87
759.731	22611.5
760.068	22576.24
760.405	22525.17
760.743	22370.15
761.08	22473.87
761.417	22324.72
