Data from red_shiny_book_FLMS001491_00062.txt Node
Date: Wed Feb 08 15:25:12 GMT 2017
User: dcchb
Spectrometer: FLMS00149
Trigger mode: 0
Integration Time (sec): 2.000000E-2
Scans to average: 10
Electric dark correction enabled: true
Nonlinearity correction enabled: false
Boxcar width: 0
XAxis mode: Wavelengths
Number of Pixels in Spectrum: 2048
>>>>>Begin Spectral Data<<<<<
341.393	-4.1
341.776	-4.1
342.16	-4.1
342.543	-63.3
342.927	-60.82
343.31	-63.08
343.693	-58.56
344.077	-67.37
344.46	-54.72
344.843	-56.75
345.226	-48.84
345.61	-32.34
345.993	-19.24
346.376	-18.11
346.759	-12.23
347.142	37.03
347.525	60.31
347.908	70.7
348.291	59.41
348.674	86.98
349.057	116.8
349.44	139.18
349.823	135.11
350.206	157.26
350.588	195.67
350.971	213.98
351.354	205.62
351.737	223.47
352.119	239.06
352.502	272.51
352.884	253.07
353.267	267.31
353.65	309.79
354.032	288.33
354.414	296.69
354.797	319.74
355.179	306.86
355.562	319.51
355.944	334.43
356.326	337.14
356.709	316.35
357.091	335.56
357.473	346.86
357.855	318.16
358.238	340.3
358.62	327.19
359.002	323.35
359.384	341.66
359.766	329.68
360.148	337.59
360.53	343.01
360.912	344.6
361.294	347.08
361.676	330.36
362.057	317.7
362.439	341.88
362.821	317.03
363.203	325.16
363.584	307.08
363.966	322.68
364.348	319.51
364.729	335.1
365.111	280.42
365.493	316.35
365.874	297.37
366.256	314.77
366.637	318.61
367.019	317.7
367.4	300.53
367.781	310.7
368.163	291.94
368.544	304.6
368.925	304.37
369.306	307.08
369.688	320.19
370.069	316.12
370.45	308.66
370.831	304.6
371.212	329
371.593	305.95
371.974	326.06
372.355	314.99
372.736	311.83
373.117	317.03
373.498	320.87
373.879	298.04
374.26	326.74
374.641	293.52
375.021	299.85
375.402	310.25
375.783	307.31
376.163	320.87
376.544	312.96
376.925	320.19
377.305	335.56
377.686	327.19
378.066	304.6
378.447	332.39
378.827	332.62
379.208	342.56
379.588	327.65
379.968	329.68
380.349	338.04
380.729	345.5
381.109	338.27
381.489	322.45
381.87	321.55
382.25	326.29
382.63	346.63
383.01	327.65
383.39	329.68
383.77	302.79
384.15	320.42
384.53	339.85
384.91	332.39
385.29	324.03
385.67	349.34
386.049	322.68
386.429	335.33
386.809	339.62
387.189	336.91
387.568	327.42
387.948	333.52
388.328	339.85
388.707	344.6
389.087	327.19
389.466	328.78
389.846	349.34
390.225	352.73
390.605	348.44
390.984	360.19
391.363	351.6
391.743	349.34
392.122	336.46
392.501	372.62
392.881	352.5
393.26	362.45
393.639	340.08
394.018	331.49
394.397	360.19
394.776	360.41
395.155	351.15
395.534	344.37
395.913	362
396.292	365.61
396.671	343.92
397.05	340.53
397.429	338.72
397.808	350.7
398.186	364.71
398.565	347.08
398.944	362.45
399.323	349.12
399.701	357.93
400.08	386.18
400.458	372.39
400.837	381.43
401.215	392.96
401.594	362.45
401.972	363.13
402.351	371.49
402.729	370.36
403.107	375.33
403.486	375.56
403.864	379.4
404.242	377.36
404.62	389.79
404.999	406.97
405.377	389.11
405.755	373.3
406.133	365.84
406.511	412.16
406.889	378.27
407.267	396.57
407.645	401.32
408.023	406.06
408.401	384.14
408.779	400.87
409.156	399.28
409.534	400.19
409.912	407.87
410.29	397.25
410.667	393.63
411.045	422.56
411.422	422.79
411.8	410.13
412.178	405.16
412.555	419.85
412.933	439.73
413.31	427.31
413.687	420.98
414.065	451.03
414.442	443.12
414.819	441.32
415.197	444.93
415.574	444.03
415.951	451.71
416.328	440.19
416.705	431.15
417.082	439.06
417.46	442.67
417.837	460.98
418.214	455.1
418.591	461.43
418.967	473.63
419.344	494.87
419.721	489.45
420.098	466.4
420.475	480.86
420.852	480.86
421.228	474.99
421.605	471.15
421.982	497.13
422.358	473.41
422.735	506.4
423.111	483.35
423.488	493.97
423.864	504.14
424.241	491.94
424.617	486.29
424.994	503.46
425.37	531.71
425.746	527.87
426.123	507.3
426.499	519.73
426.875	523.35
427.251	524.93
427.627	544.82
428.003	526.74
428.379	535.32
428.756	543.46
429.132	535.32
429.507	538.04
429.883	553.18
430.259	539.39
430.635	527.42
431.011	550.69
431.387	529.22
431.763	585.72
432.138	576.91
432.514	568.32
432.89	556.12
433.265	579.39
433.641	571.48
434.016	582.78
434.392	582.56
434.767	573.06
435.143	576.91
435.518	594.53
435.894	603.8
436.269	594.31
436.644	612.61
437.02	615.77
437.395	595.44
437.77	617.13
438.145	617.81
438.52	611.71
438.895	620.07
439.271	635.89
439.646	626.4
440.021	629.79
440.395	620.75
440.77	622.78
441.145	640.41
441.52	672.95
441.895	650.58
442.27	653.29
442.645	628.88
443.019	676.56
443.394	657.81
443.769	627.3
444.143	632.05
444.518	649.9
444.892	628.43
445.267	658.49
445.641	669.33
446.016	691.25
446.39	669.33
446.764	677.69
447.139	686.51
447.513	713.4
447.887	669.33
448.262	658.94
448.636	658.49
449.01	671.82
449.384	687.86
449.758	652.61
450.132	691.48
450.506	691.93
450.88	686.51
451.254	699.16
451.628	717.92
452.002	720.4
452.376	724.92
452.75	705.49
453.123	709.56
453.497	703.23
453.871	708.43
454.244	705.26
454.618	707.98
454.992	699.16
455.365	703.23
455.739	752.95
456.112	733.96
456.486	746.39
456.859	757.92
457.232	766.05
457.606	738.26
457.979	750.01
458.352	716.34
458.725	738.71
459.099	727.41
459.472	745.04
459.845	750.23
460.218	747.3
460.591	759.05
460.964	767.86
461.337	768.54
461.71	799.27
462.083	803.11
462.456	790.01
462.829	780.52
463.201	763.79
463.574	791.82
463.947	780.06
464.32	795.21
464.692	797.24
465.065	771.7
465.438	786.62
465.81	812.83
466.183	824.36
466.555	841.76
466.928	840.85
467.3	848.54
467.672	836.56
468.045	845.6
468.417	863.9
468.789	846.28
469.161	859.38
469.534	850.8
469.906	826.39
470.278	856.67
470.65	900.74
471.022	872.27
471.394	896.45
471.766	885.15
472.138	925.37
472.51	914.3
472.882	948.87
473.253	946.84
473.625	946.16
473.997	953.17
474.369	968.53
474.74	947.52
475.112	964.24
475.484	950.46
475.855	978.48
476.227	966.73
476.598	1023.45
476.97	1020.96
477.341	1008.76
477.713	1055.09
478.084	1073.62
478.455	1076.78
478.827	1089.21
479.198	1091.92
479.569	1073.16
479.94	1099.15
480.311	1088.3
480.682	1102.32
481.053	1123.33
481.424	1138.92
481.795	1169.21
482.166	1166.95
482.537	1163.56
482.908	1217.34
483.279	1210.79
483.65	1234.06
484.021	1276.32
484.391	1280.84
484.762	1317
485.133	1296.89
485.503	1296.43
485.874	1317.68
486.244	1319.26
486.615	1314.74
486.985	1332.37
487.356	1349.99
487.726	1350.22
488.097	1389.09
488.467	1464.57
488.837	1453.94
489.207	1489.65
489.578	1524.68
489.948	1509.31
490.318	1552.02
490.688	1561.51
491.058	1552.93
491.428	1551.8
491.798	1549.99
492.168	1591.34
492.538	1577.11
492.908	1572.36
493.278	1559.7
493.648	1561.51
494.017	1616.2
494.387	1633.83
494.757	1672.24
495.126	1696.65
495.496	1720.83
495.866	1751.79
496.235	1747.72
496.605	1780.72
496.974	1787.95
497.344	1820.49
497.713	1793.6
498.082	1778
498.452	1710.89
498.821	1763.99
499.19	1768.51
499.559	1760.38
499.928	1784.33
500.298	1797.21
500.667	1844.22
501.036	1831.79
501.405	1879.02
501.774	1907.72
502.143	1893.93
502.512	1898.45
502.88	1894.84
503.249	1916.53
503.618	1891
503.987	1876.31
504.356	1869.53
504.724	1860.71
505.093	1879.92
505.462	1849.19
505.83	1865.69
506.199	1907.04
506.567	1895.97
506.936	1904.1
507.304	1923.31
507.672	1966.93
508.041	1987.49
508.409	2001.28
508.777	2007.15
509.145	2008.73
509.514	2001.5
509.882	1995.85
510.25	1955.17
510.618	1941.84
510.986	1941.62
511.354	1917.44
511.722	1926.7
512.09	1916.98
512.458	1927.38
512.826	1908.85
513.193	1921.05
513.561	1996.53
513.929	1973.48
514.297	2038.56
514.664	2049.64
515.032	2061.61
515.4	2052.57
515.767	2081.05
516.135	2026.13
516.502	2021.61
516.869	2000.15
517.237	1948.62
517.604	1941.62
517.972	1946.81
518.339	1938
518.706	1912.92
519.073	1953.14
519.44	1946.59
519.808	1986.36
520.175	2000.82
520.542	2003.76
520.909	2040.14
521.276	2069.75
521.643	2051.67
522.009	2083.31
522.376	2132.12
522.743	2075.4
523.11	2059.35
523.477	2059.35
523.843	2042.86
524.21	2045.12
524.577	2007.15
524.943	1996.53
525.31	1984.1
525.676	2000.15
526.043	2028.17
526.409	2032.01
526.776	2087.15
527.142	2149.29
527.508	2156.98
527.874	2161.72
528.241	2222.74
528.607	2213.7
528.973	2260.93
529.339	2265.22
529.705	2276.75
530.071	2281.04
530.437	2235.62
530.803	2182.06
531.169	2194.04
531.535	2172.34
531.901	2149.75
532.267	2164.89
532.632	2221.83
532.998	2214.6
533.364	2251.44
533.73	2285.11
534.095	2330.98
534.461	2376.18
534.826	2451.88
535.192	2474.26
535.557	2490.3
535.923	2512.67
536.288	2508.83
536.653	2534.14
537.019	2493.01
537.384	2495.95
537.749	2455.5
538.114	2446.46
538.479	2470.42
538.845	2433.35
539.21	2415.28
539.575	2395.16
539.94	2429.29
540.305	2466.35
540.67	2455.95
541.034	2532.33
541.399	2537.76
541.764	2616.63
542.129	2700.47
542.494	2688.49
542.858	2730.97
543.223	2726
543.587	2770.97
543.952	2751.54
544.316	2750.63
544.681	2697.53
545.045	2688.26
545.41	2678.32
545.774	2664.99
546.138	2706.57
546.503	2648.49
546.867	2697.08
547.231	2679.45
547.595	2682.39
547.959	2700.69
548.324	2715.61
548.688	2759.22
549.052	2838.09
549.416	2856.62
549.779	2848.71
550.143	2851.2
550.507	2939.1
550.871	2934.36
551.235	2901.59
551.599	2878.99
551.962	2863.63
552.326	2881.7
552.689	2817.52
553.053	2789.28
553.417	2751.76
553.78	2715.61
554.143	2723.52
554.507	2713.8
554.87	2687.13
555.234	2712.89
555.597	2710.63
555.96	2770.75
556.323	2783.4
556.686	2787.02
557.05	2854.36
557.413	2890.52
557.776	2944.3
558.139	2996.73
558.502	2960.8
558.865	2970.74
559.228	2955.37
559.59	2929.84
559.953	2936.84
560.316	2929.84
560.679	2885.55
561.041	2831.08
561.404	2825.66
561.767	2826.56
562.129	2777.3
562.492	2821.37
562.854	2782.05
563.217	2796.28
563.579	2800.58
563.941	2852.1
564.304	2880.12
564.666	2965.09
565.028	2980.46
565.39	2998.99
565.753	3064.98
566.115	3089.38
566.477	3102.72
566.839	3113.56
567.201	3106.33
567.563	3113.56
567.925	3078.99
568.287	3078.31
568.648	2981.36
569.01	3018.88
569.372	2975.71
569.734	2907.92
570.095	2947.01
570.457	2947.24
570.819	2994.24
571.18	2999.89
571.542	2998.09
571.903	3099.78
572.265	3083.28
572.626	3163.5
572.987	3282.37
573.349	3278.76
573.71	3344.74
574.071	3403.5
574.432	3444.4
574.794	3531.63
575.155	3565.53
575.516	3560.33
575.877	3568.24
576.238	3599.2
576.599	3647.79
576.96	3636.26
577.32	3629.93
577.681	3620.22
578.042	3699.54
578.403	3745.64
578.763	3830.61
579.124	3834.22
579.485	4011.62
579.845	4082.58
580.206	4245.74
580.566	4361.66
580.927	4538.38
581.287	4750.58
581.648	4970.91
582.008	5130.91
582.368	5322.77
582.728	5542.88
583.089	5676.21
583.449	5914.39
583.809	6121.17
584.169	6402.97
584.529	6559.35
584.889	6805.67
585.249	6983.97
585.609	7238.43
585.969	7515.03
586.329	7728.36
586.688	8010.16
587.048	8297.83
587.408	8606.75
587.768	8862.11
588.127	9248.54
588.487	9642.66
588.846	10095.53
589.206	10406.7
589.565	10812.12
589.925	11239.22
590.284	11724.18
590.643	12207.56
591.003	12558.29
591.362	13075.56
591.721	13506.96
592.08	13843.9
592.44	14345.13
592.799	14775.18
593.158	15136.75
593.517	15574.25
593.876	16059.21
594.235	16373.1
594.593	16718.63
594.952	17269.8
595.311	17463.92
595.67	17979.84
596.029	18433.39
596.387	18877.44
596.746	19290.09
597.104	19603.98
597.463	20029.28
597.822	20604.18
598.18	20995.8
598.538	21467.88
598.897	22017.02
599.255	22291.59
599.613	22978.12
599.972	23396.42
600.33	23768.61
600.688	24105.33
601.046	24625.31
601.404	25240.44
601.762	25442.69
602.12	26060.76
602.478	26332.61
602.836	26644.24
603.194	26886.5
603.552	27154.96
603.91	27415.3
604.268	27817.09
604.625	28050.53
604.983	28469.96
605.341	28709.73
605.698	29076.72
606.056	29431.06
606.413	29700.21
606.771	30071.72
607.128	30421.54
607.485	30592.16
607.843	30940.85
608.2	31448.41
608.557	31820.83
608.914	31860.15
609.272	32426.69
609.629	32750.52
609.986	33144.64
610.343	33352.77
610.7	33853.54
611.057	33983.48
611.414	34115.68
611.771	34272.74
612.127	34553.41
612.484	34678.83
612.841	34846.97
613.198	34879.73
613.554	35086.05
613.911	35491.92
614.267	35532.14
614.624	35525.82
614.98	35674.97
615.337	35989.08
615.693	36024.56
616.05	36304.33
616.406	36594.26
616.762	36691.21
617.118	36845.1
617.475	37111.99
617.831	37360.12
618.187	37476.27
618.543	37657.74
618.899	38095.02
619.255	38029.93
619.611	38316.7
619.967	38467.43
620.323	38592.18
620.678	38600.09
621.034	38691.61
621.39	38668.11
621.746	38714.21
622.101	39181.31
622.457	38860.64
622.812	38950.59
623.168	39136.8
623.523	39008.66
623.879	39262.22
624.234	39047.31
624.589	39304.02
624.945	39230.13
625.3	39494.98
625.655	39440.97
626.01	39481.42
626.365	39509.44
626.72	39632.6
627.075	39789.89
627.43	39661.08
627.785	39668.31
628.14	39991.01
628.495	40087.28
628.85	40169.09
629.205	40112.14
629.559	40332.02
629.914	40276.43
630.269	40319.59
630.623	40339.48
630.978	40256.99
631.332	40326.6
631.687	40407.5
632.041	40273.49
632.396	40399.36
632.75	40118.46
633.104	40130.89
633.459	39994.63
633.813	39984.68
634.167	39896.55
634.521	39874.4
634.875	39943.33
635.229	39935.19
635.583	39807.51
635.937	39859.94
636.291	39887.06
636.645	39915.98
636.999	39738.81
637.352	40026.04
637.706	39797.8
638.06	40099.48
638.413	39961.41
638.767	39937.23
639.121	40014.29
639.474	40079.37
639.828	39920.28
640.181	39974.74
640.534	40015.64
640.888	39984.46
641.241	39763.45
641.594	39862.65
641.947	39974.51
642.301	39766.84
642.654	39774.75
643.007	39661.75
643.36	39674.63
643.713	39349.45
644.066	39593.51
644.419	39436.9
644.771	39044.59
645.124	38595.12
645.477	38490.71
645.83	38374.78
646.182	38275.8
646.535	38202.81
646.888	38371.84
647.24	38057.05
647.593	38249.81
647.945	38261.56
648.298	38053.89
648.65	38161.91
649.002	38081.68
649.355	38238.51
649.707	38260.89
650.059	38282.35
650.411	38814.77
650.763	38830.82
651.115	39353.29
651.467	39089.34
651.819	39084.82
652.171	38974.09
652.523	38890.25
652.875	38956.91
653.227	38765.96
653.578	38913.52
653.93	38719.41
654.282	38502.69
654.633	38486.19
654.985	38377.49
655.337	38381.56
655.688	38348.12
656.039	38624.27
656.391	38127.33
656.742	38273.09
657.094	38166.65
657.445	38382.92
657.796	38313.77
658.147	38340.43
658.498	38399.64
658.849	38314.44
659.2	38350.15
659.551	38432.18
659.902	38617.94
660.253	38531.84
660.604	38504.5
660.955	38350.15
661.306	38440.09
661.656	38497.94
662.007	38562.57
662.358	38438.28
662.708	38450.94
663.059	38435.8
663.409	38231.28
663.76	38386.99
664.11	38362.8
664.461	38412.3
664.811	38266.54
665.161	38125.52
665.511	38085.98
665.862	38066.77
666.212	38064.73
666.562	38105.18
666.912	37966.43
667.262	37812.54
667.612	37863.38
667.962	37808.92
668.312	37806.66
668.662	37943.38
669.011	37850.05
669.361	37892.76
669.711	37832.88
670.06	37905.64
670.41	37758.75
670.76	37810.5
671.109	38056.6
671.459	38040.55
671.808	37801.46
672.157	38054.56
672.507	37806.44
672.856	37890.73
673.205	37963.04
673.554	37956.71
673.904	37751.3
674.253	38045.07
674.602	37858.19
674.951	37388.59
675.3	37091.65
675.649	37647.34
675.998	37640.34
676.346	37543.17
676.695	37540.45
677.044	37391.53
677.393	37297.52
677.741	37390.85
678.09	37168.26
678.438	37100.01
678.787	37159.45
679.135	37130.75
679.484	36711.55
679.832	36884.43
680.181	36936.63
680.529	37059.34
680.877	36831.55
681.225	36840.58
681.573	37146.57
681.922	36930.53
682.27	36760.81
682.618	36927.81
682.966	36773.69
683.314	36841.04
683.661	36923.07
684.009	36534.83
684.357	36627.26
684.705	36568.5
685.053	36602.85
685.4	36537.99
685.748	36379.35
686.095	36450.76
686.443	36351.33
686.79	36294.84
687.138	36181.62
687.485	36170.77
687.832	35992.25
688.18	35971.46
688.527	35658.02
688.874	35719.71
689.221	35462.77
689.568	35343.9
689.915	35265.94
690.262	35265.26
690.609	35239.5
690.956	35036.79
691.303	34885.83
691.65	34860.98
691.997	34787.98
692.344	34564.49
692.69	34553.19
693.037	34755.67
693.383	34427.09
693.73	34643.58
694.077	34405.62
694.423	34507.31
694.769	34370.14
695.116	34353.87
695.462	34304.61
695.808	34158.85
696.155	34362.46
696.501	34017.38
696.847	34171.28
697.193	33835.69
697.539	34009.25
697.885	33798.63
698.231	33601.12
698.577	33628.69
698.923	33513.21
699.269	33360.45
699.614	33089.72
699.96	33159.55
700.306	33068.71
700.651	32897.19
700.997	32757.75
701.342	32720.24
701.688	32671.66
702.033	32376.97
702.379	32410.64
702.724	32314.6
703.069	32384.2
703.415	31966.14
703.76	32030.99
704.105	32062.41
704.45	31848.63
704.795	31678.23
705.14	31558.69
705.485	31523.66
705.83	31635.98
706.175	31633.26
706.52	31540.84
706.865	31503.32
707.209	31589.2
707.554	31448.64
707.899	31382.2
708.243	31305.14
708.588	31316.89
708.932	31117.57
709.277	31079.15
709.621	31115.99
709.966	30869.44
710.31	31116.22
710.654	30703.12
710.998	30823.57
711.342	30711.93
711.687	30712.61
712.031	30472.16
712.375	30406.86
712.719	30381.55
713.063	30237.59
713.407	30276.69
713.75	30059.52
714.094	30074.44
714.438	29874.89
714.782	29902.01
715.125	29730.94
715.469	29770.26
715.812	29556.71
716.156	29443.27
716.499	29532.75
716.843	29474.68
717.186	29267
717.53	29433.55
717.873	29519.42
718.216	29351.97
718.559	29191.07
718.902	29086.21
719.246	29109.49
719.589	29228.13
719.932	29009.6
720.275	29035.14
720.617	29023.16
720.96	29024.52
721.303	28988.59
721.646	28935.93
721.989	28855.94
722.331	29084.86
722.674	28972.09
723.016	28857.97
723.359	28795.37
723.701	28770.74
724.044	28636.05
724.386	28521.26
724.729	28599.22
725.071	28566
725.413	28440.13
725.755	28390.86
726.097	28320.13
726.439	27998.33
726.782	28051.21
727.124	28212.34
727.465	27994.72
727.807	27884.44
728.149	27829.3
728.491	27700.71
728.833	27708.85
729.175	27655.06
729.516	27425.47
729.858	27574.61
730.199	27547.5
730.541	27521.51
730.882	27481.28
731.224	27486.71
731.565	27313.38
731.906	27418.46
732.248	27469.98
732.589	27279.93
732.93	27201.52
733.271	27231.12
733.612	27276.32
733.953	27324
734.294	27146.38
734.635	27167.62
734.976	27103.67
735.317	27163.33
735.658	27179.37
735.999	27180.27
736.339	27074.51
736.68	27169.43
737.021	26982.99
737.361	27006.04
737.702	27137.56
738.042	26954.29
738.383	26850.34
738.723	26813.73
739.063	26696.22
739.404	26768.31
739.744	26662.1
740.084	26505.72
740.424	26660.29
740.764	26397.47
741.104	26474.98
741.444	26266.63
741.784	26262.78
742.124	26255.1
742.464	26145.27
742.804	26091.49
743.143	25962
743.483	26034.54
743.823	25887.2
744.162	25876.13
744.502	25971.27
744.841	25750.26
745.181	25839.29
745.52	25803.59
745.86	25721.78
746.199	25847.88
746.538	25741.89
746.877	25881.78
747.216	25753.87
747.556	25685.62
747.895	25717.04
748.234	25714.55
748.573	25477.04
748.911	25613.54
749.25	25605.85
749.589	25581.22
749.928	25581.22
750.267	25520.43
750.605	25496.7
750.944	25431.85
751.283	25331.51
751.621	25420.09
751.96	25163.38
752.298	25138.97
752.636	25133.32
752.975	25030.05
753.313	24855.59
753.651	25095.13
753.989	24809.26
754.327	24711.86
754.666	24695.59
755.004	24628.48
755.342	24604.97
755.679	24513.45
756.017	24398.43
756.355	24446.56
756.693	24196.4
757.031	24208.6
757.368	24039.11
757.706	23998.66
758.044	23834.6
758.381	23880.02
758.719	23808.39
759.056	23836.63
759.394	23722.06
759.731	23518.68
760.068	23673.02
760.405	23543.99
760.743	23567.94
761.08	23428.51
761.417	23432.58
761.754	23328.85
762.091	23363.65
