Data from red_shiny_book_FLMS001491_00016.txt Node
Date: Wed Feb 08 15:23:42 GMT 2017
User: dcchb
Spectrometer: FLMS00149
Trigger mode: 0
Integration Time (sec): 2.000000E-2
Scans to average: 10
Electric dark correction enabled: true
Nonlinearity correction enabled: false
Boxcar width: 0
XAxis mode: Wavelengths
Number of Pixels in Spectrum: 2048
>>>>>Begin Spectral Data<<<<<
341.393	-3.15
341.776	-3.15
342.16	-3.15
342.543	-55.13
342.927	-70.04
343.31	-77.95
343.693	-58.06
344.077	-69.81
344.46	-60.78
344.843	-68.68
345.226	-46.76
345.61	-11.29
345.993	-30.27
346.376	1.82
346.759	14.25
347.142	21.03
347.525	40.92
347.908	70.75
348.291	68.71
348.674	97.19
349.057	108.94
349.44	140.12
349.823	131.99
350.206	162.04
350.588	249.73
350.971	242.49
351.354	257.86
351.737	263.51
352.119	257.63
352.502	285.2
352.884	294.02
353.267	286.11
353.65	332.43
354.032	319.55
354.414	339.21
354.797	328.59
355.179	355.26
355.562	339.44
355.944	342.15
356.326	366.33
356.709	361.13
357.091	349.84
357.473	357.07
357.855	369.04
358.238	370.4
358.62	347.58
359.002	386.44
359.384	362.49
359.766	354.13
360.148	344.41
360.53	351.64
360.912	351.64
361.294	371.53
361.676	371.76
362.057	367.46
362.439	364.75
362.821	346.67
363.203	357.52
363.584	364.98
363.966	352.1
364.348	347.35
364.729	384.18
365.111	342.38
365.493	334.69
365.874	347.12
366.256	337.63
366.637	353
367.019	327.46
367.4	338.08
367.781	363.85
368.163	355.71
368.544	345.99
368.925	339.67
369.306	353.9
369.688	323.85
370.069	343.96
370.45	347.8
370.831	351.42
371.212	348.03
371.593	354.58
371.974	335.82
372.355	343.73
372.736	367.01
373.117	333.11
373.498	337.63
373.879	342.83
374.26	351.87
374.641	357.52
375.021	357.52
375.402	350.74
375.783	352.77
376.163	364.07
376.544	363.85
376.925	370.63
377.305	347.58
377.686	364.07
378.066	372.21
378.447	376.05
378.827	353.9
379.208	385.77
379.588	360.46
379.968	353.23
380.349	360.68
380.729	366.11
381.109	368.37
381.489	389.38
381.87	378.31
382.25	376.5
382.63	391.87
383.01	358.2
383.39	392.32
383.77	388.7
384.15	375.6
384.53	392.77
384.91	378.08
385.29	422.15
385.67	401.36
386.049	406.78
386.429	404.98
386.809	400.68
387.189	377.41
387.568	402.94
387.948	408.59
388.328	428.03
388.707	429.38
389.087	402.72
389.466	416.73
389.846	420.34
390.225	415.6
390.605	437.74
390.984	392.32
391.363	409.95
391.743	417.4
392.122	436.84
392.501	432.55
392.881	450.4
393.26	444.75
393.639	439.55
394.018	434.58
394.397	444.75
394.776	433.22
395.155	441.13
395.534	434.58
395.913	430.29
396.292	476.84
396.671	429.16
397.05	448.82
397.429	425.54
397.808	462.6
398.186	443.17
398.565	449.72
398.944	460.12
399.323	473.9
399.701	451.53
400.08	443.62
400.458	454.69
400.837	484.75
401.215	477.06
401.594	460.12
401.972	453.34
402.351	478.42
402.729	486.56
403.107	463.96
403.486	487.23
403.864	483.62
404.242	486.78
404.62	499.66
404.999	480.68
405.377	499.66
405.755	489.49
406.133	492.43
406.511	495.82
406.889	490.85
407.267	515.71
407.645	536.72
408.023	509.61
408.401	524.29
408.779	527.91
409.156	537.4
409.534	533.11
409.912	526.78
410.29	541.92
410.667	565.65
411.045	574.46
411.422	572.65
411.8	566.78
412.178	567.23
412.555	551.86
412.933	558.64
413.31	569.04
413.687	591.64
414.065	613.78
414.442	574.24
414.819	625.99
415.197	633.44
415.574	623.27
415.951	635.93
416.328	600.68
416.705	602.71
417.082	636.38
417.46	607.46
417.837	640.45
418.214	626.44
418.591	642.48
418.967	664.63
419.344	664.86
419.721	667.79
420.098	672.54
420.475	668.7
420.852	673.22
421.228	654.23
421.605	675.02
421.982	677.74
422.358	684.52
422.735	712.31
423.111	713.89
423.488	730.39
423.864	712.31
424.241	750.05
424.617	729.03
424.994	714.57
425.37	752.31
425.746	745.98
426.123	715.48
426.499	726.55
426.875	772.88
427.251	747.57
427.627	784.4
428.003	803.83
428.379	784.17
428.756	762.93
429.132	788.47
429.507	797.28
429.883	783.5
430.259	798.86
430.635	816.49
431.011	794.57
431.387	830.95
431.763	836.6
432.138	873.89
432.514	849.48
432.89	865.3
433.265	886.54
433.641	886.54
434.016	843.83
434.392	878.41
434.767	880.67
435.143	854.23
435.518	899.65
435.894	918.18
436.269	926.09
436.644	958.41
437.02	931.52
437.395	970.16
437.77	969.71
438.145	954.11
438.52	924.96
438.895	934.23
439.271	954.11
439.646	967.45
440.021	991.63
440.395	1011.06
440.77	991.85
441.145	1037.27
441.52	1048.8
441.895	1034.34
442.27	1040.89
442.645	997.28
443.019	1046.99
443.394	1011.74
443.769	1026.65
444.143	1010.84
444.518	1026.2
444.892	1066.43
445.267	1051.74
445.641	1082.02
446.016	1085.86
446.39	1086.31
446.764	1068.23
447.139	1077.5
447.513	1089.48
447.887	1069.59
448.262	1062.36
448.636	1098.06
449.01	1072.3
449.384	1073.21
449.758	1096.03
450.132	1127.44
450.506	1135.58
450.88	1137.39
451.254	1146.88
451.628	1180.1
452.002	1170.83
452.376	1134.67
452.75	1144.16
453.123	1150.49
453.497	1114.56
453.871	1149.81
454.244	1164.5
454.618	1181.45
454.992	1225.29
455.365	1239.76
455.739	1255.8
456.112	1248.57
456.486	1246.08
456.859	1268
457.232	1243.15
457.606	1214.22
457.979	1207.21
458.352	1233.65
458.725	1220.55
459.099	1255.57
459.472	1282.01
459.845	1316.14
460.218	1342.58
460.591	1354.78
460.964	1353.65
461.337	1397.27
461.71	1380.32
462.083	1402.46
462.456	1358.4
462.829	1343.03
463.201	1342.58
463.574	1352.75
463.947	1343.71
464.32	1398.85
464.692	1423.93
465.065	1438.85
465.438	1462.8
465.81	1497.38
466.183	1513.65
466.555	1532.86
466.928	1526.98
467.3	1481.78
467.672	1512.97
468.045	1517.26
468.417	1486.08
468.789	1538.73
469.161	1508.9
469.534	1541.44
469.906	1566.98
470.278	1616.92
470.65	1643.13
471.022	1691.27
471.394	1732.4
471.766	1735.11
472.138	1722
472.51	1729.23
472.882	1724.26
473.253	1759.06
473.625	1726.07
473.997	1717.03
474.369	1732.4
474.74	1790.02
475.112	1787.99
475.484	1856.24
475.855	1903.47
476.227	1965.61
476.598	1994.54
476.97	2041.32
477.341	2044.71
477.713	2070.92
478.084	2027.53
478.455	2049.45
478.827	2037.25
479.198	2085.16
479.569	2046.97
479.94	2106.63
480.311	2102.78
480.682	2201.31
481.053	2293.97
481.424	2354.98
481.795	2391.14
482.166	2439.95
482.537	2460.29
482.908	2487.63
483.279	2501.42
483.65	2482.89
484.021	2512.26
484.391	2533.96
484.762	2470.23
485.133	2506.84
485.503	2507.74
485.874	2564.69
486.244	2601.08
486.615	2706.38
486.985	2788.19
487.356	2870.45
487.726	2961.29
488.097	3017.34
488.467	3003.1
488.837	3042.19
489.207	3052.14
489.578	3058.69
489.948	3029.76
490.318	3015.75
490.688	3023.44
491.058	3012.82
491.428	3067.28
491.798	3121.51
492.168	3208.52
492.538	3283.77
492.908	3347.95
493.278	3462.3
493.648	3516.08
494.017	3549.53
494.387	3597.21
494.757	3603.08
495.126	3552.92
495.496	3534.61
495.866	3510.2
496.235	3449.19
496.605	3503.65
496.974	3474.95
497.344	3528.28
497.713	3528.73
498.082	3603.99
498.452	3696.19
498.821	3776.86
499.19	3899.12
499.559	3951.32
499.928	3977.54
500.298	3990.64
500.667	3995.62
501.036	3970.31
501.405	3951.1
501.774	3858.22
502.143	3868.61
502.512	3732.35
502.88	3780.25
503.249	3749.07
503.618	3813.7
503.987	3888.27
504.356	3980.02
504.724	4039.68
505.093	4150.64
505.462	4208.04
505.83	4260.24
506.199	4342.05
506.567	4294.59
506.936	4306.57
507.304	4262.73
507.672	4259.79
508.041	4149.28
508.409	4108.83
508.777	4047.14
509.145	4033.13
509.514	4028.38
509.882	4033.13
510.25	4104.54
510.618	4178.21
510.986	4298.66
511.354	4410.29
511.722	4483.74
512.09	4561.48
512.458	4579.1
512.826	4537.97
513.193	4586.56
513.561	4550.85
513.929	4452.1
514.297	4394.02
514.664	4370.07
515.032	4296.4
515.4	4304.53
515.767	4287.13
516.135	4267.25
516.502	4299.56
516.869	4400.35
517.237	4524.41
517.604	4532.55
517.972	4692.55
518.339	4762.6
518.706	4788.14
519.073	4848.25
519.44	4857.74
519.808	4884.63
520.175	4815.25
520.542	4754.69
520.909	4720.12
521.276	4652.55
521.643	4577.97
522.009	4517.64
522.376	4550.18
522.743	4568.26
523.11	4631.76
523.477	4725.99
523.843	4824.75
524.21	4961.24
524.577	5038.75
524.943	5158.3
525.31	5273.77
525.676	5358.07
526.043	5345.86
526.409	5324.85
526.776	5325.98
527.142	5213.44
527.508	5202.59
527.874	5113.55
528.241	5059.09
528.607	4974.57
528.973	4984.06
529.339	4984.97
529.705	5104.74
530.071	5138.18
530.437	5275.36
530.803	5373.43
531.169	5546.53
531.535	5657.04
531.901	5747.21
532.267	5841.44
532.632	5899.75
532.998	5972.96
533.364	6006.18
533.73	5855.68
534.095	5864.49
534.461	5822.46
534.826	5747.43
535.192	5616.82
535.557	5604.39
535.923	5633.54
536.288	5583.6
536.653	5636.02
537.019	5731.84
537.384	5868.56
537.749	6021.78
538.114	6134.32
538.479	6266.06
538.845	6433.29
539.21	6478.49
539.575	6520.52
539.94	6601.2
540.305	6651.59
540.67	6562.78
541.034	6521.42
541.399	6437.81
541.764	6307.19
542.129	6330.47
542.494	6265.61
542.858	6193.3
543.223	6132.51
543.587	6163.02
543.952	6207.99
544.316	6287.76
544.681	6443.01
545.045	6600.97
545.41	6715.32
545.774	6940.85
546.138	7024.46
546.503	7104.01
546.867	7173.61
547.231	7210.67
547.595	7196.89
547.959	7125.7
548.324	7061.3
548.688	6983.33
549.052	6817.91
549.416	6711.93
549.779	6605.94
550.143	6576.56
550.507	6584.93
550.871	6637.35
551.235	6599.39
551.599	6694.3
551.962	6806.16
552.326	6915.09
552.689	7061.98
553.053	7258.13
553.417	7332.93
553.78	7506.71
554.143	7599.59
554.507	7625.8
554.87	7621.73
555.234	7623.99
555.597	7437.56
555.96	7369.09
556.323	7315.98
556.686	7186.72
557.05	7125.93
557.413	6998.93
557.776	6891.36
558.139	6957.8
558.502	6960.06
558.865	6972.49
559.228	7085.93
559.59	7250.22
559.953	7358.92
560.316	7602.07
560.679	7762.52
561.041	7938.56
561.404	8070.76
561.767	8165.45
562.129	8154.83
562.492	8189.4
562.854	8148.05
563.217	8055.62
563.579	7979.92
563.941	7892.46
564.304	7739.92
564.666	7613.6
565.028	7573.83
565.39	7509.42
565.753	7478.24
566.115	7428.75
566.477	7435.52
566.839	7555.52
567.201	7689.76
567.563	7802.07
567.925	7967.49
568.287	8205.22
568.648	8309.85
569.01	8548.94
569.372	8680.69
569.734	8724.3
570.095	8851.76
570.457	8870.74
570.819	8824.19
571.18	8799.78
571.542	8700.35
571.903	8559.34
572.265	8444.09
572.626	8322.96
572.987	8232.79
573.349	8171.78
573.71	8163.87
574.071	8145.56
574.432	8186.01
574.794	8340.81
575.155	8458.55
575.516	8658.09
575.877	8893.34
576.238	9133.33
576.599	9391.41
576.96	9618.74
577.32	9842.69
577.681	10000.88
578.042	10134.66
578.403	10234.32
578.763	10344.37
579.124	10413.98
579.485	10458.72
579.845	10446.07
580.206	10424.37
580.566	10477.25
580.927	10482.9
581.287	10493.75
581.648	10573.97
582.008	10826.62
582.368	11070.91
582.728	11237.68
583.089	11528.75
583.449	11898.91
583.809	12461.61
584.169	12958.09
584.529	13377.74
584.889	13994.45
585.249	14357.6
585.609	14850.25
585.969	15434.64
586.329	15816.1
586.688	16321.62
587.048	16727.03
587.408	17142.16
587.768	17399.56
588.127	17789.15
588.487	18102.81
588.846	18448.34
589.206	18601.56
589.565	19023.02
589.925	19492.38
590.284	19743.9
590.643	20273.83
591.003	20694.61
591.362	21376.85
591.721	21831.08
592.08	22531.85
592.44	23250.7
592.799	24068.08
593.158	24702.64
593.517	25454.03
593.876	26091.53
594.235	26757.5
594.593	27565.39
594.952	28150.23
595.311	28619.15
595.67	29306.14
596.029	29844.43
596.387	30301.59
596.746	30801.01
597.104	31050.05
597.463	31328.68
597.822	31730.93
598.18	32078.27
598.538	32460.18
598.897	32972.93
599.255	33259.93
599.613	34123.41
599.972	34450.86
600.33	34954.8
600.688	35476.14
601.046	36220.76
601.404	36887.41
601.762	37362.87
602.12	38300.48
602.478	38819.78
602.836	39346.55
603.194	39727.11
603.552	40325.73
603.91	40722.56
604.268	41370.68
604.625	41494.97
604.983	42094.27
605.341	42264.21
605.698	42641.15
606.056	42817.19
606.413	43018.54
606.771	43400.68
607.128	43572.65
607.485	43512.32
607.843	43720.67
608.2	44258.96
608.557	44612.85
608.914	44651.72
609.272	45126.29
609.629	45549.55
609.986	45926.94
610.343	46215.3
610.7	46889.4
611.057	46973.69
611.414	47454.81
611.771	47790.4
612.127	48217.05
612.484	48428.35
612.841	48740.65
613.198	48926.86
613.554	49086.41
613.911	49333.41
614.267	49377.47
614.624	49547.64
614.98	49624.92
615.337	49866.73
615.693	49716
616.05	49683.23
616.406	50017
616.762	49782.89
617.118	49899.04
617.475	49926.84
617.831	50066.04
618.187	50249.54
618.543	50212.03
618.899	50614.05
619.255	50639.13
619.611	50799.13
619.967	51079.58
620.323	51363.86
620.678	51358.66
621.034	51446.8
621.39	51500.35
621.746	51748.26
622.101	52113.67
622.457	52079.1
622.812	52135.82
623.168	52318.19
623.523	52276.15
623.879	52411.52
624.234	52257.17
624.589	52320.22
624.945	52251.3
625.3	52312.76
625.655	52191.64
626.01	52164.97
626.365	52083.39
626.72	52039.32
627.075	51912.1
627.43	51932.89
627.785	51921.13
628.14	52054.69
628.495	52163.84
628.85	52192.99
629.205	52169.72
629.559	52421.46
629.914	52432.53
630.269	52604.28
630.623	52657.61
630.978	52597.95
631.332	52957.49
631.687	53024.83
632.041	53060.99
632.396	53117.71
632.75	52931.96
633.104	52949.81
633.459	52736.71
633.813	52821
634.167	52758.4
634.521	52678.63
634.875	52672.08
635.229	52383.5
635.583	52221.01
635.937	52192.99
636.291	52016.5
636.645	52030.28
636.999	51872.1
637.352	51968.14
637.706	51758.43
638.06	51956.61
638.413	51821.02
638.767	51812.66
639.121	51963.85
639.474	51826
639.828	51936.73
640.181	52123.39
640.534	52184.86
640.888	52229.38
641.241	52209.49
641.594	52351.18
641.947	52483.15
642.301	52402.25
642.654	52453.78
643.007	52433.89
643.36	52448.35
643.713	52296.72
644.066	52397.05
644.419	52174.69
644.771	51890.4
645.124	51456.51
645.477	51189.18
645.83	50947.6
646.182	50757.55
646.535	50766.81
646.888	50654.28
647.24	50373.15
647.593	50685.24
647.945	50447.28
648.298	50346.94
648.65	50206.15
649.002	50146.04
649.355	50386.26
649.707	50456.09
650.059	50563.66
650.411	51019.46
650.763	51113.92
651.115	51504.87
651.467	51432.33
651.819	51604.98
652.171	51511.43
652.523	51547.81
652.875	51641.37
653.227	51510.52
653.578	51634.59
653.93	51572.44
654.282	51404.31
654.633	51384.65
654.985	51209.06
655.337	51204.09
655.688	51172.68
656.039	51220.14
656.391	50764.1
656.742	50760.26
657.094	50700.83
657.445	50704.44
657.796	50625.35
658.147	50444.11
658.498	50485.92
658.849	50515.75
659.2	50344
659.551	50520.27
659.902	50637.78
660.253	50588.06
660.604	50816.76
660.955	50721.62
661.306	50922.29
661.656	50951.44
662.007	50998.22
662.358	51120.25
662.708	51133.36
663.059	51145.56
663.409	51030.76
663.76	51263.3
664.11	51264.65
664.461	51161.61
664.811	51232.79
665.161	51139.23
665.511	50912.12
665.862	51014.04
666.212	50866.47
666.562	50819.47
666.912	50751.67
667.262	50576.99
667.612	50419.25
667.962	50321.18
668.312	50214.51
668.662	50365.24
669.011	50185.36
669.361	50007.51
669.711	49933.39
670.06	49898.14
670.41	49940.85
670.76	49838.48
671.109	50175.19
671.459	50029.43
671.808	50101.75
672.157	50272.14
672.507	50164.57
672.856	50301.97
673.205	50393.49
673.554	50481.62
673.904	50465.58
674.253	50715.29
674.602	50579.02
674.951	50095.42
675.3	50038.92
675.649	50524.79
675.998	50449.08
676.346	50387.39
676.695	50381.51
677.044	50201.41
677.393	50173.16
677.741	50077.79
678.09	49889.78
678.438	49767.52
678.787	49736.79
679.135	49551.48
679.484	49377.25
679.832	49318.49
680.181	49017.26
680.529	49226.52
680.877	49045.96
681.225	48972.29
681.573	49150.13
681.922	48953.98
682.27	48880.99
682.618	48953.53
682.966	48952.85
683.314	49166.4
683.661	49037.37
684.009	48977.03
684.357	49077.37
684.705	49169.57
685.053	49407.3
685.4	49230.13
685.748	49166.18
686.095	49137.25
686.443	49071.27
686.79	48992.62
687.138	49178.83
687.485	49090.25
687.832	48858.62
688.18	48936.13
688.527	48652.97
688.874	48553.31
689.221	48367.33
689.568	48160.1
689.915	47873.78
690.262	47907.23
690.609	47599.67
690.956	47441.93
691.303	47336.17
691.65	46963.75
691.997	46960.36
692.344	46701.61
692.69	46676.07
693.037	46695.51
693.383	46369.87
693.73	46659.13
694.077	46233.37
694.423	46364.67
694.769	46406.7
695.116	46400.38
695.462	46316.08
695.808	46363.77
696.155	46514.5
696.501	46283.99
696.847	46380.72
697.193	46249.19
697.539	46318.34
697.885	46181.62
698.231	46026.6
698.577	46216.2
698.923	45992.93
699.269	46000.39
699.614	45731.24
699.96	45458.03
700.306	45468.65
700.651	45227.98
700.997	45069.79
701.342	44878.38
701.688	44662.34
702.033	44500.09
702.379	44397.04
702.724	44279.08
703.069	44185.97
703.415	43670.05
703.76	43626.44
704.105	43600.45
704.45	43388.25
704.795	43188.71
705.14	42995.72
705.485	42969.28
705.83	42769.51
706.175	42947.81
706.52	42862.16
706.865	42841.6
707.209	42945.1
707.554	42803.41
707.899	42975.16
708.243	42748.27
708.588	42898.1
708.932	42735.39
709.277	42846.35
709.621	42867.59
709.966	42683.41
710.31	42771.09
710.654	42455.62
710.998	42620.81
711.342	42610.19
711.687	42414.27
712.031	42164.33
712.375	42024.22
712.719	42179.92
713.063	41983.32
713.407	41968.63
713.75	41525.93
714.094	41457.68
714.438	41323.67
714.782	41311.7
715.125	40993.06
715.469	40904.25
715.812	40617.25
716.156	40478.05
716.499	40346.07
716.843	40253.19
717.186	40019.75
717.53	40255.9
717.873	40308.11
718.216	40097.94
718.559	39844.84
718.902	39730.27
719.246	39921.22
719.589	39699.54
719.932	39786.09
720.275	39811.4
720.617	39917.16
720.96	39909.7
721.303	39889.81
721.646	39901.56
721.989	39859.98
722.331	40192.63
722.674	40027.66
723.016	39996.02
723.359	39882.36
723.701	39986.76
724.044	39757.84
724.386	39525.3
724.729	39714
725.071	39626.09
725.413	39391.52
725.755	39385.87
726.097	39172.77
726.439	38929.16
726.782	38867.92
727.124	38906.11
727.465	38631.31
727.807	38567.81
728.149	38256.18
728.491	38183.42
728.833	38276.52
729.175	37743.65
729.516	37873.14
729.858	37674.28
730.199	37536.43
730.541	37571.23
730.882	37387.51
731.224	37553.83
731.565	37230
731.906	37366.94
732.248	37498.24
732.589	37333.72
732.93	37313.16
733.271	37388.64
733.612	37459.59
733.953	37575.75
734.294	37375.08
734.635	37482.64
734.976	37621.4
735.317	37495.75
735.658	37526.94
735.999	37575.3
736.339	37585.47
736.68	37666.59
737.021	37469.76
737.361	37408.3
737.702	37690.32
738.042	37340.73
738.383	37346.83
738.723	37348.64
739.063	37139.15
739.404	37147.96
739.744	36952.49
740.084	36724.02
740.424	36627.98
740.764	36567.64
741.104	36685.6
741.444	36208.55
741.784	36053.53
742.124	36077.94
742.464	35884.49
742.804	35752.52
743.143	35741.67
743.483	35610.6
743.823	35535.35
744.162	35449.7
744.502	35505.07
744.841	35327.22
745.181	35385.3
745.52	35288.58
745.86	35307.33
746.199	35403.15
746.538	35338.07
746.877	35457.39
747.216	35549.81
747.556	35518.63
747.895	35640.21
748.234	35402.02
748.573	35457.84
748.911	35569.47
749.25	35442.7
749.589	35434.11
749.928	35470.04
750.267	35490.83
750.605	35324.96
750.944	35456.93
751.283	35186.43
751.621	35225.53
751.96	35009.26
752.298	35008.81
752.636	34978.08
752.975	34739.21
753.313	34613.57
753.651	34622.83
753.989	34453.8
754.327	34354.14
754.666	34108.04
755.004	34009.06
755.342	33844.1
755.679	33785.11
756.017	33480.26
756.355	33525.01
756.693	33184
757.031	33400.72
757.368	33078.69
757.706	32928.87
758.044	32807.74
758.381	32865.82
758.719	32743.56
759.056	32714.86
759.394	32613.85
