Data from red_cardboard_box_FLMS001491_00072.txt Node
Date: Wed Feb 08 11:33:05 GMT 2017
User: dcchb
Spectrometer: FLMS00149
Trigger mode: 0
Integration Time (sec): 2.000000E-2
Scans to average: 10
Electric dark correction enabled: true
Nonlinearity correction enabled: false
Boxcar width: 0
XAxis mode: Wavelengths
Number of Pixels in Spectrum: 2048
>>>>>Begin Spectral Data<<<<<
341.393	-30.51
341.776	-30.51
342.16	-30.51
342.543	-73.67
342.927	-64.41
343.31	-77.96
343.693	-70.28
344.077	-62.6
344.46	-77.51
344.843	-50.85
345.226	-56.5
345.61	-28.02
345.993	-7.68
346.376	-7.46
346.759	10.4
347.142	29.83
347.525	30.96
347.908	56.04
348.291	91.07
348.674	104.18
349.057	116.38
349.44	105.76
349.823	138.98
350.206	167.45
350.588	184.18
350.971	221.24
351.354	235.93
351.737	235.02
352.119	232.08
352.502	256.26
352.884	295.13
353.267	253.55
353.65	291.74
354.032	291.29
354.414	296.26
354.797	318.41
355.179	306.88
355.562	315.92
355.944	330.84
356.326	335.36
356.709	322.48
357.091	319.54
357.473	326.09
357.855	322.03
358.238	347.56
358.62	345.75
359.002	338.3
359.384	351.18
359.766	343.72
360.148	340.56
360.53	329.48
360.912	327.68
361.294	323.16
361.676	359.99
362.057	340.1
362.439	302.14
362.821	317.96
363.203	331.29
363.584	315.25
363.966	309.37
364.348	311.18
364.729	301.91
365.111	323.38
365.493	319.09
365.874	315.7
366.256	297.39
366.637	296.49
367.019	297.62
367.4	320.9
367.781	305.53
368.163	318.41
368.544	310.5
368.925	308.24
369.306	308.01
369.688	307.56
370.069	330.61
370.45	306.66
370.831	284.96
371.212	287.45
371.593	318.41
371.974	318.64
372.355	307.34
372.736	291.29
373.117	317.05
373.498	305.08
373.879	309.37
374.26	312.08
374.641	299.43
375.021	299.65
375.402	281.57
375.783	313.21
376.163	310.95
376.544	321.35
376.925	309.14
377.305	311.4
377.686	320.9
378.066	317.96
378.447	303.49
378.827	313.21
379.208	314.12
379.588	299.43
379.968	323.61
380.349	317.05
380.729	316.83
381.109	309.6
381.489	308.47
381.87	311.86
382.25	329.93
382.63	294.23
383.01	301.69
383.39	335.13
383.77	314.34
384.15	322.48
384.53	341.23
384.91	323.16
385.29	329.93
385.67	321.35
386.049	342.59
386.429	327.9
386.809	310.27
387.189	324.96
387.568	329.71
387.948	316.83
388.328	336.26
388.707	326.55
389.087	321.57
389.466	334
389.846	352.53
390.225	352.99
390.605	348.92
390.984	334.23
391.363	331.06
391.743	338.3
392.122	340.1
392.501	330.84
392.881	334.68
393.26	362.7
393.639	355.92
394.018	359.76
394.397	329.48
394.776	354.11
395.155	341.91
395.534	338.52
395.913	344.85
396.292	358.18
396.671	347.56
397.05	360.67
397.429	338.3
397.808	339.43
398.186	359.54
398.565	350.5
398.944	333.55
399.323	359.54
399.701	358.18
400.08	345.08
400.458	333.55
400.837	347.34
401.215	374.68
401.594	346.66
401.972	361.35
402.351	358.18
402.729	361.8
403.107	348.47
403.486	369.48
403.864	359.76
404.242	355.02
404.62	362.02
404.999	371.06
405.377	342.59
405.755	372.87
406.133	357.5
406.511	364.96
406.889	362.48
407.267	376.04
407.645	375.13
408.023	371.97
408.401	371.74
408.779	380.78
409.156	376.94
409.534	397.5
409.912	390.5
410.29	392.76
410.667	362.7
411.045	384.85
411.422	383.94
411.8	390.5
412.178	364.51
412.555	397.96
412.933	407.45
413.31	400.89
413.687	383.49
414.065	416.26
414.442	379.2
414.819	377.62
415.197	395.47
415.574	420.33
415.951	402.02
416.328	418.07
416.705	412.87
417.082	414.68
417.46	411.74
417.837	401.8
418.214	406.09
418.591	400.89
418.967	430.72
419.344	422.81
419.721	435.92
420.098	430.05
420.475	414
420.852	412.19
421.228	416.94
421.605	406.54
421.982	424.85
422.358	433.21
422.735	447.9
423.111	425.75
423.488	440.21
423.864	421.23
424.241	440.21
424.617	428.01
424.994	422.36
425.37	433.43
425.746	432.98
426.123	461.68
426.499	454.68
426.875	447.9
427.251	468.24
427.627	453.77
428.003	441.34
428.379	470.27
428.756	438.18
429.132	475.69
429.507	479.08
429.883	454
430.259	456.49
430.635	463.26
431.011	451.29
431.387	465.98
431.763	447.22
432.138	487.22
432.514	478.18
432.89	478.18
433.265	474.34
433.641	480.44
434.016	492.64
434.392	494
434.767	496.26
435.143	485.41
435.518	524.05
435.894	494
436.269	501
436.644	519.99
437.02	504.62
437.395	509.82
437.77	510.5
438.145	510.27
438.52	526.31
438.895	514.79
439.271	503.94
439.646	537.39
440.021	524.96
440.395	534
440.77	528.8
441.145	531.29
441.52	541.23
441.895	531.06
442.27	520.21
442.645	531.74
443.019	545.97
443.394	546.88
443.769	538.52
444.143	537.84
444.518	543.94
444.892	529.7
445.267	545.3
445.641	547.1
446.016	546.88
446.39	563.83
446.764	572.87
447.139	555.69
447.513	585.3
447.887	552.53
448.262	568.35
448.636	573.77
449.01	572.64
449.384	588.01
449.758	574.45
450.132	560.89
450.506	579.65
450.88	581.23
451.254	597.95
451.628	610.61
452.002	548.69
452.376	588.01
452.75	600.89
453.123	592.75
453.497	574.67
453.871	583.49
454.244	607.89
454.618	620.1
454.992	597.5
455.365	611.74
455.739	628.91
456.112	619.19
456.486	629.14
456.859	652.86
457.232	645.63
457.606	665.97
457.979	664.16
458.352	633.66
458.725	658.29
459.099	668.46
459.472	668.01
459.845	663.71
460.218	668.91
460.591	665.75
460.964	663.26
461.337	683.6
461.71	686.76
462.083	691.28
462.456	694.9
462.829	691.73
463.201	690.6
463.574	705.74
463.947	689.93
464.32	703.26
464.692	708.46
465.065	726.31
465.438	732.41
465.81	725.63
466.183	738.51
466.555	709.36
466.928	755.69
467.3	764.05
467.672	743.48
468.045	769.25
468.417	774.67
468.789	778.28
469.161	773.76
469.534	772.64
469.906	792.97
470.278	798.17
470.65	810.37
471.022	804.05
471.394	793.88
471.766	822.58
472.138	787.78
472.51	819.87
472.882	841.11
473.253	857.15
473.625	858.51
473.997	854.21
474.369	870.03
474.74	866.42
475.112	882.01
475.484	887.89
475.855	903.25
476.227	909.81
476.598	894.67
476.97	937.38
477.341	945.51
477.713	941.22
478.084	957.04
478.455	945.96
478.827	966.08
479.198	990.93
479.569	1018.05
479.94	1039.07
480.311	1040.42
480.682	1030.71
481.053	1044.49
481.424	1045.17
481.795	1070.48
482.166	1100.08
482.537	1099.41
482.908	1098.5
483.279	1136.47
483.65	1136.47
484.021	1118.84
484.391	1138.28
484.762	1166.97
485.133	1180.76
485.503	1191.38
485.874	1199.97
486.244	1201.55
486.615	1234.77
486.985	1243.36
487.356	1261.44
487.726	1281.55
488.097	1271.15
488.467	1288.33
488.837	1292.62
489.207	1307.08
489.578	1343.47
489.948	1359.06
490.318	1365.84
490.688	1369.46
491.058	1387.08
491.428	1419.4
491.798	1392.51
492.168	1414.2
492.538	1445.84
492.908	1457.36
493.278	1468.44
493.648	1473.18
494.017	1493.29
494.387	1497.81
494.757	1504.59
495.126	1519.96
495.496	1508.43
495.866	1505.27
496.235	1550.02
496.605	1547.3
496.974	1583.91
497.344	1580.75
497.713	1599.05
498.082	1585.04
498.452	1623.91
498.821	1618.26
499.19	1618.04
499.559	1652.61
499.928	1653.74
500.298	1666.4
500.667	1691.48
501.036	1701.88
501.405	1688.54
501.774	1733.97
502.143	1730.35
502.512	1721.54
502.88	1738.03
503.249	1712.5
503.618	1767.86
503.987	1748.43
504.356	1768.77
504.724	1791.59
505.093	1779.84
505.462	1771.7
505.83	1790.91
506.199	1804.02
506.567	1865.49
506.936	1866.39
507.304	1871.59
507.672	1880.85
508.041	1888.99
508.409	1882.89
508.777	1881.98
509.145	1947.75
509.514	1909.1
509.882	1968.31
510.25	1952.49
510.618	1946.62
510.986	1974.19
511.354	1935.99
511.722	2002.43
512.09	1966.05
512.458	1982.09
512.826	2019.16
513.193	2034.07
513.561	2042.66
513.929	2045.37
514.297	2093.73
514.664	2080.17
515.032	2113.84
515.4	2141.64
515.767	2135.09
516.135	2150
516.502	2134.63
516.869	2194.52
517.237	2203.78
517.604	2209.66
517.972	2217.34
518.339	2232.03
518.706	2208.76
519.073	2261.64
519.44	2260.96
519.808	2292.14
520.175	2253.05
520.542	2300.05
520.909	2330.33
521.276	2302.09
521.643	2349.32
522.009	2370.56
522.376	2393.16
522.743	2415.76
523.11	2417.34
523.477	2439.71
523.843	2442.65
524.21	2479.03
524.577	2482.42
524.943	2516.32
525.31	2538.69
525.676	2567.62
526.043	2570.1
526.409	2618.91
526.776	2605.58
527.142	2597.9
527.508	2662.98
527.874	2650.1
528.241	2661.62
528.607	2662.3
528.973	2721.51
529.339	2722.87
529.705	2725.35
530.071	2747.95
530.437	2781.62
530.803	2825.69
531.169	2811.9
531.535	2823.88
531.901	2820.49
532.267	2818.23
532.632	2841.28
532.998	2862.3
533.364	2928.74
533.73	2885.57
534.095	2941.39
534.461	2915.86
534.826	2970.32
535.192	2954.27
535.557	2948.85
535.923	2999.02
536.288	3017.77
536.653	3023.88
537.019	2995.18
537.384	3037.43
537.749	3066.81
538.114	3077.21
538.479	3088.28
538.845	3089.64
539.21	3112.46
539.575	3101.16
539.94	3138.67
540.305	3188.16
540.67	3159.01
541.034	3168.5
541.399	3169.86
541.764	3198.56
542.129	3207.15
542.494	3215.96
542.858	3226.81
543.223	3244.43
543.587	3304.77
543.952	3275.62
544.316	3286.47
544.681	3309.74
545.045	3298.22
545.41	3348.84
545.774	3343.64
546.138	3333.92
546.503	3374.15
546.867	3369.63
547.231	3429.97
547.595	3439.68
547.959	3478.1
548.324	3473.13
548.688	3483.3
549.052	3526.23
549.416	3478.1
549.779	3527.82
550.143	3534.14
550.507	3561.04
550.871	3581.15
551.235	3609.62
551.599	3634.03
551.962	3621.6
552.326	3623.41
552.689	3650.98
553.053	3698.89
553.417	3692.11
553.78	3754.93
554.143	3715.16
554.507	3751.31
554.87	3780.92
555.234	3830.18
555.597	3819.56
555.96	3857.53
556.323	3873.12
556.686	3884.42
557.05	3938.2
557.413	3997.18
557.776	3957.18
558.139	4010.52
558.502	4034.02
558.865	4074.02
559.228	4084.41
559.59	4127.58
559.953	4127.58
560.316	4160.57
560.679	4209.83
561.041	4277.85
561.404	4266.1
561.767	4376.83
562.129	4323.95
562.492	4357.4
562.854	4405.08
563.217	4433.56
563.579	4481.69
563.941	4469.71
564.304	4536.83
564.666	4590.39
565.028	4598.52
565.39	4642.82
565.753	4678.3
566.115	4767.78
566.477	4772.08
566.839	4825.86
567.201	4839.87
567.563	4869.02
567.925	4926.65
568.287	4946.54
568.648	4995.12
569.01	5037.83
569.372	5066.31
569.734	5119.19
570.095	5188.11
570.457	5235.57
570.819	5234.89
571.18	5292.29
571.542	5380.65
571.903	5410.03
572.265	5444.15
572.626	5475.79
572.987	5515.79
573.349	5604.6
573.71	5668.33
574.071	5680.98
574.432	5712.39
574.794	5813.86
575.155	5825.61
575.516	5880.3
575.877	5921.65
576.238	6016.56
576.599	6067.64
576.96	6191.48
577.32	6209.1
577.681	6298.82
578.042	6338.14
578.403	6393.28
578.763	6483.45
579.124	6512.15
579.485	6600.5
579.845	6701.97
580.206	6730.67
580.566	6831.23
580.927	6904.23
581.287	6963.43
581.648	7088.18
582.008	7215.4
582.368	7225.35
582.728	7352.58
583.089	7461.05
583.449	7533.59
583.809	7666.01
584.169	7815.16
584.529	7888.83
584.889	8023.74
585.249	8080.69
585.609	8199.78
585.969	8322.72
586.329	8440.23
586.688	8619.66
587.048	8778.53
587.408	8917.05
587.768	9044.06
588.127	9202.24
588.487	9359.98
588.846	9517.26
589.206	9644.04
589.565	9787.09
589.925	9955.67
590.284	10102.56
590.643	10317.47
591.003	10584.81
591.362	10745.93
591.721	10823.9
592.08	11006.49
592.44	11339.81
592.799	11542.52
593.158	11713.36
593.517	11918.33
593.876	12154.48
594.235	12363.74
594.593	12624.3
594.952	12849.61
595.311	13027.91
595.67	13273.32
596.029	13567.78
596.387	13859.97
596.746	14052.51
597.104	14274.65
597.463	14468.77
597.822	14725.04
598.18	14970.68
598.538	15207.51
598.897	15566.14
599.255	15611.57
599.613	16106.02
599.972	16223.3
600.33	16498.55
600.688	16732.67
601.046	17006.56
601.404	17425.08
601.762	17689.93
602.12	17920.88
602.478	18150.48
602.836	18461.89
603.194	18601.77
603.552	18872.27
603.91	19035.43
604.268	19378.47
604.625	19638.35
604.983	20015.29
605.341	20069.08
605.698	20507.03
606.056	20692.79
606.413	20849.85
606.771	21147.47
607.128	21436.72
607.485	21457.06
607.843	21731.41
608.2	22107.67
608.557	22275.8
608.914	22403.48
609.272	22668.78
609.629	22916.01
609.986	23225.15
610.343	23299.73
610.7	23634.18
611.057	23788.53
611.414	23840.73
611.771	24226.71
612.127	24392.8
612.484	24515.06
612.841	24832.34
613.198	24867.59
613.554	25037.08
613.911	25377.41
614.267	25456.73
614.624	25608.82
614.98	25767.91
615.337	26002.71
615.693	26124.06
616.05	26275.69
616.406	26560.43
616.762	26499.64
617.118	26594.33
617.475	26695.57
617.831	26998.61
618.187	27096.69
618.543	27212.84
618.899	27505.49
619.255	27506.17
619.611	27481.76
619.967	27845.14
620.323	28010.11
620.678	27991.13
621.034	27975.54
621.39	28047.17
621.746	28131.69
622.101	28547.27
622.457	28384.34
622.812	28488.74
623.168	28652.35
623.523	28644.67
623.879	28813.03
624.234	28825.91
624.589	28940.26
624.945	28993.59
625.3	29156.3
625.655	29157.65
626.01	29335.5
626.365	29387.93
626.72	29348.61
627.075	29424.31
627.43	29517.87
627.785	29503.18
628.14	29607.36
628.495	29687.81
628.85	29696.17
629.205	29671.99
629.559	29892.1
629.914	29843.74
630.269	29885.77
630.623	29922.38
630.978	29824.07
631.332	30015.93
631.687	30140.45
632.041	29977.52
632.396	30038.08
632.75	30058.19
633.104	30077.4
633.459	30002.37
633.813	30168.02
634.167	30060.9
634.521	29990.4
634.875	30184.29
635.229	30139.09
635.583	30143.84
635.937	30079.21
636.291	30157.4
636.645	30231.97
636.999	30203.95
637.352	30149.26
637.706	30045.54
638.06	30147.91
638.413	30096.84
638.767	30136.83
639.121	30261.8
639.474	30133.22
639.828	30183.84
640.181	30268.58
640.534	30302.93
640.888	30202.6
641.241	30069.27
641.594	30212.54
641.947	30328.02
642.301	30221.8
642.654	30250.96
643.007	30210.73
643.36	30298.64
643.713	30207.34
644.066	30281.01
644.419	30059.77
644.771	29904.75
645.124	29524.2
645.477	29553.35
645.83	29469.06
646.182	29386.35
646.535	29406.68
646.888	29527.81
647.24	29416.85
647.593	29570.75
647.945	29596.51
648.298	29273.58
648.65	29387.93
649.002	29353.8
649.355	29495.72
649.707	29311.55
650.059	29589.96
650.411	29879.89
650.763	29992.21
651.115	30192.2
651.467	30078.53
651.819	30196.04
652.171	30236.27
652.523	30125.08
652.875	30148.13
653.227	29893.23
653.578	30230.17
653.93	30190.84
654.282	30012.54
654.633	29964.86
654.985	30029.27
655.337	30021.81
655.688	30218.87
656.039	30113.11
656.391	29927.57
656.742	29881.25
657.094	29965.54
657.445	30144.74
657.796	30076.27
658.147	30017.74
658.498	29977.06
658.849	30044.18
659.2	29995.82
659.551	29907.91
659.902	29983.17
660.253	30122.6
660.604	30075.14
660.955	29789.95
661.306	30061.81
661.656	29823.17
662.007	30072.43
662.358	30026.78
662.708	30042.37
663.059	29980.91
663.409	29851.42
663.76	30024.75
664.11	30069.94
664.461	30144.29
664.811	29927.57
665.161	29988.14
665.511	29972.77
665.862	30010.74
666.212	30041.24
666.562	30034.01
666.912	30067.23
667.262	30137.96
667.612	30052.09
667.962	29952.43
668.312	30049.83
668.662	30035.14
669.011	30062.71
669.361	30009.38
669.711	30058.42
670.06	29945.2
670.41	29976.61
670.76	29846.67
671.109	29939.55
671.459	30001.47
671.808	29863.62
672.157	29976.16
672.507	29773.23
672.856	29877.63
673.205	29871.08
673.554	29979.32
673.904	29815.94
674.253	29919.44
674.602	29890.29
674.951	29416.18
675.3	29272.45
675.649	29749.73
675.998	29818.88
676.346	29747.69
676.695	29948.59
677.044	29732.33
677.393	29808.26
677.741	29756.51
678.09	29618.88
678.438	29579.11
678.787	29669.05
679.135	29641.25
679.484	29514.03
679.832	29621.37
680.181	29436.06
680.529	29545.44
680.877	29525.33
681.225	29500.24
681.573	29485.1
681.922	29439.68
682.27	29272.9
682.618	29350.41
682.966	29255.95
683.314	29211.44
683.661	29261.6
684.009	29061.16
684.357	28985.45
684.705	28905.68
685.053	29027.94
685.4	28975.96
685.748	28952.01
686.095	28866.13
686.443	28686.03
686.79	28534.62
687.138	28719.7
687.485	28715.86
687.832	28576.42
688.18	28641.73
688.527	28553.6
688.874	28518.57
689.221	28429.31
689.568	28413.04
689.915	28321.97
690.262	28354.51
690.609	28144.57
690.956	28204.91
691.303	28164.01
691.65	28044.46
691.997	27934.63
692.344	27761.3
692.69	27911.81
693.037	27878.14
693.383	27601.31
693.73	27772.38
694.077	27602.66
694.423	27547.52
694.769	27488.54
695.116	27489.45
695.462	27497.81
695.808	27296.68
696.155	27343.91
696.501	27112.06
696.847	27206.97
697.193	26904.6
697.539	27132.39
697.885	26923.81
698.231	26846.3
698.577	26773.99
698.923	26655.34
699.269	26579.41
699.614	26540.77
699.96	26385.75
700.306	26499.87
700.651	26366.31
700.997	26350.49
701.342	26152.31
701.688	26084.96
702.033	26237.95
702.379	26104.17
702.724	26000.45
703.069	26063.04
703.415	25817.4
703.76	25758.87
704.105	25800.23
704.45	25641.13
704.795	25547.8
705.14	25558.2
705.485	25614.47
705.83	25490.4
706.175	25501.7
706.52	25464.19
706.865	25225.33
707.209	25320.46
707.554	25129.51
707.899	25280.24
708.243	25190.3
708.588	25075.05
708.932	24939.01
709.277	24852.91
709.621	24887.03
709.966	24744.89
710.31	24707.6
710.654	24584.21
710.998	24722.29
711.342	24727.71
711.687	24715.51
712.031	24583.76
712.375	24372.69
712.719	24400.04
713.063	24445.91
713.407	24472.12
713.75	24377.21
714.094	24315.52
714.438	24206.14
714.782	24207.27
715.125	24098.58
715.469	24112.13
715.812	24054.96
716.156	23920.05
716.499	23961.86
716.843	23954.4
717.186	23768.87
717.53	23944
717.873	23868.52
718.216	23742.2
718.559	23665.37
718.902	23556.22
719.246	23586.05
719.589	23577.46
719.932	23524.13
720.275	23454.75
720.617	23345.83
720.96	23362.1
721.303	23388.99
721.646	23362.78
721.989	23232.61
722.331	23349.44
722.674	23270.8
723.016	23316.9
723.359	23291.59
723.701	23266.73
724.044	23124.59
724.386	22958.27
724.729	23112.39
725.071	23009.79
725.413	23058.38
725.755	22968.44
726.097	22760.76
726.439	22848.66
726.782	22870.13
727.124	22913.52
727.465	22748.33
727.807	22716.92
728.149	22717.37
728.491	22751.27
728.833	22678.5
729.175	22611.61
729.516	22647.77
729.858	22659.97
730.199	22595.34
730.541	22378.85
730.882	22579.75
731.224	22559.41
731.565	22419.52
731.906	22417.72
732.248	22415.91
732.589	22288.23
732.93	22345.85
733.271	22208
733.612	22281.45
733.953	22289.13
734.294	22200.77
734.635	22196.48
734.976	22290.49
735.317	22158.06
735.658	22219.08
735.999	22149.7
736.339	21991.74
736.68	22069.02
737.021	22050.95
737.361	21960.55
737.702	22039.65
738.042	21936.6
738.383	21904.73
738.723	21972.08
739.063	21873.32
739.404	21888.92
739.744	21834.68
740.084	21755.13
740.424	21833.1
740.764	21686.66
741.104	21718.75
741.444	21606.44
741.784	21629.26
742.124	21470.62
742.464	21596.27
742.804	21551.3
743.143	21457.97
743.483	21615.48
743.823	21432.66
744.162	21472.88
744.502	21499.32
744.841	21301.13
745.181	21543.84
745.52	21251.87
745.86	21409.38
746.199	21369.61
746.538	21335.03
746.877	21391.98
747.216	21338.2
747.556	21217.3
747.895	21258.88
748.234	21230.4
748.573	21181.59
748.911	21100.69
749.25	21062.05
749.589	21039.45
749.928	20987.24
750.267	21017.98
750.605	21006
750.944	20977.75
751.283	20898.21
751.621	20963.06
751.96	20811.2
752.298	20780.47
752.636	20837.87
752.975	20600.36
753.313	20645.56
753.651	20762.17
753.989	20577.54
754.327	20526.69
754.666	20523.53
755.004	20541.15
755.342	20478.33
755.679	20344.55
756.017	20288.28
756.355	20394.04
756.693	20266.81
757.031	20326.92
757.368	20164.44
757.706	20171
758.044	20168.51
758.381	20159.47
758.719	20047.38
759.056	20109.3
759.394	20072.92
759.731	19932.36
760.068	19830.89
760.405	19781.4
760.743	19845.13
761.08	19898.91
761.417	19646.26
761.754	19632.48
762.091	19669.54
762.428	19554.51
