Data from red_cardboard_box_FLMS001491_00012.txt Node
Date: Wed Feb 08 11:31:35 GMT 2017
User: dcchb
Spectrometer: FLMS00149
Trigger mode: 0
Integration Time (sec): 2.000000E-2
Scans to average: 10
Electric dark correction enabled: true
Nonlinearity correction enabled: false
Boxcar width: 0
XAxis mode: Wavelengths
Number of Pixels in Spectrum: 2048
>>>>>Begin Spectral Data<<<<<
341.393	6.88
341.776	6.88
342.16	6.88
342.543	-65.44
342.927	-71.54
343.31	-64.98
343.693	-77.64
344.077	-58.66
344.46	-73.35
344.843	-57.3
345.226	-31.54
345.61	-34.48
345.993	-25.89
346.376	-0.58
346.759	-6
347.142	28.8
347.525	48.91
347.908	63.37
348.291	78.97
348.674	97.95
349.057	112.41
349.44	140.21
349.823	131.62
350.206	161.45
350.588	169.81
350.971	209.13
351.354	238.28
351.737	251.39
352.119	257.04
352.502	263.14
352.884	261.79
353.267	287.77
353.65	282.35
354.032	317.15
354.414	308.34
354.797	312.86
355.179	320.77
355.562	330.26
355.944	334.1
356.326	326.87
356.709	300.88
357.091	326.87
357.473	353.99
357.855	336.81
358.238	353.54
358.62	341.33
359.002	348.56
359.384	339.52
359.766	347.89
360.148	344.5
360.53	331.62
360.912	341.11
361.294	319.86
361.676	318.51
362.057	322.35
362.439	343.14
362.821	327.32
363.203	327.32
363.584	325.74
363.966	330.94
364.348	339.3
364.729	324.16
365.111	327.55
365.493	324.84
365.874	329.36
366.256	324.61
366.637	328
367.019	312.63
367.4	322.12
367.781	318.96
368.163	304.72
368.544	317.15
368.925	304.72
369.306	308.57
369.688	324.16
370.069	302.69
370.45	294.33
370.831	313.76
371.212	304.27
371.593	302.69
371.974	323.71
372.355	306.76
372.736	317.83
373.117	320.54
373.498	321.45
373.879	323.03
374.26	308.34
374.641	319.19
375.021	321.67
375.402	327.55
375.783	324.61
376.163	304.95
376.544	315.12
376.925	309.02
377.305	298.85
377.686	336.81
378.066	336.36
378.447	329.58
378.827	337.72
379.208	318.06
379.588	330.03
379.968	340.43
380.349	328
380.729	331.39
381.109	339.98
381.489	311.28
381.87	350.37
382.25	337.27
382.63	333.88
383.01	333.42
383.39	349.69
383.77	316.93
384.15	337.49
384.53	335.23
384.91	334.55
385.29	346.3
385.67	333.2
386.049	344.72
386.429	339.98
386.809	306.76
387.189	355.57
387.568	338.62
387.948	326.19
388.328	334.78
388.707	332.97
389.087	340.65
389.466	337.94
389.846	327.1
390.225	342.46
390.605	325.74
390.984	347.43
391.363	355.8
391.743	344.5
392.122	357.6
392.501	344.72
392.881	351.95
393.26	369.13
393.639	365.74
394.018	340.43
394.397	356.7
394.776	344.72
395.155	360.77
395.534	368.68
395.913	335.23
396.292	344.72
396.671	356.47
397.05	357.6
397.429	342.46
397.808	362.8
398.186	352.86
398.565	347.89
398.944	362.35
399.323	385.4
399.701	371.16
400.08	375.23
400.458	370.71
400.837	372.97
401.215	383.37
401.594	379.3
401.972	377.04
402.351	381.11
402.729	365.29
403.107	366.19
403.486	351.05
403.864	372.52
404.242	373.65
404.62	379.3
404.999	389.92
405.377	379.3
405.755	382.24
406.133	394.44
406.511	370.71
406.889	391.73
407.267	398.96
407.645	371.39
408.023	407.32
408.401	402.8
408.779	403.25
409.156	389.92
409.534	397.6
409.912	400.77
410.29	402.12
410.667	392.63
411.045	402.57
411.422	406.64
411.8	408.22
412.178	393.53
412.555	396.47
412.933	402.8
413.31	391.95
413.687	408.22
414.065	417.72
414.442	398.96
414.819	426.53
415.197	426.98
415.574	431.95
415.951	433.53
416.328	447.09
416.705	415
417.082	429.01
417.46	443.03
417.837	423.14
418.214	428.11
418.591	427.43
418.967	443.7
419.344	424.27
419.721	437.83
420.098	451.16
420.475	458.62
420.852	452.06
421.228	418.39
421.605	428.56
421.982	436.92
422.358	464.04
422.735	439.86
423.111	466.98
423.488	449.35
423.864	462.23
424.241	447.09
424.617	462.01
424.994	468.79
425.37	457.71
425.746	450.03
426.123	456.36
426.499	487.09
426.875	485.51
427.251	472.85
427.627	467.88
428.003	483.93
428.379	470.14
428.756	481.22
429.132	475.11
429.507	487.77
429.883	493.19
430.259	491.84
430.635	481.22
431.011	503.36
431.387	512.18
431.763	496.36
432.138	516.7
432.514	506.98
432.89	511.95
433.265	527.99
433.641	523.47
434.016	510.82
434.392	502.23
434.767	545.4
435.143	516.24
435.518	546.98
435.894	548.79
436.269	535.68
436.644	534.1
437.02	535.68
437.395	543.36
437.77	519.63
438.145	550.14
438.52	549.91
438.895	546.53
439.271	532.51
439.646	544.04
440.021	593.98
440.395	568.22
440.77	568.67
441.145	561.89
441.52	564.38
441.895	588.56
442.27	589.01
442.645	574.32
443.019	578.16
443.394	588.33
443.769	589.69
444.143	597.6
444.518	589.69
444.892	580.42
445.267	591.95
445.641	595.56
446.016	586.07
446.39	605.05
446.764	606.64
447.139	584.49
447.513	599.63
447.887	613.64
448.262	611.83
448.636	609.57
449.01	600.31
449.384	627.65
449.758	605.73
450.132	610.03
450.506	615.45
450.88	603.25
451.254	616.35
451.628	644.15
452.002	645.28
452.376	615.9
452.75	632.62
453.123	631.95
453.497	628.78
453.871	638.5
454.244	653.19
454.618	657.48
454.992	675.34
455.365	626.98
455.739	664.26
456.112	666.3
456.486	670.36
456.859	678.73
457.232	682.11
457.606	674.66
457.979	690.25
458.352	682.11
458.725	698.61
459.099	717.82
459.472	715.33
459.845	723.7
460.218	715.79
460.591	704.94
460.964	714.2
461.337	713.3
461.71	757.59
462.083	729.8
462.456	746.07
462.829	736.35
463.201	741.77
463.574	727.09
463.947	758.27
464.32	738.84
464.692	766.41
465.065	760.53
465.438	768.21
465.81	790.59
466.183	796.46
466.555	798.04
466.928	821.09
467.3	797.59
467.672	785.16
468.045	824.03
468.417	837.14
468.789	829.68
469.161	839.62
469.534	839.4
469.906	840.3
470.278	864.71
470.65	870.58
471.022	869.45
471.394	879.17
471.766	905.61
472.138	899.06
472.51	905.39
472.882	900.19
473.253	953.52
473.625	925.95
473.997	930.24
474.369	954.65
474.74	965.27
475.112	963.69
475.484	980.41
475.855	943.8
476.227	976.34
476.598	1019.73
476.97	1010.24
477.341	1034.65
477.713	1034.87
478.084	1042.33
478.455	1089.79
478.827	1077.36
479.198	1097.92
479.569	1120.3
479.94	1114.65
480.311	1132.27
480.682	1130.69
481.053	1126.62
481.424	1159.84
481.795	1179.28
482.166	1162.55
482.537	1168.88
482.908	1236.45
483.279	1259.95
483.65	1237.35
484.021	1270.57
484.391	1277.58
484.762	1266.73
485.133	1308.77
485.503	1313.74
485.874	1333.4
486.244	1349.89
486.615	1366.16
486.985	1383.79
487.356	1376.56
487.726	1389.44
488.097	1457.24
488.467	1432.15
488.837	1450.23
489.207	1449.55
489.578	1467.86
489.948	1446.84
490.318	1501.08
490.688	1535.2
491.058	1510.57
491.428	1560.28
491.798	1555.76
492.168	1600.51
492.538	1568.19
492.908	1617.91
493.278	1632.6
493.648	1652.71
494.017	1623.11
494.387	1673.5
494.757	1661.3
495.126	1690.45
495.496	1684.35
495.866	1684.12
496.235	1712.6
496.605	1755.31
496.974	1741.52
497.344	1771.58
497.713	1750.34
498.082	1784.91
498.452	1802.31
498.821	1799.15
499.19	1841.18
499.559	1821.75
499.928	1858.58
500.298	1838.47
500.667	1872.59
501.036	1863.55
501.405	1903.1
501.774	1902.2
502.143	1910.11
502.512	1910.11
502.88	1947.39
503.249	1953.72
503.618	1965.02
503.987	1967.96
504.356	2003.89
504.724	2002.08
505.093	1964.57
505.462	1997.79
505.83	2006.6
506.199	2031.46
506.567	2082.98
506.936	2040.05
507.304	2089.08
507.672	2110.55
508.041	2094.96
508.409	2113.26
508.777	2125.69
509.145	2149.87
509.514	2144.45
509.882	2161.85
510.25	2173.38
510.618	2205.69
510.986	2176.54
511.354	2194.84
511.722	2240.04
512.09	2268.06
512.458	2257.44
512.826	2280.04
513.193	2298.34
513.561	2307.38
513.929	2334.27
514.297	2345.12
514.664	2345.8
515.032	2388.51
515.4	2380.15
515.767	2396.65
516.135	2436.19
516.502	2401.39
516.869	2462.41
517.237	2467.83
517.604	2471.67
517.972	2492.91
518.339	2481.16
518.706	2506.7
519.073	2522.52
519.44	2550.99
519.808	2590.99
520.175	2606.58
520.542	2602.52
520.909	2611.56
521.276	2636.19
521.643	2634.61
522.009	2686.81
522.376	2660.37
522.743	2723.87
523.11	2744.21
523.477	2751.21
523.843	2764.77
524.21	2791.44
524.577	2788.5
524.943	2823.53
525.31	2834.6
525.676	2875.05
526.043	2870.08
526.409	2871.44
526.776	2913.02
527.142	2946.01
527.508	2968.61
527.874	3006.57
528.241	3003.64
528.607	3042.5
528.973	3057.19
529.339	3057.19
529.705	3075.5
530.071	3104.2
530.437	3112.33
530.803	3099.68
531.169	3161.82
531.535	3160.47
531.901	3185.55
532.267	3181.03
532.632	3169.73
532.998	3229.62
533.364	3214.93
533.73	3281.82
534.095	3266.23
534.461	3305.77
534.826	3322.72
535.192	3322.27
535.557	3354.81
535.923	3369.73
536.288	3429.61
536.653	3405.66
537.019	3382.38
537.384	3436.39
537.749	3438.88
538.114	3439.78
538.479	3471.42
538.845	3496.05
539.21	3469.39
539.575	3514.13
539.94	3546.45
540.305	3533.11
540.67	3538.08
541.034	3554.36
541.399	3613.34
541.764	3625.99
542.129	3645.43
542.494	3635.48
542.858	3713
543.223	3664.86
543.587	3676.84
543.952	3693.79
544.316	3706.22
544.681	3750.96
545.045	3757.97
545.41	3795.48
545.774	3808.36
546.138	3783.73
546.503	3823.73
546.867	3868.47
547.231	3866.66
547.595	3873.44
547.959	3917.74
548.324	3948.7
548.688	3911.18
549.052	3985.98
549.416	4003.61
549.779	3996.83
550.143	4010.39
550.507	4026.89
550.871	4082.7
551.235	4079.31
551.599	4120.22
551.962	4123.38
552.326	4172.19
552.689	4209.48
553.053	4213.55
553.417	4185.75
553.78	4306.2
554.143	4306.65
554.507	4272.98
554.87	4292.64
555.234	4324.96
555.597	4364.05
555.96	4383.49
556.323	4423.03
556.686	4404.5
557.05	4493.31
557.413	4477.72
557.776	4559.53
558.139	4560.2
558.502	4592.52
558.865	4660.54
559.228	4634.55
559.59	4695.57
559.953	4743.7
560.316	4778.73
560.679	4791.84
561.041	4852.85
561.404	4906.41
561.767	4939.4
562.129	4939.4
562.492	5008.1
562.854	4984.15
563.217	5022.79
563.579	5081.55
563.941	5201.09
564.304	5225.95
564.666	5238.83
565.028	5295.1
565.39	5331.71
565.753	5357.47
566.115	5411.26
566.477	5469.56
566.839	5490.58
567.201	5557.47
567.563	5573.51
567.925	5649.44
568.287	5659.39
568.648	5694.64
569.01	5802.43
569.372	5843.11
569.734	5837.69
570.095	5917.23
570.457	5972.6
570.819	5987.51
571.18	6078.58
571.542	6143.21
571.903	6206.72
572.265	6265.24
572.626	6276.77
572.987	6324.68
573.349	6392.47
573.71	6483.54
574.071	6513.6
574.432	6524.9
574.794	6680.6
575.155	6638.57
575.516	6812.35
575.877	6801.73
576.238	6909.3
576.599	7037.43
576.96	7063.87
577.32	7114.49
577.681	7202.17
578.042	7291.43
578.403	7417.76
578.763	7476.06
579.124	7551.76
579.485	7615.27
579.845	7715.38
580.206	7870.4
580.566	7904.98
580.927	7987.46
581.287	8107.91
581.648	8247.57
582.008	8315.59
582.368	8413.66
582.728	8555.13
583.089	8653.88
583.449	8815.01
583.809	8952.86
584.169	9059.52
584.529	9169.35
584.889	9366.86
585.249	9422
585.609	9574.54
585.969	9826.73
586.329	9947.63
586.688	10080.51
587.048	10319.6
587.408	10398.24
587.768	10587.84
588.127	10838.01
588.487	11002.52
588.846	11308.95
589.206	11293.81
589.565	11575.16
589.925	11815.61
590.284	12097.41
590.643	12284.07
591.003	12536.72
591.362	12774.68
591.721	12967.67
592.08	13230.94
592.44	13397.03
592.799	13795.22
593.158	14056
593.517	14274.98
593.876	14575.08
594.235	14835.64
594.593	15156.31
594.952	15488.96
595.311	15628.84
595.67	15924.65
596.029	16359.67
596.387	16747
596.746	16961.46
597.104	17195.13
597.463	17471.05
597.822	17879.18
598.18	18103.35
598.538	18368.43
598.897	18814.07
599.255	19023.33
599.613	19525.01
599.972	19748.05
600.33	20095.16
600.688	20485.21
601.046	20906.22
601.404	21204.06
601.762	21480.21
602.12	21948.67
602.478	22123.13
602.836	22525.83
603.194	22726.96
603.552	23141.86
603.91	23340.95
604.268	23822.98
604.625	23948.62
604.983	24430.19
605.341	24656.4
605.698	25064.75
606.056	25462.03
606.413	25658.18
606.771	25984.05
607.128	26150.82
607.485	26512.62
607.843	26732.5
608.2	27159.61
608.557	27440.28
608.914	27563.67
609.272	28024.22
609.629	28217.21
609.986	28597.31
610.343	28683.64
610.7	29146.9
611.057	29408.37
611.414	29536.72
611.771	29780.11
612.127	30065.97
612.484	30239.98
612.841	30644.94
613.198	30645.85
613.554	30871.6
613.911	31307.52
614.267	31272.5
614.624	31357.24
614.98	31754.97
615.337	31994.29
615.693	32109.31
616.05	32260.27
616.406	32590.88
616.762	32655.74
617.118	32789.07
617.475	33010.98
617.831	33253.69
618.187	33380.24
618.543	33627.46
618.899	33848.25
619.255	33957.62
619.611	34002.59
619.967	34319.87
620.323	34472.19
620.678	34342.25
621.034	34483.03
621.39	34602.58
621.746	34669.24
622.101	35189.68
622.457	35096.13
622.812	35201.21
623.168	35410.92
623.523	35327.76
623.879	35692.95
624.234	35531.14
624.589	35828.54
624.945	35867.4
625.3	36000.96
625.655	35998.47
626.01	36052.26
626.365	36266.94
626.72	36071.92
627.075	36282.99
627.43	36271.91
627.785	36193.5
628.14	36579.48
628.495	36623.77
628.85	36570.21
629.205	36593.49
629.559	36848.85
629.914	36712.35
630.269	36904.21
630.623	36756.42
630.978	36748.96
631.332	36984.44
631.687	37044.77
632.041	36949.41
632.396	37067.82
632.75	37029.41
633.104	37120.93
633.459	36995.96
633.813	36965.23
634.167	36989.86
634.521	37151.21
634.875	37167.94
635.229	37266.24
635.583	36977.88
635.937	37088.62
636.291	37101.95
636.645	37141.27
636.999	37091.78
637.352	37150.08
637.706	37013.36
638.06	37214.94
638.413	37064.44
638.767	37112.12
639.121	37256.97
639.474	36947.15
639.828	37132.23
640.181	37194.6
640.534	37283.86
640.888	37146.24
641.241	36986.02
641.594	37060.59
641.947	37165
642.301	37068.05
642.654	37167.48
643.007	37070.76
643.36	37220.36
643.713	37192.34
644.066	37247.93
644.419	37026.92
644.771	36694.05
645.124	36409.99
645.477	36406.6
645.83	36119.83
646.182	36042.99
646.535	36174.97
646.888	36166.61
647.24	36077.79
647.593	36300.16
647.945	36321.18
648.298	36110.11
648.65	36100.62
649.002	36075.08
649.355	36191.01
649.707	36053.39
650.059	36235.98
650.411	36635.07
650.763	36692.47
651.115	37116.64
651.467	36895.17
651.819	37210.65
652.171	36926.81
652.523	36947.83
652.875	36909.64
653.227	36815.85
653.578	37103.3
653.93	36907.83
654.282	36960.93
654.633	36793.26
654.985	36974.27
655.337	36907.83
655.688	36865.34
656.039	37032.35
656.391	36700.6
656.742	36720.49
657.094	36788.06
657.445	36959.58
657.796	36822.86
658.147	36748.96
658.498	36754.16
658.849	36920.26
659.2	36781.96
659.551	36660.38
659.902	36801.17
660.253	36772.01
660.604	36932.24
660.955	36591.23
661.306	36802.97
661.656	36670.55
662.007	36933.14
662.358	36750.09
662.708	36869.86
663.059	36838.9
663.409	36552.36
663.76	36838.45
664.11	36835.74
664.461	36892.24
664.811	36861.5
665.161	36819.7
665.511	36707.83
665.862	36786.02
666.212	36833.93
666.562	36923.42
666.912	36759.58
667.262	36733.6
667.612	36852.92
667.962	36737.89
668.312	36754.39
668.662	36842.07
669.011	36782.86
669.361	36859.47
669.711	36659.02
670.06	36718.46
670.41	36678.68
670.76	36626.03
671.109	36718.68
671.459	36711.9
671.808	36546.26
672.157	36680.04
672.507	36531.34
672.856	36530.66
673.205	36537.22
673.554	36584.22
673.904	36550.55
674.253	36691.34
674.602	36522.08
674.951	36012.49
675.3	35850.23
675.649	36510.1
675.998	36482.98
676.346	36527.73
676.695	36462.42
677.044	36339.93
677.393	36403.89
677.741	36396.43
678.09	36211.35
678.438	36192.37
678.787	36249.54
679.135	36313.27
679.484	36042.99
679.832	36283.44
680.181	35988.31
680.529	36115.76
680.877	36017.91
681.225	36045.93
681.573	36084.35
681.922	36090.68
682.27	35785.37
682.618	35926.39
682.966	35786.05
683.314	35818.37
683.661	35723.68
684.009	35573.17
684.357	35480.75
684.705	35426.51
685.053	35446.17
685.4	35411.37
685.748	35282.79
686.095	35343.12
686.443	35090.48
686.79	35194.65
687.138	35306.29
687.485	35151.49
687.832	35080.53
688.18	35098.16
688.527	34791.95
688.874	34899.07
689.221	34812.74
689.568	34693.2
689.915	34727.32
690.262	34657.27
690.609	34575.69
690.956	34353.32
691.303	34366.2
691.65	34362.36
691.997	34340.21
692.344	34189.93
692.69	34054.57
693.037	34001.01
693.383	33784.3
693.73	33821.81
694.077	33666.78
694.423	33698.42
694.769	33669.72
695.116	33558.76
695.462	33437.86
695.808	33394.02
696.155	33409.39
696.501	33037.87
696.847	33270.64
697.193	32954.26
697.539	33014.6
697.885	32809.86
698.231	32763.31
698.577	32917.65
698.923	32698.67
699.269	32567.6
699.614	32446.48
699.96	32457.32
700.306	32529.19
700.651	32164.22
700.997	32075.64
701.342	32094.4
701.688	32112.25
702.033	32028.41
702.379	31926.04
702.724	31820.51
703.069	31887.17
703.415	31563.34
703.76	31651.24
704.105	31510
704.45	31495.09
704.795	31285.83
705.14	31181.65
705.485	31371.03
705.83	31186.62
706.175	31244.93
706.52	30947.31
706.865	30926.07
707.209	30902.79
707.554	30829.8
707.899	30931.04
708.243	30688.11
708.588	30603.14
708.932	30443.82
709.277	30431.62
709.621	30461.22
709.966	30256.03
710.31	30366.76
710.654	30005.64
710.998	30039.08
711.342	30126.76
711.687	30021.46
712.031	29877.05
712.375	29854.68
712.719	29903.95
713.063	29792.31
713.407	29858.3
713.75	29737.85
714.094	29676.15
714.438	29624.63
714.782	29656.49
715.125	29397.52
715.469	29519.1
715.812	29273.23
716.156	29138.77
716.499	29127.24
716.843	29314.13
717.186	29074.36
717.53	29207.47
717.873	29225.09
718.216	29131.31
718.559	28997.98
718.902	28789.17
719.246	28847.48
719.589	28797.99
719.932	28680.25
720.275	28687.03
720.617	28752.34
720.96	28600.7
721.303	28607.26
721.646	28659.01
721.989	28436.64
722.331	28587.14
722.674	28548.05
723.016	28491.55
723.359	28413.59
723.701	28389.41
724.044	28095.41
724.386	28151.22
724.729	28152.13
725.071	28120.49
725.413	28150.55
725.755	28106.25
726.097	27905.35
726.439	27942.87
726.782	27890.66
727.124	27951
727.465	27679.6
727.807	27715.3
728.149	27774.51
728.491	27747.39
728.833	27700.61
729.175	27606.6
729.516	27544.01
729.858	27461.98
730.199	27623.78
730.541	27482.31
730.882	27558.02
731.224	27684.57
731.565	27311.92
731.906	27376.55
732.248	27459.04
732.589	27373.39
732.93	27109.89
733.271	27193.96
733.612	27214.07
733.953	27044.36
734.294	27056.34
734.635	27058.6
734.976	27146.96
735.317	26826.29
735.658	26981.99
735.999	27012.95
736.339	26888.88
736.68	26939.05
737.021	26851.14
737.361	26785.61
737.702	26958.26
738.042	26782.22
738.383	26677.82
738.723	26692.28
739.063	26637.36
739.404	26731.6
739.744	26497.26
740.084	26447.09
740.424	26558.72
740.764	26419.74
741.104	26661.09
741.444	26358.5
741.784	26274.66
742.124	26364.83
742.464	26312.4
742.804	26355.79
743.143	26177.04
743.483	26302.23
743.823	26022.01
744.162	26028.57
744.502	26146.08
744.841	26057.72
745.181	26048.68
745.52	25970.49
745.86	25953.31
746.199	25959.19
746.538	25998.96
746.877	26051.17
747.216	25868.8
747.556	25887.1
747.895	25813.66
748.234	25753.09
748.573	25848.91
748.911	25675.58
749.25	25726.2
749.589	25601.69
749.928	25562.59
750.267	25583.61
750.605	25630.16
750.944	25528.92
751.283	25391.07
751.621	25559.2
751.96	25342.26
752.298	25262.94
752.636	25279.43
752.975	25237.85
753.313	25215.93
753.651	25315.82
753.989	25195.59
754.327	25118.08
754.666	24946.56
755.004	24967.58
755.342	24985.66
755.679	24934.36
756.017	24803.97
756.355	24843.74
756.693	24825.21
757.031	24840.35
757.368	24586.35
757.706	24676.51
758.044	24502.28
758.381	24625.89
758.719	24429.96
759.056	24475.16
759.394	24363.53
759.731	24248.05
760.068	24250.53
760.405	24047.15
760.743	24006.02
761.08	24154.49
761.417	23966.02
761.754	23934.84
762.091	23841.51
