Data from red_shiny_book_FLMS001491_00047.txt Node
Date: Wed Feb 08 15:24:55 GMT 2017
User: dcchb
Spectrometer: FLMS00149
Trigger mode: 0
Integration Time (sec): 2.000000E-2
Scans to average: 10
Electric dark correction enabled: true
Nonlinearity correction enabled: false
Boxcar width: 0
XAxis mode: Wavelengths
Number of Pixels in Spectrum: 2048
>>>>>Begin Spectral Data<<<<<
341.393	-17.88
341.776	-17.88
342.16	-17.88
342.543	-68.28
342.927	-79.57
343.31	-69.4
343.693	-61.72
344.077	-70.08
344.46	-69.4
344.843	-69.86
345.226	-49.07
345.61	3.14
345.993	-3.42
346.376	-17.65
346.759	3.59
347.142	25.96
347.525	44.26
347.908	65.51
348.291	73.64
348.674	96.47
349.057	98.05
349.44	140.31
349.823	153.41
350.206	175.11
350.588	197.48
350.971	208.33
351.354	222.11
351.737	260.98
352.119	256.69
352.502	288.1
352.884	268.67
353.267	296.69
353.65	287.87
354.032	317.7
354.414	320.64
354.797	325.84
355.179	329.68
355.562	343.69
355.944	328.78
356.326	344.14
356.709	350.25
357.091	333.07
357.473	362.22
357.855	360.19
358.238	336.01
358.62	367.42
359.002	352.05
359.384	364.71
359.766	358.15
360.148	332.17
360.53	370.36
360.912	359.96
361.294	363.58
361.676	338.49
362.057	352.5
362.439	352.5
362.821	336.91
363.203	346.86
363.584	340.3
363.966	328.78
364.348	333.52
364.729	349.57
365.111	340.3
365.493	337.14
365.874	337.82
366.256	316.57
366.637	333.97
367.019	313.64
367.4	321.55
367.781	319.96
368.163	315.9
368.544	317.48
368.925	310.47
369.306	340.08
369.688	337.14
370.069	329
370.45	343.01
370.831	318.16
371.212	328.55
371.593	331.71
371.974	331.94
372.355	311.15
372.736	343.01
373.117	348.44
373.498	324.48
373.879	340.98
374.26	337.36
374.641	332.62
375.021	343.24
375.402	323.13
375.783	331.94
376.163	344.14
376.544	346.86
376.925	352.28
377.305	341.43
377.686	330.81
378.066	362
378.447	350.02
378.827	327.65
379.208	353.63
379.588	341.43
379.968	357.7
380.349	329.45
380.729	348.89
381.109	342.34
381.489	360.19
381.87	355.67
382.25	341.21
382.63	363.35
383.01	355.44
383.39	346.4
383.77	343.92
384.15	350.25
384.53	362.22
384.91	356.12
385.29	372.17
385.67	378.94
386.049	370.13
386.429	359.28
386.809	379.4
387.189	368.55
387.568	375.1
387.948	373.07
388.328	359.74
388.707	378.27
389.087	379.17
389.466	394.76
389.846	375.33
390.225	394.31
390.605	383.24
390.984	382.11
391.363	371.94
391.743	376.91
392.122	387.53
392.501	371.04
392.881	397.93
393.26	398.38
393.639	385.05
394.018	411.94
394.397	400.19
394.776	388.66
395.155	397.48
395.534	396.8
395.913	392.5
396.292	411.94
396.671	402.67
397.05	417.81
397.429	409.9
397.808	424.37
398.186	413.07
398.565	407.64
398.944	419.85
399.323	396.57
399.701	409.45
400.08	427.76
400.458	404.71
400.837	414.65
401.215	428.44
401.594	423.69
401.972	416.46
402.351	432.73
402.729	436.8
403.107	422.79
403.486	449.45
403.864	468.21
404.242	442.9
404.62	443.58
404.999	447.64
405.377	443.12
405.755	442.45
406.133	467.08
406.511	441.54
406.889	434.08
407.267	460.75
407.645	463.24
408.023	477.47
408.401	460.98
408.779	476.12
409.156	475.44
409.534	463.24
409.912	501.43
410.29	485.61
410.667	495.78
411.045	507.3
411.422	495.1
411.8	521.31
412.178	529.68
412.555	523.35
412.933	514.53
413.31	514.76
413.687	520.64
414.065	532.39
414.442	519.96
414.819	547.75
415.197	530.58
415.574	545.72
415.951	550.69
416.328	557.92
416.705	554.08
417.082	566.74
417.46	574.42
417.837	570.13
418.214	571.03
418.591	576.23
418.967	586.4
419.344	586.85
419.721	618.03
420.098	603.35
420.475	611.93
420.852	600.63
421.228	593.18
421.605	612.16
421.982	594.08
422.358	601.09
422.735	621.88
423.111	609
423.488	626.62
423.864	648.77
424.241	677.92
424.617	673.4
424.994	637.7
425.37	651.71
425.746	639.5
426.123	645.38
426.499	649.9
426.875	674.98
427.251	673.17
427.627	684.93
428.003	683.34
428.379	712.27
428.756	710.46
429.132	719.05
429.507	716.79
429.883	709.11
430.259	689.67
430.635	690.58
431.011	693.29
431.387	738.71
431.763	753.85
432.138	734.42
432.514	785.49
432.89	747.52
433.265	768.31
433.641	772.15
434.016	776.67
434.392	794.3
434.767	763.57
435.143	792.27
435.518	795.43
435.894	781.42
436.269	818.48
436.644	822.1
437.02	832.94
437.395	834.53
437.77	840.4
438.145	846.28
438.52	846.73
438.895	836.33
439.271	848.54
439.646	836.56
440.021	856.22
440.395	853.06
440.77	863.68
441.145	890.57
441.52	926.73
441.895	910.68
442.27	917.91
442.645	916.11
443.019	894.64
443.394	904.35
443.769	888.08
444.143	874.07
444.518	902.32
444.892	915.43
445.267	898.71
445.641	924.24
446.016	956.33
446.39	967.63
446.764	979.61
447.139	959.27
447.513	976.44
447.887	969.89
448.262	952.49
448.636	966.95
449.01	960.17
449.384	954.75
449.758	980.51
450.132	985.03
450.506	964.47
450.88	1012.37
451.254	1028.19
451.628	1028.42
452.002	1044.24
452.376	1020.96
452.75	998.36
453.123	987.52
453.497	1015.09
453.871	1024.13
454.244	1011.02
454.618	1055.76
454.992	1081.98
455.365	1059.38
455.739	1100.06
456.112	1110
456.486	1112.94
456.859	1104.35
457.232	1096.44
457.606	1107.51
457.979	1083.56
458.352	1077.68
458.725	1102.32
459.099	1124.46
459.472	1105.03
459.845	1136.21
460.218	1140.28
460.591	1207.85
460.964	1186.83
461.337	1199.49
461.71	1229.54
462.083	1249.43
462.456	1201.52
462.829	1215.53
463.201	1186.16
463.574	1200.62
463.947	1201.97
464.32	1236.78
464.692	1245.59
465.065	1270.45
465.438	1286.94
465.81	1345.7
466.183	1326.72
466.555	1353.16
466.928	1355.87
467.3	1318.81
467.672	1335.98
468.045	1364.23
468.417	1348.41
468.789	1317
469.161	1375.98
469.534	1363.78
469.906	1396.77
470.278	1433.15
470.65	1480.61
471.022	1484
471.394	1509.76
471.766	1551.8
472.138	1542.76
472.51	1572.59
472.882	1564.68
473.253	1545.69
473.625	1548.18
473.997	1574.62
474.369	1530.78
474.74	1566.03
475.112	1582.75
475.484	1634.73
475.855	1724.45
476.227	1724.67
476.598	1763.54
476.97	1783.65
477.341	1833.82
477.713	1817.1
478.084	1822.75
478.455	1863.88
478.827	1798.79
479.198	1831.56
479.569	1824.1
479.94	1877.89
480.311	1905.68
480.682	1931.45
481.053	1970.09
481.424	2043.76
481.795	2087.83
482.166	2171.89
482.537	2187.26
482.908	2243.53
483.279	2242.85
483.65	2247.82
484.021	2228.61
484.391	2218.44
484.762	2233.81
485.133	2203.08
485.503	2231.78
485.874	2293.24
486.244	2333.02
486.615	2415.28
486.985	2501.6
487.356	2537.31
487.726	2621.6
488.097	2686.68
488.467	2646
488.837	2693.69
489.207	2726.45
489.578	2723.52
489.948	2697.08
490.318	2689.62
490.688	2673.8
491.058	2725.32
491.428	2728.71
491.798	2802.38
492.168	2893.23
492.538	2937.07
492.908	3022.04
493.278	3081.92
493.648	3151.08
494.017	3167.8
494.387	3188.59
494.757	3181.58
495.126	3193.33
495.496	3151.75
495.866	3125.31
496.235	3099.55
496.605	3067.91
496.974	3111.75
497.344	3170.74
497.713	3222.94
498.082	3255.03
498.452	3352.65
498.821	3435.59
499.19	3467.9
499.559	3520.78
499.928	3565.08
500.298	3584.51
500.667	3563.95
501.036	3528.69
501.405	3548.35
501.774	3458.41
502.143	3434.01
502.512	3425.64
502.88	3395.59
503.249	3443.95
503.618	3471.07
503.987	3498.18
504.356	3610.72
504.724	3684.85
505.093	3772.75
505.462	3796.48
505.83	3820.66
506.199	3848.23
506.567	3880.55
506.936	3819.98
507.304	3822.02
507.672	3792.19
508.041	3749.48
508.409	3669.71
508.777	3661.34
509.145	3626.54
509.514	3664.28
509.882	3712.42
510.25	3775.69
510.618	3873.77
510.986	3961.22
511.354	4037.15
511.722	4133.2
512.09	4172.29
512.458	4094.1
512.826	4149.69
513.193	4100.65
513.561	4052.52
513.929	4025.18
514.297	3958.51
514.664	3914.67
515.032	3909.47
515.4	3873.99
515.767	3932.98
516.135	3958.96
516.502	4013.65
516.869	4093.42
517.237	4157.38
517.604	4243.7
517.972	4399.18
518.339	4415.9
518.706	4445.5
519.073	4422.45
519.44	4395.79
519.808	4383.36
520.175	4262.23
520.542	4239.63
520.909	4189.24
521.276	4112.41
521.643	4149.24
522.009	4174.33
522.376	4207.77
522.743	4252.74
523.11	4338.16
523.477	4387.43
523.843	4530.93
524.21	4618.61
524.577	4716.91
524.943	4783.35
525.31	4795.1
525.676	4830.35
526.043	4856.34
526.409	4827.19
526.776	4817.92
527.142	4687.76
527.508	4615.9
527.874	4614.54
528.241	4582.45
528.607	4542.68
528.973	4591.04
529.339	4701.32
529.705	4800.98
530.071	4943.8
530.437	5072.61
530.803	5173.4
531.169	5212.94
531.535	5302.88
531.901	5354.41
532.267	5436.66
532.632	5473.95
532.998	5393.28
533.364	5324.58
533.73	5243.45
534.095	5196.67
534.461	5146.28
534.826	5171.36
535.192	5137.69
535.557	5130.23
535.923	5158.03
536.288	5293.62
536.653	5377.23
537.019	5419.26
537.384	5559.83
537.749	5765.7
538.114	5847.05
538.479	5936.99
538.845	5947.61
539.21	5952.36
539.575	5975.41
539.94	5957.78
540.305	5888.4
540.67	5830.33
541.034	5725.7
541.399	5702.65
541.764	5656.09
542.129	5618.58
542.494	5638.69
542.858	5668.98
543.223	5751.23
543.587	5808.63
543.952	5902.64
544.316	6070.55
544.681	6186.93
545.045	6313.7
545.41	6422.18
545.774	6506.47
546.138	6589.63
546.503	6541.27
546.867	6516.86
547.231	6484.55
547.595	6358
547.959	6294.04
548.324	6186.93
548.688	6110.32
549.052	6038.23
549.416	5970.66
549.779	5982.64
550.143	6022.19
550.507	6143.09
550.871	6217.21
551.235	6304.89
551.599	6428.05
551.962	6544.21
552.326	6646.58
552.689	6772.9
553.053	6787.59
553.417	6840.7
553.78	6913.01
554.143	6900.58
554.507	6861.71
554.87	6739.91
555.234	6699.91
555.597	6565.22
555.96	6461.04
556.323	6371.33
556.686	6356.64
557.05	6300.15
557.413	6301.73
557.776	6354.15
558.139	6382.63
558.502	6529.97
558.865	6707.82
559.228	6868.04
559.59	6969.73
559.953	7130.18
560.316	7237.97
560.679	7304.41
561.041	7347.12
561.404	7349.83
561.767	7343.73
562.129	7273.68
562.492	7174.92
562.854	7081.59
563.217	6966.79
563.579	6889.96
563.941	6794.14
564.304	6762.05
564.666	6756.4
565.028	6750.3
565.39	6728.61
565.753	6805.67
566.115	6967.02
566.477	7132.21
566.839	7253.57
567.201	7456.72
567.563	7557.51
567.925	7685.19
568.287	7798.64
568.648	7897.62
569.01	7901.46
569.372	7960.44
569.734	7896.49
570.095	7846.55
570.457	7749.6
570.819	7606.33
571.18	7493.33
571.542	7437.06
571.903	7375.82
572.265	7281.81
572.626	7262.15
572.987	7233.91
573.349	7325.65
573.71	7491.53
574.071	7585.31
574.432	7788.02
574.794	8017.16
575.155	8207.67
575.516	8437.49
575.877	8605.17
576.238	8678.16
576.599	8865.73
576.96	8926.29
577.32	9031.37
577.681	9091.26
578.042	9106.17
578.403	9077.7
578.763	8983.46
579.124	8960.64
579.485	9006.74
579.845	9065.72
580.206	9032.28
580.566	9057.59
580.927	9173.74
581.287	9424.13
581.648	9595.2
582.008	9761.97
582.368	10161.29
582.728	10583.42
583.089	10951.32
583.449	11333.23
583.809	11720.12
584.169	12192.87
584.529	12496.37
584.889	12943.36
585.249	13152.17
585.609	13431.26
585.969	13819.5
586.329	14066.95
586.688	14273.95
587.048	14486.6
587.408	14765.01
587.768	14998.22
588.127	15299
588.487	15619.45
588.846	16110.96
589.206	16349.6
589.565	16755.24
589.925	17312.06
590.284	17813.51
590.643	18455.53
591.003	19005.12
591.362	19757.87
591.721	20277.63
592.08	20881
592.44	21632.4
592.799	22197.81
593.158	22755.98
593.517	23337.21
593.876	23867.82
594.235	24291.08
594.593	24778.98
594.952	25175.13
595.311	25459.64
595.67	25949.57
596.029	26429.11
596.387	26808.76
596.746	27188.64
597.104	27479.48
597.463	27942.06
597.822	28385.21
598.18	28775.49
598.538	29274.91
598.897	30043.25
599.255	30272.4
599.613	31495.64
599.972	31712.58
600.33	32476.86
600.688	32991.65
601.046	33661.46
601.404	34425.96
601.762	34792.05
602.12	35343.22
602.478	35949.08
602.836	36301.84
603.194	36411.67
603.552	36866.12
603.91	36985.67
604.268	37509.27
604.625	37678.08
604.983	38035.36
605.341	38125.07
605.698	38525.51
606.056	38911.49
606.413	38972.28
606.771	39438.48
607.128	39772.26
607.485	40115.08
607.843	40380.38
608.2	41014.94
608.557	41520.01
608.914	41889.27
609.272	42331.06
609.629	42812.86
609.986	43409.68
610.343	43512.73
610.7	44228.87
611.057	44344.34
611.414	44598.35
611.771	44875.4
612.127	45120.14
612.484	45156.75
612.841	45427.93
613.198	45361.94
613.554	45585.44
613.911	45689.62
614.267	45713.57
614.624	45802.38
614.98	45933.23
615.337	46161.02
615.693	46355.14
616.05	46292.99
616.406	46708.8
616.762	46694.79
617.118	46897.04
617.475	47049.58
617.831	47348.56
618.187	47647.08
618.543	47876.45
618.899	48291.81
619.255	48457.68
619.611	48607.51
619.967	48960.94
620.323	49070.77
620.678	49106.93
621.034	49070.09
621.39	49245.23
621.746	49230.09
622.101	49625.11
622.457	49292.46
622.812	49252.69
623.168	49278.45
623.523	49147.38
623.879	49268.05
624.234	49053.82
624.589	49177.89
624.945	49232.58
625.3	49245
625.655	49153.03
626.01	49316.64
626.365	49444.1
626.72	49480.48
627.075	49560.25
627.43	49633.02
627.785	49763.64
628.14	49927.7
628.495	50150.29
628.85	50132.89
629.205	50197.75
629.559	50581.69
629.914	50443.62
630.269	50389.61
630.623	50425.09
630.978	50434.13
631.332	50511.86
631.687	50478.42
632.041	50293.56
632.396	50430.28
632.75	50103.06
633.104	50144.87
633.459	49941.03
633.813	49879.56
634.167	49816.06
634.521	49620.81
634.875	49644.54
635.229	49575.39
635.583	49389.86
635.937	49459.69
636.291	49592.34
636.645	49720.02
636.999	49610.87
637.352	49835.95
637.706	49714.37
638.06	50017.19
638.413	49951.2
638.767	49970.86
639.121	50026.68
639.474	50006.57
639.828	50106.45
640.181	50208.37
640.534	50168.6
640.888	50046.34
641.241	49807.02
641.594	49895.16
641.947	49945.33
642.301	49788.95
642.654	49633.69
643.007	49603.64
643.36	49364.32
643.713	49254.5
644.066	49426.92
644.419	49011.11
644.771	48836.65
645.124	48481.63
645.477	48249.55
645.83	48034.19
646.182	47979.95
646.535	47976.56
646.888	48101.08
647.24	47928.66
647.593	48399.38
647.945	48244.8
648.298	48197.57
648.65	48195.99
649.002	48154.86
649.355	48308.08
649.707	48312.83
650.059	48393.05
650.411	48970.44
650.763	49046.59
651.115	49404.32
651.467	49170.88
651.819	49225.12
652.171	49059.92
652.523	48894.51
652.875	48709.65
653.227	48520.96
653.578	48669.88
653.93	48570.22
654.282	48177.46
654.633	48086.62
654.985	48207.07
655.337	48052.49
655.688	47942.89
656.039	48308.08
656.391	47890.46
656.742	47963.68
657.094	48083.23
657.445	48316.44
657.796	48256.56
658.147	48194.41
658.498	48321.87
658.849	48496.32
659.2	48488.19
659.551	48454.52
659.902	48790.78
660.253	48617.45
660.604	48723.66
660.955	48646.83
661.306	48742.87
661.656	48569.99
662.007	48564.34
662.358	48551.92
662.708	48385.59
663.059	48391.02
663.409	48084.36
663.76	48194.41
664.11	47948.54
664.461	48014.3
664.811	47859.5
665.161	47794.42
665.511	47578.61
665.862	47620.64
666.212	47745.83
666.562	47814.31
666.912	47599.4
667.262	47618.61
667.612	47470.36
667.962	47710.58
668.312	47635.78
668.662	47801.65
669.011	47844.59
669.361	47957.35
669.711	47952.61
670.06	48007.75
670.41	47904.93
670.76	48119.84
671.109	48173.17
671.459	48143.11
671.808	48111.48
672.157	48204.58
672.507	47956
672.856	47965.94
673.205	47816.79
673.554	48033.51
673.904	47710.81
674.253	47845.04
674.602	47673.52
674.951	47052.75
675.3	46668.35
675.649	47162.8
675.998	47079.19
676.346	47100.88
676.695	47145.4
677.044	46673.55
677.393	46852.75
677.741	46802.13
678.09	46755.13
678.438	46575.7
678.787	46821.57
679.135	46817.95
679.484	46569.59
679.832	46786.09
680.181	46646.2
680.529	46853.66
680.877	46931.85
681.225	46917.61
681.573	47232.18
681.922	46897.27
682.27	46978.17
682.618	46999.64
682.966	47030.15
683.314	47021.33
683.661	47007.1
684.009	46812.98
684.357	46665.41
684.705	46636.94
685.053	46537.28
685.4	46440.78
685.748	45993.34
686.095	45991.3
686.443	45763.51
686.79	45617.53
687.138	45570.3
687.485	45562.62
687.832	45198.56
688.18	45190.2
688.527	45086.7
688.874	45058.67
689.221	44857.55
689.568	44725.12
689.915	44550.44
690.262	44800.6
690.609	44725.35
690.956	44568.74
691.303	44642.87
691.65	44568.74
691.997	44612.58
692.344	44467.28
692.69	44398.13
693.037	44727.16
693.383	44345.25
693.73	44577.1
694.077	44322.87
694.423	44379.82
694.769	44285.36
695.116	44255.98
695.462	44156.78
695.808	43999.04
696.155	43998.59
696.501	43634.08
696.847	43624.36
697.193	43380.75
697.539	43316.8
697.885	42722.24
698.231	42683.6
698.577	42485.18
698.923	42371.06
699.269	42148.92
699.614	41959.32
699.96	41872.32
700.306	41862.83
700.651	41710.06
700.997	41467.13
701.342	41417.87
701.688	41370.64
702.033	41207.48
702.379	41259
702.724	41219.45
703.069	41342.61
703.415	40940.36
703.76	41168.15
704.105	41210.64
704.45	41123.64
704.795	41028.72
705.14	41080.7
705.485	40988.05
705.83	40886.13
706.175	40877.32
706.52	40735.85
706.865	40954.15
707.209	40837.77
707.554	40580.6
707.899	40688.85
708.243	40383.99
708.588	40315.75
708.932	40105.58
709.277	39990.56
709.621	39892.26
709.966	39482.78
710.31	39485.49
710.654	38999.4
710.998	39060.41
711.342	39023.58
711.687	38806.86
712.031	38555.34
712.375	38426.98
712.719	38543.14
713.063	38283.48
713.407	38441.9
713.75	38240.55
714.094	38107.67
714.438	38121.91
714.782	38206.88
715.125	38044.62
715.469	38153.77
715.812	38007.79
716.156	37902.48
716.499	37969.14
716.843	38235.8
717.186	37986.54
717.53	38379.3
717.873	38205.07
718.216	38125.52
718.559	38056.37
718.902	37839.65
719.246	37926.43
719.589	37832.2
719.932	37703.61
720.275	37846.21
720.617	37758.53
720.96	37563.5
721.303	37558.76
721.646	37428.82
721.989	37153.57
722.331	37315.6
722.674	36989.28
723.016	36872.22
723.359	36764.65
723.701	36742.51
724.044	36335.29
724.386	36172.58
724.729	36256.42
725.071	36117.44
725.413	36002.41
725.755	35945.69
726.097	35776.66
726.439	35700.73
726.782	35597.68
727.124	35660.73
727.465	35610.11
727.807	35537.12
728.149	35721.29
728.491	35512.48
728.833	35821.63
729.175	35590.45
729.516	35706.83
729.858	35785.02
730.199	35834.06
730.541	35712.03
730.882	35855.07
731.224	35871.8
731.565	35635.42
731.906	35751.12
732.248	35860.72
732.589	35667.96
732.93	35515.87
733.271	35516.33
733.612	35502.54
733.953	35406.5
734.294	35418.93
734.635	35137.13
734.976	35180.97
735.317	34929.45
735.658	34785.72
735.999	34662.79
736.339	34614.2
736.68	34617.82
737.021	34500.53
737.361	34178.73
737.702	34224.38
738.042	34160.43
738.383	33995.69
738.723	33997.27
739.063	33818.74
739.404	33846.54
739.744	33702.14
740.084	33619.65
740.424	33751.85
740.764	33692.42
741.104	33667.56
741.444	33683.38
741.784	33579.65
742.124	33718.86
742.464	33737.16
742.804	33817.61
743.143	33632.08
743.483	33778.07
743.823	33652.42
744.162	33737.84
744.502	33870.49
744.841	33759.54
745.181	33845.86
745.52	33712.98
745.86	33809.93
746.199	33613.55
746.538	33670.27
746.877	33689.71
747.216	33555.02
747.556	33426.89
747.895	33358.19
748.234	33235.71
748.573	33147.35
748.911	33145.77
749.25	32941.48
749.589	32668.04
749.928	32646.12
750.267	32596.18
750.605	32567.03
750.944	32271.67
751.283	32127.04
751.621	32121.84
751.96	31801.62
752.298	31864.67
752.636	31846.59
752.975	31664.68
753.313	31557.56
753.651	31641.4
753.989	31502.87
754.327	31447.05
754.666	31274.63
755.004	31456.77
755.342	31368.19
755.679	31353.27
756.017	31310.79
756.355	31414.96
756.693	31307.4
757.031	31361.41
757.368	31245.7
757.706	31165.03
758.044	31328.87
758.381	31325.25
758.719	31120.74
759.056	31226.5
759.394	31162.77
759.731	31088.87
760.068	31030.34
760.405	30895.66
