Data from red_shiny_book_FLMS001491_00076.txt Node
Date: Wed Feb 08 15:25:21 GMT 2017
User: dcchb
Spectrometer: FLMS00149
Trigger mode: 0
Integration Time (sec): 2.000000E-2
Scans to average: 10
Electric dark correction enabled: true
Nonlinearity correction enabled: false
Boxcar width: 0
XAxis mode: Wavelengths
Number of Pixels in Spectrum: 2048
>>>>>Begin Spectral Data<<<<<
341.393	-12.74
341.776	-12.74
342.16	-12.74
342.543	-40.31
342.927	-62.46
343.31	-65.62
343.693	-88.44
344.077	-51.16
344.46	-62.68
344.843	-69.24
345.226	-10.71
345.61	-28.56
345.993	-37.6
346.376	-13.19
346.759	14.15
347.142	39.46
347.525	24.55
347.908	50.76
348.291	80.59
348.674	108.84
349.057	108.84
349.44	118.1
349.823	167.37
350.206	178.44
350.588	217.54
350.971	215.05
351.354	232.23
351.737	268.38
352.119	248.27
352.502	263.41
352.884	309.29
353.267	318.78
353.65	292.11
354.032	309.74
354.414	312.68
354.797	321.04
355.179	316.07
355.562	341.38
355.944	340.47
356.326	350.19
356.709	356.52
357.091	348.61
357.473	349.96
357.855	327.59
358.238	371.2
358.62	338.89
359.002	347.48
359.384	340.47
359.766	351.54
360.148	340.47
360.53	332.34
360.912	338.89
361.294	343.18
361.676	332.11
362.057	338.66
362.439	355.61
362.821	335.95
363.203	335.27
363.584	327.59
363.966	343.18
364.348	318.1
364.729	344.54
365.111	329.62
365.493	323.52
365.874	314.26
366.256	314.48
366.637	333.01
367.019	322.39
367.4	338.44
367.781	323.97
368.163	338.44
368.544	322.39
368.925	323.07
369.306	309.06
369.688	323.07
370.069	320.13
370.45	339.57
370.831	340.47
371.212	314.26
371.593	318.32
371.974	323.52
372.355	318.55
372.736	330.3
373.117	328.72
373.498	323.97
373.879	324.43
374.26	331.21
374.641	353.58
375.021	327.59
375.402	334.37
375.783	331.66
376.163	329.85
376.544	345.89
376.925	327.36
377.305	328.95
377.686	347.48
378.066	333.24
378.447	359
378.827	346.35
379.208	333.69
379.588	342.96
379.968	352
380.349	357.19
380.729	342.73
381.109	355.84
381.489	358.1
381.87	345.67
382.25	341.15
382.63	352.67
383.01	348.15
383.39	343.86
383.77	348.38
384.15	359
384.53	349.74
384.91	351.77
385.29	355.39
385.67	368.72
386.049	360.81
386.429	350.64
386.809	360.81
387.189	368.95
387.568	356.97
387.948	375.72
388.328	368.49
388.707	369.62
389.087	361.26
389.466	367.59
389.846	357.42
390.225	347.7
390.605	380.7
390.984	374.14
391.363	384.76
391.743	384.99
392.122	379.34
392.501	384.99
392.881	394.93
393.26	402.84
393.639	374.59
394.018	382.73
394.397	373.24
394.776	390.19
395.155	406.91
395.534	396.74
395.913	399.45
396.292	394.03
396.671	401.71
397.05	390.41
397.429	390.87
397.808	393.58
398.186	399.9
398.565	403.07
398.944	389.51
399.323	394.48
399.701	399
400.08	402.39
400.458	435.38
400.837	416.85
401.215	433.35
401.594	400.36
401.972	401.26
402.351	391.32
402.729	433.12
403.107	430.86
403.486	410.07
403.864	415.72
404.242	430.86
404.62	432.22
404.999	456.4
405.377	422.05
405.755	417.08
406.133	442.84
406.511	423.86
406.889	460.47
407.267	456.4
407.645	451.88
408.023	447.81
408.401	481.94
408.779	437.19
409.156	463.86
409.534	447.59
409.912	435.38
410.29	469.28
410.667	474.03
411.045	469.28
411.422	464.76
411.8	495.95
412.178	485.55
412.555	499.79
412.933	489.39
413.31	502.5
413.687	491.43
414.065	505.44
414.442	514.7
414.819	523.74
415.197	522.84
415.574	530.52
415.951	535.49
416.328	532.33
416.705	516.74
417.082	525.78
417.46	528.49
417.837	538.66
418.214	526.46
418.591	540.01
418.967	532.1
419.344	575.27
419.721	554.48
420.098	565.1
420.475	562.16
420.852	550.64
421.228	562.84
421.605	548.83
421.982	571.88
422.358	576.85
422.735	572.1
423.111	580.92
423.488	589.96
423.864	600.58
424.241	588.37
424.617	631.31
424.994	585.89
425.37	612.55
425.746	598.54
426.123	616.17
426.499	609.84
426.875	627.47
427.251	613.46
427.627	617.75
428.003	623.18
428.379	650.29
428.756	628.6
429.132	655.04
429.507	643.97
429.883	648.26
430.259	677.41
430.635	677.41
431.011	672.21
431.387	668.82
431.763	668.82
432.138	684.64
432.514	687.58
432.89	695.72
433.265	715.6
433.641	710.63
434.016	717.86
434.392	720.35
434.767	735.26
435.143	722.61
435.518	761.48
435.894	732.33
436.269	730.07
436.644	753.57
437.02	755.15
437.395	752.21
437.77	789.95
438.145	768.48
438.52	796.5
438.895	794.02
439.271	787.69
439.646	798.99
440.021	781.82
440.395	790.18
440.77	787.47
441.145	798.31
441.52	826.33
441.895	808.48
442.27	841.48
442.645	799.22
443.019	858.88
443.394	850.29
443.769	844.19
444.143	858.42
444.518	853
444.892	820.91
445.267	833.11
445.641	850.51
446.016	863.4
446.39	845.77
446.764	821.59
447.139	854.13
447.513	879.67
447.887	886.45
448.262	881.25
448.636	879.21
449.01	888.71
449.384	887.8
449.758	881.7
450.132	866.11
450.506	854.36
450.88	895.26
451.254	884.64
451.628	878.76
452.002	928.03
452.376	911.53
452.75	936.84
453.123	941.59
453.497	943.62
453.871	961.02
454.244	947.69
454.618	954.92
454.992	931.87
455.365	927.12
455.739	960.34
456.112	956.05
456.486	960.79
456.859	990.62
457.232	1003.73
457.606	1020.68
457.979	1047.35
458.352	1020.45
458.725	1003.73
459.099	1019.55
459.472	1039.89
459.845	1048.93
460.218	1038.76
460.591	1019.78
460.964	1028.81
461.337	1039.89
461.71	1050.74
462.083	1052.32
462.456	1078.08
462.829	1098.64
463.201	1084.41
463.574	1112.43
463.947	1125.31
464.32	1167.57
464.692	1111.52
465.065	1118.53
465.438	1118.3
465.81	1100.23
466.183	1111.07
466.555	1128.47
466.928	1127.34
467.3	1149.49
467.672	1167.79
468.045	1178.64
468.417	1220.9
468.789	1241.24
469.161	1243.05
469.534	1249.83
469.906	1261.58
470.278	1250.5
470.65	1244.4
471.022	1247.34
471.394	1256.38
471.766	1241.92
472.138	1279.43
472.51	1290.28
472.882	1346.32
473.253	1331.86
473.625	1388.35
473.997	1406.43
474.369	1404.4
474.74	1469.48
475.112	1439.43
475.484	1439.43
475.855	1468.35
476.227	1483.94
476.598	1461.12
476.97	1478.52
477.341	1474
477.713	1521.68
478.084	1529.37
478.455	1562.13
478.827	1574.56
479.198	1648.01
479.569	1639.65
479.94	1697.27
480.311	1749.93
480.682	1746.76
481.053	1778.85
481.424	1752.19
481.795	1760.32
482.166	1768
482.537	1740.21
482.908	1737.5
483.279	1801.45
483.65	1856.36
484.021	1893.42
484.391	1908.34
484.762	1942.92
485.133	2019.07
485.503	2010.71
485.874	2090.71
486.244	2105.85
486.615	2150.37
486.985	2121.44
487.356	2145.17
487.726	2155.11
488.097	2129.35
488.467	2152.4
488.837	2151.72
489.207	2192.17
489.578	2222.68
489.948	2258.39
490.318	2321.21
490.688	2379.29
491.058	2413.64
491.428	2469.91
491.798	2525.05
492.168	2557.14
492.538	2555.1
492.908	2569.11
493.278	2592.84
493.648	2558.72
494.017	2548.55
494.387	2507.42
494.757	2537.7
495.126	2588.32
495.496	2581.09
495.866	2631.94
496.235	2659.96
496.605	2732.95
496.974	2791.03
497.344	2842.78
497.713	2842.1
498.082	2901.08
498.452	2898.6
498.821	2926.62
499.19	2845.26
499.559	2870.35
499.928	2867.86
500.298	2836.68
500.667	2864.25
501.036	2828.09
501.405	2854.98
501.774	2882.55
502.143	2878.71
502.512	2917.8
502.88	2936.56
503.249	3031.25
503.618	3047.07
503.987	3083
504.356	3137.23
504.724	3144.24
505.093	3137.91
505.462	3101.98
505.83	3113.73
506.199	3092.04
506.567	3114.18
506.936	3039.38
507.304	3056.33
507.672	2993.51
508.041	3038.03
508.409	3084.13
508.777	3088.42
509.145	3149.66
509.514	3196.44
509.882	3240.73
510.25	3251.81
510.618	3341.75
510.986	3343.33
511.354	3313.95
511.722	3353.95
512.09	3312.82
512.458	3301.3
512.826	3266.72
513.193	3232.15
513.561	3129.32
513.929	3177.91
514.297	3212.26
514.664	3197.12
515.032	3230.34
515.4	3269.89
515.767	3337.23
516.135	3361.18
516.502	3388.98
516.869	3448.41
517.237	3479.6
517.604	3525.02
517.972	3559.14
518.339	3500.84
518.706	3473.04
519.073	3479.15
519.44	3428.75
519.808	3455.19
520.175	3393.95
520.542	3378.81
520.909	3351.69
521.276	3370.45
521.643	3412.93
522.009	3407.06
522.376	3522.08
522.743	3525.25
523.11	3587.17
523.477	3666.94
523.843	3749.42
524.21	3773.15
524.577	3791.23
524.943	3855.18
525.31	3810.89
525.676	3772.92
526.043	3755.75
526.409	3780.61
526.776	3727.27
527.142	3727.73
527.508	3664.68
527.874	3678.69
528.241	3662.87
528.607	3757.33
528.973	3769.76
529.339	3849.31
529.705	3926.82
530.071	4044.78
530.437	4062.41
530.803	4108.96
531.169	4226.92
531.535	4205.23
531.901	4223.53
532.267	4226.02
532.632	4259.24
532.998	4220.37
533.364	4168.17
533.73	4165.91
534.095	4107.83
534.461	4127.72
534.826	4107.83
535.192	4102.86
535.557	4141.95
535.923	4193.03
536.288	4280.25
536.653	4295.85
537.019	4443.41
537.384	4497.65
537.749	4543.52
538.114	4631.88
538.479	4697.42
538.845	4677.31
539.21	4659.23
539.575	4642.51
539.94	4677.98
540.305	4684.54
540.67	4648.61
541.034	4574.71
541.399	4556.63
541.764	4502.62
542.129	4529.06
542.494	4498.1
542.858	4570.42
543.223	4586.91
543.587	4650.41
543.952	4725.44
544.316	4787.81
544.681	4880.46
545.045	4931.31
545.41	5075.94
545.774	5070.06
546.138	5162.27
546.503	5157.29
546.867	5127.92
547.231	5130.85
547.595	5138.99
547.959	5069.84
548.324	4984.64
548.688	4962.27
549.052	4912.55
549.416	4841.37
549.779	4802.05
550.143	4788.04
550.507	4888.6
550.871	4938.99
551.235	4919.11
551.599	5051.99
551.962	5080.46
552.326	5192.77
552.689	5251.3
553.053	5291.3
553.417	5324.3
553.78	5406.1
554.143	5406.33
554.507	5349.38
554.87	5428.47
555.234	5331.98
555.597	5307.57
555.96	5228.03
556.323	5201.36
556.686	5096.73
557.05	5074.13
557.413	5066
557.776	5041.82
558.139	5028.26
558.502	5043.62
558.865	5142.38
559.228	5223.28
559.59	5294.47
559.953	5355.71
560.316	5469.83
560.679	5552.76
561.041	5684.96
561.404	5689.26
561.767	5799.76
562.129	5707.56
562.492	5753.66
562.854	5718.41
563.217	5698.97
563.579	5593.67
563.941	5569.26
564.304	5508.92
564.666	5452.65
565.028	5388.02
565.39	5363.62
565.753	5377.63
566.115	5367.68
566.477	5382.15
566.839	5441.81
567.201	5542.59
567.563	5578.98
567.925	5649.48
568.287	5826.88
568.648	5836.82
569.01	5982.36
569.372	6069.13
569.734	6132.86
570.095	6174.67
570.457	6150.94
570.819	6168.34
571.18	6143.03
571.542	6157.95
571.903	6064.84
572.265	6064.16
572.626	5954.11
572.987	5856.48
573.349	5876.14
573.71	5863.26
574.071	5838.86
574.432	5954.11
574.794	6023.71
575.155	6100.09
575.516	6139.19
575.877	6343.03
576.238	6421.44
576.599	6560.87
576.96	6749.34
577.32	6861.2
577.681	6997.25
578.042	7138.03
578.403	7218.26
578.763	7351.36
579.124	7400.85
579.485	7502.32
579.845	7583.9
580.206	7574.18
580.566	7625.93
580.927	7752.03
581.287	7787.73
581.648	7872.7
582.008	8049.42
582.368	8183.43
582.728	8389.3
583.089	8591.78
583.449	8817.54
583.809	9085.55
584.169	9439.22
584.529	9752.43
584.889	10179.99
585.249	10502.69
585.609	10870.82
585.969	11320.75
586.329	11704.92
586.688	12144.91
587.048	12452.7
587.408	12821.5
587.768	13137.87
588.127	13567.24
588.487	13856.95
588.846	14230.5
589.206	14429.14
589.565	14734.44
589.925	15146.64
590.284	15467.76
590.643	15831.36
591.003	16143.22
591.362	16673.38
591.721	17053.25
592.08	17469.29
592.44	18075.15
592.799	18607.56
593.158	19071.96
593.517	19600.98
593.876	20140.4
594.235	20647.06
594.593	21137.89
594.952	21904.65
595.311	22205.66
595.67	22811.97
596.029	23415.8
596.387	23764.26
596.746	24384.58
597.104	24560.63
597.463	25014.17
597.822	25369.19
598.18	25686.02
598.538	25986.12
598.897	26470.63
599.255	26549.95
599.613	27271.29
599.972	27384.05
600.33	27847.09
600.688	28128.89
601.046	28680.29
601.404	29095.2
601.762	29469.2
602.12	30156.41
602.478	30665.1
602.836	31027.57
603.194	31363.84
603.552	31972.86
603.91	32167.43
604.268	32903.68
604.625	33046.96
604.983	33543.89
605.341	33838.35
605.698	34386.58
606.056	34570.31
606.413	34777.53
606.771	35146.56
607.128	35475.82
607.485	35455.03
607.843	35684.85
608.2	35822.25
608.557	36320.99
608.914	36228.57
609.272	36703.36
609.629	36862
609.986	37110.35
610.343	37263.34
610.7	37782.88
611.057	37953.95
611.414	38256.76
611.771	38543.53
612.127	38850.87
612.484	39143.97
612.841	39473.45
613.198	39719.1
613.554	39976.27
613.911	40260.1
614.267	40556.14
614.624	40743.48
614.98	40973.98
615.337	41150.02
615.693	41341.2
616.05	41390.69
616.406	41568.09
616.762	41486.28
617.118	41684.02
617.475	41593.4
617.831	41721.3
618.187	41941.86
618.543	41869.32
618.899	42180.28
619.255	42097.34
619.611	42107.73
619.967	42457.78
620.323	42640.6
620.678	42648.06
621.034	42646.03
621.39	42808.51
621.746	43004.66
622.101	43480.35
622.457	43260.47
622.812	43537.53
623.168	43774.58
623.523	44029.72
623.879	44136.16
624.234	44039.89
624.589	44226.55
624.945	44311.52
625.3	44468.35
625.655	44437.16
626.01	44432.42
626.365	44385.41
626.72	44338.41
627.075	44233.78
627.43	44224.52
627.785	44065.65
628.14	44132.54
628.495	44090.73
628.85	44006.22
629.205	43946.1
629.559	44105.42
629.914	43854.13
630.269	44050.28
630.623	44069.26
630.978	44112.65
631.332	44381.12
631.687	44408.92
632.041	44396.94
632.396	44476.71
632.75	44457.96
633.104	44689.81
633.459	44545.18
633.813	44756.93
634.167	44670.15
634.521	44789.47
634.875	44875.8
635.229	44744.95
635.583	44510.61
635.937	44535.24
636.291	44621.57
636.645	44469.03
636.999	44463.15
637.352	44314.46
637.706	44084.86
638.06	44242.59
638.413	44044.41
638.767	43821.59
639.121	43813.9
639.474	43528.94
639.828	43436.51
640.181	43782.94
640.534	43688.48
640.888	43653.91
641.241	43497.75
641.594	43622.5
641.947	43790.18
642.301	43812.77
642.654	43898.42
643.007	43886.44
643.36	44032.66
643.713	43975.93
644.066	44186.78
644.419	44059.77
644.771	43795.6
645.124	43349.96
645.477	43327.59
645.83	42968.28
646.182	42864.1
646.535	42788.17
646.888	42851.9
647.24	42638.12
647.593	42765.34
647.945	42537.78
648.298	42349.99
648.65	42060.73
649.002	41842.43
649.355	42027.74
649.707	41861.64
650.059	41981.64
650.411	42262.53
650.763	42478.8
651.115	42756.08
651.467	42771.9
651.819	42699.13
652.171	42757.21
652.523	42511.79
652.875	42655.74
653.227	42638.34
653.578	43043.08
653.93	43078.56
654.282	42867.71
654.633	42907.94
654.985	43017.54
655.337	42988.84
655.688	43097.99
656.039	43267.25
656.391	42889.63
656.742	42943.19
657.094	43022.96
657.445	43151.1
657.796	42876.98
658.147	42737.1
658.498	42607.83
658.849	42679.7
659.2	42441.74
659.551	42241.74
659.902	42377.78
660.253	42215.98
660.604	42082.42
660.955	42016.44
661.306	41913.62
661.656	41870.68
662.007	41839.49
662.358	41909.32
662.708	41981.64
663.059	41907.97
663.409	41779.83
663.76	42113.38
664.11	42199.71
664.461	42309.54
664.811	42359.25
665.161	42286.94
665.511	42342.08
665.862	42437.44
666.212	42626.14
666.562	42582.98
666.912	42447.84
667.262	42455.75
667.612	42506.82
667.962	42422.98
668.312	42444.22
668.662	42622.3
669.011	42432.7
669.361	42198.81
669.711	42152.71
670.06	41957
670.41	41841.75
670.76	41662.32
671.109	41778.48
671.459	41638.37
671.808	41360.41
672.157	41572.61
672.507	41273.86
672.856	41318.15
673.205	41269.79
673.554	41460.07
673.904	41197.25
674.253	41433.4
674.602	41380.52
674.951	40886.98
675.3	40712.74
675.649	41490.8
675.998	41464.36
676.346	41525.83
676.695	41617.13
677.044	41465.49
677.393	41681.98
677.741	41751.81
678.09	41688.76
678.438	41583.91
678.787	41681.98
679.135	41777.8
679.484	41498.49
679.832	41459.84
680.181	41280.41
680.529	41344.14
680.877	41049.68
681.225	41101.21
681.573	41233.41
681.922	40923.58
682.27	40681.33
682.618	40710.03
682.966	40454.67
683.314	40505.52
683.661	40257.61
684.009	39963.61
684.357	39917.28
684.705	39851.3
685.053	40024.4
685.4	39984.4
685.748	39652.66
686.095	39768.81
686.443	39578.76
686.79	39734.46
687.138	39710.06
687.485	39725.65
687.832	39802.03
688.18	39866.66
688.527	39711.19
688.874	39686.78
689.221	39671.19
689.568	39712.32
689.915	39717.74
690.262	39613.34
690.609	39603.17
690.956	39466.9
691.303	39321.82
691.65	39182.39
691.997	39196.4
692.344	38964.77
692.69	38809.06
693.037	38804.54
693.383	38432.13
693.73	38555.96
694.077	38242.75
694.423	38185.13
694.769	37875.53
695.116	37765.25
695.462	37800.73
695.808	37618.59
696.155	37420.4
696.501	37248.2
696.847	37259.27
697.193	36929.34
697.539	37123.23
697.885	36743.81
698.231	36817.25
698.577	36744.71
698.923	36773.19
699.269	36629.46
699.614	36557.82
699.96	36436.47
700.306	36501.55
700.651	36428.34
700.997	36451.16
701.342	36397.6
701.688	36472.63
702.033	36345.4
702.379	36469.24
702.724	36376.59
703.069	36429.47
703.415	36023.6
703.76	36019.76
704.105	36037.61
704.45	35905.86
704.795	35698.64
705.14	35615.02
705.485	35481.24
705.83	35248.71
706.175	35238.08
706.52	35106.79
706.865	34939.79
707.209	34774.82
707.554	34437.43
707.899	34621.83
708.243	34319.69
708.588	34354.94
708.932	34043.31
709.277	33909.98
709.621	33910.89
709.966	33692.36
710.31	33801.29
710.654	33552.93
710.998	33616.21
711.342	33637.22
711.687	33572.82
712.031	33476.32
712.375	33425.7
712.719	33600.84
713.063	33517.9
713.407	33635.87
713.75	33419.6
714.094	33604.68
714.438	33430.22
714.782	33554.29
715.125	33484.23
715.469	33478.13
715.812	33365.37
716.156	33271.13
716.499	33255.99
716.843	33254.41
717.186	33070.46
717.53	33218.25
717.873	33193.84
718.216	33041.31
718.559	32864.36
718.902	32622.33
719.246	32429.35
719.589	32394.77
719.932	32338.5
720.275	32159.97
720.617	32094.44
720.96	31940.32
721.303	31877.95
721.646	31851.28
721.989	31556.6
722.331	31715.69
722.674	31549.14
723.016	31526.32
723.359	31432.31
723.701	31500.78
724.044	31211.98
724.386	31229.15
724.729	31308.02
725.071	31259.43
725.413	31201.81
725.755	31159.1
726.097	31255.59
726.439	31135.14
726.782	31157.51
727.124	31334.23
727.465	31249.72
727.807	31229.38
728.149	31126.55
728.491	31209.49
728.833	31340.56
729.175	31186.44
729.516	31132.66
729.858	31060.79
730.199	31116.61
730.541	31011.08
730.882	30917.52
731.224	30988.48
731.565	30703.51
731.906	30807.47
732.248	30685.44
732.589	30491.32
732.93	30256.07
733.271	30308.95
733.612	30247.48
733.953	30228.05
734.294	29996.64
734.635	29824.22
734.976	29947.38
735.317	29688.17
735.658	29791.45
735.999	29760.49
736.339	29567.95
736.68	29516.2
737.021	29503.77
737.361	29273.27
737.702	29516.65
738.042	29354.17
738.383	29358.69
738.723	29506.26
739.063	29331.35
739.404	29378.8
739.744	29455.19
740.084	29402.76
740.424	29463.55
740.764	29342.42
741.104	29577.67
741.444	29503.32
741.784	29375.87
742.124	29526.6
742.464	29346.94
742.804	29378.8
743.143	29348.07
743.483	29398.69
743.823	29208.19
744.162	29390.78
744.502	29377.22
744.841	29116.44
745.181	29245.7
745.52	29003.9
745.86	29022.43
746.199	28891.36
746.538	28837.8
746.877	28784.02
747.216	28744.02
747.556	28610.24
747.895	28559.39
748.234	28296.8
748.573	28226.07
748.911	28146.97
749.25	28151.49
749.589	27953.08
749.928	27851.39
750.267	27902.68
750.605	27819.75
750.944	27738.62
751.283	27566.87
751.621	27664.95
751.96	27454.79
752.298	27418.86
752.636	27470.83
752.975	27394
753.313	27407.1
753.651	27508.34
753.989	27169.6
754.327	27237.39
754.666	27251.18
755.004	27298.41
755.342	27431.06
755.679	27313.77
756.017	27139.54
756.355	27308.8
756.693	27249.59
757.031	27298.18
757.368	27165.75
757.706	27155.59
758.044	26991.75
758.381	27145.19
758.719	26821.81
759.056	26896.16
759.394	26810.96
759.731	26680.12
760.068	26697.74
760.405	26486.68
760.743	26356.74
