Data from red_shiny_book_FLMS001491_00060.txt Node
Date: Wed Feb 08 15:25:04 GMT 2017
User: dcchb
Spectrometer: FLMS00149
Trigger mode: 0
Integration Time (sec): 2.000000E-2
Scans to average: 10
Electric dark correction enabled: true
Nonlinearity correction enabled: false
Boxcar width: 0
XAxis mode: Wavelengths
Number of Pixels in Spectrum: 2048
>>>>>Begin Spectral Data<<<<<
341.393	-11.14
341.776	-11.14
342.16	-11.14
342.543	-33.52
342.927	-59.96
343.31	-69
343.693	-69.9
344.077	-73.29
344.46	-60.63
344.843	-69
345.226	-30.8
345.61	-22.89
345.993	-14.53
346.376	-19.05
346.759	1.74
347.142	36.09
347.525	34.05
347.908	68.4
348.291	89.64
348.674	99.81
349.057	99.36
349.44	123.09
349.823	146.37
350.206	177.55
350.588	215.29
350.971	215.74
351.354	249.64
351.737	259.36
352.119	265.01
352.502	272.69
352.884	304.78
353.267	273.82
353.65	320.37
354.032	299.36
354.414	316.53
354.797	332.12
355.179	322.41
355.562	324.89
355.944	333.25
356.326	352.69
356.709	345.91
357.091	351.78
357.473	358.11
357.855	353.82
358.238	354.27
358.62	362.41
359.002	369.19
359.384	357.66
359.766	354.04
360.148	361.28
360.53	340.26
360.912	328.51
361.294	334.16
361.676	358.11
362.057	368.06
362.439	359.69
362.821	353.14
363.203	341.16
363.584	329.86
363.966	339.58
364.348	344.55
364.729	333.48
365.111	327.83
365.493	337.55
365.874	328.51
366.256	347.72
366.637	333.71
367.019	358.11
367.4	342.07
367.781	335.06
368.163	344.55
368.544	333.71
368.925	326.93
369.306	342.75
369.688	334.84
370.069	321.95
370.45	316.08
370.831	330.09
371.212	335.74
371.593	324.21
371.974	338
372.355	316.31
372.736	371.67
373.117	363.31
373.498	362.86
373.879	322.41
374.26	339.81
374.641	321.73
375.021	346.36
375.402	355.85
375.783	348.17
376.163	356.53
376.544	348.85
376.925	346.36
377.305	370.99
377.686	350.2
378.066	348.17
378.447	351.11
378.827	385.91
379.208	358.56
379.588	353.59
379.968	352.91
380.349	368.06
380.729	335.29
381.109	347.04
381.489	376.87
381.87	385.46
382.25	379.13
382.63	373.25
383.01	346.13
383.39	385.46
383.77	395.63
384.15	378.9
384.53	405.57
384.91	397.43
385.29	396.76
385.67	407.6
386.049	391.33
386.429	402.63
386.809	396.76
387.189	386.36
387.568	383.2
387.948	391.56
388.328	420.26
388.707	380.94
389.087	420.48
389.466	412.57
389.846	415.51
390.225	409.41
390.605	408.96
390.984	412.12
391.363	409.41
391.743	400.37
392.122	422.29
392.501	420.48
392.881	438.11
393.26	441.05
393.639	443.99
394.018	439.47
394.397	410.09
394.776	424.33
395.155	418.9
395.534	418
395.913	444.21
396.292	434.95
396.671	427.49
397.05	450.54
397.429	450.99
397.808	444.21
398.186	474.27
398.565	467.04
398.944	450.09
399.323	440.82
399.701	476.75
400.08	460.03
400.458	462.97
400.837	499.58
401.215	467.04
401.594	462.52
401.972	457.32
402.351	461.84
402.729	476.98
403.107	488.73
403.486	480.59
403.864	485.57
404.242	488.5
404.62	517.2
404.999	493.02
405.377	483.53
405.755	479.69
406.133	495.74
406.511	495.96
406.889	501.39
407.267	505.68
407.645	527.37
408.023	544.77
408.401	533.25
408.779	554.49
409.156	534.83
409.534	526.7
409.912	536.86
410.29	532.12
410.667	552.01
411.045	525.11
411.422	578.22
411.8	546.58
412.178	583.42
412.555	599.01
412.933	586.58
413.31	584.09
413.687	593.81
414.065	607.82
414.442	592
414.819	617.99
415.197	605.11
415.574	640.36
415.951	626.58
416.328	664.77
416.705	643.08
417.082	669.74
417.46	645.79
417.837	659.12
418.214	634.94
418.591	644.43
418.967	642.17
419.344	660.25
419.721	694.6
420.098	695.05
420.475	707.71
420.852	716.75
421.228	707.03
421.605	700.25
421.982	682.17
422.358	713.58
422.735	716.07
423.111	706.13
423.488	734.37
423.864	733.02
424.241	746.58
424.617	754.71
424.994	773.69
425.37	768.5
425.746	757.88
426.123	762.62
426.499	747.03
426.875	751.55
427.251	771.21
427.627	775.5
428.003	792.68
428.379	829.74
428.756	827.93
429.132	827.03
429.507	829.51
429.883	848.04
430.259	851.66
430.635	837.65
431.011	829.29
431.387	826.12
431.763	888.04
432.138	877.42
432.514	904.09
432.89	902.05
433.265	934.59
433.641	923.97
434.016	956.29
434.392	952.45
434.767	933.01
435.143	920.13
435.518	938.66
435.894	909.74
436.269	960.36
436.644	966.01
437.02	985.21
437.395	1004.65
437.77	1020.69
438.145	1015.72
438.52	1047.81
438.895	1055.72
439.271	1045.55
439.646	1036.06
440.021	1008.49
440.395	990.41
440.77	1023.41
441.145	1044.42
441.52	1075.83
441.895	1091.43
442.27	1106.79
442.645	1084.42
443.019	1110.86
443.394	1095.49
443.769	1103.86
444.143	1055.49
444.518	1063.86
444.892	1075.38
445.267	1092.78
445.641	1105.44
446.016	1112.67
446.39	1159.9
446.764	1172.1
447.139	1187.47
447.513	1184.98
447.887	1169.16
448.262	1195.6
448.636	1162.84
449.01	1142.5
449.384	1131.88
449.758	1148.83
450.132	1149.5
450.506	1173.23
450.88	1203.51
451.254	1198.09
451.628	1269.95
452.002	1274.92
452.376	1257.07
452.75	1264.98
453.123	1266.79
453.497	1259.78
453.871	1255.94
454.244	1223.63
454.618	1245.77
454.992	1252.1
455.365	1275.6
455.739	1316.73
456.112	1334.36
456.486	1376.16
456.859	1408.71
457.232	1413.23
457.606	1414.58
457.979	1390.63
458.352	1416.16
458.725	1350.63
459.099	1358.09
459.472	1370.06
459.845	1356.73
460.218	1407.35
460.591	1426.56
460.964	1437.63
461.337	1480.57
461.71	1524.86
462.083	1579.55
462.456	1558.98
462.829	1550.17
463.201	1555.82
463.574	1502.26
463.947	1467.46
464.32	1502.71
464.692	1482.6
465.065	1485.31
465.438	1540.91
465.81	1593.11
466.183	1629.27
466.555	1701.81
466.928	1706.33
467.3	1713.78
467.672	1749.49
468.045	1750.62
468.417	1744.06
468.789	1737.74
469.161	1696.61
469.534	1656.38
469.906	1726.21
470.278	1704.74
470.65	1761.46
471.022	1771.63
471.394	1810.73
471.766	1898.86
472.138	1979.09
472.51	2024.51
472.882	2061.12
473.253	2010.05
473.625	2061.57
473.997	2014.57
474.369	1991.97
474.74	1976.83
475.112	1963.49
475.484	1968.69
475.855	2035.36
476.227	2089.82
476.598	2155.8
476.97	2226.31
477.341	2314.22
477.713	2394.89
478.084	2396.02
478.455	2427.44
478.827	2446.64
479.198	2446.19
479.569	2378.85
479.94	2407.55
480.311	2445.51
480.682	2423.82
481.053	2444.16
481.424	2495.01
481.795	2551.27
482.166	2666.98
482.537	2791.72
482.908	2863.36
483.279	2899.29
483.65	2975.44
484.021	3046.4
484.391	3053.18
484.762	3021.32
485.133	2976.8
485.503	2932.51
485.874	2924.15
486.244	2968.66
486.615	2929.8
486.985	3034.65
487.356	3128.89
487.726	3250.69
488.097	3328.43
488.467	3441.42
488.837	3526.39
489.207	3686.61
489.578	3651.13
489.948	3708.76
490.318	3698.82
490.688	3655.2
491.058	3606.84
491.428	3572.72
491.798	3564.36
492.168	3548.31
492.538	3596.44
492.908	3713.5
493.278	3740.4
493.648	3809.09
494.017	4014.74
494.387	4123.21
494.757	4216.32
495.126	4286.14
495.496	4347.61
495.866	4333.83
496.235	4312.13
496.605	4279.36
496.974	4202.3
497.344	4150.55
497.713	4097.45
498.082	4018.13
498.452	4083.89
498.821	4101.06
499.19	4204.79
499.559	4363.66
499.928	4446.82
500.298	4582.18
500.667	4719.58
501.036	4769.97
501.405	4850.42
501.774	4763.42
502.143	4791.44
502.512	4717.55
502.88	4656.53
503.249	4535.18
503.618	4494.5
503.987	4434.62
504.356	4402.3
504.724	4443.65
505.093	4500.15
505.462	4570.43
505.83	4696.08
506.199	4870.08
506.567	5026.01
506.936	5093.13
507.304	5186.23
507.672	5270.3
508.041	5224.65
508.409	5206.12
508.777	5094.71
509.145	5012.68
509.514	4907.14
509.882	4809.29
510.25	4769.75
510.618	4747.83
510.986	4747.15
511.354	4886.58
511.722	4998.44
512.09	5092.22
512.458	5236.4
512.826	5350.52
513.193	5439.79
513.561	5573.12
513.929	5660.12
514.297	5660.12
514.664	5620.57
515.032	5508.26
515.4	5372.22
515.767	5275.04
516.135	5212.45
516.502	5054.26
516.869	5075.73
517.237	5108.04
517.604	5080.25
517.972	5218.55
518.339	5316.63
518.706	5546.22
519.073	5660.57
519.44	5826.44
519.808	5994.12
520.175	5984.63
520.542	6072.54
520.909	6022.82
521.276	5983.5
521.643	5908.93
522.009	5798.2
522.376	5709.84
522.743	5587.13
523.11	5545.55
523.477	5473.68
523.843	5538.99
524.21	5569.73
524.577	5670.06
524.943	5828.02
525.31	6018.3
525.676	6249.48
526.043	6428.23
526.409	6622.35
526.776	6708
527.142	6735.12
527.508	6764.95
527.874	6718.85
528.241	6657.83
528.607	6514.33
528.973	6437.95
529.339	6293.32
529.705	6240.67
530.071	6214.46
530.437	6118.41
530.803	6204.96
531.169	6271.85
531.535	6391.85
531.901	6597.5
532.267	6784.16
532.632	7006.07
532.998	7194.09
533.364	7327.42
533.73	7445.16
534.095	7594.76
534.461	7553.4
534.826	7623.91
535.192	7450.58
535.557	7347.31
535.923	7171.72
536.288	7048.33
536.653	6921.1
537.019	6790.94
537.384	6777.83
537.749	6845.63
538.114	6947.32
538.479	7042.46
538.845	7214.65
539.21	7414.88
539.575	7679.28
539.94	7895.09
540.305	8138.25
540.67	8241.52
541.034	8332.37
541.399	8321.07
541.764	8331.69
542.129	8291.91
542.494	8152.94
542.858	7994.07
543.223	7800.4
543.587	7707.75
543.952	7532.61
544.316	7409.9
544.681	7409.9
545.045	7505.95
545.41	7596.79
545.774	7800.85
546.138	7963.11
546.503	8223.67
546.867	8415.3
547.231	8612.36
547.595	8781.17
547.959	8935.06
548.324	9061.16
548.688	8992.24
549.052	9003.76
549.416	8922.41
549.779	8789.98
550.143	8578.91
550.507	8428.63
550.871	8254.63
551.235	8051.02
551.599	8010.11
551.962	7847.86
552.326	7882.66
552.689	8003.79
553.053	8156.55
553.417	8301.86
553.78	8595.41
554.143	8735.29
554.507	9043.76
554.87	9202.17
555.234	9352.23
555.597	9412.34
555.96	9442.84
556.323	9490.3
556.686	9344.32
557.05	9273.36
557.413	9247.6
557.776	8928.73
558.139	8775.29
558.502	8653.49
558.865	8480.84
559.228	8376.66
559.59	8324.23
559.953	8371.23
560.316	8520.61
560.679	8672.24
561.041	8787.95
561.404	9114.04
561.767	9328.5
562.129	9551.99
562.492	9814.13
562.854	9988.14
563.217	10095.03
563.579	10106.1
563.941	10155.37
564.304	10130.96
564.666	10091.19
565.028	9831.08
565.39	9760.58
565.753	9548.83
566.115	9355.16
566.477	9232
566.839	9082.18
567.201	9062.74
567.563	8997.43
567.925	9139.35
568.287	9207.6
568.648	9331.66
569.01	9624.54
569.372	9844.64
569.734	10099.1
570.095	10358.3
570.457	10577.28
570.819	10747.44
571.18	10857.27
571.542	11010.71
571.903	11011.17
572.265	11040.77
572.626	10868.8
572.987	10774.11
573.349	10592.87
573.71	10469.26
574.071	10245.99
574.432	10053.22
574.794	10058.65
575.155	9927.8
575.516	9921.93
575.877	10033.79
576.238	10213.67
576.599	10394.46
576.96	10758.29
577.32	10959.42
577.681	11370.93
578.042	11714.65
578.403	11993.74
578.763	12308.53
579.124	12686.6
579.485	12888.63
579.845	13117.55
580.206	13087.49
580.566	13205.01
580.927	13178.57
581.287	13204.55
581.648	13080.26
582.008	13187.15
582.368	13213.59
582.728	13254.5
583.089	13276.87
583.449	13483.64
583.809	13712.56
584.169	14075.27
584.529	14425.99
584.889	14950.04
585.249	15449.47
585.609	16075.21
585.969	16757.45
586.329	17408.06
586.688	18104.99
587.048	18677.63
587.408	19298.41
587.768	19894.55
588.127	20377.25
588.487	20743.79
588.846	21309.2
589.206	21456.09
589.565	21787.83
589.925	22106.01
590.284	22389.85
590.643	22592.56
591.003	22955.94
591.362	23283.16
591.721	23647.44
592.08	24008.56
592.44	24726.06
592.799	25182.54
593.158	25804.22
593.517	26507.71
593.876	27198.31
594.235	28091.62
594.593	28808.66
594.952	29603.9
595.311	30173.83
595.67	31134.7
596.029	32062.14
596.387	32497.15
596.746	33142.56
597.104	33722.88
597.463	34055.08
597.822	34643.54
598.18	34854.15
598.538	35069.97
598.897	35627.69
599.255	35499.33
599.613	36306.77
599.972	36305.42
600.33	36739.98
600.688	37012.97
601.046	37461.09
601.404	38106.5
601.762	38461.29
602.12	39285.22
602.478	39763.4
602.836	40418.98
603.194	40905.07
603.552	41629.34
603.91	42008.32
604.268	42779.6
604.625	43404.66
604.983	43779.8
605.341	44093.23
605.698	44815.47
606.056	45179.31
606.413	45429.02
606.771	45720.54
607.128	45942.9
607.485	45724.6
607.843	45970.47
608.2	46230.58
608.557	46389.44
608.914	46242.33
609.272	46665.6
609.629	46732.49
609.986	47231.68
610.343	47124.57
610.7	47743.08
611.057	47936.3
611.414	48122.73
611.771	48626.22
612.127	48969.72
612.484	49287.67
612.841	49666.65
613.198	49846.08
613.554	50223.02
613.911	50668.65
614.267	50832.72
614.624	50970.11
614.98	51182.54
615.337	51452.14
615.693	51494.17
616.05	51430.22
616.406	51641.96
616.762	51414.4
617.118	51524.22
617.475	51452.59
617.831	51501.85
618.187	51360.16
618.543	51400.16
618.899	51582.75
619.255	51495.75
619.611	51564.22
619.967	51755.18
620.323	51908.85
620.678	51900.94
621.034	52055.51
621.39	52081.05
621.746	52373.69
622.101	52937.29
622.457	52794.47
622.812	53095.93
623.168	53282.82
623.523	53317.17
623.879	53500.44
624.234	53419.99
624.589	53581.12
624.945	53593.55
625.3	53607.56
625.655	53566.2
626.01	53504.06
626.365	53546.54
626.72	53326.44
627.075	53243.28
627.43	53117.63
627.785	53016.16
628.14	53057.52
628.495	53048.03
628.85	52993.11
629.205	52847.35
629.559	53062.94
629.914	52954.92
630.269	53094.8
630.623	53118.53
630.978	53250.28
631.332	53378.19
631.687	53449.82
632.041	53544.06
632.396	53726.88
632.75	53669.48
633.104	53904.05
633.459	53884.16
633.813	53980.88
634.167	53903.14
634.521	53921.9
634.875	53971.39
635.229	53898.63
635.583	53582.48
635.937	53731.85
636.291	53476.49
636.645	53410.5
636.999	53195.82
637.352	53203.05
637.706	52893.68
638.06	53031.98
638.413	52705.44
638.767	52595.38
639.121	52644.42
639.474	52501.15
639.828	52466.35
640.181	52680.8
640.534	52679.22
640.888	52697.98
641.241	52704.08
641.594	52868.6
641.947	53100
642.301	53045.09
642.654	53293.44
643.007	53313.33
643.36	53376.15
643.713	53390.62
644.066	53562.81
644.419	53384.97
644.771	53219.32
645.124	52860.01
645.477	52680.35
645.83	52489.17
646.182	52249.85
646.535	52082.63
646.888	52107.26
647.24	51775.29
647.593	51746.59
647.945	51690.55
648.298	51308.86
648.65	51282.87
649.002	51009.89
649.355	51152.48
649.707	51055.54
650.059	51138.7
650.411	51529.42
650.763	51721.51
651.115	52126.24
651.467	52055.06
651.819	52256.63
652.171	52236.97
652.523	52230.42
652.875	52269.74
653.227	52266.13
653.578	52646.45
653.93	52595.16
654.282	52564.65
654.633	52537.76
654.985	52528.27
655.337	52569.17
655.688	52590.19
656.039	52702.27
656.391	52273.81
656.742	52209.63
657.094	52080.37
657.445	52106.13
657.796	51837.66
658.147	51730.09
658.498	51548.18
658.849	51660.94
659.2	51451.23
659.551	51302.08
659.902	51351.35
660.253	51323.78
660.604	51415.98
660.955	51254.4
661.306	51416.2
661.656	51418.69
662.007	51594.28
662.358	51623.66
662.708	51649.19
663.059	51812.35
663.409	51734.16
663.76	52073.59
664.11	52145.68
664.461	52239.91
664.811	52208.73
665.161	52303.64
665.511	52173.47
665.862	52203.75
666.212	52331.43
666.562	52213.7
666.912	52100.25
667.262	51976.19
667.612	51841.28
667.962	51688.97
668.312	51483.77
668.662	51520.61
669.011	51336.21
669.361	51173.73
669.711	51094.18
670.06	50979.38
670.41	50882.66
670.76	50816.9
671.109	50801.98
671.459	50777.35
671.808	50652.83
672.157	50992.49
672.507	50611.03
672.856	50744.58
673.205	50968.08
673.554	51126.72
673.904	51053.28
674.253	51385.24
674.602	51244.23
674.951	50964.92
675.3	50953.62
675.649	51470.67
675.998	51480.38
676.346	51625.01
676.695	51696.42
677.044	51425.02
677.393	51525.58
677.741	51563.09
678.09	51245.59
678.438	51251.24
678.787	51156.78
679.135	51004.24
679.484	50663.46
679.832	50682.21
680.181	50378.72
680.529	50378.27
680.877	50158.16
681.225	50086.75
681.573	50158.16
681.922	49885.17
682.27	49788
682.618	49760.65
682.966	49699.87
683.314	49775.8
683.661	49703.26
684.009	49713.2
684.357	49662.58
684.705	49703.71
685.053	49849.01
685.4	49924.04
685.748	49813.31
686.095	49920.88
686.443	50024.38
686.79	49905.96
687.138	50140.31
687.485	50163.13
687.832	50049.69
688.18	50178.95
688.527	49997.48
688.874	49965.17
689.221	49799.75
689.568	49706.19
689.915	49562.47
690.262	49362.93
690.609	49207.68
690.956	49151.18
691.303	48842.49
691.65	48550.29
691.997	48409.73
692.344	48094.03
692.69	47954.15
693.037	47945.11
693.383	47376.54
693.73	47510.54
694.077	47200.5
694.423	47230.78
694.769	47128.41
695.116	47065.36
695.462	47048.64
695.808	47033.49
696.155	47079.14
696.501	46945.14
696.847	47044.57
697.193	46923.22
697.539	47116.43
697.885	46893.39
698.231	46984.46
698.577	47107.39
698.923	47126.15
699.269	47027.17
699.614	46952.14
699.96	47014.29
700.306	46934.74
700.651	46715.54
700.997	46523.23
701.342	46639.83
701.688	46448.65
702.033	46302.67
702.379	46091.6
702.724	45854.99
703.069	45768.67
703.415	45266.99
703.76	45069.25
704.105	45078.07
704.45	44805.3
704.795	44558.76
705.14	44246.45
705.485	44106.57
705.83	43791.55
706.175	43882.62
706.52	43678.33
706.865	43462.06
707.209	43537.09
707.554	43444.44
707.899	43594.04
708.243	43427.26
708.588	43414.61
708.932	43335.06
709.277	43382.07
709.621	43598.78
709.966	43341.61
710.31	43585
710.654	43375.29
710.998	43614.38
711.342	43653.24
711.687	43454.61
712.031	43449.41
712.375	43378
712.719	43577.09
713.063	43391.33
713.407	43375.74
713.75	43218.68
714.094	43202.64
714.438	43010.78
714.782	42900.72
715.125	42618.7
715.469	42485.14
715.812	42121.31
716.156	41889
716.499	41779.17
716.843	41810.81
717.186	41534.88
717.53	41319.75
717.873	41282.01
718.216	41108.68
718.559	40788.24
718.902	40636.15
719.246	40628.24
719.589	40545.3
719.932	40337.4
720.275	40494.68
720.617	40403.16
720.96	40433.22
721.303	40380.34
721.646	40564.06
721.989	40483.16
722.331	40737.16
722.674	40706.2
723.016	40803.38
723.359	40756.15
723.701	40680.67
724.044	40797.5
724.386	40657.39
724.729	40863.26
725.071	40800.89
725.413	40883.37
725.755	40776.71
726.097	40544.4
726.439	40390.28
726.782	40416.04
727.124	40498.98
727.465	40179.21
727.807	39983.28
728.149	39709.85
728.491	39697.42
728.833	39554.14
729.175	39397.76
729.516	39018.79
729.858	39022.41
730.199	38791
730.541	38664
730.882	38596.43
731.224	38601.17
731.565	38281.86
731.906	38304.23
732.248	38207.74
732.589	38106.27
732.93	37938.82
733.271	38009.55
733.612	38068.31
733.953	38074.41
734.294	38065.37
734.635	38021.75
734.976	38253.84
735.317	38168.19
735.658	38223.11
735.999	38192.82
736.339	38263.1
736.68	38524.34
737.021	38461.52
737.361	38250
737.702	38633.26
738.042	38531.8
738.383	38555.98
738.723	38619.48
739.063	38383.33
739.404	38482.31
739.744	38210.22
740.084	38202.99
740.424	38290.67
740.764	38041.64
741.104	38160.73
741.444	37717.36
741.784	37478.49
742.124	37582.67
742.464	37427.19
742.804	37104.26
743.143	36916.7
743.483	36924.16
743.823	36591.06
744.162	36627.44
744.502	36434
744.841	36290.05
745.181	36398.97
745.52	36130.28
745.86	36109.71
746.199	36028.13
746.538	35996.95
746.877	36039.21
747.216	36010.06
747.556	35979.1
747.895	36030.62
748.234	35963.73
748.573	35910.62
748.911	35972.54
749.25	36133.67
749.589	36126.89
749.928	36207.79
750.267	36261.12
750.605	36269.94
750.944	36168.47
751.283	36194.46
751.621	36235.36
751.96	36201.24
752.298	36053.67
752.636	36172.76
752.975	35990.85
753.313	35805.99
753.651	35976.61
753.989	35790.17
754.327	35608.94
754.666	35518.54
755.004	35428.38
755.342	35404.65
755.679	35166.24
756.017	34775.74
756.355	34780.71
756.693	34540.49
757.031	34514.95
757.368	34226.6
757.706	34123.78
758.044	33773.28
758.381	33804.24
758.719	33532.83
759.056	33480.4
