Data from red_shiny_book_FLMS001491_00057.txt Node
Date: Wed Feb 08 15:25:03 GMT 2017
User: dcchb
Spectrometer: FLMS00149
Trigger mode: 0
Integration Time (sec): 2.000000E-2
Scans to average: 10
Electric dark correction enabled: true
Nonlinearity correction enabled: false
Boxcar width: 0
XAxis mode: Wavelengths
Number of Pixels in Spectrum: 2048
>>>>>Begin Spectral Data<<<<<
341.393	-10.64
341.776	-10.64
342.16	-10.64
342.543	-48.6
342.927	-42.72
343.31	-75.49
343.693	-55.38
344.077	-54.25
344.46	-60.8
344.843	-41.14
345.226	-26.23
345.61	-50.41
345.993	-16.51
346.376	-4.99
346.759	8.57
347.142	23.04
347.525	37.27
347.908	43.6
348.291	79.53
348.674	81.34
349.057	111.85
349.44	145.52
349.823	135.58
350.206	174.67
350.588	212.41
350.971	219.64
351.354	202.01
351.737	248.57
352.119	286.98
352.502	284.5
352.884	293.54
353.267	321.56
353.65	305.06
354.032	308.68
354.414	336.02
354.797	341.67
355.179	334.21
355.562	343.71
355.944	350.03
356.326	346.87
356.709	367.43
357.091	368.11
357.473	347.55
357.855	380.99
358.238	368.34
358.62	366.53
359.002	385.06
359.384	366.53
359.766	373.08
360.148	361.11
360.53	354.33
360.912	372.63
361.294	356.81
361.676	350.03
362.057	345.97
362.439	358.17
362.821	352.97
363.203	355.68
363.584	356.36
363.966	335.8
364.348	327.43
364.729	324.5
365.111	334.21
365.493	329.47
365.874	319.3
366.256	354.78
366.637	348.23
367.019	331.28
367.4	342.12
367.781	331.28
368.163	345.06
368.544	325.85
368.925	343.03
369.306	345.74
369.688	335.57
370.069	328.79
370.45	333.08
370.831	315.46
371.212	345.06
371.593	341.9
371.974	335.34
372.355	337.6
372.736	344.61
373.117	351.39
373.498	337.83
373.879	341.9
374.26	349.58
374.641	340.99
375.021	331.5
375.402	352.74
375.783	357.49
376.163	364.5
376.544	358.17
376.925	362.46
377.305	330.37
377.686	372.63
378.066	343.71
378.447	348.68
378.827	371.95
379.208	379.86
379.588	365.17
379.968	369.92
380.349	352.52
380.729	380.31
381.109	353.42
381.489	378.06
381.87	363.59
382.25	366.53
382.63	370.6
383.01	376.47
383.39	378.28
383.77	408.56
384.15	387.55
384.53	371.95
384.91	363.37
385.29	381.44
385.67	367.66
386.049	377.83
386.429	392.07
386.809	388.45
387.189	384.38
387.568	386.87
387.948	392.52
388.328	395.23
388.707	399.3
389.087	397.49
389.466	421.44
389.846	415.12
390.225	414.89
390.605	408.56
390.984	413.76
391.363	413.31
391.743	442.01
392.122	406.3
392.501	430.48
392.881	434.32
393.26	436.58
393.639	422.35
394.018	411.05
394.397	451.95
394.776	435.45
395.155	423.93
395.534	440.88
395.913	449.01
396.292	451.5
396.671	454.21
397.05	461.22
397.429	472.74
397.808	442.91
398.186	480.88
398.565	432.74
398.944	456.25
399.323	452.86
399.701	457.15
400.08	462.8
400.458	486.07
400.837	464.15
401.215	460.54
401.594	466.87
401.972	453.76
402.351	452.63
402.729	483.59
403.107	478.17
403.486	491.05
403.864	501.44
404.242	463.7
404.62	489.01
404.999	481.1
405.377	530.59
405.755	503.93
406.133	494.44
406.511	494.66
406.889	505.51
407.267	519.07
407.645	507.09
408.023	528.33
408.401	522.68
408.779	541.21
409.156	529.46
409.534	539.18
409.912	522.23
410.29	519.29
410.667	546.19
411.045	550.03
411.422	566.3
411.8	602.46
412.178	592.74
412.555	614.21
412.933	597.26
413.31	597.03
413.687	583.02
414.065	595.68
414.442	622.57
414.819	595.9
415.197	607.2
415.574	619.4
415.951	637.94
416.328	659.63
416.705	663.47
417.082	650.14
417.46	677.26
417.837	647.88
418.214	639.07
418.591	646.52
418.967	655.56
419.344	654.21
419.721	691.95
420.098	692.17
420.475	728.78
420.852	700.08
421.228	706.63
421.605	707.54
421.982	699.18
422.358	698.05
422.735	710.7
423.111	735.56
423.488	738.27
423.864	741.21
424.241	766.52
424.617	750.7
424.994	797.93
425.37	773.3
425.746	757.48
426.123	774.88
426.499	766.29
426.875	766.97
427.251	755.67
427.627	788.44
428.003	792.96
428.379	801.32
428.756	840.64
429.132	833.41
429.507	854.65
429.883	853.3
430.259	842.9
430.635	827.53
431.011	813.52
431.387	849.46
431.763	862.79
432.138	869.34
432.514	900.53
432.89	927.65
433.265	957.47
433.641	937.36
434.016	947.31
434.392	920.19
434.767	951.15
435.143	935.1
435.518	919.51
435.894	921.54
436.269	950.24
436.644	1002.45
437.02	986.4
437.395	986.4
437.77	1035.44
438.145	1062.56
438.52	1028.21
438.895	1045.83
439.271	1020.07
439.646	1037.47
440.021	993.41
440.395	1021.65
440.77	1003.35
441.145	1032.95
441.52	1062.1
441.895	1073.63
442.27	1122.89
442.645	1125.15
443.019	1122.89
443.394	1107.3
443.769	1090.8
444.143	1087.64
444.518	1098.49
444.892	1080.41
445.267	1091.71
445.641	1119.96
446.016	1112.72
446.39	1152.72
446.764	1182.55
447.139	1203.57
447.513	1219.39
447.887	1194.76
448.262	1186.4
448.636	1146.85
449.01	1125.61
449.384	1120.18
449.758	1131.03
450.132	1168.99
450.506	1170.58
450.88	1210.58
451.254	1236.56
451.628	1271.14
452.002	1277.69
452.376	1268.65
452.75	1261.65
453.123	1256.9
453.497	1232.5
453.871	1243.12
454.244	1249.44
454.618	1224.81
454.992	1248.09
455.365	1260.07
455.739	1310.46
456.112	1353.17
456.486	1373.96
456.859	1421.19
457.232	1408.76
457.606	1408.08
457.979	1398.82
458.352	1383.45
458.725	1354.75
459.099	1344.13
459.472	1361.53
459.845	1359.27
460.218	1388.2
460.591	1391.14
460.964	1451.25
461.337	1476.11
461.71	1550.68
462.083	1555.65
462.456	1571.24
462.829	1528.53
463.201	1518.59
463.574	1511.58
463.947	1498.03
464.32	1536.89
464.692	1497.35
465.065	1505.03
465.438	1528.99
465.81	1566.72
466.183	1622.32
466.555	1694.4
466.928	1718.36
467.3	1757.68
467.672	1739.83
468.045	1773.05
468.417	1744.35
468.789	1712.26
469.161	1666.61
469.534	1666.61
469.906	1700.73
470.278	1693.95
470.65	1750.22
471.022	1792.48
471.394	1874.29
471.766	1896.43
472.138	1954.06
472.51	2004.68
472.882	2061.63
473.253	2049.42
473.625	2006.94
473.997	2044.9
474.369	1999.26
474.74	2001.74
475.112	1974.4
475.484	1989.31
475.855	2045.81
476.227	2059.14
476.598	2153.38
476.97	2229.98
477.341	2341.85
477.713	2380.94
478.084	2425.46
478.455	2442.63
478.827	2459.58
479.198	2475.85
479.569	2443.31
479.94	2434.05
480.311	2378.45
480.682	2428.17
481.053	2467.04
481.424	2493.93
481.795	2572.57
482.166	2689.18
482.537	2752.46
482.908	2873.81
483.279	2890.76
483.65	3002.39
484.021	3056.85
484.391	3049.17
484.762	3044.88
485.133	2991.32
485.503	2951.55
485.874	2914.49
486.244	2912.68
486.615	2986.12
486.985	3033.13
487.356	3124.2
487.726	3198.32
488.097	3355.6
488.467	3442.38
488.837	3565.32
489.207	3617.52
489.578	3687.8
489.948	3716.72
490.318	3685.99
490.688	3658.65
491.058	3630.4
491.428	3597.18
491.798	3498.2
492.168	3603.96
492.538	3577.97
492.908	3653.68
493.278	3772.09
493.648	3877.4
494.017	4056.6
494.387	4099.31
494.757	4208.46
495.126	4285.75
495.496	4284.17
495.866	4304.28
496.235	4349.02
496.605	4243.49
496.974	4181.57
497.344	4157.84
497.713	4073.55
498.082	4078.52
498.452	4106.32
498.821	4168.69
499.19	4220.89
499.559	4376.14
499.928	4502.01
500.298	4620.2
500.667	4722.35
501.036	4776.36
501.405	4811.61
501.774	4819.07
502.143	4789.24
502.512	4739.3
502.88	4665.4
503.249	4530.49
503.618	4464.95
503.987	4493.88
504.356	4436.03
504.724	4424.73
505.093	4457.5
505.462	4593.31
505.83	4749.69
506.199	4861.78
506.567	5010.02
506.936	5103.35
507.304	5244.59
507.672	5242.33
508.041	5275.55
508.409	5193.3
508.777	5104.03
509.145	5015.9
509.514	4930.7
509.882	4836.92
510.25	4727.77
510.618	4742.01
510.986	4749.24
511.354	4863.81
511.722	4973.87
512.09	5118.72
512.458	5247.76
512.826	5374.31
513.193	5488.88
513.561	5601.19
513.929	5612.95
514.297	5658.82
514.664	5608.43
515.032	5543.57
515.4	5408.66
515.767	5371.14
516.135	5184.93
516.502	5089.8
516.869	5050.7
517.237	5078.5
517.604	5080.98
517.972	5225.61
518.339	5359.62
518.706	5506.96
519.073	5722.32
519.44	5838.02
519.808	5940.17
520.175	5984.24
520.542	6051.13
520.909	6032.37
521.276	5973.61
521.643	5915.31
522.009	5802.32
522.376	5729.55
522.743	5586.28
523.11	5547.18
523.477	5482.1
523.843	5493.63
524.21	5600.97
524.577	5707.18
524.943	5885.93
525.31	6035.76
525.676	6240.95
526.043	6412.02
526.409	6600.04
526.776	6720.49
527.142	6755.51
527.508	6752.12
527.874	6724.55
528.241	6633.26
528.607	6497.67
528.973	6391.23
529.339	6277.11
529.705	6179.94
530.071	6167.51
530.437	6124.57
530.803	6161.63
531.169	6256.77
531.535	6406.82
531.901	6619.47
532.267	6818.79
532.632	6999.12
532.998	7188.05
533.364	7347.59
533.73	7502.61
534.095	7554.59
534.461	7595.49
534.826	7586.68
535.192	7436.63
535.557	7349.62
535.923	7097.2
536.288	7011.55
536.653	6879.8
537.019	6874.16
537.384	6802.52
537.749	6781.28
538.114	6936.3
538.479	7007.03
538.845	7231.21
539.21	7493.8
539.575	7646.56
539.94	7884.07
540.305	8143.27
540.67	8246.77
541.034	8330.61
541.399	8356.83
541.764	8360.44
542.129	8350.95
542.494	8108.02
542.858	7997.06
543.223	7813.11
543.587	7611.09
543.952	7488.15
544.316	7438.66
544.681	7379
545.045	7497.87
545.41	7582.84
545.774	7756.62
546.138	7948.03
546.503	8141.92
546.867	8333.1
547.231	8666.2
547.595	8810.15
547.959	8984.83
548.324	9022.57
548.688	9027.55
549.052	8991.39
549.416	8909.81
549.779	8702.36
550.143	8568.35
550.507	8442.02
550.871	8283.61
551.235	8067.12
551.599	7974.24
551.962	7917.97
552.326	7906.44
552.689	8017.63
553.053	8140.11
553.417	8274.57
553.78	8583.49
554.143	8710.27
554.507	9026.19
554.87	9179.18
555.234	9417.14
555.597	9426.4
555.96	9434.77
556.323	9557.93
556.686	9436.57
557.05	9389.8
557.413	9125.4
557.776	8944.61
558.139	8804.27
558.502	8600.44
558.865	8445.64
559.228	8484.73
559.59	8402.93
559.953	8364.96
560.316	8534.22
560.679	8624.39
561.041	8883.59
561.404	9089.24
561.767	9324.94
562.129	9530.36
562.492	9867.3
562.854	9949.55
563.217	10038.14
563.579	10147.29
563.941	10178.48
564.304	10132.37
564.666	10117.01
565.028	9895.09
565.39	9791.82
565.753	9589.56
566.115	9403.35
566.477	9229.35
566.839	9044.72
567.201	9044.72
567.563	9014.89
567.925	9104.15
568.287	9176.47
568.648	9349.34
569.01	9581.88
569.372	9907.07
569.734	10071.59
570.095	10429.09
570.457	10613.72
570.819	10771.23
571.18	10928.74
571.542	11062.07
571.903	10987.04
572.265	11008.74
572.626	10909.08
572.987	10794.28
573.349	10625.92
573.71	10442.2
574.071	10275.42
574.432	10032.49
574.794	10028.42
575.155	9959.72
575.516	9958.82
575.877	9975.54
576.238	10197.01
576.599	10401.97
576.96	10685.81
577.32	11000.15
577.681	11343.87
578.042	11749.06
578.403	12098.88
578.763	12330.96
579.124	12747
579.485	12915.8
579.845	13071.05
580.206	13099.3
580.566	13167.78
580.927	13216.59
581.287	13248.45
581.648	13154.89
582.008	13143.14
582.368	13154.89
582.728	13205.74
583.089	13303.36
583.449	13481.21
583.809	13718.95
584.169	14087.75
584.529	14426.5
584.889	15134.73
585.249	15447.72
585.609	15979.68
585.969	16747.34
586.329	17369.47
586.688	17985.5
587.048	18679.27
587.408	19296.88
587.768	19862.29
588.127	20307.02
588.487	20693.91
588.846	21325.07
589.206	21368.92
589.565	21765.97
589.925	22013.64
590.284	22249.34
590.643	22628.32
591.003	22984.47
591.362	23220.17
591.721	23727.05
592.08	24063.76
592.44	24644.08
592.799	25122.26
593.158	25730.83
593.517	26540.98
593.876	27340.28
594.235	28068.4
594.593	28833.58
594.952	29587.23
595.311	30333.88
595.67	31152.39
596.029	32049.54
596.387	32523.88
596.746	33299.68
597.104	33552.32
597.463	34132.87
597.822	34686.31
598.18	34800.88
598.538	35083.81
598.897	35648.77
599.255	35499.17
599.613	36266.15
599.972	36320.39
600.33	36728.74
600.688	36973.48
601.046	37490.3
601.404	38015.26
601.762	38428.13
602.12	39234.66
602.478	39930.01
602.836	40435.31
603.194	40899.02
603.552	41685.9
603.91	42025.1
604.268	42856.94
604.625	43267.1
604.983	43936.91
605.341	44199.95
605.698	44729.66
606.056	45203.09
606.413	45443.76
606.771	45570.54
607.128	46028.15
607.485	45764.21
607.843	45983.41
608.2	46238.09
608.557	46459.33
608.914	46347.47
609.272	46575.26
609.629	46921.46
609.986	47174.11
610.343	47052.08
610.7	47714.44
611.057	47885.05
611.414	48071.49
611.771	48521.87
612.127	48939.26
612.484	49326.82
612.841	49785.34
613.198	49834.83
613.554	50145.11
613.911	50537.19
614.267	50843.85
614.624	50918.2
614.98	51211.52
615.337	51439.99
615.693	51477.28
616.05	51470.5
616.406	51610.38
616.762	51430.72
617.118	51423.27
617.475	51513.43
617.831	51488.35
618.187	51439.09
618.543	51414.45
618.899	51607.67
619.255	51554.56
619.611	51502.59
619.967	51689.25
620.323	51883.59
620.678	51892.63
621.034	52028.22
621.39	52275.9
621.746	52374.88
622.101	52875.66
622.457	52816.9
622.812	53064.81
623.168	53222.54
623.523	53362.2
623.879	53621.17
624.234	53346.83
624.589	53550.67
624.945	53705.01
625.3	53706.37
625.655	53605.58
626.01	53560.16
626.365	53560.16
626.72	53360.39
627.075	53319.49
627.43	53153.84
627.785	53007.63
628.14	53008.76
628.495	53036.33
628.85	52936
629.205	52831.59
629.559	53081.98
629.914	52894.41
630.269	53080.62
630.623	53087.18
630.978	53086.73
631.332	53449.65
631.687	53566.49
632.041	53530.33
632.396	53765.35
632.75	53708.63
633.104	53851
633.459	53838.8
633.813	53970.77
634.167	53882.64
634.521	53975.74
634.875	54003.31
635.229	53912.24
635.583	53707.73
635.937	53543.66
636.291	53552.48
636.645	53402.2
636.999	53285.36
637.352	53167.85
637.706	52853.74
638.06	52931.02
638.413	52790.24
638.767	52637.47
639.121	52661.88
639.474	52453.97
639.828	52545.27
640.181	52646.06
640.534	52803.34
640.888	52706.17
641.241	52736
641.594	52916.11
641.947	53105.03
642.301	53198.14
642.654	53256.44
643.007	53362.88
643.36	53306.15
643.713	53319.71
644.066	53601.29
644.419	53351.35
644.771	53173.05
645.124	52939.61
645.477	52751.37
645.83	52533.29
646.182	52303.92
646.535	52128.56
646.888	52073.87
647.24	51726.99
647.593	51945.74
647.945	51659.19
648.298	51393.89
648.65	51242.48
649.002	51012.43
649.355	51239.99
649.707	51049.27
650.059	51197.96
650.411	51593.21
650.763	51773.31
651.115	52152.29
651.467	52106.64
651.819	52217.6
652.171	52115.23
652.523	52200.87
652.875	52338.95
653.227	52198.61
653.578	52648.77
653.93	52693.52
654.282	52570.81
654.633	52474.31
654.985	52583.69
655.337	52613.97
655.688	52542.56
656.039	52636.79
656.391	52210.14
656.742	52215.11
657.094	52167.88
657.445	52176.47
657.796	51923.82
658.147	51750.72
658.498	51580.55
658.849	51674.33
659.2	51431.85
659.551	51251.97
659.902	51417.84
660.253	51186.21
660.604	51408.58
660.955	51143.27
661.306	51340.1
661.656	51409.03
662.007	51571.29
662.358	51628.46
662.708	51795.69
663.059	51758.4
663.409	51688.57
663.76	52011.5
664.11	52037.26
664.461	52258.27
664.811	52257.37
665.161	52265.05
665.511	52157.48
665.862	52243.13
666.212	52237.03
666.562	52214.66
666.912	52076.58
667.262	52017.15
667.612	51846.08
667.962	51704.62
668.312	51651.28
668.662	51645.41
669.011	51408.13
669.361	51219.43
669.711	51123.61
670.06	51002.49
670.41	50794.36
670.76	50710.52
671.109	50778.31
671.459	50748.26
671.808	50720.91
672.157	50779.44
672.507	50624.19
672.856	50774.7
673.205	50978.98
673.554	51069.15
673.904	51138.53
674.253	51513.43
674.602	51322.25
674.951	50948.93
675.3	50932.66
675.649	51652.87
675.998	51598.86
676.346	51538.97
676.695	51628.91
677.044	51414
677.393	51541.46
677.741	51494.9
678.09	51477.73
678.438	51176.04
678.787	51181.46
679.135	50971.3
679.484	50826.22
679.832	50769.05
680.181	50326.57
680.529	50417.19
680.877	50160.7
681.225	50113.24
681.573	50141.49
681.922	49823.99
682.27	49654.73
682.618	49785.57
682.966	49654.27
683.314	49748.96
683.661	49672.8
684.009	49570.43
684.357	49701.28
684.705	49702.63
685.053	49805.91
685.4	49879.13
685.748	49818.79
686.095	49941.05
686.443	49841.61
686.79	50012
687.138	50190.3
687.485	50190.08
687.832	50141.27
688.18	50160.93
688.527	50011.33
688.874	50039.8
689.221	49795.74
689.568	49640.26
689.915	49572.24
690.262	49442.53
690.609	49217.9
690.956	49062.42
691.303	48868.53
691.65	48536.79
691.997	48274.2
692.344	48042.11
692.69	47963.92
693.037	47879.18
693.383	47464.05
693.73	47673.31
694.077	47195.13
694.423	47247.78
694.769	47008.24
695.116	47027
695.462	47080.78
695.808	46949.71
696.155	47196.26
696.501	46964.4
696.847	47028.81
697.193	46905.87
697.539	47121.23
697.885	46985.64
698.231	46960.33
698.577	47118.75
698.923	47005.76
699.269	47055.02
699.614	46908.58
699.96	46933.67
700.306	46983.84
700.651	46735.48
700.997	46500.91
701.342	46511.31
701.688	46414.81
702.033	46160.35
702.379	46094.37
702.724	45838.33
703.069	45816.41
703.415	45101.4
703.76	45198.57
704.105	45116.31
704.45	44792.93
704.795	44390.01
705.14	44157.47
705.485	44143.68
705.83	43889.23
706.175	43849.91
706.52	43687.65
706.865	43508.22
707.209	43628.22
707.554	43353.2
707.899	43484.27
708.243	43233.2
708.588	43477.03
708.932	43251.5
709.277	43335.12
709.621	43543.93
709.966	43430.93
710.31	43763.58
710.654	43325.4
710.998	43530.59
711.342	43637.48
711.687	43552.74
712.031	43583.7
712.375	43377.38
712.719	43473.42
713.063	43331.5
713.407	43473.65
713.75	43185.97
714.094	43155.01
714.438	42891.97
714.782	42884.06
715.125	42494.69
715.469	42494.69
715.812	42168.37
716.156	41840.69
716.499	41719.57
716.843	41695.84
717.186	41343.08
717.53	41370.2
717.873	41346.24
718.216	41082.97
718.559	40885.46
718.902	40511.01
719.246	40560.28
719.589	40384.23
719.932	40391.01
720.275	40462.88
720.617	40294.97
720.96	40485.7
721.303	40552.14
721.646	40649.99
721.989	40525.47
722.331	40587.39
722.674	40777.22
723.016	40713.49
723.359	40723.66
723.701	40757.78
724.044	40670.55
724.386	40690.67
724.729	40867.61
725.071	40782.19
725.413	40693.83
725.755	40728.18
726.097	40730.89
726.439	40553.5
726.782	40395.08
727.124	40446.38
727.465	40139.72
727.807	39766.4
728.149	39840.97
728.491	39635.33
728.833	39584.26
729.175	39288.22
729.516	39175.45
729.858	38936.36
730.199	38939.3
730.541	38747.89
730.882	38619.31
731.224	38647.11
731.565	38258.41
731.906	38235.36
732.248	38230.85
732.589	37954.24
732.93	37848.48
733.271	37997.86
733.612	38072.88
733.953	38185.42
734.294	38025.2
734.635	37961.25
734.976	38218.42
735.317	38019.78
735.658	38221.13
735.999	38205.53
736.339	38281.47
736.68	38535.47
737.021	38436.26
737.361	38240.56
737.702	38568.46
738.042	38427.9
738.383	38476.04
738.723	38587.67
739.063	38483.49
739.404	38566.43
739.744	38375.02
740.084	38174.35
740.424	38113.33
740.764	38175.48
741.104	38088.7
741.444	37789.5
741.784	37454.14
742.124	37485.1
742.464	37384.31
742.804	37148.39
743.143	37022.74
743.483	36831.33
743.823	36658.91
744.162	36534.84
744.502	36454.39
744.841	36283.55
745.181	36502.08
745.52	36175.98
745.86	36084.01
746.199	36060.73
746.538	36074.97
746.877	36032.03
747.216	36060.28
747.556	35869.33
747.895	36127.17
748.234	35936.89
748.573	36003.33
748.911	35984.8
749.25	36034.29
749.589	36060.28
749.928	36146.15
750.267	36192.25
750.605	36190.67
750.944	36143.89
751.283	36113.39
751.621	36252.82
751.96	36128.3
752.298	36102.31
752.636	36155.19
752.975	36048.76
753.313	35998.36
753.651	35964.01
753.989	35658.03
754.327	35716.11
754.666	35440.41
755.004	35483.8
755.342	35325.38
755.679	35062.11
756.017	34895.57
756.355	34912.97
756.693	34561.56
757.031	34628.23
757.368	34212.87
757.706	34049.49
758.044	33932.88
758.381	33775.82
758.719	33623.73
759.056	33566.33
