Data from red_shiny_book_FLMS001491_00097.txt Node
Date: Wed Feb 08 15:25:38 GMT 2017
User: dcchb
Spectrometer: FLMS00149
Trigger mode: 0
Integration Time (sec): 2.000000E-2
Scans to average: 10
Electric dark correction enabled: true
Nonlinearity correction enabled: false
Boxcar width: 0
XAxis mode: Wavelengths
Number of Pixels in Spectrum: 2048
>>>>>Begin Spectral Data<<<<<
341.393	-32.95
341.776	-32.95
342.16	-32.95
342.543	-52.61
342.927	-70.46
343.31	-85.61
343.693	-58.71
344.077	-39.73
344.46	-49.9
344.843	-39.28
345.226	-69.56
345.61	-20.75
345.993	-35.66
346.376	6.82
346.759	4.34
347.142	-0.86
347.525	35.97
347.908	57.67
348.291	75.07
348.674	108.06
349.057	112.13
349.44	112.58
349.823	165.91
350.206	164.56
350.588	202.97
350.971	222.86
351.354	216.53
351.737	235.06
352.119	244.56
352.502	276.42
352.884	292.24
353.267	264.67
353.65	300.37
354.032	312.35
354.414	303.09
354.797	308.96
355.179	312.8
355.562	327.04
355.944	350.32
356.326	339.69
356.709	323.42
357.091	322.29
357.473	350.32
357.855	346.93
358.238	345.12
358.62	336.98
359.002	330.66
359.384	378.56
359.766	336.08
360.148	318.9
360.53	358.23
360.912	345.34
361.294	343.99
361.676	320.49
362.057	337.89
362.439	351.22
362.821	318.45
363.203	322.07
363.584	352.8
363.966	333.37
364.348	325.91
364.729	321.39
365.111	334.27
365.493	318.9
365.874	336.3
366.256	306.7
366.637	316.42
367.019	322.29
367.4	345.57
367.781	316.64
368.163	321.62
368.544	319.81
368.925	339.24
369.306	333.14
369.688	312.35
370.069	319.58
370.45	323.2
370.831	324.78
371.212	343.08
371.593	323.88
371.974	315.06
372.355	335.63
372.736	332.69
373.117	307.83
373.498	309.86
373.879	319.13
374.26	323.88
374.641	319.81
375.021	315.97
375.402	335.63
375.783	329.75
376.163	342.18
376.544	339.47
376.925	349.64
377.305	342.41
377.686	347.6
378.066	342.18
378.447	328.17
378.827	352.35
379.208	317.77
379.588	356.87
379.968	327.27
380.349	341.28
380.729	343.54
381.109	344.89
381.489	367.26
381.87	327.94
382.25	345.57
382.63	340.82
383.01	348.73
383.39	346.02
383.77	348.28
384.15	353.25
384.53	359.13
384.91	343.08
385.29	368.17
385.67	378.34
386.049	366.81
386.429	348.96
386.809	376.08
387.189	358.45
387.568	353.25
387.948	349.86
388.328	356.19
388.707	364.55
389.087	374.72
389.466	352.35
389.846	376.53
390.225	375.17
390.605	370.2
390.984	389.64
391.363	378.11
391.743	367.26
392.122	380.6
392.501	379.02
392.881	393.93
393.26	399.58
393.639	379.47
394.018	376.08
394.397	396.42
394.776	396.87
395.155	383.99
395.534	389.64
395.913	386.47
396.292	407.94
396.671	427.38
397.05	413.82
397.429	400.26
397.808	418.56
398.186	402.74
398.565	413.36
398.944	395.06
399.323	395.29
399.701	399.58
400.08	420.37
400.458	407.94
400.837	417.43
401.215	405.23
401.594	406.59
401.972	443.65
402.351	421.73
402.729	424.66
403.107	432.12
403.486	412.69
403.864	418.34
404.242	430.09
404.62	435.51
404.999	436.64
405.377	470.54
405.755	460.37
406.133	442.06
406.511	440.71
406.889	461.73
407.267	447.71
407.645	459.24
408.023	452.91
408.401	460.37
408.779	455.4
409.156	499.92
409.534	504.44
409.912	463.53
410.29	471.67
410.667	486.36
411.045	474.83
411.422	473.25
411.8	489.75
412.178	482.52
412.555	517.09
412.933	505.79
413.31	494.49
413.687	514.38
414.065	506.02
414.442	533.14
414.819	506.02
415.197	518.22
415.574	517.54
415.951	511.44
416.328	528.39
416.705	563.42
417.082	545.56
417.46	562.06
417.837	574.94
418.214	556.64
418.591	568.16
418.967	552.57
419.344	556.64
419.721	560.03
420.098	548.28
420.475	574.26
420.852	581.95
421.228	603.87
421.605	588.5
421.982	617.2
422.358	630.08
422.735	604.32
423.111	614.26
423.488	602.74
423.864	608.84
424.241	620.82
424.617	607.94
424.994	647.71
425.37	670.76
425.746	645.45
426.123	641.83
426.499	636.86
426.875	650.87
427.251	645.45
427.627	650.65
428.003	661.49
428.379	671.21
428.756	665.56
429.132	655.39
429.507	674.6
429.883	682.96
430.259	737.42
430.635	699.46
431.011	706.69
431.387	714.6
431.763	749.4
432.138	727.93
432.514	715.05
432.89	719.57
433.265	742.85
433.641	704.2
434.016	745.56
434.392	765.45
434.767	764.99
435.143	784.43
435.518	795.73
435.894	783.3
436.269	789.63
436.644	783.52
437.02	789.85
437.395	768.38
437.77	799.57
438.145	809.96
438.52	811.77
438.895	812.45
439.271	815.84
439.646	846.12
440.021	867.36
440.395	873.01
440.77	861.26
441.145	834.14
441.52	845.9
441.895	837.76
442.27	828.95
442.645	859.45
443.019	818.1
443.394	862.62
443.769	875.27
444.143	881.83
444.518	918.44
444.892	890.64
445.267	908.95
445.641	901.94
446.016	907.14
446.39	898.1
446.764	895.61
447.139	885.89
447.513	909.17
447.887	880.25
448.262	885.89
448.636	916.18
449.01	926.57
449.384	959.57
449.758	939
450.132	942.62
450.506	937.87
450.88	951.66
451.254	952.79
451.628	914.82
452.002	939
452.376	938.55
452.75	918.44
453.123	954.82
453.497	967.47
453.871	955.95
454.244	988.04
454.618	1015.83
454.992	1024.42
455.365	1021.26
455.739	1020.58
456.112	1041.6
456.486	1019
456.859	1008.83
457.232	1001.15
457.606	1019.45
457.979	1012.45
458.352	1037.76
458.725	1037.53
459.099	1080.01
459.472	1087.02
459.845	1118.43
460.218	1125.66
460.591	1119.56
460.964	1071.88
461.337	1120.24
461.71	1099.45
462.083	1118.88
462.456	1116.85
462.829	1075.49
463.201	1081.14
463.574	1111.43
463.947	1158.88
464.32	1176.28
464.692	1171.76
465.065	1203.4
465.438	1228.48
465.81	1242.72
466.183	1240.91
466.555	1248.15
466.928	1214.7
467.3	1216.73
467.672	1209.28
468.045	1223.29
468.417	1234.13
468.789	1200.69
469.161	1273.91
469.534	1278.43
469.906	1341.48
470.278	1331.76
470.65	1363.17
471.022	1376.96
471.394	1421.93
471.766	1407.69
472.138	1424.19
472.51	1396.16
472.882	1411.98
473.253	1408.37
473.625	1396.16
473.997	1394.58
474.369	1414.02
474.74	1435.94
475.112	1476.39
475.484	1520
475.855	1544.63
476.227	1586.67
476.598	1607.68
476.97	1629.6
477.341	1645.87
477.713	1666.21
478.084	1670.05
478.455	1676.61
478.827	1665.08
479.198	1656.04
479.569	1661.02
479.94	1678.19
480.311	1718.42
480.682	1744.4
481.053	1791.63
481.424	1852.42
481.795	1909.37
482.166	1953.89
482.537	2002.7
482.908	2012.87
483.279	2035.92
483.65	1996.83
484.021	2025.75
484.391	2038.18
484.762	2009.26
485.133	1992.98
485.503	2013.32
485.874	2086.77
486.244	2110.27
486.615	2124.51
486.985	2235.01
487.356	2283.6
487.726	2331.73
488.097	2392.97
488.467	2422.35
488.837	2481.33
489.207	2492.41
489.578	2479.07
489.948	2449.47
490.318	2439.07
490.688	2427.55
491.058	2442.24
491.428	2430.71
491.798	2429.13
492.168	2531.05
492.538	2550.26
492.908	2604.27
493.278	2686.98
493.648	2754.55
494.017	2790.03
494.387	2867.31
494.757	2881.55
495.126	2886.07
495.496	2898.5
495.866	2900.76
496.235	2857.37
496.605	2844.49
496.974	2806.52
497.344	2806.07
497.713	2782.79
498.082	2801.32
498.452	2905.05
498.821	2923.58
499.19	2983.24
499.559	3006.52
499.928	3083.35
500.298	3145.72
500.667	3193.63
501.036	3235.21
501.405	3211.03
501.774	3182.56
502.143	3188.89
502.512	3136.46
502.88	3077.25
503.249	3038.15
503.618	3060.07
503.987	3027.76
504.356	3039.96
504.724	3041.77
505.093	3102.33
505.462	3154.76
505.83	3266.4
506.199	3301.2
506.567	3398.15
506.936	3442.66
507.304	3434.08
507.672	3509.1
508.041	3458.93
508.409	3422.33
508.777	3402.21
509.145	3350.24
509.514	3296.68
509.882	3212.61
510.25	3200.41
510.618	3223.69
510.986	3250.8
511.354	3304.36
511.722	3291.93
512.09	3419.16
512.458	3452.38
512.826	3532.15
513.193	3611.47
513.561	3588.42
513.929	3643.56
514.297	3674.3
514.664	3667.29
515.032	3605.15
515.4	3626.39
515.767	3514.07
516.135	3475.43
516.502	3394.53
516.869	3427.75
517.237	3414.19
517.604	3369.67
517.972	3448.99
518.339	3527.63
518.706	3569.21
519.073	3691.7
519.44	3734.41
519.808	3790.45
520.175	3809.66
520.542	3848.53
520.909	3895.53
521.276	3895.53
521.643	3851.01
522.009	3848.98
522.376	3828.87
522.743	3737.8
523.11	3665.26
523.477	3665.71
523.843	3600.63
524.21	3672.94
524.577	3705.48
524.943	3747.97
525.31	3783.9
525.676	3874.97
526.043	3967.62
526.409	4028.19
526.776	4179.82
527.142	4199.03
527.508	4267.05
527.874	4301.4
528.241	4317.44
528.607	4281.96
528.973	4290.55
529.339	4195.86
529.705	4160.38
530.071	4130.33
530.437	4087.62
530.803	4010.78
531.169	4048.3
531.535	4020.95
531.901	4119.71
532.267	4217.56
532.632	4312.47
532.998	4379.36
533.364	4504.78
533.73	4560.6
534.095	4689.41
534.461	4836.07
534.826	4820.71
535.192	4821.38
535.557	4795.4
535.923	4826.81
536.288	4793.36
536.653	4710.65
537.019	4566.02
537.384	4555.18
537.749	4577.78
538.114	4513.37
538.479	4469.98
538.845	4570.54
539.21	4559.47
539.575	4649.86
539.94	4717.88
540.305	4842.85
540.67	4942.96
541.034	5074.26
541.399	5211.2
541.764	5228.61
542.129	5326.23
542.494	5342.05
542.858	5367.13
543.223	5312.22
543.587	5268.83
543.952	5173.69
544.316	5122.85
544.681	5025.9
545.045	4965.56
545.41	4983.64
545.774	4944.32
546.138	4924.21
546.503	4980.7
546.867	4999.91
547.231	5114.26
547.595	5229.06
547.959	5309.96
548.324	5372.78
548.688	5560.57
549.052	5599.9
549.416	5690.97
549.779	5686.9
550.143	5744.07
550.507	5734.13
550.871	5679.44
551.235	5577.52
551.599	5521.48
551.962	5487.58
552.326	5400.8
552.689	5294.82
553.053	5202.62
553.417	5145.44
553.78	5217.53
554.143	5215.72
554.507	5224.76
554.87	5295.04
555.234	5401.48
555.597	5469.28
555.96	5647.13
556.323	5754.24
556.686	5861.58
557.05	5964.18
557.413	6007.79
557.776	6053.67
558.139	6083.27
558.502	6006.21
558.865	5939.77
559.228	5877.85
559.59	5801.92
559.953	5738.2
560.316	5657.07
560.679	5599.9
561.041	5606.22
561.404	5487.58
561.767	5526
562.129	5528.26
562.492	5600.35
562.854	5613
563.217	5713.56
563.579	5847.35
563.941	5952.2
564.304	6098.41
564.666	6247.79
565.028	6306.77
565.39	6405.98
565.753	6493.66
566.115	6504.73
566.477	6493.88
566.839	6462.47
567.201	6390.38
567.563	6286.66
567.925	6227.9
568.287	6073.55
568.648	6040.34
569.01	5965.76
569.372	6018.64
569.734	5901.36
570.095	5871.98
570.457	5979.09
570.819	6049.6
571.18	6152.42
571.542	6264.28
571.903	6326.66
572.265	6525.52
572.626	6664.5
572.987	6793.08
573.349	6911.95
573.71	7074.88
574.071	7087.54
574.432	7142.91
574.794	7229
575.155	7198.27
575.516	7184.03
575.877	7152.62
576.238	6989.92
576.599	6969.58
576.96	6938.39
577.32	6910.14
577.681	6909.69
578.042	6888.45
578.403	7001.89
578.763	7052.29
579.124	7217.03
579.485	7388.55
579.845	7642.55
580.206	7886.39
580.566	8070.34
580.927	8360.27
581.287	8744.45
581.648	8970.88
582.008	9264.88
582.368	9481.6
582.728	9735.61
583.089	9989.16
583.449	10091.3
583.809	10354.8
584.169	10431.18
584.529	10645.19
584.889	10815.35
585.249	10869.81
585.609	11095.8
585.969	11323.13
586.329	11535.78
586.688	11856.45
587.048	12108.42
587.408	12350
587.768	12826.15
588.127	13128.06
588.487	13619.12
588.846	14234.02
589.206	14599.88
589.565	15191.96
589.925	15775.9
590.284	16219.5
590.643	16739.26
591.003	17324.33
591.362	17770.2
591.721	18312.56
592.08	18563.85
592.44	19062.14
592.799	19468.68
593.158	19697.6
593.517	20083.36
593.876	20424.82
594.235	20631.36
594.593	21048.75
594.952	21387.5
595.311	21747.27
595.67	22069.97
596.029	22577.3
596.387	23074.01
596.746	23481.23
597.104	23817.72
597.463	24405.05
597.822	24898.82
598.18	25381.52
598.538	25918.46
598.897	26550.98
599.255	27023.74
599.613	27806.09
599.972	28154.78
600.33	28606.3
600.688	29045.83
601.046	29540.96
601.404	29926.04
601.762	30276.31
602.12	30755.17
602.478	30855.95
602.836	31155.16
603.194	31194.02
603.552	31507.01
603.91	31596.05
604.268	31896.6
604.625	32090.95
604.983	32521.67
605.341	32611.84
605.698	33062.68
606.056	33476
606.413	33729.78
606.771	34214.74
607.128	34623.31
607.485	34797.77
607.843	35268.27
608.2	35752.32
608.557	36340.56
608.914	36528.12
609.272	36969.24
609.629	37425.95
609.986	37728.32
610.343	37850.35
610.7	38303.67
611.057	38379.82
611.414	38576.66
611.771	38574.4
612.127	38927.83
612.484	38742.3
612.841	39096.64
613.198	39071.56
613.554	39047.83
613.911	39247.82
614.267	39471.55
614.624	39305.45
614.98	39580.92
615.337	39781.82
615.693	40080.12
616.05	40114.47
616.406	40628.58
616.762	40677.84
617.118	40852.75
617.475	41215.23
617.831	41444.38
618.187	41635.56
618.543	41938.6
618.899	42337.01
619.255	42582.65
619.611	42555.99
619.967	42757.34
620.323	42943.09
620.678	42924.56
621.034	42833.04
621.39	42835.3
621.746	42741.52
622.101	43197.32
622.457	42833.49
622.812	42945.13
623.168	42864.45
623.523	42836.2
623.879	42849.09
624.234	42553.5
624.589	42717.11
624.945	42793.49
625.3	42963.66
625.655	43033.71
626.01	43062.19
626.365	43136.99
626.72	43273.71
627.075	43598.44
627.43	43575.62
627.785	43572.91
628.14	43808.16
628.495	44125.89
628.85	44211.76
629.205	44237.52
629.559	44547.35
629.914	44433.45
630.269	44372.43
630.623	44335.15
630.978	44211.76
631.332	44404.52
631.687	44454.92
632.041	44122.05
632.396	44176.96
632.75	43791.66
633.104	43859.23
633.459	43544.21
633.813	43497.2
634.167	43342.63
634.521	43392.12
634.875	43458.79
635.229	43287.49
635.583	43121.39
635.937	43249.75
636.291	43265.35
636.645	43366.13
636.999	43401.16
637.352	43595.28
637.706	43384.21
638.06	43768.38
638.413	43706.01
638.767	43765.67
639.121	43901.94
639.474	43636.18
639.828	43956.4
640.181	43959.11
640.534	43988.49
640.888	43863.75
641.241	43676.41
641.594	43780.59
641.947	43873.01
642.301	43376.98
642.654	43460.37
643.007	43170.66
643.36	43202.3
643.713	43002.3
644.066	42998.01
644.419	42633.5
644.771	42433.5
645.124	41869.45
645.477	41705.84
645.83	41542
646.182	41366.86
646.535	41313.53
646.888	41518.95
647.24	41348.11
647.593	41618.16
647.945	41651.38
648.298	41501.32
648.65	41634.43
649.002	41606.18
649.355	41822.45
649.707	41913.52
650.059	42152.61
650.411	42507.85
650.763	42734.51
651.115	43176.76
651.467	43058.35
651.819	42837.56
652.171	42869.88
652.523	42801.18
652.875	42766.15
653.227	42384.46
653.578	42580.17
653.93	42175.88
654.282	41907.42
654.633	41919.62
654.985	41917.13
655.337	41827.87
655.688	41669.68
656.039	41659.74
656.391	41449.12
656.742	41460.87
657.094	41405.51
657.445	41606.63
657.796	41489.8
658.147	41451.61
658.498	41605.28
658.849	41745.61
659.2	41812.05
659.551	41875.78
659.902	42040.29
660.253	42069.22
660.604	42204.81
660.955	42020.86
661.306	42219.27
661.656	42358.02
662.007	42384.01
662.358	42242.55
662.708	42198.25
663.059	42207.52
663.409	41994.19
663.76	42318.48
664.11	41980.18
664.461	41894.76
664.811	41873.74
665.161	41714.2
665.511	41498.39
665.862	41420.65
666.212	41295.91
666.562	41307.2
666.912	41133.42
667.262	41095.91
667.612	41062.24
667.962	41040.55
668.312	40820.44
668.662	41028.79
669.011	40959.64
669.361	40816.82
669.711	41029.47
670.06	41053.43
670.41	41095.46
670.76	41264.04
671.109	41288.9
671.459	41193.31
671.808	41457.71
672.157	41627.2
672.507	41424.72
672.856	41491.83
673.205	41483.47
673.554	41682.11
673.904	41522.57
674.253	41887.98
674.602	41604.82
674.951	41067.89
675.3	40715.58
675.649	41475.11
675.998	41131.16
676.346	41145.4
676.695	41124.61
677.044	40613.89
677.393	40761
677.741	40747.9
678.09	40485.31
678.438	40174.13
678.787	40221.58
679.135	40254.35
679.484	40074.02
679.832	40113.34
680.181	39685.55
680.529	40009.84
680.877	39915.15
681.225	39948.82
681.573	40226.1
681.922	39940.46
682.27	39899.33
682.618	40213
682.966	40066.11
683.314	40133
683.661	40060.68
684.009	40088.25
684.357	40050.97
684.705	40151.75
685.053	40344.74
685.4	40182.04
685.748	40060.46
686.095	39973.68
686.443	39954.25
686.79	39751.09
687.138	39761.26
687.485	39795.61
687.832	39634.25
688.18	39413.02
688.527	39194.49
688.874	39245.11
689.221	38915.18
689.568	38839.47
689.915	38468.18
690.262	38394.74
690.609	38231.58
690.956	38020.06
691.303	37951.81
691.65	37826.17
691.997	37761.31
692.344	37531.71
692.69	37750.46
693.037	37739.39
693.383	37356.12
693.73	37488.1
694.077	37368.33
694.423	37437.25
694.769	37434.76
695.116	37510.24
695.462	37521.32
695.808	37383.01
696.155	37611.48
696.501	37310.02
696.847	37397.48
697.193	37223.02
697.539	37424.82
697.885	37151.16
698.231	37043.81
698.577	37047.2
698.923	36999.52
699.269	36854.44
699.614	36654.45
699.96	36466.43
700.306	36457.84
700.651	36133.33
700.997	35936.27
701.342	35895.14
701.688	35687.01
702.033	35585.1
702.379	35487.7
702.724	35330.41
703.069	35192.11
703.415	34680.26
703.76	34693.59
704.105	34661.73
704.45	34490.66
704.795	34406.82
705.14	34322.53
705.485	34431.91
705.83	34241.85
706.175	34393.71
706.52	34174.06
706.865	34083.44
707.209	34225.81
707.554	34129.77
707.899	34363.88
708.243	34242.08
708.588	34194.17
708.932	33951.47
709.277	34119.82
709.621	34244.79
709.966	34032.14
710.31	34101.52
710.654	33870.34
710.998	33962.54
711.342	33942.88
711.687	33671.47
712.031	33726.16
712.375	33587.86
712.719	33630.34
713.063	33471.03
713.407	33332.73
713.75	33255.21
714.094	33098.83
714.438	32789.69
714.782	32838.05
715.125	32559.86
715.469	32630.6
715.812	32291.4
716.156	32114.9
716.499	32019.99
716.843	32162.36
717.186	31841.69
717.53	31882.59
717.873	31868.13
718.216	31823.39
718.559	31666.78
718.902	31516.73
719.246	31662.26
719.589	31581.36
719.932	31478.08
720.275	31516.28
720.617	31600.57
720.96	31636.27
721.303	31679.89
721.646	31729.83
721.989	31695.03
722.331	31762.6
722.674	31778.19
723.016	31744.97
723.359	31707.23
723.701	31718.08
724.044	31570.51
724.386	31544.07
724.729	31455.03
725.071	31457.97
725.413	31343.63
725.755	31422.94
726.097	31206.45
726.439	30996.29
726.782	30992.22
727.124	31119.45
727.465	30756.3
727.807	30708.61
728.149	30580.93
728.491	30341.62
728.833	30312.24
729.175	30147.72
729.516	30099.36
729.858	30020.27
730.199	30027.5
730.541	29853.27
730.882	29788.64
731.224	29835.87
731.565	29660.51
731.906	29745.93
732.248	29674.97
732.589	29596.33
732.93	29547.74
733.271	29737.34
733.612	29653.5
733.953	29699.15
734.294	29655.99
734.635	29552.71
734.976	29655.99
735.317	29683.78
735.658	29677.91
735.999	29788.64
736.339	29736.89
736.68	29844.68
737.021	29730.56
737.361	29633.84
737.702	29853.49
738.042	29771.91
738.383	29688.3
738.723	29752.71
739.063	29632.26
739.404	29686.04
739.744	29616.21
740.084	29373.51
740.424	29357.46
740.764	29274.07
741.104	29259.84
741.444	28977.59
741.784	28960.41
742.124	28916.12
742.464	28730.13
742.804	28639.29
743.143	28638.16
743.483	28413.31
743.823	28170.15
744.162	28196.59
744.502	28278.17
744.841	28067.33
745.181	28064.39
745.52	27994.79
745.86	28080.66
746.199	27840.44
746.538	27996.37
746.877	28083.15
747.216	27924.96
747.556	27856.49
747.895	27884.73
748.234	27861.68
748.573	27933.32
748.911	27975.35
749.25	27915.47
749.589	27976.71
749.928	27984.39
750.267	28009.7
750.605	27867.56
750.944	27877.05
751.283	27836.82
751.621	27929.48
751.96	27819.65
752.298	27912.53
752.636	27790.05
752.975	27728.35
753.313	27540.11
753.651	27683.83
753.989	27589.37
754.327	27392.32
754.666	27237.07
755.004	27254.02
755.342	27250.63
755.679	27121.36
756.017	26887.25
756.355	26861.26
756.693	26713.24
757.031	26737.19
757.368	26455.17
757.706	26364.55
758.044	26138.56
758.381	26281.39
758.719	26014.73
759.056	26011.34
759.394	25826.93
759.731	25706.49
760.068	25738.57
760.405	25494.29
