Data from red_cardboard_box_FLMS001491_00021.txt Node
Date: Wed Feb 08 11:31:45 GMT 2017
User: dcchb
Spectrometer: FLMS00149
Trigger mode: 0
Integration Time (sec): 2.000000E-2
Scans to average: 10
Electric dark correction enabled: true
Nonlinearity correction enabled: false
Boxcar width: 0
XAxis mode: Wavelengths
Number of Pixels in Spectrum: 2048
>>>>>Begin Spectral Data<<<<<
341.393	-11.82
341.776	-11.82
342.16	-11.82
342.543	-58.6
342.927	-66.96
343.31	-75.77
343.693	-65.83
344.077	-56.11
344.46	-73.52
344.843	-47.53
345.226	-67.19
345.61	-30.58
345.993	-21.54
346.376	-7.75
346.759	18.46
347.142	44.45
347.525	42.41
347.908	63.88
348.291	69.98
348.674	95.97
349.057	110.66
349.44	114.5
349.823	141.62
350.206	164.22
350.588	221.84
350.971	213.71
351.354	230.88
351.737	234.05
352.119	250.09
352.502	268.62
352.884	279.02
353.267	295.51
353.65	313.14
354.032	312.01
354.414	309.07
354.797	318.11
355.179	327.6
355.562	315.63
355.944	360.82
356.326	341.62
356.709	352.91
357.091	342.07
357.473	342.07
357.855	363.31
358.238	340.94
358.62	342.52
359.002	347.49
359.384	332.58
359.766	341.16
360.148	335.51
360.53	342.52
360.912	317.21
361.294	355.63
361.676	358.79
362.057	331.67
362.439	337.77
362.821	336.42
363.203	320.6
363.584	322.63
363.966	353.82
364.348	344.33
364.729	305.23
365.111	311.79
365.493	313.14
365.874	330.09
366.256	334.16
366.637	323.08
367.019	313.82
367.4	306.59
367.781	346.59
368.163	313.82
368.544	323.08
368.925	345.91
369.306	331.45
369.688	319.02
370.069	312.92
370.45	322.86
370.831	328.51
371.212	338
371.593	318.57
371.974	291.9
372.355	318.11
372.736	318.57
373.117	336.64
373.498	336.42
373.879	317.44
374.26	330.54
374.641	328.06
375.021	302.07
375.402	332.35
375.783	331.45
376.163	329.19
376.544	319.69
376.925	302.75
377.305	319.02
377.686	316.08
378.066	326.93
378.447	358.56
378.827	321.95
379.208	297.55
379.588	343.88
379.968	346.59
380.349	347.26
380.729	326.47
381.109	335.97
381.489	325.57
381.87	346.13
382.25	339.81
382.63	342.07
383.01	324.89
383.39	340.49
383.77	352.69
384.15	365.12
384.53	322.86
384.91	345.91
385.29	338
385.67	354.72
386.049	361.73
386.429	347.49
386.809	345.23
387.189	347.26
387.568	361.73
387.948	358.34
388.328	345.68
388.707	350.88
389.087	383.2
389.466	352.91
389.846	362.63
390.225	364.67
390.605	384.55
390.984	387.72
391.363	359.92
391.743	373.25
392.122	356.53
392.501	358.11
392.881	362.18
393.26	373.03
393.639	347.72
394.018	344.78
394.397	378.45
394.776	382.07
395.155	389.75
395.534	367.15
395.913	365.57
396.292	374.38
396.671	385.46
397.05	376.64
397.429	385.68
397.808	384.33
398.186	386.13
398.565	362.63
398.944	385.68
399.323	392.24
399.701	384.55
400.08	376.64
400.458	372.57
400.837	394.72
401.215	378.68
401.594	385.91
401.972	413.25
402.351	401.27
402.729	403.76
403.107	417.77
403.486	394.5
403.864	420.03
404.242	406.25
404.62	390.2
404.999	413.03
405.377	398.56
405.755	424.1
406.133	402.63
406.511	413.25
406.889	424.1
407.267	419.58
407.645	402.63
408.023	423.87
408.401	396.53
408.779	427.04
409.156	424.78
409.534	442.86
409.912	429.3
410.29	411.44
410.667	435.4
411.045	451.44
411.422	443.53
411.8	439.01
412.178	467.49
412.555	447.83
412.933	434.72
413.31	455.51
413.687	461.61
414.065	455.28
414.442	484.66
414.819	455.51
415.197	478.33
415.574	455.51
415.951	484.89
416.328	476.75
416.705	470.65
417.082	486.92
417.46	472.01
417.837	479.01
418.214	476.98
418.591	483.08
418.967	484.89
419.344	491.89
419.721	504.1
420.098	492.8
420.475	516.07
420.852	499.8
421.228	503.87
421.605	496.64
421.982	503.87
422.358	519.24
422.735	536.41
423.111	513.81
423.488	531.21
423.864	518.33
424.241	515.85
424.617	513.36
424.994	529.18
425.37	519.69
425.746	527.37
426.123	546.36
426.499	552.46
426.875	545.9
427.251	539.8
427.627	540.71
428.003	557.2
428.379	548.62
428.756	570.31
429.132	568.95
429.507	557.65
429.883	578.22
430.259	580.48
430.635	561.04
431.011	584.09
431.387	568.28
431.763	586.13
432.138	584.55
432.514	581.16
432.89	609.63
433.265	601.27
433.641	618.22
434.016	609.4
434.392	608.5
434.767	625.9
435.143	612.12
435.518	630.42
435.894	617.99
436.269	644.66
436.644	646.69
437.02	662.51
437.395	638.33
437.77	678.56
438.145	650.31
438.52	648.95
438.895	688.27
439.271	685.79
439.646	651.44
440.021	682.85
440.395	693.47
440.77	666.58
441.145	688.95
441.52	687.59
441.895	683.08
442.27	679.69
442.645	712.45
443.019	706.13
443.394	720.59
443.769	718.55
444.143	719.01
444.518	707.03
444.892	721.94
445.267	724.88
445.641	724.66
446.016	716.29
446.39	722.4
446.764	728.95
447.139	701.38
447.513	733.47
447.887	776.86
448.262	746.35
448.636	735.96
449.01	747.03
449.384	775.05
449.758	754.94
450.132	756.52
450.506	790.42
450.88	773.47
451.254	749.97
451.628	769.17
452.002	776.41
452.376	784.09
452.75	790.64
453.123	780.02
453.497	813.69
453.871	786.12
454.244	813.47
454.618	806.69
454.992	826.57
455.365	830.87
455.739	835.16
456.112	854.82
456.486	856.86
456.859	846.46
457.232	860.7
457.606	852.34
457.979	875.16
458.352	896.4
458.725	902.73
459.099	879.68
459.472	879.91
459.845	900.02
460.218	907.48
460.591	908.38
460.964	934.14
461.337	948.38
461.71	938.21
462.083	944.31
462.456	950.64
462.829	938.66
463.201	943.63
463.574	945.89
463.947	979.11
464.32	979.34
464.692	1002.84
465.065	975.5
465.438	999.45
465.81	1007.59
466.183	1020.92
466.555	1025.21
466.928	1043.97
467.3	1076.29
467.672	1039.9
468.045	1074.93
468.417	1072.44
468.789	1098.43
469.161	1068.38
469.534	1109.96
469.906	1108.37
470.278	1134.81
470.65	1133.68
471.022	1140.01
471.394	1136.17
471.766	1183.63
472.138	1157.41
472.51	1201.03
472.882	1234.93
473.253	1208.71
473.625	1211.2
473.997	1258.2
474.369	1248.26
474.74	1255.72
475.112	1281.7
475.484	1306.56
475.855	1312.89
476.227	1322.38
476.598	1335.49
476.97	1360.8
477.341	1396.95
477.713	1398.08
478.084	1408.93
478.455	1428.82
478.827	1397.86
479.198	1475.37
479.569	1472.21
479.94	1506.78
480.311	1510.4
480.682	1559.66
481.053	1537.52
481.424	1588.59
481.795	1594.46
482.166	1634.69
482.537	1631.07
482.908	1636.04
483.279	1698.19
483.65	1705.42
484.021	1765.76
484.391	1761.92
484.762	1762.37
485.133	1770.96
485.503	1770.5
485.874	1837.17
486.244	1842.59
486.615	1860.67
486.985	1870.61
487.356	1904.74
487.726	1924.17
488.097	1972.98
488.467	1949.71
488.837	1985.87
489.207	2034
489.578	2084.17
489.948	2057.5
490.318	2106.77
490.688	2141.12
491.058	2152.42
491.428	2160.32
491.798	2198.29
492.168	2218.85
492.538	2226.54
492.908	2256.37
493.278	2251.17
493.648	2278.06
494.017	2288.68
494.387	2367.32
494.757	2280.1
495.126	2352.64
495.496	2387.21
495.866	2388.57
496.235	2398.06
496.605	2430.6
496.974	2436.02
497.344	2501.78
497.713	2492.97
498.082	2492.07
498.452	2537.04
498.821	2551.05
499.19	2544.27
499.559	2571.16
499.928	2598.28
500.298	2610.26
500.667	2649.35
501.036	2628.11
501.405	2629.92
501.774	2692.51
502.143	2687.32
502.512	2734.55
502.88	2728.9
503.249	2729.8
503.618	2752.63
503.987	2800.08
504.356	2752.4
504.724	2813.19
505.093	2830.36
505.462	2835.11
505.83	2858.39
506.199	2886.41
506.567	2894.09
506.936	2920.08
507.304	2949
507.672	2954.88
508.041	2950.36
508.409	3020.19
508.777	3036.91
509.145	3036.01
509.514	3048.44
509.882	3075.1
510.25	3059.06
510.618	3054.76
510.986	3121.66
511.354	3126.85
511.722	3170.69
512.09	3227.42
512.458	3222.67
512.826	3273.29
513.193	3251.14
513.561	3273.74
513.929	3312.16
514.297	3299.96
514.664	3373.4
515.032	3385.15
515.4	3394.64
515.767	3419.05
516.135	3472.61
516.502	3458.82
516.869	3517.13
517.237	3531.14
517.604	3499.95
517.972	3561.87
518.339	3584.69
518.706	3614.07
519.073	3663.79
519.44	3661.08
519.808	3681.64
520.175	3748.76
520.542	3745.14
520.909	3774.07
521.276	3820.85
521.643	3814.74
522.009	3833.27
522.376	3881.64
522.743	3904.91
523.11	3959.15
523.477	3987.62
523.843	3992.82
524.21	4070.33
524.577	4102.65
524.943	4146.94
525.31	4122.76
525.676	4182.19
526.043	4179.48
526.409	4199.59
526.776	4256.09
527.142	4224.45
527.508	4287.5
527.874	4333.37
528.241	4356.2
528.607	4391.45
528.973	4466.7
529.339	4450.89
529.705	4458.34
530.071	4531.11
530.437	4491.11
530.803	4578.79
531.169	4592.8
531.535	4647.49
531.901	4628.06
532.267	4624.21
532.632	4673.7
532.998	4690.2
533.364	4736.3
533.73	4739.47
534.095	4848.84
534.461	4807.26
534.826	4862.63
535.192	4888.39
535.557	4873.93
535.923	4927.03
536.288	4930.42
536.653	4971.78
537.019	4941.49
537.384	4990.08
537.749	4988.05
538.114	5106.69
538.479	5064.88
538.845	5099
539.21	5149.17
539.575	5128.61
539.94	5171.09
540.305	5226.46
540.67	5210.41
541.034	5245.89
541.399	5267.81
541.764	5216.52
542.129	5322.5
542.494	5330.18
542.858	5355.27
543.223	5381.48
543.587	5436.62
543.952	5400.01
544.316	5485.66
544.681	5486.79
545.045	5503.74
545.41	5511.87
545.774	5570.18
546.138	5522.04
546.503	5615.6
546.867	5634.13
547.231	5658.76
547.595	5662.83
547.959	5724.98
548.324	5739.21
548.688	5761.81
549.052	5864.18
549.416	5823.96
549.779	5830.28
550.143	5834.8
550.507	5960.22
550.871	5980.56
551.235	5942.37
551.599	5966.33
551.962	6080.9
552.326	6088.36
552.689	6081.35
553.053	6107.79
553.417	6148.24
553.78	6304.85
554.143	6206.32
554.507	6231.63
554.87	6290.84
555.234	6437.73
555.597	6370.84
555.96	6433.43
556.323	6508.91
556.686	6482.7
557.05	6588.46
557.413	6591.85
557.776	6610.38
558.139	6728.57
558.502	6731.96
558.865	6792.07
559.228	6867.32
559.59	6853.99
559.953	6977.15
560.316	7027.32
560.679	6990.03
561.041	7065.96
561.404	7182.11
561.767	7175.79
562.129	7256.01
562.492	7291.94
562.854	7373.97
563.217	7438.6
563.579	7462.11
563.941	7590.69
564.304	7659.39
564.666	7713.17
565.028	7778.03
565.39	7858.71
565.753	7913.39
566.115	7970.57
566.477	8034.29
566.839	8120.62
567.201	8202.43
567.563	8242.2
567.925	8242.88
568.287	8411.23
568.648	8413.49
569.01	8495.98
569.372	8645.58
569.734	8671.11
570.095	8817.78
570.457	8893.93
570.819	8925.8
571.18	8991.11
571.542	9126.92
571.903	9154.49
572.265	9270.19
572.626	9384.09
572.987	9448.72
573.349	9520.81
573.71	9657.75
574.071	9761.71
574.432	9854.59
574.794	9962.61
575.155	10063.17
575.516	10066.33
575.877	10278.08
576.238	10340.22
576.599	10450.05
576.96	10534.12
577.32	10644.62
577.681	10889.36
578.042	10894.78
578.403	11007.1
578.763	11182.91
579.124	11342
579.485	11511.04
579.845	11603.47
580.206	11742.45
580.566	11895.44
580.927	11944.25
581.287	12158.25
581.648	12318.25
582.008	12490.45
582.368	12628.75
582.728	12852.02
583.089	12937.67
583.449	13078.91
583.809	13328.17
584.169	13616.07
584.529	13617.88
584.889	14095.38
585.249	14106.23
585.609	14330.63
585.969	14736.49
586.329	14889.26
586.688	15134.9
587.048	15366.76
587.408	15508.9
587.768	15806.97
588.127	16034.08
588.487	16304.13
588.846	16676.78
589.206	16839.94
589.565	17080.16
589.925	17508.17
590.284	17760.14
590.643	18128.49
591.003	18468.6
591.362	18778.42
591.721	19093.21
592.08	19360.55
592.44	19740.43
592.799	20139.51
593.158	20294.99
593.517	20738.14
593.876	21185.81
594.235	21380.61
594.593	21809.98
594.952	22349.17
595.311	22700.12
595.67	22982.6
596.029	23476.83
596.387	23917.94
596.746	24199.97
597.104	24469.12
597.463	24944.58
597.822	25414.4
598.18	25737.78
598.538	26089.64
598.897	26627.7
599.255	26803.52
599.613	27587.9
599.972	27744.28
600.33	28190.83
600.688	28585.62
601.046	29065.38
601.404	29506.05
601.762	29763.89
602.12	30277.78
602.478	30776.07
602.836	31129.28
603.194	31415.15
603.552	31861.24
603.91	32040.44
604.268	32771.5
604.625	32872.29
604.983	33442.67
605.341	33619.84
605.698	34155.19
606.056	34583.2
606.413	34907.49
606.771	35281.71
607.128	35572.1
607.485	35820.23
607.843	36135.02
608.2	36630.38
608.557	37019.97
608.914	37247.99
609.272	37794.42
609.629	37871.7
609.986	38501.97
610.343	38645.47
610.7	38955.52
611.057	39215.17
611.414	39498.78
611.771	39770.86
612.127	40342.6
612.484	40273.45
612.841	40725.64
613.198	40761.57
613.554	41084.95
613.911	41469.12
614.267	41595.45
614.624	41809.45
614.98	42001.76
615.337	42383.9
615.693	42549.09
616.05	42633.38
616.406	43089.42
616.762	43138.68
617.118	43393.14
617.475	43553.59
617.831	43735.73
618.187	43991.77
618.543	44068.6
618.899	44564.86
619.255	44600.56
619.611	44754.23
619.967	44891.4
620.323	45103.6
620.678	45128.23
621.034	45040.78
621.39	45439.64
621.746	45431.73
622.101	46047.76
622.457	45687.54
622.812	45870.36
623.168	46057.48
623.523	46120.3
623.879	46410.91
624.234	46163.01
624.589	46424.47
624.945	46672.37
625.3	46678.7
625.655	46848.19
626.01	46807.74
626.365	46931.12
626.72	46840.28
627.075	46964.34
627.43	47110.78
627.785	47075.75
628.14	47232.81
628.495	47317.56
628.85	47385.35
629.205	47287.73
629.559	47611.78
629.914	47524.33
630.269	47570.2
630.623	47476.2
630.978	47450.89
631.332	47645.68
631.687	47884.09
632.041	47644.78
632.396	47881.38
632.75	47726.13
633.104	47769.75
633.459	47633.03
633.813	47725.68
634.167	47799.8
634.521	47765.45
634.875	47866.69
635.229	47807.94
635.583	47773.81
635.937	47781.5
636.291	47700.82
636.645	47838.9
636.999	47778.11
637.352	47904.43
637.706	47741.5
638.06	48012.45
638.413	47913.02
638.767	47836.41
639.121	47984.43
639.474	47645.23
639.828	47748.5
640.181	47873.92
640.534	47935.39
640.888	47780.37
641.241	47732.01
641.594	47707.83
641.947	47908.73
642.301	47851.55
642.654	47834.83
643.007	47886.35
643.36	47832.8
643.713	47803.42
644.066	48008.84
644.419	47680.26
644.771	47363.2
645.124	47019.26
645.477	47076.21
645.83	46814.97
646.182	46721.19
646.535	46628.53
646.888	46847.74
647.24	46598.03
647.593	46974.06
647.945	46861.52
648.298	46637.57
648.65	46695.65
649.002	46528.65
649.355	46711.02
649.707	46615.43
650.059	46750.79
650.411	47231.46
650.763	47276.88
651.115	47633.48
651.467	47515.06
651.819	47581.28
652.171	47523.65
652.523	47460.15
652.875	47448.63
653.227	47286.82
653.578	47596.64
653.93	47572.92
654.282	47439.59
654.633	47247.05
654.985	47453.14
655.337	47407.5
655.688	47358.68
656.039	47457.66
656.391	47174.51
656.742	47467.61
657.094	47378.57
657.445	47448.63
657.796	47377.67
658.147	47287.73
658.498	47278.69
658.849	47282.98
659.2	47214.96
659.551	47157.11
659.902	47356.2
660.253	47293.15
660.604	47341.06
660.955	47108.52
661.306	47315.52
661.656	47296.09
662.007	47251.34
662.358	47282.3
662.708	47293.83
663.059	47234.17
663.409	47005.02
663.76	47448.4
664.11	47238.91
664.461	47344
664.811	47272.13
665.161	47293.15
665.511	47329.08
665.862	47293.38
666.212	47299.25
666.562	47170.67
666.912	47203.43
667.262	47181.29
667.612	47218.35
667.962	47305.58
668.312	47158.69
668.662	47460.15
669.011	47268.29
669.361	47313.94
669.711	47230.1
670.06	47203.21
670.41	47071.91
670.76	47094.51
671.109	47099.26
671.459	47067.84
671.808	46984.46
672.157	47165.02
672.507	46779.94
672.856	46836.89
673.205	46985.59
673.554	47135.19
673.904	46920.28
674.253	47208.63
674.602	46987.85
674.951	46390.8
675.3	46281.2
675.649	46911.01
675.998	46854.97
676.346	46847.74
676.695	47028.3
677.044	46672.6
677.393	46823.33
677.741	46742.88
678.09	46819.49
678.438	46670.57
678.787	46631.25
679.135	46685.48
679.484	46461.98
679.832	46585.37
680.181	46334.3
680.529	46530.68
680.877	46219.96
681.225	46305.38
681.573	46480.97
681.922	46326.85
682.27	46189.22
682.618	46144.25
682.966	46040.53
683.314	46106.51
683.661	45957.82
684.009	45850.93
684.357	45790.36
684.705	45636.24
685.053	45607.09
685.4	45684.6
685.748	45451.62
686.095	45511.28
686.443	45315.57
686.79	45238.97
687.138	45384.05
687.485	45497.94
687.832	45230.15
688.18	45255.46
688.527	45093.43
688.874	45026.77
689.221	44782.25
689.568	44797.4
689.915	44812.99
690.262	44708.13
690.609	44632.43
690.956	44526.44
691.303	44345.88
691.65	44235.15
691.997	44319.22
692.344	44084.19
692.69	44147.02
693.037	44032.9
693.383	43585.22
693.73	43804.65
694.077	43662.06
694.423	43494.38
694.769	43480.82
695.116	43361.5
695.462	43313.59
695.808	43246.25
696.155	43193.14
696.501	42931
696.847	42923.32
697.193	42545.48
697.539	42949.53
697.885	42560.84
698.231	42485.37
698.577	42508.87
698.923	42443.56
699.269	42187.97
699.614	42169.67
699.96	41911.37
700.306	42010.8
700.651	41774.65
700.997	41664.6
701.342	41690.58
701.688	41605.62
702.033	41429.57
702.379	41493.53
702.724	41249.69
703.069	41442.23
703.415	40957.72
703.76	41005.4
704.105	40883.83
704.45	40802.92
704.795	40631.86
705.14	40476.83
705.485	40516.6
705.83	40387.34
706.175	40431.63
706.52	40193.22
706.865	40174.92
707.209	40131.3
707.554	39971.76
707.899	40181.25
708.243	39858.99
708.588	39710.75
708.932	39530.19
709.277	39580.13
709.621	39527.25
709.966	39349.18
710.31	39443.86
710.654	39197.77
710.998	39085
711.342	39166.36
711.687	39161.39
712.031	38942.18
712.375	38896.99
712.719	38801.17
713.063	38819.25
713.407	38852.92
713.75	38687.05
714.094	38688.63
714.438	38418.13
714.782	38425.13
715.125	38418.58
715.469	38522.53
715.812	38134.52
716.156	37987.18
716.499	38163.45
716.843	38137.01
717.186	37893.85
717.53	38071.7
717.873	37981.3
718.216	37874.87
718.559	37683.91
718.902	37479.85
719.246	37518.49
719.589	37480.3
719.932	37215.9
720.275	37358.27
720.617	37332.96
720.96	37168.67
721.303	37097.26
721.646	37277.37
721.989	37098.39
722.331	37114.89
722.674	37015.91
723.016	37125.51
723.359	36942.91
723.701	37010.03
724.044	36687.78
724.386	36535.92
724.729	36671.06
725.071	36542.47
725.413	36556.71
725.755	36483.72
726.097	36418.18
726.439	36197.85
726.782	36228.13
727.124	36438.29
727.465	36121.69
727.807	36022.94
728.149	36094.57
728.491	36074.46
728.833	36030.17
729.175	35881.7
729.516	35829.5
729.858	35799.44
730.199	35888.7
730.541	35768.25
730.882	35670.86
731.224	35694.58
731.565	35583.17
731.906	35552.44
732.248	35614.13
732.589	35403.74
732.93	35320.36
733.271	35217.53
733.612	35395.38
733.953	35371.43
734.294	35245.56
734.635	35161.04
734.976	35214.82
735.317	35106.12
735.658	35049.86
735.999	35026.81
736.339	34830.43
736.68	34952
737.021	34887.83
737.361	34741.61
737.702	34920.59
738.042	34700.03
738.383	34672.01
738.723	34697.77
739.063	34608.28
739.404	34622.97
739.744	34419.14
740.084	34334.62
740.424	34393.15
740.764	34426.59
741.104	34459.59
741.444	34307.05
741.784	34105.93
742.124	34265.24
742.464	34178.92
742.804	33985.48
743.143	33987.96
743.483	34093.72
743.823	33976.66
744.162	33862.54
744.502	34003.56
744.841	33720.62
745.181	33897.34
745.52	33696.67
745.86	33831.58
746.199	33796.33
746.538	33548.2
746.877	33690.34
747.216	33576.9
747.556	33610.8
747.895	33495.55
748.234	33340.97
748.573	33311.14
748.911	33328.32
749.25	33336.45
749.589	33002.23
749.928	33173.75
750.267	33260.07
750.605	33051.26
750.944	32933.75
751.283	32989.34
751.621	32917.03
751.96	32686.53
752.298	32747.99
752.636	32811.5
752.975	32590.94
753.313	32582.58
753.651	32631.39
753.989	32596.13
754.327	32391.39
754.666	32191.63
755.004	32282.92
755.342	32196.82
755.679	32255.58
756.017	32044.96
756.355	32096.49
756.693	32022.36
757.031	32122.02
757.368	31776.95
757.706	31794.57
758.044	31663.28
758.381	31761.13
758.719	31632.77
759.056	31584.41
759.394	31465.54
759.731	31173.12
760.068	31121.37
760.405	31062.62
760.743	31063.75
