Data from red_shiny_book_FLMS001491_00022.txt Node
Date: Wed Feb 08 15:24:37 GMT 2017
User: dcchb
Spectrometer: FLMS00149
Trigger mode: 0
Integration Time (sec): 2.000000E-2
Scans to average: 10
Electric dark correction enabled: true
Nonlinearity correction enabled: false
Boxcar width: 0
XAxis mode: Wavelengths
Number of Pixels in Spectrum: 2048
>>>>>Begin Spectral Data<<<<<
341.393	-4.03
341.776	-4.03
342.16	-4.03
342.543	-74.98
342.927	-50.35
343.31	-91.03
343.693	-67.53
344.077	-55.32
344.46	-41.54
344.843	-61.2
345.226	-50.35
345.61	-23.23
345.993	-31.37
346.376	3.21
346.759	5.47
347.142	30.32
347.525	41.4
347.908	59.93
348.291	79.36
348.674	79.36
349.057	122.53
349.44	126.82
349.823	139.02
350.206	170.43
350.588	214.05
350.971	227.61
351.354	224.9
351.737	249.75
352.119	254.05
352.502	270.54
352.884	269.87
353.267	289.07
353.65	300.83
354.032	287.04
354.414	301.73
354.797	321.84
355.179	323.65
355.562	348.96
355.944	329.07
356.326	322.29
356.709	330.88
357.091	348.73
357.473	350.32
357.855	357.77
358.238	334.27
358.62	355.06
359.002	340.6
359.384	351.45
359.766	348.96
360.148	342.86
360.53	355.29
360.912	380.82
361.294	332.24
361.676	353.03
362.057	322.07
362.439	331.56
362.821	338.34
363.203	361.61
363.584	338.34
363.966	336.76
364.348	340.15
364.729	328.85
365.111	325.68
365.493	330.43
365.874	319.36
366.256	334.04
366.637	336.98
367.019	320.03
367.4	321.62
367.781	316.19
368.163	321.84
368.544	324.78
368.925	321.39
369.306	345.34
369.688	329.98
370.069	297.21
370.45	326.59
370.831	324.1
371.212	334.04
371.593	347.6
371.974	314.84
372.355	327.72
372.736	324.1
373.117	336.53
373.498	322.75
373.879	325.01
374.26	326.14
374.641	318.68
375.021	322.29
375.402	342.18
375.783	329.53
376.163	342.86
376.544	340.6
376.925	328.85
377.305	329.53
377.686	349.19
378.066	333.59
378.447	337.21
378.827	350.77
379.208	351.9
379.588	354.84
379.968	343.08
380.349	333.14
380.729	381.28
381.109	343.76
381.489	347.38
381.87	341.95
382.25	358.68
382.63	369.07
383.01	351.9
383.39	346.47
383.77	343.54
384.15	359.13
384.53	365.23
384.91	383.31
385.29	331.79
385.67	359.81
386.049	369.98
386.429	373.82
386.809	383.54
387.189	376.98
387.568	365.68
387.948	395.29
388.328	405.23
388.707	380.15
389.087	381.95
389.466	364.78
389.846	385.12
390.225	378.56
390.605	391.67
390.984	380.37
391.363	391.22
391.743	397.09
392.122	384.67
392.501	390.31
392.881	414.49
393.26	395.74
393.639	389.64
394.018	403.87
394.397	406.36
394.776	418.79
395.155	422.18
395.534	394.16
395.913	400.26
396.292	424.66
396.671	428.51
397.05	409.75
397.429	431.22
397.808	420.37
398.186	435.06
398.565	412.23
398.944	408.62
399.323	419.47
399.701	414.27
400.08	417.43
400.458	433.93
400.837	434.61
401.215	450.65
401.594	447.94
401.972	426.25
402.351	438.9
402.729	447.04
403.107	443.87
403.486	455.62
403.864	466.24
404.242	473.02
404.62	459.69
404.999	462.18
405.377	480.26
405.755	469.18
406.133	476.19
406.511	475.28
406.889	475.74
407.267	470.31
407.645	491.78
408.023	498.11
408.401	496.75
408.779	488.84
409.156	507.83
409.534	488.62
409.912	516.86
410.29	521.61
410.667	520.48
411.045	526.81
411.422	524.1
411.8	533.14
412.178	546.92
412.555	531.55
412.933	554.83
413.31	567.94
413.687	522.29
414.065	571.1
414.442	550.31
414.819	547.15
415.197	562.29
415.574	577.88
415.951	588.5
416.328	621.49
416.705	602.51
417.082	617.43
417.46	597.99
417.837	601.83
418.214	620.37
418.591	616.52
418.967	610.65
419.344	618.11
419.721	640.93
420.098	620.82
420.475	673.47
420.852	676.18
421.228	689.06
421.605	654.94
421.982	675.73
422.358	646.13
422.735	656.97
423.111	652.45
423.488	682.96
423.864	677.76
424.241	712.79
424.617	693.13
424.994	709.18
425.37	706.69
425.746	703.07
426.123	696.07
426.499	696.52
426.875	723.41
427.251	715.96
427.627	718.89
428.003	750.53
428.379	781.04
428.756	786.46
429.132	788.5
429.507	781.72
429.883	781.26
430.259	794.82
430.635	789.85
431.011	779.68
431.387	775.16
431.763	813.58
432.138	808.38
432.514	849.29
432.89	854.71
433.265	881.83
433.641	881.83
434.016	877.08
434.392	859
434.767	875.95
435.143	868.04
435.518	884.76
435.894	894.48
436.269	902.84
436.644	928.15
437.02	924.31
437.395	938.1
437.77	985.78
438.145	982.16
438.52	952.11
438.895	961.6
439.271	964.99
439.646	990.3
440.021	995.27
440.395	979.45
440.77	980.13
441.145	983.75
441.52	1016.06
441.895	1049.28
442.27	1066.68
442.645	1042.27
443.019	1073.23
443.394	1075.49
443.769	1065.55
444.143	1033.01
444.518	1029.85
444.892	1025.78
445.267	1036.63
445.641	1078.21
446.016	1081.14
446.39	1106.23
446.764	1120.69
447.139	1130.86
447.513	1158.66
447.887	1139
448.262	1109.62
448.636	1087.7
449.01	1109.17
449.384	1100.13
449.758	1127.02
450.132	1125.21
450.506	1131.76
450.88	1162.27
451.254	1192.1
451.628	1211.31
452.002	1217.64
452.376	1238.2
452.75	1222.84
453.123	1206.11
453.497	1185.32
453.871	1183.51
454.244	1211.31
454.618	1205.21
454.992	1235.04
455.365	1242.27
455.739	1269.39
456.112	1323.4
456.486	1326.79
456.859	1328.6
457.232	1378.31
457.606	1365.2
457.979	1344.87
458.352	1327.47
458.725	1310.52
459.099	1290.18
459.472	1306.45
459.845	1357.97
460.218	1379.44
460.591	1398.65
460.964	1432.32
461.337	1472.09
461.71	1481.36
462.083	1503.05
462.456	1510.06
462.829	1491.75
463.201	1466.9
463.574	1468.48
463.947	1487.23
464.32	1477.97
464.692	1497.63
465.065	1500.79
465.438	1580.57
465.81	1615.14
466.183	1614.24
466.555	1737.4
466.928	1716.38
467.3	1685.2
467.672	1709.83
468.045	1733.1
468.417	1713.44
468.789	1660.79
469.161	1645.2
469.534	1692.43
469.906	1701.47
470.278	1709.38
470.65	1787.79
471.022	1861.46
471.394	1884.96
471.766	1960.44
472.138	1923.38
472.51	2023.94
472.882	1999.99
473.253	1961.8
473.625	1990.27
473.997	1959.99
474.369	1979.43
474.74	1959.99
475.112	1982.59
475.484	2051.74
475.855	2138.97
476.227	2168.35
476.598	2249.47
476.97	2305.07
477.341	2361.56
477.713	2404.05
478.084	2394.78
478.455	2432.29
478.827	2390.26
479.198	2406.98
479.569	2372.41
479.94	2429.58
480.311	2404.27
480.682	2441.11
481.053	2509.81
481.424	2608.56
481.795	2672.97
482.166	2782.34
482.537	2841.78
482.908	2952.96
483.279	2954.77
483.65	2979.17
484.021	3021.21
484.391	2969.68
484.762	2956.8
485.133	2922.9
485.503	2921.55
485.874	2957.48
486.244	2979.4
486.615	3075.22
486.985	3161.99
487.356	3330.35
487.726	3393.4
488.097	3519.27
488.467	3592.49
488.837	3637.69
489.207	3686.73
489.578	3697.8
489.948	3664.8
490.318	3642.21
490.688	3591.59
491.058	3547.07
491.428	3567.41
491.798	3607.41
492.168	3664.35
492.538	3769.21
492.908	3901.86
493.278	4018.47
493.648	4134.17
494.017	4273.38
494.387	4323.32
494.757	4340.04
495.126	4398.57
495.496	4333.04
495.866	4287.16
496.235	4212.36
496.605	4158.35
496.974	4126.04
497.344	4145.02
497.713	4119.48
498.082	4222.08
498.452	4328.52
498.821	4443.54
499.19	4538.23
499.559	4702.74
499.928	4780.71
500.298	4811.67
500.667	4949.52
501.036	4871.78
501.405	4840.59
501.774	4772.35
502.143	4719.69
502.512	4624.55
502.88	4568.51
503.249	4500.04
503.618	4531.9
503.987	4540.71
504.356	4652.8
504.724	4813.48
505.093	4912.46
505.462	5059.12
505.83	5160.81
506.199	5238.77
506.567	5320.81
506.936	5335.72
507.304	5363.52
507.672	5272.9
508.041	5147.7
508.409	5106.57
508.777	5020.7
509.145	4949.97
509.514	4893.7
509.882	4918.11
510.25	4958.1
510.618	5098.89
510.986	5245.78
511.354	5372.33
511.722	5577.97
512.09	5660.01
512.458	5714.02
512.826	5752.89
513.193	5801.92
513.561	5746.56
513.929	5729.16
514.297	5624.98
514.664	5463.18
515.032	5408.49
515.4	5351.09
515.767	5294.14
516.135	5294.14
516.502	5336.4
516.869	5430.63
517.237	5617.07
517.604	5702.72
517.972	5937.29
518.339	6102.25
518.706	6158.75
519.073	6257.73
519.44	6304.51
519.808	6344.06
520.175	6177.51
520.542	6098.64
520.909	6008.7
521.276	5824.3
521.643	5735.26
522.009	5697.52
522.376	5721.93
522.743	5714.02
523.11	5849.38
523.477	5964.41
523.843	6124.85
524.21	6282.14
524.577	6563.49
524.943	6655.91
525.31	6777.72
525.676	6943.14
526.043	6954.21
526.409	6998.73
526.776	6975
527.142	6744.5
527.508	6712.18
527.874	6653.2
528.241	6484.39
528.607	6383.15
528.973	6373.43
529.339	6383.15
529.705	6516.26
530.071	6588.8
530.437	6760.09
530.803	6935.68
531.169	7158.95
531.535	7381.54
531.901	7544.48
532.267	7719.16
532.632	7844.36
532.998	7860.4
533.364	7846.62
533.73	7672.83
534.095	7600.07
534.461	7462.22
534.826	7293.41
535.192	7153.53
535.557	7096.58
535.923	7049.12
536.288	7102.23
536.653	7230.36
537.019	7337.93
537.384	7513.74
537.749	7713.74
538.114	8015.2
538.479	8169.09
538.845	8383.32
539.21	8372.7
539.575	8520.27
539.94	8560.04
540.305	8521.4
540.67	8354.4
541.034	8257.68
541.399	8123.9
541.764	7981.75
542.129	7778.59
542.494	7748.99
542.858	7725.49
543.223	7680.97
543.587	7732.49
543.952	7878.71
544.316	8064.92
544.681	8259.94
545.045	8501.29
545.41	8708.06
545.774	8937.21
546.138	9036.64
546.503	9212.23
546.867	9226.92
547.231	9264.21
547.595	9150.76
547.959	8981.28
548.324	8835.29
548.688	8693.37
549.052	8498.12
549.416	8353.72
549.779	8231.24
550.143	8141.98
550.507	8192.82
550.871	8208.87
551.235	8306.04
551.599	8507.84
551.962	8657.22
552.326	8849.98
552.689	9090.65
553.053	9288.39
553.417	9463.97
553.78	9579.45
554.143	9649.05
554.507	9704.19
554.87	9587.36
555.234	9569.51
555.597	9295.84
555.96	9110.76
556.323	8978.56
556.686	8829.41
557.05	8608.86
557.413	8528.18
557.776	8559.37
558.139	8570.44
558.502	8664.9
558.865	8754.16
559.228	9054.95
559.59	9253.36
559.953	9431.43
560.316	9750.75
560.679	9912.1
561.041	10115.93
561.404	10274.12
561.767	10270.05
562.129	10263.05
562.492	10251.98
562.854	10059.44
563.217	9809.28
563.579	9732.22
563.941	9521.6
564.304	9344.88
564.666	9268.27
565.028	9155.06
565.39	9117.54
565.753	9112.57
566.115	9220.82
566.477	9386.46
566.839	9573.8
567.201	9806.11
567.563	10028.48
567.925	10252.43
568.287	10563.83
568.648	10808.8
569.01	10846.76
569.372	11052.63
569.734	10936.03
570.095	10949.36
570.457	10866.42
570.819	10679.31
571.18	10604.28
571.542	10399.09
571.903	10272.54
572.265	10115.03
572.626	9911.19
572.987	9804.3
573.349	9895.6
573.71	9889.05
574.071	10086.1
574.432	10255.37
574.794	10490.16
575.155	10698.74
575.516	11004.05
575.877	11311.38
576.238	11585.27
576.599	11865.04
576.96	12107.97
577.32	12222.55
577.681	12386.61
578.042	12373.73
578.403	12317.23
578.763	12248.99
579.124	12211.25
579.485	12105.71
579.845	11992.27
580.206	11877.24
580.566	11831.6
580.927	11819.62
581.287	11971.25
581.648	12069.56
582.008	12450.79
582.368	12731.69
582.728	13114.95
583.089	13533.25
583.449	13964.42
583.809	14557.63
584.169	15062.7
584.529	15474.21
584.889	16069.68
585.249	16529.55
585.609	16938.13
585.969	17420.38
586.329	17712.57
586.688	17886.13
587.048	18192.56
587.408	18308.04
587.768	18544.41
588.127	18802.03
588.487	18856.5
588.846	19340.78
589.206	19620.54
589.565	19855.79
589.925	20362.44
590.284	20717.69
590.643	21417.11
591.003	22150.19
591.362	22949.5
591.721	23339.32
592.08	24267.2
592.44	24961.19
592.799	25793.26
593.158	26407.48
593.517	27265.54
593.876	27821.68
594.235	28303.48
594.593	28752.73
594.952	29314.98
595.311	29556.33
595.67	29892.59
596.029	30437.66
596.387	30612.57
596.746	31047.59
597.104	31082.84
597.463	31463.85
597.822	31832.88
598.18	32183.6
598.538	32590.37
598.897	33311.26
599.255	33563.68
599.613	34738.79
599.972	35112.57
600.33	35918.42
600.688	36386.88
601.046	37116.35
601.404	37914.98
601.762	38568.75
602.12	39263.42
602.478	39900.91
602.836	40377.06
603.194	40552.87
603.552	41011.17
603.91	41149.47
604.268	41387.65
604.625	41578.16
604.983	41886.85
605.341	41726.85
605.698	42222.66
606.056	42388.53
606.413	42392.15
606.771	42807.28
607.128	43033.04
607.485	43141.96
607.843	43524.32
608.2	44080.47
608.557	44678.64
608.914	44797.06
609.272	45513.42
609.629	46059.4
609.986	46531.7
610.343	46648.53
610.7	47390.66
611.057	47616.19
611.414	47954.49
611.771	48226.8
612.127	48420.69
612.484	48557.41
612.841	48890.06
613.198	48715.6
613.554	48733
613.911	48973.9
614.267	48910.17
614.624	48834.01
614.98	48971.18
615.337	49111.29
615.693	49018.41
616.05	48966.44
616.406	49195.36
616.762	49256.37
617.118	49291.4
617.475	49479.19
617.831	49830.37
618.187	50176.35
618.543	50344.48
618.899	50782.89
619.255	50861.98
619.611	51096.33
619.967	51367.05
620.323	51587.61
620.678	51604.11
621.034	51721.62
621.39	51705.8
621.746	51837.32
622.101	52111.21
622.457	51847.72
622.812	51889.07
623.168	51912.12
623.523	51788.29
623.879	51837.78
624.234	51522.08
624.589	51535.41
624.945	51577.22
625.3	51526.6
625.655	51545.58
626.01	51551.91
626.365	51530.44
626.72	51570.21
627.075	51664.45
627.43	51827.83
627.785	51813.37
628.14	52122.97
628.495	52221.95
628.85	52319.57
629.205	52479.11
629.559	52728.83
629.914	52688.15
630.269	52856.73
630.623	52754.81
630.978	52781.03
631.332	52890.4
631.687	52900.35
632.041	52774.02
632.396	52654.48
632.75	52420.81
633.104	52385.33
633.459	52212
633.813	52097.43
634.167	52026.7
634.521	51881.62
634.875	51828.51
635.229	51744.9
635.583	51481.4
635.937	51605.92
636.291	51556.88
636.645	51732.24
636.999	51624.22
637.352	51840.49
637.706	51802.52
638.06	52010.88
638.413	52016.3
638.767	52081.84
639.121	52273.92
639.474	52175.62
639.828	52329.97
640.181	52541.71
640.534	52588.26
640.888	52421.94
641.241	52356.41
641.594	52350.3
641.947	52296.52
642.301	52166.13
642.654	52081.16
643.007	51951.67
643.36	51715.74
643.713	51523.21
644.066	51551.46
644.419	51208.41
644.771	50979.04
645.124	50532.05
645.477	50350.81
645.83	50208.44
646.182	50079.4
646.535	49962.34
646.888	50105.62
647.24	49949.46
647.593	50203.24
647.945	50314.2
648.298	50311.71
648.65	50305.16
649.002	50357.36
649.355	50705.6
649.707	50731.82
650.059	50969.32
650.411	51342.87
650.763	51464.68
651.115	51873.93
651.467	51561.62
651.819	51445.02
652.171	51417
652.523	51287.06
652.875	51185.14
653.227	50964.13
653.578	50995.99
653.93	50847.52
654.282	50725.49
654.633	50314.2
654.985	50353.07
655.337	50163.92
655.688	50209.8
656.039	50330.47
656.391	49986.98
656.742	50054.32
657.094	50163.24
657.445	50295.44
657.796	50327.98
658.147	50305.84
658.498	50378.83
658.849	50588.09
659.2	50659.28
659.551	50630.12
659.902	50811.59
660.253	50954.18
660.604	51064.69
660.955	50954.86
661.306	51066.04
661.656	51026.72
662.007	51013.16
662.358	51056.33
662.708	50894.75
663.059	50790.57
663.409	50497.47
663.76	50670.12
664.11	50470.58
664.461	50354.65
664.811	50249.34
665.161	50066.52
665.511	49839.64
665.862	49935
666.212	49754.21
666.562	49839.18
666.912	49626.53
667.262	49571.85
667.612	49552.64
667.962	49655.69
668.312	49648
668.662	49900.43
669.011	49921.44
669.361	50091.15
669.711	50087.09
670.06	50181.32
670.41	50269.68
670.76	50273.97
671.109	50555.55
671.459	50432.39
671.808	50553.52
672.157	50643
672.507	50478.49
672.856	50377.25
673.205	50425.84
673.554	50508.54
673.904	50387.64
674.253	50444.14
674.602	50149.23
674.951	49484.84
675.3	49273.55
675.649	49633.09
675.998	49561.23
676.346	49376.37
676.695	49515.35
677.044	48960.11
677.393	49102.71
677.741	48998.75
678.09	48947.68
678.438	48796.95
678.787	48897.97
679.135	48931.41
679.484	48724.64
679.832	48959.21
680.181	48780
680.529	49030.84
680.877	49072.65
681.225	49174.79
681.573	49503.6
681.922	49335.69
682.27	49412.3
682.618	49471.28
682.966	49566.87
683.314	49608.91
683.661	49448.01
684.009	49327.11
684.357	49180.67
684.705	49005.53
685.053	49092.99
685.4	49001.92
685.748	48759.89
686.095	48592.66
686.443	48391.31
686.79	48247.14
687.138	48052.34
687.485	47955.39
687.832	47640.15
688.18	47564.89
688.527	47297.56
688.874	47229.53
689.221	47030.44
689.568	47045.36
689.915	46830
690.262	46894.63
690.609	46778.47
690.956	46709.55
691.303	46776.21
691.65	46732.37
691.997	46849.88
692.344	46613.28
692.69	46784.12
693.037	46938.47
693.383	46731.92
693.73	47069.77
694.077	46891.24
694.423	46928.07
694.769	46939.83
695.116	46985.02
695.462	46844.69
695.808	46650.57
696.155	46646.5
696.501	46332.38
696.847	46229.34
697.193	45923.58
697.539	45899.17
697.885	45503.93
698.231	45329.02
698.577	45216.03
698.923	45078.86
699.269	44642.71
699.614	44325.2
699.96	44184.64
700.306	44118.2
700.651	43806.57
700.997	43544.66
701.342	43514.6
701.688	43462.85
702.033	43396.64
702.379	43303.31
702.724	43255.4
703.069	43374.72
703.415	43040.04
703.76	43246.59
704.105	43429.41
704.45	43378.56
704.795	43140.15
705.14	43206.14
705.485	43437.32
705.83	43289.75
706.175	43495.85
706.52	43289.75
706.865	43283.88
707.209	43280.03
707.554	43115.29
707.899	43397.32
708.243	43000.04
708.588	42884.56
708.932	42531.35
709.277	42579.71
709.621	42426.5
709.966	41938.37
710.31	42142.89
710.654	41589.91
710.998	41513.98
711.342	41337.71
711.687	41188.34
712.031	40899.98
712.375	40577.05
712.719	40528.02
713.063	40340
713.407	40425.42
713.75	40213
714.094	40281.47
714.438	40123.51
714.782	40121.47
715.125	39976.62
715.469	40161.47
715.812	40103.85
716.156	39920.35
716.499	40164.64
716.843	40239.66
717.186	39990.4
717.53	40358.98
717.873	40525.08
718.216	40399.21
718.559	40337.74
718.902	40187.01
719.246	40228.59
719.589	40419.77
719.932	40179.1
720.275	40256.84
720.617	40163.28
720.96	40085.77
721.303	39970.74
721.646	39942.95
721.989	39654.37
722.331	39693.91
722.674	39352.23
723.016	39324.43
723.359	39087.6
723.701	39011.45
724.044	38631.12
724.386	38495.3
724.729	38316.55
725.071	38157.01
725.413	38015.31
725.755	37920.85
726.097	37718.15
726.439	37640.41
726.782	37489.23
727.124	37790.24
727.465	37474.31
727.807	37534.42
728.149	37443.13
728.491	37485.16
728.833	37511.15
729.175	37451.26
729.516	37624.36
729.858	37660.07
730.199	37868.65
730.541	37817.58
730.882	37803.79
731.224	38012.38
731.565	37889.89
731.906	38049.21
732.248	38066.39
732.589	38006.05
732.93	37818.48
733.271	37705.27
733.612	37808.54
733.953	37651.03
734.294	37551.82
734.635	37387.53
734.976	37375.78
735.317	37116.13
735.658	36934.44
735.999	36984.61
736.339	36799.07
736.68	36715.24
737.021	36511.4
737.361	36100.34
737.702	36222.37
738.042	36095.36
738.383	35880
738.723	35941.47
739.063	35624.64
739.404	35690.63
739.744	35600.01
740.084	35420.81
740.424	35569.28
740.764	35440.24
741.104	35577.19
741.444	35407.92
741.784	35374.03
742.124	35576.51
742.464	35613.34
742.804	35554.14
743.143	35532.67
743.483	35603.63
743.823	35604.08
744.162	35753
744.502	35851.53
744.841	35753.9
745.181	35981.02
745.52	35863.51
745.86	36019.43
746.199	35842.72
746.538	35861.25
746.877	35804.52
747.216	35811.98
747.556	35631.87
747.895	35723.4
748.234	35425.1
748.573	35338.55
748.911	35295.61
749.25	35079.35
749.589	34781.95
749.928	34865.11
750.267	34670.77
750.605	34553.94
750.944	34333.6
751.283	34150.56
751.621	34043.89
751.96	33731.13
752.298	33544.02
752.636	33573.4
752.975	33467.64
753.313	33284.14
753.651	33437.13
753.989	33071.04
754.327	33094.77
754.666	32851.83
755.004	33040.53
755.342	33124.6
755.679	33007.76
756.017	32990.14
756.355	32946.52
756.693	32945.39
757.031	33110.58
757.368	32986.75
757.706	33174.99
758.044	32940.65
758.381	33055.67
758.719	32967.54
759.056	33098.38
759.394	33058.83
