Data from red_cardboard_box_FLMS001491_00003.txt Node
Date: Wed Feb 08 11:31:23 GMT 2017
User: dcchb
Spectrometer: FLMS00149
Trigger mode: 0
Integration Time (sec): 2.000000E-2
Scans to average: 10
Electric dark correction enabled: true
Nonlinearity correction enabled: false
Boxcar width: 0
XAxis mode: Wavelengths
Number of Pixels in Spectrum: 2048
>>>>>Begin Spectral Data<<<<<
341.393	-3.04
341.776	-3.04
342.16	-3.04
342.543	-36.93
342.927	-71.51
343.31	-77.38
343.693	-56.37
344.077	-79.42
344.46	-67.67
344.843	-53.2
345.226	-47.1
345.61	-17.73
345.993	-12.75
346.376	3.29
346.759	18.88
347.142	27.25
347.525	43.29
347.908	48.49
348.291	69.73
348.674	83.74
349.057	116.96
349.44	130.07
349.823	163.06
350.206	172.55
350.588	191.08
350.971	214.36
351.354	226.11
351.737	235.38
352.119	257.75
352.502	257.52
352.884	290.51
353.267	283.06
353.65	304.07
354.032	303.62
354.414	312.21
354.797	290.97
355.179	311.53
355.562	325.32
355.944	331.64
356.326	328.03
356.709	348.59
357.091	341.59
357.473	331.19
357.855	351.08
358.238	339.33
358.62	372.09
359.002	334.13
359.384	321.7
359.766	334.81
360.148	361.7
360.53	349.5
360.912	344.3
361.294	330.06
361.676	328.71
362.057	347.69
362.439	338.65
362.821	343.39
363.203	323.28
363.584	328.03
363.966	316.05
364.348	331.42
364.729	327.12
365.111	319.89
365.493	327.8
365.874	321.47
366.256	339.78
366.637	312.44
367.019	303.17
367.4	305.88
367.781	327.35
368.163	307.69
368.544	297.52
368.925	301.36
369.306	328.25
369.688	328.25
370.069	308.37
370.45	324.41
370.831	306.56
371.212	277.86
371.593	309.27
371.974	318.99
372.355	311.31
372.736	320.57
373.117	321.93
373.498	320.34
373.879	323.73
374.26	326.67
374.641	321.02
375.021	300.23
375.402	329.84
375.783	321.47
376.163	326.45
376.544	318.76
376.925	333.45
377.305	329.38
377.686	298.65
378.066	315.15
378.447	319.44
378.827	324.41
379.208	315.6
379.588	305.88
379.968	328.48
380.349	331.64
380.729	315.6
381.109	345.88
381.489	342.94
381.87	335.03
382.25	337.75
382.63	333.9
383.01	316.73
383.39	325.99
383.77	342.72
384.15	344.98
384.53	339.55
384.91	333.45
385.29	334.36
385.67	337.52
386.049	351.98
386.429	333.9
386.809	338.65
387.189	346.33
387.568	343.62
387.948	350.85
388.328	346.33
388.707	352.89
389.087	343.85
389.466	364.19
389.846	340.01
390.225	350.4
390.605	361.7
390.984	369.38
391.363	362.38
391.743	358.54
392.122	365.54
392.501	352.43
392.881	365.77
393.26	365.99
393.639	370.51
394.018	366.9
394.397	352.66
394.776	357.18
395.155	382.26
395.534	371.87
395.913	378.65
396.292	368.03
396.671	363.96
397.05	371.87
397.429	362.38
397.808	374.58
398.186	362.83
398.565	363.73
398.944	361.47
399.323	371.19
399.701	382.26
400.08	374.35
400.458	392.66
400.837	401.92
401.215	368.48
401.594	379.78
401.972	396.5
402.351	369.61
402.729	377.29
403.107	387.24
403.486	375.26
403.864	370.96
404.242	380.46
404.62	393.56
404.999	387.69
405.377	401.92
405.755	409.38
406.133	404.41
406.511	398.31
406.889	389.72
407.267	389.72
407.645	408.03
408.023	397.4
408.401	411.19
408.779	420.68
409.156	421.13
409.534	415.03
409.912	403.96
410.29	413.68
410.667	429.72
411.045	413.45
411.422	415.71
411.8	408.93
412.178	429.49
412.555	434.01
412.933	436.95
413.31	409.61
413.687	440.12
414.065	432.21
414.442	444.41
414.819	436.73
415.197	439.21
415.574	451.41
415.951	445.09
416.328	427.69
416.705	463.17
417.082	452.54
417.46	447.8
417.837	441.92
418.214	466.56
418.591	446.44
418.967	459.55
419.344	454.8
419.721	468.14
420.098	476.95
420.475	480.79
420.852	466.78
421.228	479.66
421.605	459.32
421.982	467.69
422.358	476.72
422.735	488.25
423.111	475.82
423.488	472.66
423.864	516.05
424.241	486.67
424.617	465.88
424.994	475.14
425.37	474.92
425.746	502.49
426.123	495.48
426.499	514.01
426.875	509.49
427.251	511.75
427.627	516.27
428.003	524.41
428.379	521.47
428.756	505.65
429.132	507.68
429.507	502.26
429.883	526.89
430.259	513.56
430.635	529.6
431.011	523.96
431.387	542.03
431.763	548.81
432.138	542.71
432.514	534.8
432.89	544.75
433.265	549.04
433.641	576.84
434.016	550.17
434.392	559.66
434.767	556.72
435.143	577.51
435.518	563.73
435.894	567.34
436.269	583.16
436.644	597.4
437.02	596.04
437.395	571.41
437.77	589.26
438.145	602.6
438.52	600.79
438.895	605.08
439.271	609.6
439.646	617.51
440.021	617.74
440.395	611.86
440.77	603.5
441.145	613.9
441.52	621.13
441.895	598.53
442.27	617.51
442.645	631.3
443.019	622.26
443.394	640.34
443.769	627.46
444.143	628.59
444.518	634.91
444.892	648.92
445.267	652.54
445.641	666.32
446.016	631.52
446.39	639.43
446.764	655.48
447.139	646.89
447.513	639.88
447.887	628.81
448.262	669.49
448.636	664.06
449.01	654.12
449.384	671.97
449.758	659.77
450.132	664.52
450.506	690.28
450.88	675.14
451.254	671.97
451.628	697.74
452.002	699.09
452.376	704.74
452.75	701.13
453.123	717.17
453.497	704.74
453.871	715.81
454.244	725.31
454.618	721.92
454.992	715.59
455.365	730.5
455.739	744.06
456.112	740.9
456.486	751.29
456.859	770.95
457.232	735.48
457.606	760.11
457.979	766.43
458.352	769.37
458.725	789.03
459.099	777.51
459.472	802.59
459.845	791.29
460.218	809.6
460.591	812.99
460.964	826.55
461.337	798.3
461.71	828.58
462.083	836.94
462.456	842.59
462.829	866.09
463.201	851.4
463.574	831.07
463.947	868.8
464.32	855.25
464.692	846.21
465.065	857.73
465.438	871.52
465.81	880.78
466.183	897.28
466.555	896.37
466.928	910.39
467.3	924.17
467.672	906.54
468.045	957.84
468.417	956.03
468.789	937.96
469.161	930.72
469.534	979.99
469.906	966.2
470.278	977.73
470.65	997.62
471.022	1020.67
471.394	1021.57
471.766	999.65
472.138	1016.15
472.51	1032.19
472.882	1073.77
473.253	1081
473.625	1062.7
473.997	1085.52
474.369	1069.7
474.74	1106.09
475.112	1120.78
475.484	1114
475.855	1134.33
476.227	1129.14
476.598	1161.9
476.97	1149.25
477.341	1179.76
477.713	1183.82
478.084	1198.97
478.455	1237.61
478.827	1227.67
479.198	1269.47
479.569	1251.17
479.94	1265.86
480.311	1291.39
480.682	1323.26
481.053	1335.23
481.424	1342.69
481.795	1339.07
482.166	1396.25
482.537	1389.92
482.908	1418.39
483.279	1447.77
483.65	1468.11
484.021	1468.34
484.391	1480.09
484.762	1513.31
485.133	1536.36
485.503	1518.73
485.874	1524.38
486.244	1555.79
486.615	1596.02
486.985	1568
487.356	1597.37
487.726	1640.31
488.097	1641.44
488.467	1652.74
488.837	1686.64
489.207	1684.83
489.578	1710.59
489.948	1725.28
490.318	1793.07
490.688	1760.31
491.058	1810.47
491.428	1824.26
491.798	1808.44
492.168	1868.33
492.538	1872.85
492.908	1905.61
493.278	1904.94
493.648	1948.78
494.017	1935.22
494.387	1976.12
494.757	1976.12
495.126	1987.19
495.496	1984.26
495.866	2021.32
496.235	2015.22
496.605	2025.16
496.974	2073.52
497.344	2095.44
497.713	2085.5
498.082	2095.21
498.452	2115.55
498.821	2106.74
499.19	2130.92
499.559	2212.05
499.928	2177.47
500.298	2175.44
500.667	2200.97
501.036	2193.52
501.405	2216.57
501.774	2215.66
502.143	2263.34
502.512	2299.5
502.88	2258.82
503.249	2315.55
503.618	2300.18
503.987	2312.38
504.356	2338.14
504.724	2368.2
505.093	2371.82
505.462	2391.25
505.83	2369.56
506.199	2411.82
506.567	2443.23
506.936	2416.79
507.304	2476.45
507.672	2462.21
508.041	2490.23
508.409	2509.67
508.777	2512.38
509.145	2560.74
509.514	2538.37
509.882	2586.5
510.25	2578.36
510.618	2584.69
510.986	2610.45
511.354	2653.84
511.722	2673.73
512.09	2679.6
512.458	2653.16
512.826	2713.95
513.193	2702.2
513.561	2732.48
513.929	2764.35
514.297	2784.01
514.664	2792.37
515.032	2804.35
515.4	2849.77
515.767	2896.77
516.135	2846.83
516.502	2863.1
516.869	2899.94
517.237	2917.11
517.604	2942.2
517.972	2940.16
518.339	2958.24
518.706	2945.81
519.073	3003.44
519.44	3007.05
519.808	3057.67
520.175	3060.84
520.542	3064.23
520.909	3130.89
521.276	3118.69
521.643	3127.5
522.009	3169.54
522.376	3174.73
522.743	3235.52
523.11	3229.19
523.477	3253.6
523.843	3266.48
524.21	3313.94
524.577	3352.58
524.943	3344.22
525.31	3367.04
525.676	3412.01
526.043	3408.85
526.409	3466.25
526.776	3486.59
527.142	3495.63
527.508	3505.57
527.874	3528.85
528.241	3571.56
528.607	3618.34
528.973	3635.29
529.339	3655.62
529.705	3710.76
530.071	3700.59
530.437	3717.09
530.803	3727.94
531.169	3786.69
531.535	3778.78
531.901	3770.2
532.267	3805.9
532.632	3863.98
532.998	3850.87
533.364	3871.89
533.73	3893.58
534.095	3916.86
534.461	3918.44
534.826	3964.77
535.192	3979.23
535.557	4000.93
535.923	4006.12
536.288	4043.41
536.653	4015.61
537.019	4071.21
537.384	4059.68
537.749	4133.58
538.114	4164.31
538.479	4150.53
538.845	4136.52
539.21	4170.64
539.575	4174.25
539.94	4190.07
540.305	4263.29
540.67	4236.63
541.034	4284.99
541.399	4316.85
541.764	4338.77
542.129	4329.05
542.494	4367.92
542.858	4380.8
543.223	4387.36
543.587	4409.73
543.952	4473.46
544.316	4433.46
544.681	4459.44
545.045	4526.56
545.41	4526.56
545.774	4503.51
546.138	4547.8
546.503	4592.55
546.867	4606.33
547.231	4647.24
547.595	4661.93
547.959	4638.42
548.324	4741.7
548.688	4690.63
549.052	4743.96
549.416	4778.08
549.779	4746.67
550.143	4780.34
550.507	4832.99
550.871	4846.55
551.235	4814.01
551.599	4954.8
551.962	4887.68
552.326	4943.73
552.689	4980.79
553.053	5011.75
553.417	4988.02
553.78	5043.38
554.143	5013.78
554.507	5085.19
554.87	5136.04
555.234	5219.42
555.597	5163.16
555.96	5181.46
556.323	5213.1
556.686	5278.41
557.05	5314.56
557.413	5377.84
557.776	5424.17
558.139	5427.56
558.502	5484.5
558.865	5468.46
559.228	5598.4
559.59	5627.78
559.953	5573.77
560.316	5661.45
560.679	5718.17
561.041	5780.09
561.404	5782.57
561.767	5856.92
562.129	5857.37
562.492	5951.16
562.854	5978.73
563.217	5984.15
563.579	6045.39
563.941	6098.27
564.304	6151.83
564.666	6197.93
565.028	6270.47
565.39	6257.36
565.753	6408.77
566.115	6429.34
566.477	6492.16
566.839	6528.77
567.201	6609.67
567.563	6582.1
567.925	6700.52
568.287	6721.53
568.648	6770.12
569.01	6887.86
569.372	6950.9
569.734	6984.35
570.095	7065.7
570.457	7131.69
570.819	7174.85
571.18	7234.97
571.542	7310.9
571.903	7359.71
572.265	7483.32
572.626	7513.83
572.987	7552.02
573.349	7659.36
573.71	7777.78
574.071	7836.53
574.432	7894.83
574.794	7921.5
575.155	8037.88
575.516	8086.24
575.877	8158.1
576.238	8280.81
576.599	8375.5
576.96	8452.11
577.32	8557.42
577.681	8713.12
578.042	8761.25
578.403	8809.39
578.763	8896.39
579.124	9016.61
579.485	9110.62
579.845	9212.09
580.206	9347
580.566	9516.71
580.927	9549.93
581.287	9756.03
581.648	9856.14
582.008	9979.3
582.368	10095.68
582.728	10269.24
583.089	10397.37
583.449	10481.89
583.809	10707.87
584.169	10800.52
584.529	10882.1
584.889	11191.92
585.249	11295.65
585.609	11386.04
585.969	11651.35
586.329	11775.86
586.688	11988.29
587.048	12197.32
587.408	12357.54
587.768	12574.03
588.127	12783.07
588.487	12978.09
588.846	13299.89
589.206	13378.31
589.565	13557.74
589.925	13912.98
590.284	14042.92
590.643	14416.47
591.003	14552.06
591.362	14795.9
591.721	15136.23
592.08	15349.33
592.44	15663.67
592.799	15903.89
593.158	16191.11
593.517	16520.37
593.876	16715.85
594.235	16954.94
594.593	17246
594.952	17650.28
595.311	17926.44
595.67	18231.96
596.029	18653.2
596.387	18935.67
596.746	19339.73
597.104	19511.48
597.463	19781.53
597.822	20156.66
598.18	20434.17
598.538	20756.19
598.897	21180.14
599.255	21286.8
599.613	21961.36
599.972	22118.42
600.33	22538.74
600.688	22704.84
601.046	23144.6
601.404	23500.3
601.762	23701.88
602.12	24317.23
602.478	24603.55
602.836	24884.22
603.194	25132.8
603.552	25402.62
603.91	25687.59
604.268	26204.64
604.625	26267.91
604.983	26832.87
605.341	26981.79
605.698	27482.57
606.056	27754.65
606.413	28029.9
606.771	28350.79
607.128	28676.21
607.485	28834.85
607.843	29061.06
608.2	29513.48
608.557	29890.87
608.914	30074.59
609.272	30401.36
609.629	30675.48
609.986	30968.13
610.343	31185.75
610.7	31547.32
611.057	31625.74
611.414	31942.34
611.771	32198.38
612.127	32569.44
612.484	32748.87
612.841	33025.25
613.198	33166.94
613.554	33327.39
613.911	33755.4
614.267	33743.42
614.624	34034.49
614.98	34350.41
615.337	34502.72
615.693	34598.31
616.05	34711.76
616.406	35204.4
616.762	35152.88
617.118	35448.01
617.475	35578.4
617.831	35696.36
618.187	35942.01
618.543	36158.72
618.899	36299.29
619.255	36597.13
619.611	36530.47
619.967	36852.94
620.323	37022.2
620.678	36872.15
621.034	37041.87
621.39	37255.64
621.746	37294.29
622.101	37729.08
622.457	37746.71
622.812	37709.19
623.168	37955.74
623.523	38076.19
623.879	38218.56
624.234	38118.67
624.589	38414.48
624.945	38437.99
625.3	38601.82
625.655	38583.75
626.01	38814.47
626.365	38803.63
626.72	38875.49
627.075	38892.89
627.43	39005.88
627.785	38934.24
628.14	39110.29
628.495	39176.95
628.85	39301.69
629.205	39186.22
629.559	39436.83
629.914	39393.22
630.269	39411.75
630.623	39340.11
630.978	39384.63
631.332	39688.12
631.687	39759.53
632.041	39633.21
632.396	39740.78
632.75	39591.63
633.104	39856.71
633.459	39516.15
633.813	39830.04
634.167	39718.18
634.521	39792.3
634.875	39722.7
635.229	39843.83
635.583	39575.13
635.937	39670.95
636.291	39854.67
636.645	39843.15
636.999	39692.64
637.352	39824.62
637.706	39660.78
638.06	39915.01
638.413	39691.29
638.767	39720.21
639.121	39929.7
639.474	39684.06
639.828	39630.72
640.181	39907.1
640.534	39842.92
640.888	39755.24
641.241	39675.47
641.594	39779.65
641.947	39842.92
642.301	39694
642.654	39828.01
643.007	39815.58
643.36	39760.21
643.713	39768.35
644.066	39900.55
644.419	39599.09
644.771	39254.24
645.124	38963.85
645.477	38922.27
645.83	38709.17
646.182	38804.53
646.535	38647.02
646.888	38889.27
647.24	38731.31
647.593	38690.64
647.945	38720.92
648.298	38794.81
648.65	38717.08
649.002	38556.63
649.355	38812.21
649.707	38668.04
650.059	38739
650.411	39293.56
650.763	39254.01
651.115	39732.19
651.467	39610.84
651.819	39634.79
652.171	39591.63
652.523	39574.91
652.875	39479.09
653.227	39351.63
653.578	39612.19
653.93	39593.89
654.282	39502.37
654.633	39250.39
654.985	39488.35
655.337	39541.46
655.688	39529.26
656.039	39700.1
656.391	39299.21
656.742	39562.25
657.094	39418.98
657.445	39506.21
657.796	39345.76
658.147	39484.74
658.498	39364.74
658.849	39425.76
659.2	39333.78
659.551	39257.63
659.902	39358.19
660.253	39240.45
660.604	39331.3
660.955	39087.46
661.306	39328.58
661.656	39266.44
662.007	39226.44
662.358	39234.58
662.708	39267.12
663.059	39351.63
663.409	39162.04
663.76	39470.05
664.11	39268.7
664.461	39478.41
664.811	39352.76
665.161	39331.97
665.511	39321.13
665.862	39357.51
666.212	39452.65
666.562	39300.34
666.912	39336.49
667.262	39175.59
667.612	39163.62
667.962	39356.15
668.312	39361.35
668.662	39461.69
669.011	39355.02
669.361	39305.99
669.711	39140.11
670.06	39254.24
670.41	39038.42
670.76	39087.91
671.109	39296.95
671.459	39278.19
671.808	39222.37
672.157	39142.6
672.507	38832.33
672.856	39007.01
673.205	38910.29
673.554	39128.82
673.904	38902.61
674.253	39290.85
674.602	39145.99
674.951	38668.04
675.3	38256.07
675.649	38973.79
675.998	39101.02
676.346	38946.67
676.695	39077.74
677.044	38706.23
677.393	38807.92
677.741	38920.69
678.09	38914.81
678.438	38691.77
678.787	38736.51
679.135	38775.83
679.484	38639.79
679.832	38745.1
680.181	38526.35
680.529	38778.54
680.877	38594.37
681.225	38485.44
681.573	38776.51
681.922	38435.73
682.27	38353.47
682.618	38346.69
682.966	38266.01
683.314	38257.2
683.661	38164.55
684.009	37953.03
684.357	37988.73
684.705	37781.51
685.053	37910.54
685.4	37932.92
685.748	37749.42
686.095	37790.77
686.443	37580.38
686.79	37571.79
687.138	37657.44
687.485	37537.67
687.832	37436.43
688.18	37489.31
688.527	37290.67
688.874	37235.98
689.221	37151.92
689.568	37244.35
689.915	36991.24
690.262	37067.18
690.609	36908.76
690.956	36775.66
691.303	36774.3
691.65	36594.19
691.997	36577.24
692.344	36415.67
692.69	36400.98
693.037	36413.86
693.383	36095.45
693.73	36253.19
694.077	36023.13
694.423	35996.92
694.769	35958.05
695.116	35889.13
695.462	35902.23
695.808	35648
696.155	35760.77
696.501	35504.05
696.847	35515.35
697.193	35250.95
697.539	35469.7
697.885	35021.35
698.231	35015.03
698.577	35072.2
698.923	34941.58
699.269	34773.45
699.614	34695.26
699.96	34653.45
700.306	34735.26
700.651	34504.3
700.997	34394.48
701.342	34354.48
701.688	34171.21
702.033	34270.86
702.379	34150.64
702.724	34031.1
703.069	34058.21
703.415	33653.48
703.76	33774.61
704.105	33761.5
704.45	33708.85
704.795	33569.41
705.14	33435.63
705.485	33451.45
705.83	33242.19
706.175	33245.58
706.52	33204.45
706.865	33099.14
707.209	33055.08
707.554	32951.35
707.899	33034.06
708.243	32897.57
708.588	32811.02
708.932	32638.59
709.277	32537.12
709.621	32483.11
709.966	32327.41
710.31	32471.59
710.654	32251.71
710.998	32279.5
711.342	32260.75
711.687	32209.22
712.031	32068.66
712.375	31808.1
712.719	31914.32
713.063	31901.44
713.407	31941.89
713.75	31718.39
714.094	31698.05
714.438	31661.89
714.782	31669.12
715.125	31559.98
715.469	31639.52
715.812	31371.73
716.156	31328.34
716.499	31303.71
716.843	31245.18
717.186	31060.33
717.53	31232.07
717.873	31260.32
718.216	31095.81
718.559	31029.82
718.902	30757.96
719.246	30931.74
719.589	30780.11
719.932	30734.46
720.275	30671.64
720.617	30601.36
720.96	30498.76
721.303	30620.11
721.646	30649.26
721.989	30470.96
722.331	30580.57
722.674	30498.53
723.016	30410.85
723.359	30264.19
723.701	30429.84
724.044	30253.79
724.386	30088.38
724.729	30153.91
725.071	30078.21
725.413	30032.56
725.755	30027.59
726.097	29888.83
726.439	29774.94
726.782	29778.33
727.124	29866.69
727.465	29724.09
727.807	29681.83
728.149	29740.14
728.491	29535.4
728.833	29622.4
729.175	29550.99
729.516	29451.78
729.858	29335.17
730.199	29426.47
730.541	29445.68
730.882	29435.29
731.224	29432.12
731.565	29115.52
731.906	29185.35
732.248	29285.46
732.589	29001.62
732.93	28984
733.271	28918.91
733.612	28966.6
733.953	29098.12
734.294	28887.28
734.635	28818.8
734.976	29005.69
735.317	28804.57
735.658	28783.1
735.999	28789.65
736.339	28715.53
736.68	28720.05
737.021	28643.89
737.361	28646.38
737.702	28723.67
738.042	28563.22
738.383	28496.33
738.723	28511.24
739.063	28327.74
739.404	28425.14
739.744	28381.98
740.084	28349.66
740.424	28474.63
740.764	28357.8
741.104	28305.15
741.444	28220.63
741.784	28138.14
742.124	28128.65
742.464	28040.29
742.804	27970.47
743.143	28025.6
743.483	28010.69
743.823	27843.91
744.162	27807.08
744.502	27954.42
744.841	27840.3
745.181	27919.39
745.52	27746.06
745.86	27751.71
746.199	27878.72
746.538	27651.83
746.877	27745.61
747.216	27732.73
747.556	27579.29
747.895	27708.1
748.234	27639.4
748.573	27521.89
748.911	27496.81
749.25	27494.55
749.589	27304.04
749.928	27312.86
750.267	27332.29
750.605	27312.86
750.944	27223.14
751.283	27163.25
751.621	27161.22
751.96	26993.09
752.298	27061.56
752.636	27117.83
752.975	26928.23
753.313	26880.32
753.651	26950.83
753.989	26870.61
754.327	26859.76
754.666	26523.72
755.004	26631.07
755.342	26558.52
755.679	26607.56
756.017	26525.08
756.355	26575.47
756.693	26366.67
757.031	26440.11
757.368	26257.97
757.706	26258.87
758.044	26113.11
758.381	26156.95
758.719	26038.76
759.056	26083.74
759.394	26047.8
759.731	25877.86
760.068	25782.05
760.405	25770.52
760.743	25509.51
761.08	25637.19
