Data from red_shiny_book_FLMS001491_00041.txt Node
Date: Wed Feb 08 15:24:54 GMT 2017
User: dcchb
Spectrometer: FLMS00149
Trigger mode: 0
Integration Time (sec): 2.000000E-2
Scans to average: 10
Electric dark correction enabled: true
Nonlinearity correction enabled: false
Boxcar width: 0
XAxis mode: Wavelengths
Number of Pixels in Spectrum: 2048
>>>>>Begin Spectral Data<<<<<
341.393	-16.65
341.776	-16.65
342.16	-16.65
342.543	-72.02
342.927	-65.92
343.31	-80.38
343.693	-92.13
344.077	-43.54
344.46	-47.61
344.843	-54.84
345.226	-18.91
345.61	-38.12
345.993	5.49
346.376	1.88
346.759	12.27
347.142	17.7
347.525	38.04
347.908	35.78
348.291	61.31
348.674	100.86
349.057	102.21
349.44	134.08
349.823	151.25
350.206	158.48
350.588	199.39
350.971	218.37
351.354	234.19
351.737	266.5
352.119	254.98
352.502	282.55
352.884	282.55
353.267	307.41
353.65	306.96
354.032	306.28
354.414	330.91
354.797	315.77
355.179	321.42
355.562	335.66
355.944	331.14
356.326	330.68
356.709	350.34
357.091	344.24
357.473	370.46
357.855	359.61
358.238	349.44
358.62	377.91
359.002	351.25
359.384	348.54
359.766	345.82
360.148	321.87
360.53	374.07
360.912	347.41
361.294	347.63
361.676	349.67
362.057	341.08
362.439	343.56
362.821	346.95
363.203	337.69
363.584	347.63
363.966	338.59
364.348	341.98
364.729	327.75
365.111	322.77
365.493	328.88
365.874	318.93
366.256	326.84
366.637	332.27
367.019	324.58
367.4	312.38
367.781	332.04
368.163	349.21
368.544	317.58
368.925	344.92
369.306	355.32
369.688	332.49
370.069	332.49
370.45	322.55
370.831	329.33
371.212	323.9
371.593	330.46
371.974	329.78
372.355	345.37
372.736	334.07
373.117	327.97
373.498	334.75
373.879	337.91
374.26	319.61
374.641	302.66
375.021	345.37
375.402	324.13
375.783	324.81
376.163	332.72
376.544	329.1
376.925	349.44
377.305	348.99
377.686	334.98
378.066	351.47
378.447	353.96
378.827	330.46
379.208	336.11
379.588	347.86
379.968	353.06
380.349	332.94
380.729	353.51
381.109	351.02
381.489	337.91
381.87	345.82
382.25	337.24
382.63	354.41
383.01	374.98
383.39	364.35
383.77	348.31
384.15	352.38
384.53	371.36
384.91	359.61
385.29	352.6
385.67	376.78
386.049	413.39
386.429	368.42
386.809	366.84
387.189	370.91
387.568	372.26
387.948	360.74
388.328	375.88
388.707	368.65
389.087	372.04
389.466	371.13
389.846	381.3
390.225	379.95
390.605	385.6
390.984	375.2
391.363	383.34
391.743	418.36
392.122	367.97
392.501	409.78
392.881	385.15
393.26	385.37
393.639	385.6
394.018	390.79
394.397	405.26
394.776	382.21
395.155	399.38
395.534	408.42
395.913	409.55
396.292	409.55
396.671	409.78
397.05	381.76
397.429	428.76
397.808	390.12
398.186	389.44
398.565	388.76
398.944	411.13
399.323	402.32
399.701	433.05
400.08	404.13
400.458	414.3
400.837	423.56
401.215	438.48
401.594	424.47
401.972	445.26
402.351	415.43
402.729	465.37
403.107	428.08
403.486	450.91
403.864	431.02
404.242	465.14
404.62	450.68
404.999	453.17
405.377	446.16
405.755	433.51
406.133	443.9
406.511	451.36
406.889	461.53
407.267	455.65
407.645	471.92
408.023	471.24
408.401	493.62
408.779	458.82
409.156	487.06
409.534	478.48
409.912	471.47
410.29	483.45
410.667	481.64
411.045	510.34
411.422	511.92
411.8	505.82
412.178	494.29
412.555	506.95
412.933	522.09
413.31	524.58
413.687	513.73
414.065	489.32
414.442	518.48
414.819	520.28
415.197	552.15
415.574	555.31
415.951	573.61
416.328	566.38
416.705	575.2
417.082	557.57
417.46	547.17
417.837	565.03
418.214	564.8
418.591	570.68
418.967	578.36
419.344	578.36
419.721	586.95
420.098	603.44
420.475	587.63
420.852	607.74
421.228	607.74
421.605	591.92
421.982	583.33
422.358	616.1
422.735	633.27
423.111	642.31
423.488	631.24
423.864	637.79
424.241	650.22
424.617	655.87
424.994	646.61
425.37	660.39
425.746	646.38
426.123	661.75
426.499	660.62
426.875	671.01
427.251	671.69
427.627	680.5
428.003	693.61
428.379	724.12
428.756	719.15
429.132	688.64
429.507	729.54
429.883	720.96
430.259	682.76
430.635	712.37
431.011	702.88
431.387	714.18
431.763	736.32
432.138	769.54
432.514	744.91
432.89	762.54
433.265	774.29
433.641	773.84
434.016	766.83
434.392	754.85
434.767	765.25
435.143	774.29
435.518	792.59
435.894	785.81
436.269	809.31
436.644	839.6
437.02	822.65
437.395	846.38
437.77	818.81
438.145	860.39
438.52	856.32
438.895	820.61
439.271	815.64
439.646	861.97
440.021	853.61
440.395	871.91
440.77	864.91
441.145	897.9
441.52	908.97
441.895	920.5
442.27	908.97
442.645	899.71
443.019	914.17
443.394	889.54
443.769	870.1
444.143	889.99
444.518	901.29
444.892	887.96
445.267	930.22
445.641	939.93
446.016	975.64
446.39	951.01
446.764	954.4
447.139	984.68
447.513	960.27
447.887	936.09
448.262	951.23
448.636	951.01
449.01	945.58
449.384	961.18
449.758	939.48
450.132	975.64
450.506	981.29
450.88	999.37
451.254	1014.51
451.628	1023.09
452.002	1015.19
452.376	1016.99
452.75	1006.37
453.123	1002.53
453.497	1005.47
453.871	999.82
454.244	1028.07
454.618	1024.9
454.992	1058.8
455.365	1113.04
455.739	1079.82
456.112	1093.38
456.486	1104.9
456.859	1130.89
457.232	1120.72
457.606	1091.34
457.979	1082.53
458.352	1068.97
458.725	1100.61
459.099	1112.36
459.472	1125.69
459.845	1157.1
460.218	1160.94
460.591	1178.34
460.964	1192.13
461.337	1231
461.71	1235.74
462.083	1224.45
462.456	1195.07
462.829	1198.46
463.201	1173.83
463.574	1183.09
463.947	1196.88
464.32	1205.01
464.692	1245.91
465.065	1230.09
465.438	1310.77
465.81	1315.97
466.183	1325.46
466.555	1366.36
466.928	1350.54
467.3	1313.71
467.672	1349.64
468.045	1320.49
468.417	1306.7
468.789	1327.04
469.161	1303.54
469.534	1342.63
469.906	1391.45
470.278	1431.9
470.65	1450.43
471.022	1483.87
471.394	1517.09
471.766	1550.31
472.138	1556.64
472.51	1543.76
472.882	1567.71
473.253	1523.65
473.625	1541.05
473.997	1503.53
474.369	1553.25
474.74	1561.39
475.112	1614.49
475.484	1614.72
475.855	1701.95
476.227	1712.12
476.598	1773.13
476.97	1797.76
477.341	1825.11
477.713	1812.9
478.084	1795.73
478.455	1841.15
478.827	1823.3
479.198	1843.64
479.569	1809.74
479.94	1847.93
480.311	1893.13
480.682	1937.87
481.053	1975.16
481.424	2038.66
481.795	2102.39
482.166	2123.18
482.537	2208.37
482.908	2204.08
483.279	2235.49
483.65	2242.5
484.021	2239.33
484.391	2209.96
484.762	2211.54
485.133	2212.67
485.503	2260.12
485.874	2312.55
486.244	2334.02
486.615	2425.77
486.985	2482.04
487.356	2562.49
487.726	2621.47
488.097	2634.13
488.467	2682.49
488.837	2694.69
489.207	2709.15
489.578	2703.5
489.948	2661.02
490.318	2678.42
490.688	2685.65
491.058	2675.03
491.428	2728.59
491.798	2819.88
492.168	2862.14
492.538	2966.32
492.908	3024.17
493.278	3109.82
493.648	3100.78
494.017	3195.47
494.387	3206.31
494.757	3140.78
495.126	3145.52
495.496	3085.64
495.866	3082.7
496.235	3082.48
496.605	3093.77
496.974	3113.44
497.344	3206.54
497.713	3176.48
498.082	3244.73
498.452	3357.5
498.821	3434.56
499.19	3444.27
499.559	3507.55
499.928	3557.72
500.298	3551.84
500.667	3591.16
501.036	3503.93
501.405	3493.99
501.774	3419.19
502.143	3407.21
502.512	3394.78
502.88	3373.54
503.249	3388.91
503.618	3443.82
503.987	3528.11
504.356	3593.2
504.724	3691.5
505.093	3702.35
505.462	3750.93
505.83	3874.09
506.199	3857.14
506.567	3897.6
506.936	3825.28
507.304	3787.09
507.672	3726.3
508.041	3691.72
508.409	3658.51
508.777	3639.07
509.145	3629.13
509.514	3682.01
509.882	3686.75
510.25	3772.4
510.618	3834.55
510.986	3935.11
511.354	4010.81
511.722	4058.27
512.09	4139.85
512.458	4117.25
512.826	4106.86
513.193	4113.41
513.561	4026.41
513.929	3996.12
514.297	3962
514.664	3925.39
515.032	3859.63
515.4	3937.37
515.767	3887.65
516.135	3940.76
516.502	3968.33
516.869	4116.35
517.237	4163.58
517.604	4260.52
517.972	4342.1
518.339	4358.6
518.706	4438.82
519.073	4389.11
519.44	4355.21
519.808	4326.96
520.175	4242.44
520.542	4242.22
520.909	4150.92
521.276	4070.92
521.643	4084.26
522.009	4139.4
522.376	4145.27
522.743	4255.33
523.11	4327.41
523.477	4409.9
523.843	4522.89
524.21	4573.51
524.577	4689.21
524.943	4752.71
525.31	4816.89
525.676	4846.95
526.043	4808.08
526.409	4804.46
526.776	4750.68
527.142	4671.36
527.508	4620.51
527.874	4602.44
528.241	4557.24
528.607	4565.15
528.973	4606.05
529.339	4661.19
529.705	4828.42
530.071	4903.9
530.437	4991.13
530.803	5144.79
531.169	5231.8
531.535	5307.5
531.901	5356.99
532.267	5405.58
532.632	5413.49
532.998	5356.31
533.364	5317.9
533.73	5257.11
534.095	5216.66
534.461	5171.46
534.826	5135.08
535.192	5123.1
535.557	5110.22
535.923	5119.71
536.288	5229.31
536.653	5341.4
537.019	5440.15
537.384	5565.35
537.749	5702.52
538.114	5817.54
538.479	5884.89
538.845	5948.16
539.21	5960.59
539.575	5958.11
539.94	5918.11
540.305	5863.87
540.67	5784.33
541.034	5768.96
541.399	5688.28
541.764	5593.37
542.129	5589.75
542.494	5629.53
542.858	5649.87
543.223	5670.2
543.587	5784.33
543.952	5916.53
544.316	5990.2
544.681	6171.66
545.045	6295.72
545.41	6355.16
545.774	6526.68
546.138	6494.59
546.503	6480.13
546.867	6446.91
547.231	6431.54
547.595	6374.37
547.959	6274.71
548.324	6183.64
548.688	6107.93
549.052	6049.4
549.416	5979.12
549.779	5982.74
550.143	5985.45
550.507	6081.04
550.871	6147.48
551.235	6273.58
551.599	6402.61
551.962	6481.48
552.326	6609.39
552.689	6791.08
553.053	6820
553.417	6850.96
553.78	6920.11
554.143	6840.79
554.507	6873.56
554.87	6739.78
555.234	6695.04
555.597	6517.19
555.96	6381.15
556.323	6346.12
556.686	6314.48
557.05	6294.59
557.413	6319
557.776	6334.14
558.139	6442.84
558.502	6518.77
558.865	6686
559.228	6801.7
559.59	6953.11
559.953	7032.43
560.316	7182.48
560.679	7290.73
561.041	7325.3
561.404	7337.28
561.767	7292.08
562.129	7230.39
562.492	7161.69
562.854	7041.02
563.217	6897.97
563.579	6829.72
563.941	6806.67
564.304	6731.87
564.666	6690.52
565.028	6674.25
565.39	6721.02
565.753	6824.75
566.115	6989.94
566.477	7129.6
566.839	7220.67
567.201	7334.34
567.563	7481.68
567.925	7704.73
568.287	7850.26
568.648	7799.87
569.01	7953.99
569.372	7946.98
569.734	7809.81
570.095	7803.93
570.457	7655.01
570.819	7630.15
571.18	7509.93
571.542	7376.6
571.903	7324.62
572.265	7299.31
572.626	7219.99
572.987	7221.35
573.349	7332.99
573.71	7459.54
574.071	7633.77
574.432	7764.16
574.794	7987.43
575.155	8151.95
575.516	8372.96
575.877	8508.1
576.238	8654.76
576.599	8807.3
576.96	8887.07
577.32	8939.27
577.681	9003
578.042	9011.13
578.403	9000.74
578.763	8965.26
579.124	8961.64
579.485	8954.19
579.845	8984.47
580.206	8949.67
580.566	9008.65
580.927	9221.52
581.287	9401.41
581.648	9531.35
582.008	9897.66
582.368	10171.78
582.728	10532.9
583.089	10843.63
583.449	11339.21
583.809	11719.31
584.169	12044.5
584.529	12390.48
584.889	12936.23
585.249	13134.19
585.609	13379.83
585.969	13765.58
586.329	13963.32
586.688	14227.95
587.048	14463.42
587.408	14699.12
587.768	15006.68
588.127	15284.64
588.487	15548.59
588.846	16007.79
589.206	16377.95
589.565	16813.64
589.925	17316
590.284	17842.77
590.643	18400.72
591.003	19052.9
591.362	19711.42
591.721	20230.27
592.08	20849.47
592.44	21582.55
592.799	22157.68
593.158	22679.47
593.517	23286.01
593.876	23835.6
594.235	24209.15
594.593	24643.49
594.952	25061.78
595.311	25418.39
595.67	25935.43
596.029	26281.64
596.387	26647.05
596.746	27017.44
597.104	27338.79
597.463	27807.48
597.822	28460.79
598.18	28702.37
598.538	29154.56
598.897	29911.37
599.255	30262.33
599.613	31275.41
599.972	31674.04
600.33	32316.28
600.688	32812.77
601.046	33505.86
601.404	34233.07
601.762	34656.33
602.12	35378.58
602.478	35794.84
602.836	36211.77
603.194	36461.94
603.552	36734.02
603.91	36897.41
604.268	37575.58
604.625	37485.86
604.983	37832.07
605.341	37928.11
605.698	38233.64
606.056	38834.53
606.413	39058.48
606.771	39416.89
607.128	39701.17
607.485	40010.77
607.843	40429.52
608.2	40842.39
608.557	41508.13
608.914	41772.31
609.272	42258.62
609.629	42758.49
609.986	43242.78
610.343	43528.87
610.7	44044.11
611.057	44113.04
611.414	44486.81
611.771	44809.06
612.127	45082.5
612.484	45136.51
612.841	45373.11
613.198	45350.97
613.554	45414.92
613.911	45639.77
614.267	45702.6
614.624	45775.82
614.98	45918.86
615.337	46074.11
615.693	46077.96
616.05	46200.66
616.406	46712.74
616.762	46728.11
617.118	46775.79
617.475	46953.86
617.831	47296.45
618.187	47518.82
618.543	47909.32
618.899	48283.09
619.255	48365.8
619.611	48499.59
619.967	48862.74
620.323	49028.84
620.678	49017.31
621.034	49020.02
621.39	48912.91
621.746	49086.01
622.101	49427.25
622.457	49157.65
622.812	49161.26
623.168	49228.38
623.523	49151.77
623.879	49256.63
624.234	48909.75
624.589	49138.67
624.945	49059.57
625.3	49194.71
625.655	49232.22
626.01	49117.2
626.365	49307.93
626.72	49379.34
627.075	49371.2
627.43	49652.78
627.785	49624.08
628.14	49794.69
628.495	50073.78
628.85	50053.67
629.205	50009.6
629.559	50429.25
629.914	50318.07
630.269	50360.78
630.623	50432.64
630.978	50352.42
631.332	50405.3
631.687	50411.63
632.041	50187
632.396	50127.79
632.75	50118.75
633.104	49982.94
633.459	49805.54
633.813	49756.5
634.167	49672.44
634.521	49650.29
634.875	49696.17
635.229	49537.07
635.583	49358.77
635.937	49399.22
636.291	49491.2
636.645	49611.87
636.999	49579.78
637.352	49690.06
637.706	49665.43
638.06	49831.75
638.413	49929.61
638.767	49852.55
639.121	50037.62
639.474	49817.07
639.828	49909.94
640.181	50016.16
640.534	50087.12
640.888	49942.71
641.241	49829.95
641.594	49878.99
641.947	49713.79
642.301	49636.73
642.654	49657.07
643.007	49484.42
643.36	49358.55
643.713	49132.56
644.066	49177.53
644.419	48890.76
644.771	48689.86
645.124	48349.76
645.477	48117.22
645.83	47994.29
646.182	47940.73
646.535	47866.16
646.888	48048.07
647.24	47892.82
647.593	48168.52
647.945	48180.05
648.298	48067.06
648.65	48120.39
649.002	48187.96
649.355	48283.09
649.707	48288.07
650.059	48459.81
650.411	48899.35
650.763	48931.67
651.115	49234.93
651.467	49151.32
651.819	49025.9
652.171	48827.49
652.523	48729.64
652.875	48691.22
653.227	48330.1
653.578	48559.92
653.93	48366.93
654.282	48124
654.633	47893.27
654.985	48050.56
655.337	47987.74
655.688	47966.04
656.039	48056.21
656.391	47758.81
656.742	47783.22
657.094	48092.14
657.445	48133.72
657.796	48185.92
658.147	48178.24
658.498	48172.14
658.849	48473.15
659.2	48373.49
659.551	48335.97
659.902	48551.56
660.253	48628.17
660.604	48600.37
660.955	48430.89
661.306	48587.72
661.656	48514.05
662.007	48498
662.358	48410.78
662.708	48368.29
663.059	48289.42
663.409	47958.36
663.76	48207.16
664.11	48011.46
664.461	47944.12
664.811	47815.76
665.161	47658.93
665.511	47538.93
665.862	47507.52
666.212	47558.82
666.562	47523.79
666.912	47547.52
667.262	47439.73
667.612	47389.56
667.962	47677.91
668.312	47573.73
668.662	47841.3
669.011	47808.53
669.361	47815.99
669.711	47842.88
670.06	47924.69
670.41	47860.51
670.76	47810.79
671.109	48001.29
671.459	48023.67
671.808	47959.71
672.157	48123.1
672.507	47785.25
672.856	47845.82
673.205	47884.46
673.554	47767.18
673.904	47596.11
674.253	47783.67
674.602	47483.57
674.951	46794.77
675.3	46695.57
675.649	47054.65
675.998	46979.17
676.346	46890.59
676.695	46885.39
677.044	46643.59
677.393	46698.5
677.741	46639.97
678.09	46597.26
678.438	46604.27
678.787	46653.31
679.135	46634.1
679.484	46471.17
679.832	46683.14
680.181	46561.11
680.529	46810.82
680.877	46813.53
681.225	46847.88
681.573	47096.23
681.922	46957.71
682.27	46892.4
682.618	47018.72
682.966	46818.27
683.314	47004.71
683.661	46777.82
684.009	46679.52
684.357	46565.17
684.705	46561.56
685.053	46543.71
685.4	46314.11
685.748	45996.15
686.095	45822.14
686.443	45624.18
686.79	45515.26
687.138	45522.49
687.485	45393.45
687.832	45098.55
688.18	45229.62
688.527	44895.16
688.874	44835.05
689.221	44820.14
689.568	44601.16
689.915	44626.69
690.262	44647.94
690.609	44515.06
690.956	44643.42
691.303	44565.9
691.65	44466.92
691.997	44483.87
692.344	44422.41
692.69	44443.2
693.037	44544.89
693.383	44160.04
693.73	44518.67
694.077	44172.47
694.423	44317.78
694.769	44193.94
695.116	44083.88
695.462	44098.57
695.808	43763.67
696.155	43858.35
696.501	43443.22
696.847	43441.87
697.193	43144.7
697.539	43216.79
697.885	42711.49
698.231	42519.18
698.577	42467.88
698.923	42276.93
699.269	42082.58
699.614	41912.87
699.96	41608.92
700.306	41730.95
700.651	41344.75
700.997	41299.78
701.342	41243.51
701.688	41238.53
702.033	41257.06
702.379	41205.77
702.724	41238.99
703.069	41141.36
703.415	40865.66
703.76	41036.51
704.105	41066.34
704.45	41140.46
704.795	40842.61
705.14	40797.87
705.485	40930.29
705.83	40776.17
706.175	40915.38
706.52	40749.28
706.865	40690.3
707.209	40613.47
707.554	40611.66
707.899	40496.41
708.243	40329.63
708.588	40124.89
708.932	39804.67
709.277	39852.36
709.621	39701.63
709.966	39347.28
710.31	39468.19
710.654	39002.21
710.998	39028.2
711.342	38919.95
711.687	38705.72
712.031	38596.34
712.375	38314.32
712.719	38395.22
713.063	38332.4
713.407	38424.15
713.75	38154.32
714.094	38169.01
714.438	37988
714.782	38063.93
715.125	38064.15
715.469	38167.43
715.812	37997.04
716.156	37983.03
716.499	37813.77
716.843	38033.19
717.186	37902.35
717.53	38228.9
717.873	38185.51
718.216	38022.12
718.559	37961.78
718.902	37747.1
719.246	37859.64
719.589	37646.54
719.932	37606.09
720.275	37704.62
720.617	37603.83
720.96	37476.83
721.303	37390.95
721.646	37306.21
721.989	37108.02
722.331	37162.71
722.674	36851.31
723.016	36820.57
723.359	36715.26
723.701	36536.96
724.044	36289.74
724.386	36081.61
724.729	36145.11
725.071	36009.07
725.413	35919.35
725.755	35776.53
726.097	35702.86
726.439	35550.55
726.782	35575.63
727.124	35745.12
727.465	35547.84
727.807	35548.74
728.149	35495.63
728.491	35564.56
728.833	35614.28
729.175	35430.1
729.516	35519.36
729.858	35559.14
730.199	35640.72
730.541	35734.5
730.882	35619.25
731.224	35751.9
731.565	35626.7
731.906	35655.86
732.248	35649.53
732.589	35546.48
732.93	35444.34
733.271	35451.79
733.612	35316.66
733.953	35376.54
734.294	35168.86
734.635	35125.47
734.976	35112.14
735.317	34806.84
735.658	34744.24
735.999	34573.85
736.339	34501.08
736.68	34633.06
737.021	34265.61
737.361	34186.97
737.702	34228.55
738.042	34022
738.383	34040.08
738.723	33821.33
739.063	33633.08
739.404	33809.58
739.744	33596.02
740.084	33630.82
740.424	33744.04
740.764	33576.59
741.104	33779.52
741.444	33512.64
741.784	33529.81
742.124	33590.83
742.464	33678.51
742.804	33622.46
743.143	33556.25
743.483	33731.84
743.823	33512.41
744.162	33628.34
744.502	33774.78
744.841	33596.25
745.181	33891.83
745.52	33698.39
745.86	33768.9
746.199	33707.43
746.538	33562.58
746.877	33646.87
747.216	33570.71
747.556	33300.66
747.895	33300.21
748.234	33157.39
748.573	32989.26
748.911	32904.74
749.25	32961.92
749.589	32641.02
749.928	32713.56
750.267	32492.55
750.605	32426.34
750.944	32190.64
751.283	32021.83
751.621	32049.85
751.96	31709.75
752.298	31690.99
752.636	31783.87
752.975	31635.17
753.313	31426.36
753.651	31616.64
753.989	31326.7
754.327	31450.77
754.666	31222.75
755.004	31282.41
755.342	31408.74
755.679	31343.88
756.017	31238.8
756.355	31273.15
756.693	31186.14
757.031	31415.74
757.368	31199.02
757.706	31204.22
758.044	31090.1
758.381	31248.74
758.719	31117.44
759.056	31180.49
759.394	31037.22
759.731	30989.76
760.068	30940.27
