Data from red_cardboard_box_FLMS001491_00001.txt Node
Date: Wed Feb 08 11:31:23 GMT 2017
User: dcchb
Spectrometer: FLMS00149
Trigger mode: 0
Integration Time (sec): 2.000000E-2
Scans to average: 10
Electric dark correction enabled: true
Nonlinearity correction enabled: false
Boxcar width: 0
XAxis mode: Wavelengths
Number of Pixels in Spectrum: 2048
>>>>>Begin Spectral Data<<<<<
341.393	4.18
341.776	4.18
342.16	4.18
342.543	-43.28
342.927	-57.06
343.31	-64.52
343.693	-71.52
344.077	-67.23
344.46	-62.48
344.843	-49.15
345.226	-50.73
345.61	-26.33
345.993	-31.07
346.376	-10.06
346.759	17.06
347.142	29.94
347.525	47.12
347.908	50.73
348.291	81.69
348.674	99.09
349.057	107.45
349.44	126.66
349.823	131.86
350.206	171.41
350.588	196.49
350.971	217.28
351.354	229.94
351.737	238.52
352.119	263.61
352.502	264.06
352.884	295.25
353.267	284.85
353.65	281.24
354.032	315.36
354.414	308.58
354.797	303.61
355.179	327.11
355.562	333.44
355.944	332.76
356.326	322.82
356.709	332.31
357.091	338.41
357.473	344.51
357.855	340.89
358.238	331.4
358.62	352.19
359.002	358.52
359.384	342.02
359.766	359.43
360.148	353.32
360.53	341.35
360.912	341.35
361.294	343.61
361.676	346.54
362.057	347.45
362.439	325.53
362.821	331.4
363.203	319.2
363.584	325.75
363.966	332.53
364.348	331.86
364.729	324.17
365.111	320.1
365.493	311.97
365.874	318.52
366.256	316.71
366.637	318.3
367.019	320.33
367.4	342.48
367.781	314.68
368.163	304.96
368.544	324.62
368.925	328.69
369.306	332.08
369.688	308.81
370.069	308.81
370.45	325.08
370.831	327.56
371.212	325.98
371.593	314.23
371.974	313.78
372.355	289.82
372.736	307.22
373.117	302.48
373.498	307
373.879	319.43
374.26	326.88
374.641	321.91
375.021	310.39
375.402	310.39
375.783	325.3
376.163	316.71
376.544	318.97
376.925	326.88
377.305	326.66
377.686	293.21
378.066	326.21
378.447	333.44
378.827	342.25
379.208	323.27
379.588	317.62
379.968	316.26
380.349	342.7
380.729	328.47
381.109	332.31
381.489	350.61
381.87	326.66
382.25	335.25
382.63	335.25
383.01	344.28
383.39	330.73
383.77	333.66
384.15	349.93
384.53	340.22
384.91	337.05
385.29	342.7
385.67	344.28
386.049	327.11
386.429	337.28
386.809	347
387.189	335.47
387.568	342.7
387.948	368.24
388.328	331.4
388.707	369.59
389.087	375.02
389.466	355.81
389.846	358.97
390.225	334.34
390.605	360.33
390.984	354.68
391.363	354.23
391.743	345.64
392.122	361.23
392.501	369.82
392.881	368.24
393.26	363.49
393.639	366.88
394.018	359.2
394.397	354.68
394.776	375.92
395.155	370.95
395.534	372.08
395.913	342.48
396.292	357.84
396.671	367.33
397.05	380.22
397.429	369.14
397.808	365.53
398.186	373.44
398.565	371.4
398.944	354.23
399.323	376.15
399.701	395.36
400.08	383.38
400.458	358.52
400.837	383.83
401.215	382.7
401.594	384.96
401.972	395.13
402.351	363.27
402.729	379.76
403.107	386.32
403.486	394
403.864	373.89
404.242	395.81
404.62	393.55
404.999	391.06
405.377	396.94
405.755	403.04
406.133	389.48
406.511	408.46
406.889	419.76
407.267	400.78
407.645	403.04
408.023	415.7
408.401	408.69
408.779	419.76
409.156	429.03
409.534	427.67
409.912	397.39
410.29	433.77
410.667	417.05
411.045	434.9
411.422	429.48
411.8	424.28
412.178	422.47
412.555	416.6
412.933	422.47
413.31	430.16
413.687	443.04
414.065	440.55
414.442	445.3
414.819	419.09
415.197	426.09
415.574	434.68
415.951	455.02
416.328	474.45
416.705	462.47
417.082	427.45
417.46	434
417.837	460.44
418.214	459.76
418.591	460.21
418.967	459.31
419.344	462.7
419.721	461.12
420.098	464.51
420.475	468.8
420.852	473.77
421.228	471.74
421.605	457.28
421.982	485.07
422.358	460.44
422.735	470.61
423.111	476.26
423.488	480.78
423.864	488.69
424.241	485.98
424.617	495.69
424.994	505.41
425.37	492.53
425.746	495.47
426.123	518.07
426.499	490.5
426.875	500.21
427.251	519.87
427.627	505.86
428.003	521.91
428.379	524.39
428.756	492.76
429.132	503.38
429.507	511.51
429.883	533.43
430.259	519.2
430.635	537.27
431.011	532.98
431.387	541.12
431.763	547.67
432.138	523.26
432.514	563.71
432.89	561.23
433.265	554
433.641	547.9
434.016	548.35
434.392	556.26
434.767	572.3
435.143	559.65
435.518	590.15
435.894	586.09
436.269	591.06
436.644	594.22
437.02	576.14
437.395	582.92
437.77	586.76
438.145	581.11
438.52	585.18
438.895	600.1
439.271	596.48
439.646	598.06
440.021	615.46
440.395	601.68
440.77	614.56
441.145	612.75
441.52	644.39
441.895	633.99
442.27	615.24
442.645	612.75
443.019	636.25
443.394	632.19
443.769	651.62
444.143	622.92
444.518	633.77
444.892	645.75
445.267	631.73
445.641	644.84
446.016	636.03
446.39	631.73
446.764	641.68
447.139	649.59
447.513	638.06
447.887	671.73
448.262	644.84
448.636	657.72
449.01	679.87
449.384	664.73
449.758	690.72
450.132	667.89
450.506	688.91
450.88	687.33
451.254	681
451.628	665.86
452.002	667.89
452.376	686.65
452.75	707.89
453.123	687.33
453.497	704.28
453.871	712.41
454.244	740.43
454.618	741.11
454.992	712.64
455.365	732.52
455.739	742.47
456.112	754.9
456.486	756.25
456.859	754.9
457.232	757.83
457.606	768.23
457.979	734.33
458.352	780.66
458.725	783.82
459.099	773.43
459.472	764.16
459.845	792.18
460.218	801.22
460.591	791.05
460.964	793.99
461.337	818.85
461.71	801.22
462.083	819.75
462.456	804.16
462.829	830.83
463.201	831.28
463.574	827.66
463.947	878.96
464.32	857.94
464.692	871.95
465.065	854.78
465.438	880.09
465.81	866.08
466.183	895.91
466.555	881.45
466.928	924.83
467.3	900.88
467.672	929.81
468.045	929.35
468.417	927.09
468.789	941.56
469.161	937.26
469.534	934.55
469.906	941.11
470.278	975.68
470.65	973.65
471.022	1000.76
471.394	1006.19
471.766	990.14
472.138	1010.26
472.51	1043.02
472.882	1025.4
473.253	1059.07
473.625	1067.43
473.997	1064.72
474.369	1065.62
474.74	1113.98
475.112	1099.52
475.484	1104.49
475.855	1132.96
476.227	1119.41
476.598	1156.01
476.97	1166.41
477.341	1191.04
477.713	1204.15
478.084	1184.94
478.455	1212.51
478.827	1217.71
479.198	1264.03
479.569	1250.7
479.94	1290.93
480.311	1301.55
480.682	1326.63
481.053	1290.7
481.424	1363.92
481.795	1343.13
482.166	1369.79
482.537	1366.86
482.908	1418.15
483.279	1417.7
483.65	1454.31
484.021	1492.28
484.391	1463.35
484.762	1502.22
485.133	1538.83
485.503	1529.11
485.874	1536.34
486.244	1570.92
486.615	1589.22
486.985	1589.45
487.356	1610.24
487.726	1633.06
488.097	1673.52
488.467	1659.5
488.837	1672.61
489.207	1687.3
489.578	1720.52
489.948	1741.99
490.318	1753.06
490.688	1771.37
491.058	1766.62
491.428	1801.87
491.798	1814.3
492.168	1863.34
492.538	1855.21
492.908	1894.98
493.278	1882.78
493.648	1889.33
494.017	1932.27
494.387	1951.47
494.757	1944.24
495.126	1964.81
495.496	1988.99
495.866	2033.73
496.235	2008.42
496.605	2035.09
496.974	2068.76
497.344	2071.92
497.713	2099.27
498.082	2067.86
498.452	2090.45
498.821	2118.93
499.19	2114.86
499.559	2121.87
499.928	2151.24
500.298	2199.15
500.667	2186.5
501.036	2192.6
501.405	2216.33
501.774	2233.73
502.143	2211.58
502.512	2246.16
502.88	2270.34
503.249	2257.45
503.618	2294.52
503.987	2314.4
504.356	2307.4
504.724	2329.32
505.093	2314.63
505.462	2361.18
505.83	2345.59
506.199	2411.12
506.567	2403.89
506.936	2413.16
507.304	2469.88
507.672	2428.98
508.041	2469.2
508.409	2477.79
508.777	2499.26
509.145	2499.48
509.514	2520.05
509.882	2532.02
510.25	2543.55
510.618	2572.02
510.986	2587.84
511.354	2608.86
511.722	2624.9
512.09	2650.44
512.458	2623.32
512.826	2675.52
513.193	2716.43
513.561	2722.08
513.929	2774.05
514.297	2751.23
514.664	2777.44
515.032	2793.26
515.4	2844.11
515.767	2834.39
516.135	2835.52
516.502	2847.95
516.869	2900.83
517.237	2902.86
517.604	2895.4
517.972	2930.21
518.339	2963.2
518.706	2924.56
519.073	2967.27
519.44	2971.33
519.808	3028.96
520.175	3044.55
520.542	3069.64
520.909	3087.26
521.276	3080.03
521.643	3090.65
522.009	3141.95
522.376	3177.2
522.743	3192.8
523.11	3238.9
523.477	3270.54
523.843	3280.25
524.21	3314.38
524.577	3320.25
524.943	3329.52
525.31	3358.89
525.676	3414.94
526.043	3431.21
526.409	3468.5
526.776	3482.51
527.142	3490.42
527.508	3503.07
527.874	3527.48
528.241	3602.5
528.607	3579.68
528.973	3565.89
529.339	3606.8
529.705	3609.96
530.071	3695.61
530.437	3684.31
530.803	3714.14
531.169	3729.28
531.535	3718.89
531.901	3789.84
532.267	3783.74
532.632	3843.4
532.998	3871.88
533.364	3852.22
533.73	3830.97
534.095	3882.72
534.461	3925.89
534.826	3933.12
535.192	3945.55
535.557	4004.98
535.923	4042.49
536.288	4012.89
536.653	4025.32
537.019	4052.21
537.384	4024.87
537.749	4087.92
538.114	4073
538.479	4129.27
538.845	4133.34
539.21	4110.29
539.575	4152.77
539.94	4166.33
540.305	4189.38
540.67	4196.61
541.034	4231.87
541.399	4271.19
541.764	4292.88
542.129	4304.86
542.494	4289.94
542.858	4334.24
543.223	4322.94
543.587	4403.84
543.952	4434.12
544.316	4400.22
544.681	4422.82
545.045	4468.7
545.41	4487.68
545.774	4485.87
546.138	4504.63
546.503	4529.49
546.867	4550.05
547.231	4581.24
547.595	4606.32
547.959	4638.86
548.324	4641.57
548.688	4661.01
549.052	4656.94
549.416	4685.41
549.779	4717.96
550.143	4769.71
550.507	4775.13
550.871	4806.77
551.235	4797.05
551.599	4849.03
551.962	4872.08
552.326	4886.09
552.689	4888.8
553.053	4917.95
553.417	4979.87
553.78	5051.28
554.143	5025.52
554.507	5108.68
554.87	5077.72
555.234	5152.07
555.597	5154.55
555.96	5169.69
556.323	5238.39
556.686	5216.92
557.05	5308.22
557.413	5321.78
557.776	5319.07
558.139	5386.19
558.502	5418.73
558.865	5471.16
559.228	5450.82
559.59	5486.52
559.953	5594.54
560.316	5639.06
560.679	5648.1
561.041	5713.86
561.404	5785.27
561.767	5775.33
562.129	5774.65
562.492	5862.78
562.854	5912.73
563.217	5944.59
563.579	5983.68
563.941	6052.38
564.304	6148.43
564.666	6173.74
565.028	6231.81
565.39	6286.95
565.753	6284.92
566.115	6332.6
566.477	6457.8
566.839	6481.3
567.201	6524.46
567.563	6538.47
567.925	6694.85
568.287	6699.15
568.648	6811.23
569.01	6806.04
569.372	6845.58
569.734	6916.99
570.095	6987.95
570.457	7059.36
570.819	7150.43
571.18	7190.21
571.542	7259.58
571.903	7316.76
572.265	7418.45
572.626	7448.05
572.987	7502.97
573.349	7575.06
573.71	7684.2
574.071	7737.54
574.432	7861.38
574.794	7996.74
575.155	8011.2
575.516	8075.83
575.877	8170.75
576.238	8234.92
576.599	8360.12
576.96	8437.63
577.32	8476.5
577.681	8613.45
578.042	8718.98
578.403	8791.52
578.763	8870.84
579.124	8963.95
579.485	9096.6
579.845	9197.39
580.206	9265.18
580.566	9342.01
580.927	9560.31
581.287	9640.99
581.648	9776.58
582.008	10018.15
582.368	9978.61
582.728	10163.01
583.089	10275.55
583.449	10358.71
583.809	10644.58
584.169	10784.24
584.529	10873.73
584.889	11107.62
585.249	11224.22
585.609	11351.23
585.969	11558.68
586.329	11746.47
586.688	11963.19
587.048	12122.96
587.408	12230.53
587.768	12454.93
588.127	12679.55
588.487	12893.56
588.846	13159.77
589.206	13284.74
589.565	13473.66
589.925	13789.35
590.284	13948.45
590.643	14232.73
591.003	14508.21
591.362	14771.02
591.721	14964.24
592.08	15243.1
592.44	15521.51
592.799	15789.53
593.158	16159.24
593.517	16451.66
593.876	16644.42
594.235	16967.35
594.593	17309.26
594.952	17652.53
595.311	17857.04
595.67	18175.23
596.029	18544.26
596.387	18933.63
596.746	19270.11
597.104	19404.12
597.463	19793.49
597.822	20121.39
598.18	20370.2
598.538	20708.72
598.897	21155.71
599.255	21219.22
599.613	22037.95
599.972	22038.18
600.33	22446.53
600.688	22805.16
601.046	23112.05
601.404	23553.17
601.762	23795.19
602.12	24221.17
602.478	24501.62
602.836	24854.15
603.194	25081.94
603.552	25377.3
603.91	25539.1
604.268	26066.55
604.625	26354.22
604.983	26788.11
605.341	27008.22
605.698	27321.88
606.056	27828.53
606.413	28017.23
606.771	28357.79
607.128	28720.71
607.485	28876.87
607.843	29313.69
608.2	29658.99
608.557	29937.86
608.914	30051.98
609.272	30544.39
609.629	30736.93
609.986	31123.59
610.343	31210.14
610.7	31590.92
611.057	31817.58
611.414	32069.33
611.771	32273.16
612.127	32535.75
612.484	32848.06
612.841	33082.63
613.198	33128.73
613.554	33460.25
613.911	33701.6
614.267	33966.23
614.624	34118.31
614.98	34337.52
615.337	34547.68
615.693	34653.89
616.05	34804.4
616.406	35418.84
616.762	35210.94
617.118	35448.9
617.475	35692.51
617.831	35946.51
618.187	36021.09
618.543	36337.69
618.899	36621.07
619.255	36601.86
619.611	36782.42
619.967	36880.27
620.323	37168.18
620.678	37193.94
621.034	37147.38
621.39	37478
621.746	37341.96
622.101	37950.53
622.457	37656.75
622.812	37866.01
623.168	38071.43
623.523	38266
623.879	38343.29
624.234	38109.85
624.589	38338.99
624.945	38528.14
625.3	38766.1
625.655	38776.04
626.01	38877.96
626.365	38813.1
626.72	39008.35
627.075	38979.2
627.43	39068.69
627.785	38980.33
628.14	39130.16
628.495	39283.6
628.85	39435.23
629.205	39367.67
629.559	39665.96
629.914	39448.34
630.269	39513.65
630.623	39520.43
630.978	39583.7
631.332	39675.23
631.687	39827.54
632.041	39621.44
632.396	39726.07
632.75	39774.21
633.104	39940.98
633.459	39700.09
633.813	39833.87
634.167	39818.05
634.521	39782.34
634.875	39892.62
635.229	39957.48
635.583	39798.16
635.937	39844.26
636.291	39835.9
636.645	39998.61
636.999	39804.72
637.352	40002
637.706	39795
638.06	39854.21
638.413	39870.93
638.767	39898.72
639.121	39888.78
639.474	39766.75
639.828	39914.54
640.181	39939.85
640.534	39990.7
640.888	39902.57
641.241	39791.16
641.594	39918.39
641.947	39971.72
642.301	39822.12
642.654	40017.82
643.007	39913.64
643.36	40010.59
643.713	39860.53
644.066	40005.61
644.419	39809.69
644.771	39412.41
645.124	39180.1
645.477	38978.98
645.83	38930.16
646.182	38883.38
646.535	38766.1
646.888	38883.16
647.24	38845.19
647.593	39119.76
647.945	39037.96
648.298	38653.56
648.65	38856.94
649.002	38695.82
649.355	38845.87
649.707	38729.26
650.059	38994.79
650.411	39388.68
650.763	39472.97
651.115	39892.62
651.467	39826.18
651.819	39725.62
652.171	39730.59
652.523	39545.29
652.875	39705.28
653.227	39585.29
653.578	39635.46
653.93	39759.07
654.282	39550.49
654.633	39468.23
654.985	39597.26
655.337	39575.12
655.688	39554.33
656.039	39656.25
656.391	39441.79
656.742	39478.17
657.094	39533.99
657.445	39582.8
657.796	39478.85
658.147	39467.78
658.498	39392.52
658.849	39494.67
659.2	39396.82
659.551	39320.89
659.902	39605.4
660.253	39433.65
660.604	39556.81
660.955	39362.24
661.306	39421.9
661.656	39451.96
662.007	39386.42
662.358	39456.48
662.708	39345.75
663.059	39574.21
663.409	39156.6
663.76	39506.42
664.11	39385.97
664.461	39505.06
664.811	39430.94
665.161	39485.85
665.511	39462.13
665.862	39493.76
666.212	39584.83
666.562	39532.41
666.912	39522.01
667.262	39466.65
667.612	39325.41
667.962	39326.99
668.312	39315.92
668.662	39631.84
669.011	39441.56
669.361	39279.76
669.711	39293.54
670.06	39274.11
670.41	39197.5
670.76	39110.5
671.109	39361.79
671.459	39272.3
671.808	39311.17
672.157	39362.47
672.507	39071.4
672.856	39089.93
673.205	39122.47
673.554	39294.22
673.904	39116.6
674.253	39361.34
674.602	39211.74
674.951	38668.47
675.3	38558.42
675.649	39022.36
675.998	39094.23
676.346	39093.55
676.695	39180.1
677.044	38726.55
677.393	39074.79
677.741	38967.22
678.09	39057.84
678.438	38860.79
678.787	38814.69
679.135	38984.4
679.484	38763.16
679.832	38766.55
680.181	38605.2
680.529	38690.62
680.877	38505.54
681.225	38533.56
681.573	38742.37
681.922	38573.56
682.27	38370.18
682.618	38495.82
682.966	38363.85
683.314	38419.67
683.661	38393.91
684.009	38134.48
684.357	37973.13
684.705	38090.86
685.053	38069.62
685.4	38049.51
685.748	37867.37
686.095	37922.73
686.443	37688.16
686.79	37723.41
687.138	37784.66
687.485	37787.59
687.832	37544.66
688.18	37540.37
688.527	37573.36
688.874	37462.18
689.221	37299.02
689.568	37281.84
689.915	37157.1
690.262	37125.46
690.609	36960.72
690.956	36981.74
691.303	36893.15
691.65	36821.74
691.997	36750.56
692.344	36523.45
692.69	36601.64
693.037	36590.56
693.383	36253.17
693.73	36390.79
694.077	36099.95
694.423	36169.56
694.769	35981.09
695.116	36115.55
695.462	36025.83
695.808	35817.93
696.155	35921.65
696.501	35535.45
696.847	35676.24
697.193	35379.75
697.539	35537.03
697.885	35274.89
698.231	35174.33
698.577	35201.22
698.923	35109.02
699.269	35073.99
699.614	34770.72
699.96	34824.73
700.306	34825.64
700.651	34573.44
700.997	34556.72
701.342	34364.41
701.688	34452.54
702.033	34311.75
702.379	34321.02
702.724	34262.71
703.069	34191.08
703.415	33756.29
703.76	33860.24
704.105	33776.63
704.45	33818.88
704.795	33729.17
705.14	33584.77
705.485	33512.23
705.83	33380.48
706.175	33471.55
706.52	33330.54
706.865	33200.82
707.209	33255.74
707.554	33019.13
707.899	33186.13
708.243	33040.6
708.588	32968.51
708.932	32770.78
709.277	32774.39
709.621	32621.4
709.966	32507.51
710.31	32441.07
710.654	32165.82
710.998	32398.36
711.342	32379.37
711.687	32316.33
712.031	32146.16
712.375	31981.87
712.719	32034.52
713.063	32034.98
713.407	32035.88
713.75	31873.63
714.094	31836.79
714.438	31741.65
714.782	31815.32
715.125	31639.28
715.469	31713.18
715.812	31555.22
716.156	31475.67
716.499	31380.3
716.843	31389.34
717.186	31379.4
717.53	31423.02
717.873	31220.99
718.216	31189.58
718.559	31116.58
718.902	30987.32
719.246	30926.53
719.589	30899.87
719.932	30834.56
720.275	30724.73
720.617	30674.33
720.96	30778.96
721.303	30724.95
721.646	30671.85
721.989	30571.74
722.331	30594.79
722.674	30609.7
723.016	30611.96
723.359	30543.49
723.701	30465.98
724.044	30227.11
724.386	30331.74
724.729	30236.83
725.071	30243.84
725.413	30281.35
725.755	30128.81
726.097	29980.12
726.439	29763.62
726.782	29892.43
727.124	29954.13
727.465	29817.86
727.807	29859.21
728.149	29777.64
728.491	29776.28
728.833	29819.44
729.175	29667.13
729.516	29520.24
729.858	29606.79
730.199	29635.94
730.541	29567.92
730.882	29468.26
731.224	29544.42
731.565	29317.76
731.906	29294.26
732.248	29282.28
732.589	29175.62
732.93	29199.35
733.271	29080.7
733.612	29212.45
733.953	29103.53
734.294	29027.37
734.635	28977.88
734.976	29032.34
735.317	28944.44
735.658	28923.65
735.999	28845.68
736.339	28746.7
736.68	28934.49
737.021	28828.73
737.361	28647.95
737.702	28840.71
738.042	28742.41
738.383	28634.39
738.723	28726.14
739.063	28693.14
739.404	28599.81
739.744	28390.55
740.084	28367.73
740.424	28441.63
740.764	28462.42
741.104	28515.97
741.444	28218.81
741.784	28127.06
742.124	28367.5
742.464	28251.57
742.804	28216.32
743.143	28046.61
743.483	28075.98
743.823	27945.59
744.162	27940.4
744.502	27988.08
744.841	27922.09
745.181	28040.51
745.52	27809.33
745.86	27937.23
746.199	27783.79
746.538	27823.79
746.877	27977.68
747.216	27956.44
747.556	27768.65
747.895	27767.74
748.234	27559.84
748.573	27634.41
748.911	27577.02
749.25	27525.94
749.589	27442.1
749.928	27480.07
750.267	27459.73
750.605	27420.18
750.944	27389.22
751.283	27272.39
751.621	27318.94
751.96	27123.92
752.298	27090.7
752.636	27167.31
752.975	27108.55
753.313	27012.74
753.651	27065.39
753.989	26866.53
754.327	26863.59
754.666	26633.31
755.004	26791.95
755.342	26702.69
755.679	26730.26
756.017	26462.47
756.355	26593.99
756.693	26454.33
757.031	26589.24
757.368	26411.17
757.706	26403.94
758.044	26218.18
758.381	26336.82
758.719	26162.14
759.056	26127.11
759.394	26074.23
759.731	25836.5
760.068	25843.05
760.405	25860.45
760.743	25733.22
761.08	25754.92
761.417	25619.33
