Data from red_shiny_book_FLMS001491_00004.txt Node
Date: Wed Feb 08 15:23:33 GMT 2017
User: dcchb
Spectrometer: FLMS00149
Trigger mode: 0
Integration Time (sec): 2.000000E-2
Scans to average: 10
Electric dark correction enabled: true
Nonlinearity correction enabled: false
Boxcar width: 0
XAxis mode: Wavelengths
Number of Pixels in Spectrum: 2048
>>>>>Begin Spectral Data<<<<<
341.393	-11.12
341.776	-11.12
342.16	-11.12
342.543	-74.16
342.927	-68.52
343.31	-65.13
343.693	-66.71
344.077	-61.51
344.46	-73.94
344.843	-69.42
345.226	-53.37
345.61	-44.33
345.993	5.16
346.376	5.16
346.759	40.18
347.142	24.59
347.525	27.53
347.908	56.68
348.291	87.41
348.674	84.48
349.057	103.23
349.44	130.35
349.823	132.16
350.206	164.93
350.588	222.1
350.971	208.99
351.354	231.82
351.737	240.86
352.119	239.73
352.502	266.39
352.884	285.37
353.267	285.15
353.65	295.09
354.032	292.61
354.414	313.62
354.797	317.01
355.179	345.71
355.562	337.12
355.944	345.49
356.326	330.12
356.709	356.56
357.091	352.04
357.473	337.58
357.855	363.34
358.238	361.3
358.62	354.98
359.002	344.36
359.384	346.62
359.766	342.1
360.148	355.88
360.53	345.71
360.912	360.85
361.294	351.36
361.676	362.66
362.057	347.29
362.439	342.55
362.821	314.53
363.203	333.73
363.584	335.99
363.966	316.33
364.348	322.21
364.729	332.38
365.111	343
365.493	347.29
365.874	321.98
366.256	325.82
366.637	327.41
367.019	344.13
367.4	339.84
367.781	344.13
368.163	330.57
368.544	357.69
368.925	324.92
369.306	338.25
369.688	330.8
370.069	326.05
370.45	336.22
370.831	322.44
371.212	344.58
371.593	320.85
371.974	354.52
372.355	316.79
372.736	316.56
373.117	322.21
373.498	338.48
373.879	328.31
374.26	342.55
374.641	340.29
375.021	334.41
375.402	346.16
375.783	346.62
376.163	357.46
376.544	349.78
376.925	365.37
377.305	348.2
377.686	356.56
378.066	344.13
378.447	321.98
378.827	340.51
379.208	338.25
379.588	343.9
379.968	348.42
380.349	350.23
380.729	345.03
381.109	384.81
381.489	340.97
381.87	352.04
382.25	364.69
382.63	390
383.01	352.04
383.39	366.28
383.77	355.2
384.15	354.3
384.53	361.98
384.91	374.64
385.29	383
385.67	379.83
386.049	368.76
386.429	371.93
386.809	384.58
387.189	378.03
387.568	367.86
387.948	391.13
388.328	395.2
388.707	379.38
389.087	394.3
389.466	376.22
389.846	376.22
390.225	385.71
390.605	396.56
390.984	404.69
391.363	396.33
391.743	392.49
392.122	404.01
392.501	406.27
392.881	401.98
393.26	394.07
393.639	420.96
394.018	417.35
394.397	406.73
394.776	402.43
395.155	410.12
395.534	426.39
395.913	424.35
396.292	443.11
396.671	423.9
397.05	411.02
397.429	411.25
397.808	405.37
398.186	389.1
398.565	423
398.944	426.16
399.323	423.45
399.701	446.73
400.08	439.27
400.458	409.66
400.837	418.03
401.215	424.81
401.594	446.05
401.972	444.01
402.351	418.48
402.729	476.33
403.107	475.43
403.486	458.25
403.864	471.58
404.242	487.85
404.62	461.41
404.999	446.27
405.377	459.38
405.755	465.71
406.133	479.49
406.511	474.3
406.889	484.01
407.267	474.97
407.645	479.04
408.023	488.31
408.401	475.43
408.779	493.28
409.156	474.75
409.534	498.02
409.912	520.85
410.29	520.4
410.667	517.91
411.045	511.58
411.422	522.2
411.8	526.95
412.178	526.72
412.555	527.18
412.933	532.37
413.31	521.98
413.687	540.06
414.065	551.13
414.442	548.87
414.819	559.94
415.197	569.66
415.574	581.19
415.951	598.13
416.328	594.52
416.705	564.01
417.082	584.12
417.46	581.64
417.837	582.99
418.214	585.25
418.591	625.03
418.967	625.03
419.344	618.92
419.721	626.38
420.098	614.18
420.475	628.42
420.852	618.7
421.228	615.53
421.605	625.7
421.982	649.21
422.358	671.35
422.735	641.52
423.111	670.22
423.488	663.89
423.864	670.45
424.241	684.01
424.617	666.61
424.994	664.8
425.37	692.82
425.746	663.67
426.123	672.93
426.499	679.94
426.875	722.65
427.251	723.55
427.627	738.7
428.003	736.66
428.379	708.19
428.756	706.83
429.132	705.93
429.507	747.96
429.883	730.79
430.259	763.55
430.635	765.81
431.011	789.99
431.387	780.73
431.763	785.7
432.138	775.98
432.514	786.6
432.89	804
433.265	820.05
433.641	793.84
434.016	792.93
434.392	804.91
434.767	811.91
435.143	829.99
435.518	845.59
435.894	863.21
436.269	869.54
436.644	853.27
437.02	870.22
437.395	869.54
437.77	876.32
438.145	880.39
438.52	861.63
438.895	876.09
439.271	871.35
439.646	897.11
440.021	915.19
440.395	912.93
440.77	940.95
441.145	946.6
441.52	946.6
441.895	925.58
442.27	933.49
442.645	934.4
443.019	915.19
443.394	925.13
443.769	923.32
444.143	949.76
444.518	964.68
444.892	963.1
445.267	1013.04
445.641	1008.74
446.016	1009.65
446.39	985.47
446.764	1002.19
447.139	986.82
447.513	974.4
447.887	984.11
448.262	979.59
448.636	983.89
449.01	1011.91
449.384	1036.99
449.758	1072.25
450.132	1043.55
450.506	1070.66
450.88	1073.83
451.254	1042.64
451.628	1045.13
452.002	1053.72
452.376	1033.38
452.75	1036.54
453.123	1057.56
453.497	1072.92
453.871	1068.18
454.244	1139.36
454.618	1104.11
454.992	1143.66
455.365	1153.6
455.739	1141.4
456.112	1157.89
456.486	1118.12
456.859	1120.83
457.232	1131
457.606	1121.28
457.979	1140.04
458.352	1168.29
458.725	1182.07
459.099	1218.68
459.472	1253.71
459.845	1252.58
460.218	1257.55
460.591	1255.74
460.964	1230.21
461.337	1245.35
461.71	1253.03
462.083	1225.69
462.456	1232.92
462.829	1252.81
463.201	1242.86
463.574	1253.94
463.947	1313.14
464.32	1360.15
464.692	1358.34
465.065	1366.93
465.438	1363.76
465.81	1395.18
466.183	1398.56
466.555	1397.66
466.928	1353.37
467.3	1358.57
467.672	1346.81
468.045	1380.26
468.417	1377.55
468.789	1421.62
469.161	1442.41
469.534	1509.07
469.906	1515.85
470.278	1550.2
470.65	1584.77
471.022	1555.85
471.394	1568.28
471.766	1571.22
472.138	1574.83
472.51	1555.85
472.882	1527.6
473.253	1555.17
473.625	1605.34
473.997	1629.97
474.369	1682.17
474.74	1712
475.112	1755.17
475.484	1817.99
475.855	1812.11
476.227	1850.53
476.598	1855.73
476.97	1839.23
477.341	1836.07
477.713	1824.09
478.084	1810.31
478.455	1898.89
478.827	1867.25
479.198	1912
479.569	1965.1
479.94	1995.39
480.311	2053.69
480.682	2146.12
481.053	2192.22
481.424	2229.73
481.795	2219.79
482.166	2225.21
482.537	2207.36
482.908	2195.15
483.279	2166.23
483.65	2209.39
484.021	2242.84
484.391	2267.47
484.762	2303.4
485.133	2375.94
485.503	2407.13
485.874	2529.16
486.244	2568.03
486.615	2663.84
486.985	2692.99
487.356	2729.38
487.726	2699.77
488.097	2691.19
488.467	2674.46
488.837	2723.73
489.207	2649.15
489.578	2684.41
489.948	2703.62
490.318	2770.51
490.688	2802.82
491.058	2942.93
491.428	3036.94
491.798	3077.62
492.168	3169.82
492.538	3196.71
492.908	3194
493.278	3246.65
493.648	3178.18
494.017	3172.08
494.387	3165.52
494.757	3102.25
495.126	3130.04
495.496	3123.49
495.866	3155.81
496.235	3209.36
496.605	3271.06
496.974	3355.8
497.344	3439.42
497.713	3489.13
498.082	3558.06
498.452	3629.47
498.821	3673.53
499.19	3626.75
499.559	3622.24
499.928	3547.89
500.298	3541.11
500.667	3475.35
501.036	3432.41
501.405	3493.2
501.774	3467.44
502.143	3545.4
502.512	3570.26
502.88	3647.77
503.249	3729.13
503.618	3823.59
503.987	3858.61
504.356	3946.75
504.724	3963.92
505.093	3944.94
505.462	3890.48
505.83	3848.67
506.199	3795.79
506.567	3762.34
506.936	3724.61
507.304	3697.49
507.672	3699.3
508.041	3747.2
508.409	3771.38
508.777	3879.63
509.145	3905.62
509.514	3998.04
509.882	4057.48
510.25	4083.92
510.618	4203.91
510.986	4202.78
511.354	4232.84
511.722	4170.47
512.09	4148.32
512.458	4039.85
512.826	4012.28
513.193	3943.81
513.561	3919.18
513.929	3873.75
514.297	3967.31
514.664	4009.57
515.032	4078.72
515.4	4156.46
515.767	4216.12
516.135	4316.68
516.502	4316.45
516.869	4404.81
517.237	4455.21
517.604	4445.26
517.972	4475.09
518.339	4372.95
518.706	4286.17
519.073	4252.73
519.44	4191.26
519.808	4174.31
520.175	4090.92
520.542	4120.98
520.909	4157.14
521.276	4223.8
521.643	4320.3
522.009	4424.93
522.376	4516.45
522.743	4603.23
523.11	4661.3
523.477	4758.93
523.843	4842.77
524.21	4812.71
524.577	4770.91
524.943	4756.22
525.31	4700.17
525.676	4663.34
526.043	4598.48
526.409	4555.77
526.776	4510.57
527.142	4500.18
527.508	4521.87
527.874	4660.4
528.241	4754.18
528.607	4830.79
528.973	4959.38
529.339	5086.83
529.705	5233.27
530.071	5316.65
530.437	5393.49
530.803	5403.21
531.169	5391.45
531.535	5323.89
531.901	5266.71
532.267	5164.57
532.632	5185.13
532.998	5057.23
533.364	5042.08
533.73	5000.96
534.095	5091.8
534.461	5062.65
534.826	5193.04
535.192	5252.47
535.557	5397.33
535.923	5535.86
536.288	5637.32
536.653	5788.51
537.019	5890.65
537.384	5894.04
537.749	5978.33
538.114	5939.46
538.479	5934.49
538.845	5860.59
539.21	5731.56
539.575	5658.11
539.94	5585.8
540.305	5572.69
540.67	5514.84
541.034	5506.93
541.399	5580.38
541.764	5640.71
542.129	5781.73
542.494	5884.77
542.858	6021.04
543.223	6174.94
543.587	6238.66
543.952	6372.45
544.316	6440.69
544.681	6480.01
545.045	6524.98
545.41	6435.49
545.774	6487.92
546.138	6346.46
546.503	6274.82
546.867	6175.84
547.231	6131.77
547.595	6014.04
547.959	5981.72
548.324	6003.19
548.688	6014.26
549.052	6041.15
549.416	6113.24
549.779	6218.33
550.143	6462.16
550.507	6600.69
550.871	6677.52
551.235	6764.07
551.599	6869.83
551.962	6852.43
552.326	6831.42
552.689	6868.48
553.053	6710.97
553.417	6690.63
553.78	6603.85
554.143	6542.61
554.507	6414.48
554.87	6322.73
555.234	6262.84
555.597	6263.3
555.96	6280.24
556.323	6354.37
556.686	6366.57
557.05	6539.22
557.413	6671.65
557.776	6801.81
558.139	6908.48
558.502	7085.65
558.865	7158.64
559.228	7298.75
559.59	7338.3
559.953	7325.87
560.316	7315.47
560.679	7257.62
561.041	7170.84
561.404	7041.35
561.767	6906.67
562.129	6855.14
562.492	6748.25
562.854	6617.18
563.217	6618.99
563.579	6635.04
563.941	6756.84
564.304	6809.04
564.666	6958.64
565.028	7027.57
565.39	7216.94
565.753	7422.14
566.115	7569.93
566.477	7667.55
566.839	7703.03
567.201	7850.37
567.563	7850.15
567.925	7842.92
568.287	7802.69
568.648	7638.85
569.01	7593.43
569.372	7560.21
569.734	7341.91
570.095	7312.99
570.457	7314.79
570.819	7200.9
571.18	7152.09
571.542	7204.51
571.903	7229.15
572.265	7359.54
572.626	7578.06
572.987	7724.95
573.349	7932.18
573.71	8172.17
574.071	8330.13
574.432	8469.79
574.794	8569
575.155	8755.66
575.516	8759.5
575.877	8794.53
576.238	8720.86
576.599	8775.55
576.96	8674.53
577.32	8626.85
577.681	8599.96
578.042	8549.56
578.403	8544.82
578.763	8540.3
579.124	8608.54
579.485	8695.32
579.845	8837.01
580.206	9037.46
580.566	9343.21
580.927	9623.66
581.287	9957.66
581.648	10278.33
582.008	10676.29
582.368	11001.93
582.728	11350.17
583.089	11665.41
583.449	11903.83
583.809	12243.25
584.169	12538.84
584.529	12755.1
584.889	13035.77
585.249	13194.19
585.609	13348.08
585.969	13639.15
586.329	13854.73
586.688	14143.77
587.048	14450.43
587.408	14649.52
587.768	15070.07
588.127	15647
588.487	16024.17
588.846	16665.96
589.206	17223.46
589.565	17722.88
589.925	18430.21
590.284	19019.34
590.643	19694.58
591.003	20390.61
591.362	21042.79
591.721	21510.8
592.08	21970.23
592.44	22589.87
592.799	22838.45
593.158	23425.33
593.517	23819.9
593.876	24192.77
594.235	24566.77
594.593	24835.24
594.952	25351.61
595.311	25691.71
595.67	26259.83
596.029	26835.64
596.387	27131.67
596.746	27741.15
597.104	28250.06
597.463	28814.34
597.822	29667.65
598.18	30026.51
598.538	30668.3
598.897	31592.12
599.255	31918.67
599.613	33021.24
599.972	33201.34
600.33	33924.49
600.688	34301.2
601.046	34938.93
601.404	35416.2
601.762	35665.69
602.12	36147.03
602.478	36627.92
602.836	36813.9
603.194	36968.93
603.552	37198.08
603.91	37286.43
604.268	37878.28
604.625	38094.55
604.983	38553.75
605.341	38644.37
605.698	39428.3
606.056	39881.17
606.413	39976.76
606.771	40847.25
607.128	41247.91
607.485	41473.22
607.843	41929.48
608.2	42542.57
608.557	43077.24
608.914	43335.09
609.272	43916.77
609.629	44246.48
609.986	44626.58
610.343	44712.45
610.7	44916.52
611.057	45182.27
611.414	45289.84
611.771	45346.34
612.127	45573.45
612.484	45555.6
612.841	45756.95
613.198	45635.37
613.554	45924.17
613.911	46172.3
614.267	46197.16
614.624	46300.89
614.98	46564.61
615.337	46918.5
615.693	47135.67
616.05	47266.29
616.406	47671.47
616.762	47857.23
617.118	48095.19
617.475	48329.08
617.831	48628.96
618.187	48905.56
618.543	49023.53
618.899	49416.29
619.255	49388.72
619.611	49544.87
619.967	49590.74
620.323	49614.47
620.678	49653.12
621.034	49417.87
621.39	49508.49
621.746	49303.52
622.101	49735.6
622.457	49326.8
622.812	49456.74
623.168	49482.05
623.523	49492.44
623.879	49703.28
624.234	49487.47
624.589	49631.42
624.945	49745.09
625.3	49967.46
625.655	50128.13
626.01	50297.39
626.365	50345.98
626.72	50529.25
627.075	50659.42
627.43	50619.87
627.785	50791.39
628.14	50943.48
628.495	51131.95
628.85	51024.38
629.205	50926.75
629.559	51268.89
629.914	50961.33
630.269	50966.75
630.623	50809.92
630.978	50735.35
631.332	50774.44
631.687	50708
632.041	50436.15
632.396	50284.06
632.75	50241.57
633.104	50348.46
633.459	50193.44
633.813	50207
634.167	50178.75
634.521	50216.26
634.875	50385.98
635.229	50414.45
635.583	50333.55
635.937	50416.49
636.291	50477.73
636.645	50590.49
636.999	50718.17
637.352	50795.46
637.706	50639.3
638.06	50797.04
638.413	50787.1
638.767	50720.88
639.121	50751.84
639.474	50596.37
639.828	50585.75
640.181	50469.14
640.534	50436.15
640.888	50300.1
641.241	50051.75
641.594	49923.39
641.947	50012.43
642.301	49861.92
642.654	49928.14
643.007	49767.91
643.36	49671.65
643.713	49545.55
644.066	49740.12
644.419	49474.59
644.771	49348.04
645.124	48978.56
645.477	49045
645.83	48914.6
646.182	49028.95
646.535	49016.75
646.888	49212.22
647.24	49010.19
647.593	49417.87
647.945	49289.74
648.298	49288.38
648.65	49090.19
649.002	49055.62
649.355	49111.21
649.707	48988.73
650.059	49107.37
650.411	49514.81
650.763	49367.7
651.115	49630.29
651.467	49370.18
651.819	49360.24
652.171	49112.79
652.523	49060.81
652.875	48962.29
653.227	48698.11
653.578	48898.11
653.93	48740.14
654.282	48639.36
654.633	48543.09
654.985	48679.13
655.337	48693.59
655.688	48939.46
656.039	49014.04
656.391	48840.71
656.742	49005.67
657.094	49062.62
657.445	49352.56
657.796	49320.92
658.147	49264.65
658.498	49296.97
658.849	49420.13
659.2	49361.82
659.551	49331.32
659.902	49454.02
660.253	49316.85
660.604	49263.97
660.955	49050.19
661.306	49080.25
661.656	48914.6
662.007	48923.87
662.358	48714.83
662.708	48636.42
663.059	48409.98
663.409	48245.02
663.76	48423.54
664.11	48292.7
664.461	48272.36
664.811	48289.54
665.161	48237.56
665.511	48147.62
665.862	48241.4
666.212	48444.79
666.562	48482.07
666.912	48413.6
667.262	48471
667.612	48516.2
667.962	48632.13
668.312	48750.31
668.662	48882.97
669.011	48904.21
669.361	48818.11
669.711	48904.66
670.06	48855.4
670.41	48748.28
670.76	48678
671.109	48710.32
671.459	48639.13
671.808	48521.39
672.157	48491.56
672.507	48185.13
672.856	48107.17
673.205	48125.25
673.554	48064.46
673.904	47858.36
674.253	47999.6
674.602	47862.2
674.951	47230.35
675.3	46924.6
675.649	47490.91
675.998	47602.32
676.346	47527.52
676.695	47670.12
677.044	47477.13
677.393	47526.84
677.741	47658.37
678.09	47611.59
678.438	47598.48
678.787	48000.96
679.135	47760.74
679.484	47773.84
679.832	47956.21
680.181	47778.36
680.529	47935.65
680.877	47940.17
681.225	47768.65
681.573	48078.92
681.922	47729.78
682.27	47652.72
682.618	47664.02
682.966	47538.37
683.314	47484.13
683.661	47288.66
684.009	47025.61
684.357	46920.53
684.705	46677.6
685.053	46622.69
685.4	46519.41
685.748	46271.06
686.095	46125.52
686.443	46037.17
686.79	45877.17
687.138	45961.69
687.485	45871.75
687.832	45654.35
688.18	45907.45
688.527	45668.14
688.874	45779.77
689.221	45701.35
689.568	45650.51
689.915	45516.73
690.262	45621.36
690.609	45537.07
690.956	45595.14
691.303	45671.3
691.65	45707.46
691.997	45667.01
692.344	45508.82
692.69	45533
693.037	45594.46
693.383	45179.56
693.73	45319.9
694.077	45128.71
694.423	44927.82
694.769	44767.82
695.116	44657.31
695.462	44510.43
695.808	44230.66
696.155	44158.57
696.501	43722.88
696.847	43712.25
697.193	43107.07
697.539	43445.59
697.885	43043.35
698.231	43025.27
698.577	42711.83
698.923	42681.55
699.269	42535.34
699.614	42333.31
699.96	42303.7
700.306	42414.21
700.651	42169.47
700.997	42122.47
701.342	42297.83
701.688	42342.57
702.033	42076.14
702.379	42159.53
702.724	42264.16
703.069	42498.5
703.415	42018.97
703.76	42175.35
704.105	42110.71
704.45	42058.51
704.795	41911.85
705.14	41784.85
705.485	41793.21
705.83	41749.37
706.175	41625.76
706.52	41440.9
706.865	41296.5
707.209	41145.77
707.554	40941.71
707.899	41002.72
708.243	40597.08
708.588	40429.18
708.932	40125.23
709.277	40007.04
709.621	40036.19
709.966	39683.89
710.31	39647.5
710.654	39302.2
710.998	39329.09
711.342	39406.15
711.687	39269.43
712.031	39098.36
712.375	39024.02
712.719	39003.68
713.063	38979.72
713.407	39097.46
713.75	39031.7
714.094	39117.35
714.438	38999.61
714.782	39193.96
715.125	39105.14
715.469	39264.01
715.812	39102.21
716.156	38909.67
716.499	39107.86
716.843	39092.04
717.186	38891.82
717.53	39233.5
717.873	39097.91
718.216	38820.63
718.559	38752.39
718.902	38536.8
719.246	38544.71
719.589	38311.49
719.932	38182.68
720.275	38195.56
720.617	37943.14
720.96	37756.93
721.303	37650.95
721.646	37699.08
721.989	37436.04
722.331	37264.97
722.674	37247.34
723.016	37140.22
723.359	36950.4
723.701	36836.28
724.044	36781.59
724.386	36642.84
724.729	36767.58
725.071	36530.52
725.413	36616.4
725.755	36547.47
726.097	36396.06
726.439	36427.7
726.782	36523.97
727.124	36702.95
727.465	36545.21
727.807	36603.51
728.149	36492.11
728.491	36530.07
728.833	36598.32
729.175	36531.43
729.516	36555.38
729.858	36514.25
730.199	36636.06
730.541	36478.32
730.882	36440.13
731.224	36379.34
731.565	36220.25
731.906	36170.08
732.248	36237.65
732.589	36004.21
732.93	35800.82
733.271	35812.35
733.612	35819.81
733.953	35588.4
734.294	35419.59
734.635	35177.34
734.976	35201.74
735.317	35033.16
735.658	34923.11
735.999	34942.54
736.339	34745.48
736.68	34758.37
737.021	34606.51
737.361	34404.02
737.702	34586.84
738.042	34378.49
738.383	34348.43
738.723	34577.58
739.063	34367.42
739.404	34460.75
739.744	34481.08
740.084	34416.23
740.424	34538.71
740.764	34565.83
741.104	34534.64
741.444	34493.06
741.784	34470.46
742.124	34599.05
742.464	34535.77
742.804	34629.1
743.143	34555.21
743.483	34675.88
743.823	34407.41
744.162	34397.02
744.502	34563.79
744.841	34221.66
745.181	34402.44
745.52	34306.63
745.86	34340.75
746.199	34116.8
746.538	33866.41
746.877	34042.68
747.216	33759.75
747.556	33487.44
747.895	33525.63
748.234	33429.36
748.573	33149.82
748.911	33228.01
749.25	32941.46
749.589	32807
749.928	32687.69
750.267	32820.79
750.605	32591.19
750.944	32624.64
751.283	32416.05
751.621	32452.44
751.96	32278.88
752.298	32400.91
752.636	32177.19
752.975	32130.19
753.313	32044.09
753.651	32279.79
753.989	32010.87
754.327	32063.07
754.666	32103.52
755.004	32166.12
755.342	32217.42
755.679	32193.46
756.017	32130.19
756.355	32205.44
756.693	32046.8
757.031	32098.32
757.368	32005.22
757.706	32030.3
758.044	31859.23
758.381	31900.81
758.719	31702.4
759.056	31708.95
759.394	31583.31
759.731	31336.31
760.068	31434.16
760.405	31069.88
