Data from red_cardboard_box_FLMS001491_00024.txt Node
Date: Wed Feb 08 11:31:46 GMT 2017
User: dcchb
Spectrometer: FLMS00149
Trigger mode: 0
Integration Time (sec): 2.000000E-2
Scans to average: 10
Electric dark correction enabled: true
Nonlinearity correction enabled: false
Boxcar width: 0
XAxis mode: Wavelengths
Number of Pixels in Spectrum: 2048
>>>>>Begin Spectral Data<<<<<
341.393	-15.51
341.776	-15.51
342.16	-15.51
342.543	-71.33
342.927	-60.7
343.31	-55.28
343.693	-67.48
344.077	-71.33
344.46	-78.56
344.843	-59.57
345.226	-28.62
345.61	-36.98
345.993	-19.58
346.376	6.64
346.759	22.68
347.142	26.3
347.525	30.37
347.908	55.9
348.291	67.88
348.674	88.44
349.057	119.18
349.44	119.4
349.823	135
350.206	149.69
350.588	200.31
350.971	224.71
351.354	238.27
351.737	237.37
352.119	258.61
352.502	264.03
352.884	276.69
353.267	288.89
353.65	266.29
354.032	286.4
354.414	302.9
354.797	305.84
355.179	353.3
355.562	343.58
355.944	330.02
356.326	348.55
356.709	360.98
357.091	359.85
357.473	365.95
357.855	352.84
358.238	348.32
358.62	338.15
359.002	332.96
359.384	318.72
359.766	346.52
360.148	337.48
360.53	346.97
360.912	342.9
361.294	332.96
361.676	336.57
362.057	346.97
362.439	336.35
362.821	348.78
363.203	337.25
363.584	335.22
363.966	332.96
364.348	324.6
364.729	330.47
365.111	319.17
365.493	315.33
365.874	320.53
366.256	343.8
366.637	329.57
367.019	334.09
367.4	317.59
367.781	324.14
368.163	325.5
368.544	313.97
368.925	317.82
369.306	329.34
369.688	331.15
370.069	344.71
370.45	309
370.831	333.64
371.212	323.01
371.593	302.9
371.974	330.02
372.355	311.26
372.736	305.39
373.117	356.69
373.498	333.64
373.879	326.4
374.26	329.79
374.641	309.23
375.021	325.5
375.402	337.03
375.783	329.34
376.163	305.84
376.544	331.6
376.925	339.28
377.305	334.77
377.686	323.24
378.066	329.79
378.447	334.09
378.827	353.3
379.208	332.73
379.588	334.77
379.968	341.77
380.349	326.18
380.729	344.71
381.109	342.22
381.489	335.67
381.87	335.9
382.25	336.8
382.63	367.98
383.01	333.41
383.39	336.12
383.77	343.35
384.15	349.91
384.53	324.6
384.91	357.82
385.29	329.34
385.67	365.5
386.049	348.55
386.429	347.42
386.809	354.88
387.189	353.97
387.568	351.26
387.948	363.92
388.328	367.53
388.707	369.34
389.087	365.95
389.466	372.73
389.846	375.44
390.225	379.28
390.605	357.36
390.984	372.96
391.363	371.15
391.743	372.5
392.122	372.96
392.501	360.3
392.881	367.08
393.26	363.24
393.639	373.86
394.018	350.36
394.397	367.08
394.776	392.16
395.155	358.95
395.534	378.15
395.913	381.09
396.292	389
396.671	390.36
397.05	369.57
397.429	381.54
397.808	381.09
398.186	377.93
398.565	386.97
398.944	374.99
399.323	382.45
399.701	393.52
400.08	390.58
400.458	401.66
400.837	394.88
401.215	397.14
401.594	389.68
401.972	383.58
402.351	397.14
402.729	401.43
403.107	401.88
403.486	400.75
403.864	392.84
404.242	400.53
404.62	418.6
404.999	406.18
405.377	413.63
405.755	422.67
406.133	423.58
406.511	424.48
406.889	393.07
407.267	423.58
407.645	439.17
408.023	432.16
408.401	411.37
408.779	431.71
409.156	435.1
409.534	429
409.912	426.29
410.29	442.33
410.667	448.66
411.045	436.91
411.422	440.75
411.8	421.99
412.178	454.99
412.555	456.8
412.933	452.95
413.31	474.2
413.687	459.96
414.065	450.02
414.442	453.41
414.819	445.04
415.197	468.77
415.574	471.71
415.951	478.72
416.328	481.43
416.705	472.16
417.082	491.82
417.46	486.85
417.837	497.47
418.214	490.69
418.591	483.91
418.967	498.6
419.344	497.25
419.721	501.31
420.098	485.72
420.475	512.84
420.852	498.15
421.228	515.78
421.605	516.68
421.982	509.22
422.358	519.39
422.735	504.25
423.111	525.04
423.488	532.05
423.864	517.59
424.241	525.27
424.617	532.27
424.994	509.68
425.37	521.88
425.746	547.64
426.123	531.37
426.499	546.51
426.875	569.56
427.251	533.4
427.627	574.98
428.003	566.4
428.379	546.96
428.756	566.4
429.132	558.94
429.507	583.57
429.883	599.39
430.259	576.79
430.635	565.72
431.011	561.43
431.387	601.88
431.763	600.07
432.138	601.2
432.514	602.1
432.89	606.17
433.265	622.44
433.641	608.88
434.016	600.97
434.392	622.22
434.767	603.91
435.143	623.8
435.518	619.73
435.894	656.11
436.269	648.88
436.644	650.24
437.02	642.55
437.395	660.86
437.77	635.77
438.145	650.69
438.52	662.67
438.895	655.89
439.271	686.85
439.646	668.09
440.021	690.01
440.395	685.94
440.77	687.98
441.145	689.78
441.52	699.5
441.895	698.6
442.27	698.37
442.645	711.93
443.019	698.15
443.394	707.86
443.769	699.73
444.143	703.8
444.518	706.96
444.892	714.64
445.267	711.25
445.641	740.86
446.016	718.03
446.39	711.7
446.764	745.15
447.139	742.66
447.513	732.95
447.887	743.79
448.262	752.61
448.636	753.29
449.01	728.88
449.384	753.06
449.758	753.74
450.132	758.48
450.506	760.97
450.88	770.23
451.254	760.52
451.628	766.84
452.002	776.34
452.376	805.49
452.75	794.41
453.123	791.25
453.497	821.76
453.871	807.07
454.244	817.69
454.618	803
454.992	805.04
455.365	782.89
455.739	815.66
456.112	852.27
456.486	836.45
456.859	864.02
457.232	866.28
457.606	862.21
457.979	891.13
458.352	866.5
458.725	872.83
459.099	882.32
459.472	898.59
459.845	886.16
460.218	892.26
460.591	899.04
460.964	920.51
461.337	914.64
461.71	930.46
462.083	947.63
462.456	959.16
462.829	966.39
463.201	949.66
463.574	966.61
463.947	969.32
464.32	965.03
464.692	975.43
465.065	1010.45
465.438	1019.94
465.81	1018.14
466.183	1022.2
466.555	1034.18
466.928	1048.64
467.3	1054.07
467.672	1042.09
468.045	1084.8
468.417	1078.25
468.789	1086.84
469.161	1095.42
469.534	1103.33
469.906	1134.52
470.278	1110.34
470.65	1108.3
471.022	1157.57
471.394	1178.81
471.766	1171.13
472.138	1180.62
472.51	1207.51
472.882	1225.82
473.253	1202.09
473.625	1230.79
473.997	1252.93
474.369	1227.85
474.74	1268.75
475.112	1290.9
475.484	1301.29
475.855	1327.06
476.227	1344.91
476.598	1333.38
476.97	1364.79
477.341	1394.85
477.713	1395.75
478.084	1387.62
478.455	1447.5
478.827	1444.34
479.198	1450.67
479.569	1485.24
479.94	1521.63
480.311	1527.5
480.682	1526.82
481.053	1584.45
481.424	1555.75
481.795	1602.3
482.166	1618.35
482.537	1607.95
482.908	1655.86
483.279	1676.2
483.65	1690.44
484.021	1739.02
484.391	1751.45
484.762	1748.06
485.133	1770.43
485.503	1795.29
485.874	1837.1
486.244	1828.74
486.615	1865.8
486.985	1870.32
487.356	1905.57
487.726	1949.41
488.097	1968.17
488.467	1967.72
488.837	2018.79
489.207	2058.11
489.578	2025.34
489.948	2068.5
490.318	2103.31
490.688	2105.34
491.058	2111.22
491.428	2148.05
491.798	2171.78
492.168	2215.39
492.538	2197.54
492.908	2240.48
493.278	2284.77
493.648	2259.69
494.017	2299.46
494.387	2321.61
494.757	2327.03
495.126	2363.86
495.496	2375.39
495.866	2363.64
496.235	2395.5
496.605	2455.61
496.974	2414.94
497.344	2497.87
497.713	2511.66
498.082	2536.74
498.452	2547.59
498.821	2553.01
499.19	2567.25
499.559	2589.17
499.928	2600.02
500.298	2610.64
500.667	2618.77
501.036	2621.26
501.405	2669.85
501.774	2673.01
502.143	2714.59
502.512	2724.53
502.88	2726.11
503.249	2736.28
503.618	2757.75
503.987	2749.62
504.356	2798.88
504.724	2818.54
505.093	2834.36
505.462	2847.92
505.83	2843.63
506.199	2867.35
506.567	2920.46
506.936	2927.47
507.304	2939.67
507.672	2953
508.041	3029.38
508.409	2998.2
508.777	3023.28
509.145	3067.35
509.514	3040.68
509.882	3103.96
510.25	3064.86
510.618	3094.92
510.986	3161.58
511.354	3157.29
511.722	3195.03
512.09	3211.53
512.458	3203.62
512.826	3239.32
513.193	3270.96
513.561	3298.98
513.929	3331.07
514.297	3317.74
514.664	3345.53
515.032	3371.3
515.4	3393.67
515.767	3433.89
516.135	3416.94
516.502	3454.01
516.869	3496.04
517.237	3489.48
517.604	3524.29
517.972	3576.49
518.339	3571.97
518.706	3588.92
519.073	3587.79
519.44	3657.84
519.808	3668.24
520.175	3673.66
520.542	3729.7
520.909	3787.78
521.276	3749.59
521.643	3809.93
522.009	3862.81
522.376	3861.68
522.743	3889.02
523.11	3929.25
523.477	3981.22
523.843	3981.45
524.21	4005.63
524.577	4060.54
524.943	4090.37
525.31	4144.61
525.676	4165.4
526.043	4171.5
526.409	4182.12
526.776	4193.65
527.142	4250.14
527.508	4331.95
527.874	4300.99
528.241	4288.56
528.607	4330.14
528.973	4420.31
529.339	4362.68
529.705	4473.64
530.071	4505.5
530.437	4499.18
530.803	4581.43
531.169	4607.65
531.535	4553.19
531.901	4612.84
532.267	4631.6
532.632	4663.92
532.998	4698.49
533.364	4756.57
533.73	4666.4
534.095	4794.53
534.461	4794.76
534.826	4838.83
535.192	4862.1
535.557	4924.25
535.923	4904.81
536.288	4861.2
536.653	4975.1
537.019	4962.44
537.384	4963.34
537.749	4994.76
538.114	5039.5
538.479	5065.49
538.845	5084.24
539.21	5105.26
539.575	5123.11
539.94	5147.97
540.305	5144.13
540.67	5133.74
541.034	5261.42
541.399	5267.29
541.764	5299.38
542.129	5292.6
542.494	5330.57
542.858	5343.22
543.223	5356.33
543.587	5348.19
543.952	5380.06
544.316	5416.21
544.681	5445.82
545.045	5488.75
545.41	5480.39
545.774	5523.56
546.138	5562.42
546.503	5604.23
546.867	5636.32
547.231	5609.88
547.595	5678.13
547.959	5728.52
548.324	5710.44
548.688	5721.97
549.052	5794.96
549.416	5788.41
549.779	5879.25
550.143	5866.37
550.507	5920.61
550.871	5907.5
551.235	5967.61
551.599	5976.2
551.962	6013.49
552.326	6088.06
552.689	6131.67
553.053	6174.39
553.417	6138
553.78	6241.95
554.143	6214.38
554.507	6231.11
554.87	6302.29
555.234	6380.71
555.597	6335.29
555.96	6402.4
556.323	6386.81
556.686	6474.72
557.05	6554.26
557.413	6569.4
557.776	6608.05
558.139	6662.73
558.502	6712.22
558.865	6714.94
559.228	6827.25
559.59	6867.47
559.953	6899.79
560.316	7024.08
560.679	7051.42
561.041	7118.77
561.404	7111.76
561.767	7221.82
562.129	7243.74
562.492	7384.07
562.854	7364.86
563.217	7386.78
563.579	7456.16
563.941	7553.33
564.304	7601.24
564.666	7708.81
565.028	7704.51
565.39	7794
565.753	7905.64
566.115	7969.82
566.477	8063.83
566.839	8100.66
567.201	8212.52
567.563	8252.98
567.925	8378.85
568.287	8396.25
568.648	8466.98
569.01	8542.23
569.372	8657.26
569.734	8680.76
570.095	8760.98
570.457	8762.79
570.819	8899.74
571.18	8986.52
571.542	9065.16
571.903	9173.4
572.265	9211.14
572.626	9300.86
572.987	9411.36
573.349	9525.26
573.71	9617.91
574.071	9729.32
574.432	9759.15
574.794	10065.81
575.155	9970.67
575.516	10078.01
575.877	10214.96
576.238	10289.53
576.599	10385.35
576.96	10529.53
577.32	10638.9
577.681	10850.19
578.042	10922.51
578.403	11033.01
578.763	11214.25
579.124	11298.09
579.485	11379.45
579.845	11602.04
580.206	11665.99
580.566	11887.68
580.927	11924.29
581.287	12264.4
581.648	12262.81
582.008	12533.54
582.368	12635.23
582.728	12833.87
583.089	12969.46
583.449	13154.54
583.809	13327.42
584.169	13637.69
584.529	13710.23
584.889	14007.17
585.249	14140.96
585.609	14304.34
585.969	14647.38
586.329	14742.07
586.688	15055.96
587.048	15302.96
587.408	15464.99
587.768	15820.46
588.127	16055.93
588.487	16287.57
588.846	16751.96
589.206	16850.94
589.565	17128.45
589.925	17509
590.284	17686.4
590.643	18064.69
591.003	18367.96
591.362	18719.37
591.721	19025.8
592.08	19348.28
592.44	19721.15
592.799	20043.17
593.158	20363.39
593.517	20664.4
593.876	21104.61
594.235	21377.38
594.593	21698.27
594.952	22260.29
595.311	22563.11
595.67	22931.01
596.029	23376.42
596.387	23770.08
596.746	24183.63
597.104	24473.34
597.463	24862.26
597.822	25314.9
598.18	25629.69
598.538	25949.23
598.897	26528.2
599.255	26729.33
599.613	27480.94
599.972	27705.34
600.33	28146.69
600.688	28344.42
601.046	28975.37
601.404	29404.74
601.762	29819.87
602.12	30235.67
602.478	30625.72
602.836	31012.83
603.194	31236.78
603.552	31648.07
603.91	31952.24
604.268	32472
604.625	32927.13
604.983	33425.87
605.341	33537.28
605.698	34123.71
606.056	34471.49
606.413	34747.42
606.771	35117.81
607.128	35529.77
607.485	35689.32
607.843	36166.37
608.2	36557.09
608.557	36916.18
608.914	37136.96
609.272	37621.24
609.629	37958.86
609.986	38321.34
610.343	38418.06
610.7	39020.08
611.057	39208.32
611.414	39364.25
611.771	39750.45
612.127	40056.21
612.484	40321.06
612.841	40479.02
613.198	40639.69
613.554	40956.3
613.911	41335.5
614.267	41499.56
614.624	41761.25
614.98	41916.27
615.337	42197.62
615.693	42347.67
616.05	42589.47
616.406	43012.74
616.762	43047.09
617.118	43120.76
617.475	43438.26
617.831	43736.79
618.187	43809.78
618.543	44080.51
618.899	44365.02
619.255	44449.54
619.611	44539.25
619.967	44864.22
620.323	45059.01
620.678	44953.71
621.034	45139.01
621.39	45245
621.746	45200.03
622.101	45972.66
622.457	45697.64
622.812	45749.62
623.168	46050.85
623.523	46076.16
623.879	46294.01
624.234	46017.41
624.589	46289.94
624.945	46515.92
625.3	46645.64
625.655	46530.16
626.01	46688.12
626.365	46856.03
626.72	46699.65
627.075	46875.69
627.43	46997.49
627.785	46962.47
628.14	47085.85
628.495	47208.11
628.85	47273.64
629.205	47251.27
629.559	47522.23
629.914	47300.08
630.269	47517.03
630.623	47361.33
630.978	47323.36
631.332	47682.45
631.687	47763.8
632.041	47455.79
632.396	47701.2
632.75	47637.02
633.104	47677.25
633.459	47577.14
633.813	47608.1
634.167	47653.52
634.521	47557.03
634.875	47698.49
635.229	47687.19
635.583	47564.94
635.937	47653.3
636.291	47557.03
636.645	47761.54
636.999	47663.24
637.352	47712.5
637.706	47515.67
638.06	47714.76
638.413	47728.77
638.767	47561.32
639.121	47717.93
639.474	47595.22
639.828	47737.36
640.181	47813.06
640.534	47807.64
640.888	47634.76
641.241	47543.69
641.594	47776.23
641.947	47752.5
642.301	47629.11
642.654	47728.77
643.007	47684.71
643.36	47671.6
643.713	47658.27
644.066	47815.55
644.419	47559.74
644.771	47286.3
645.124	46964.5
645.477	46921.56
645.83	46712.75
646.182	46492.2
646.535	46529.26
646.888	46699.65
647.24	46421.46
647.593	46820.55
647.945	46551.63
648.298	46385.98
648.65	46426.21
649.002	46310.96
649.355	46472.08
649.707	46434.12
650.059	46648.58
650.411	47178.73
650.763	47190.48
651.115	47510.02
651.467	47407.88
651.819	47444.71
652.171	47258.5
652.523	47422.34
652.875	47257.37
653.227	47106.42
653.578	47534.43
653.93	47556.57
654.282	47237.49
654.633	47055.8
654.985	47315
655.337	47270.71
655.688	47352.51
656.039	47431.61
656.391	47077.72
656.742	47276.58
657.094	47091.28
657.445	47280.2
657.796	47319.74
658.147	47138.73
658.498	47117.94
658.849	47265.06
659.2	47143.93
659.551	46962.01
659.902	47183.93
660.253	47266.41
660.604	47174.44
660.955	46963.37
661.306	47150.71
661.656	47162.01
662.007	47088.34
662.358	47173.31
662.708	47202.91
663.059	47085.85
663.409	46983.26
663.76	47227.09
664.11	47171.5
664.461	47176.92
664.811	47255.11
665.161	47202.69
665.511	47108.45
665.862	47007.44
666.212	47204.49
666.562	47233.42
666.912	47139.64
667.262	47003.37
667.612	47146.42
667.962	47172.4
668.312	46912.52
668.662	47268.22
669.011	47097.38
669.361	47129.24
669.711	46912.75
670.06	47139.41
670.41	46915.46
670.76	46831.85
671.109	47071.39
671.459	46900.09
671.808	47027.55
672.157	46991.39
672.507	46785.97
672.856	46734
673.205	46858.97
673.554	47006.08
673.904	46755.24
674.253	47008.11
674.602	46878.4
674.951	46334.01
675.3	46036.39
675.649	46656.94
675.998	46686.54
676.346	46731.96
676.695	46849.25
677.044	46484.74
677.393	46580.1
677.741	46698.74
678.09	46582.59
678.438	46522.48
678.787	46494.23
679.135	46625.53
679.484	46333.1
679.832	46514.79
680.181	46091.98
680.529	46345.98
680.877	46317.74
681.225	46154.58
681.573	46359.77
681.922	46065.09
682.27	46054.47
682.618	46022.15
682.966	45883.85
683.314	45984.19
683.661	45813.8
684.009	45643.4
684.357	45635.04
684.705	45504.88
685.053	45640.69
685.4	45586
685.748	45308.72
686.095	45355.28
686.443	45207.94
686.79	45209.97
687.138	45289.52
687.485	45175.85
687.832	45017.66
688.18	45174.04
688.527	45019.69
688.874	44854.5
689.221	44798.91
689.568	44624.67
689.915	44564.79
690.262	44575.86
690.609	44448.41
690.956	44389.88
691.303	44249.99
691.65	44231.46
691.997	44036.89
692.344	43804.13
692.69	44012.26
693.037	43915.31
693.383	43403.92
693.73	43729.1
694.077	43467.42
694.423	43494.99
694.769	43369.79
695.116	43238.5
695.462	43348.55
695.808	42943.59
696.155	43174.09
696.501	42721.9
696.847	42874.21
697.193	42571.85
697.539	42553.32
697.885	42416.14
698.231	42436.71
698.577	42350.38
698.923	42217.51
699.269	42049.83
699.614	41975.25
699.96	41893.22
700.306	41825.2
700.651	41676.5
700.997	41415.94
701.342	41593.12
701.688	41285.1
702.033	41368.04
702.379	41227.25
702.724	41173.69
703.069	41124.2
703.415	40786.58
703.76	40779.58
704.105	40803.08
704.45	40616.87
704.795	40500.26
705.14	40539.36
705.485	40332.58
705.83	40253.26
706.175	40204
706.52	40223.66
706.865	40053.49
707.209	39882.65
707.554	39850.34
707.899	39932.82
708.243	39678.82
708.588	39628.65
708.932	39444.47
709.277	39447.86
709.621	39443.34
709.966	39265.04
710.31	39145.72
710.654	38972.62
710.998	39092.16
711.342	38964.26
711.687	38997.48
712.031	38796.8
712.375	38627.54
712.719	38661.22
713.063	38741.89
713.407	38739.41
713.75	38475.23
714.094	38524.5
714.438	38536.7
714.782	38377.15
715.125	38288.57
715.469	38228.46
715.812	38048.58
716.156	37842.71
716.499	37834.12
716.843	37938.3
717.186	37607.91
717.53	37804.97
717.873	37830.05
718.216	37755.48
718.559	37510.06
718.902	37338.31
719.246	37410.4
719.589	37277.3
719.932	37372.44
720.275	37141.93
720.617	37114.14
720.96	37143.97
721.303	37164.31
721.646	37189.84
721.989	36945.55
722.331	37095.83
722.674	36913.69
723.016	36925.89
723.359	36760.47
723.701	36728.61
724.044	36557.77
724.386	36488.39
724.729	36626.47
725.071	36517.09
725.413	36556.41
725.755	36463.31
726.097	36200.26
726.439	36115.52
726.782	36116.65
727.124	36286.81
727.465	35955.3
727.807	35927.5
728.149	35874.17
728.491	35782.19
728.833	35971.57
729.175	35649.32
729.516	35678.47
729.858	35751.46
730.199	35664.01
730.541	35726.15
730.882	35723.67
731.224	35627.17
731.565	35495.65
731.906	35418.59
732.248	35553.73
732.589	35224.7
732.93	35225.37
733.271	35239.61
733.612	35192.61
733.953	35289.55
734.294	35138.82
734.635	35019.73
734.976	35152.61
735.317	34894.08
735.658	34800.75
735.999	34897.47
736.339	34815.44
736.68	34769.34
737.021	34753.97
737.361	34550.36
737.702	34744.03
738.042	34544.26
738.383	34572.28
738.723	34491.83
739.063	34445.51
739.404	34499.29
739.744	34375.68
740.084	34125.74
740.424	34182.69
740.764	34336.13
741.104	34239.86
741.444	34198.73
741.784	34066.76
742.124	34146.98
742.464	34040.55
742.804	34055.69
743.143	33835.13
743.483	33933.2
743.823	33712.87
744.162	33842.81
744.502	33659.76
744.841	33601.91
745.181	33819.08
745.52	33580.44
745.86	33629.03
746.199	33485.08
746.538	33591.07
746.877	33529.6
747.216	33574.57
747.556	33374.12
747.895	33398.98
748.234	33175.26
748.573	33255.71
748.911	33195.14
749.25	33195.82
749.589	33044.64
749.928	33085.09
750.267	33022.95
750.605	33033.57
750.944	32952.89
751.283	32858.88
751.621	32931.42
751.96	32649.85
752.298	32793.35
752.636	32611.66
752.975	32413.24
753.313	32367.82
753.651	32572.11
753.989	32333.25
754.327	32319.01
754.666	32216.86
755.004	32137.32
755.342	32109.75
755.679	32139.8
756.017	31948.85
756.355	31927.61
756.693	31879.47
757.031	31905.01
757.368	31729.42
757.706	31750.66
758.044	31611
758.381	31624.56
758.719	31504.12
759.056	31444.91
759.394	31459.14
759.731	31265.03
760.068	31056.9
760.405	31037.46
760.743	31074.07
761.08	31073.17
