Data from red_cardboard_box_FLMS001491_00074.txt Node
Date: Wed Feb 08 11:33:06 GMT 2017
User: dcchb
Spectrometer: FLMS00149
Trigger mode: 0
Integration Time (sec): 2.000000E-2
Scans to average: 10
Electric dark correction enabled: true
Nonlinearity correction enabled: false
Boxcar width: 0
XAxis mode: Wavelengths
Number of Pixels in Spectrum: 2048
>>>>>Begin Spectral Data<<<<<
341.393	-15.06
341.776	-15.06
342.16	-15.06
342.543	-83.53
342.927	-55.73
343.31	-56.18
343.693	-69.97
344.077	-74.72
344.46	-64.55
344.843	-48.95
345.226	-38.33
345.61	-32.46
345.993	-30.65
346.376	-10.08
346.759	5.06
347.142	32.4
347.525	50.93
347.908	76.69
348.291	69.91
348.674	74.43
349.057	116.47
349.44	129.8
349.823	162.57
350.206	165.96
350.588	200.08
350.971	199.63
351.354	215.67
351.737	235.78
352.119	241.89
352.502	267.65
352.884	289.57
353.267	280.53
353.65	301.32
354.032	285.73
354.414	302.68
354.797	309.91
355.179	317.36
355.562	309.91
355.944	317.36
356.326	320.3
356.709	334.09
357.091	335.44
357.473	348.1
357.855	344.26
358.238	322.34
358.62	330.25
359.002	328.89
359.384	349
359.766	344.93
360.148	332.28
360.53	337.48
360.912	322.79
361.294	351.71
361.676	330.25
362.057	336.12
362.439	313.07
362.821	323.69
363.203	327.76
363.584	320.98
363.966	311.94
364.348	335.67
364.729	304.03
365.111	323.92
365.493	301.55
365.874	308.1
366.256	317.14
366.637	304.26
367.019	298.16
367.4	287.53
367.781	311.49
368.163	299.06
368.544	303.13
368.925	290.92
369.306	301.09
369.688	287.53
370.069	294.77
370.45	311.26
370.831	283.24
371.212	298.61
371.593	309.46
371.974	318.95
372.355	307.42
372.736	307.2
373.117	322.11
373.498	312.62
373.879	300.42
374.26	282.56
374.641	326.86
375.021	313.3
375.402	332.28
375.783	314.88
376.163	305.16
376.544	311.04
376.925	334.77
377.305	307.65
377.686	299.06
378.066	309
378.447	297.25
378.827	325.27
379.208	327.08
379.588	342
379.968	319.17
380.349	324.6
380.729	330.25
381.109	317.36
381.489	320.98
381.87	308.55
382.25	328.21
382.63	320.75
383.01	325.27
383.39	320.3
383.77	305.61
384.15	336.57
384.53	330.92
384.91	322.34
385.29	341.32
385.67	316.23
386.049	326.18
386.429	335.44
386.809	340.87
387.189	342.22
387.568	310.59
387.948	318.72
388.328	309.46
388.707	310.81
389.087	336.35
389.466	341.32
389.846	330.02
390.225	323.69
390.605	318.27
390.984	329.79
391.363	326.4
391.743	331.6
392.122	352.39
392.501	354.88
392.881	351.04
393.26	326.4
393.639	347.42
394.018	354.65
394.397	352.84
394.776	333.64
395.155	332.96
395.534	329.34
395.913	330.92
396.292	346.29
396.671	365.95
397.05	363.69
397.429	347.65
397.808	340.64
398.186	353.3
398.565	370.7
398.944	352.17
399.323	356.01
399.701	367.08
400.08	350.13
400.458	350.81
400.837	362.11
401.215	365.27
401.594	375.44
401.972	374.99
402.351	339.06
402.729	362.79
403.107	377.25
403.486	367.98
403.864	366.18
404.242	367.08
404.62	380.87
404.999	375.67
405.377	356.46
405.755	372.5
406.133	374.31
406.511	366.63
406.889	365.27
407.267	374.54
407.645	361.66
408.023	377.93
408.401	390.36
408.779	365.05
409.156	395.55
409.534	391.71
409.912	391.71
410.29	384.93
410.667	374.76
411.045	377.93
411.422	418.15
411.8	412.28
412.178	379.06
412.555	377.25
412.933	397.14
413.31	402.33
413.687	403.01
414.065	398.94
414.442	379.28
414.819	424.25
415.197	406.4
415.574	384.48
415.951	412.73
416.328	409.11
416.705	433.97
417.082	418.38
417.46	414.54
417.837	421.77
418.214	410.47
418.591	407.53
418.967	437.36
419.344	434.2
419.721	406.18
420.098	430.81
420.475	427.42
420.852	420.19
421.228	415.22
421.605	425.61
421.982	428.55
422.358	415.44
422.735	439.4
423.111	454.76
423.488	442.78
423.864	443.69
424.241	436.91
424.617	440.75
424.994	431.03
425.37	436.91
425.746	445.72
426.123	450.69
426.499	447.3
426.875	430.58
427.251	446.85
427.627	458.15
428.003	443.46
428.379	457.7
428.756	455.67
429.132	462.9
429.507	456.8
429.883	480.07
430.259	464.93
430.635	478.94
431.011	458.6
431.387	467.87
431.763	465.84
432.138	475.78
432.514	483.01
432.89	454.08
433.265	482.33
433.641	489.11
434.016	494.54
434.392	490.24
434.767	499.05
435.143	514.2
435.518	508.32
435.894	505.38
436.269	511.03
436.644	482.33
437.02	509.22
437.395	503.12
437.77	505.83
438.145	519.39
438.52	546.74
438.895	512.61
439.271	530.47
439.646	514.2
440.021	513.97
440.395	511.26
440.77	509.68
441.145	504.93
441.52	527.75
441.895	525.04
442.27	527.3
442.645	532.27
443.019	528.88
443.394	539.96
443.769	535.66
444.143	538.83
444.518	527.53
444.892	547.19
445.267	556.23
445.641	558.94
446.016	563.69
446.39	522.78
446.764	567.53
447.139	552.84
447.513	533.63
447.887	575.89
448.262	554.65
448.636	556.68
449.01	563.69
449.384	595.32
449.758	573.85
450.132	576.79
450.506	579.73
450.88	572.27
451.254	573.85
451.628	601.65
452.002	572.5
452.376	597.58
452.75	607.75
453.123	593.29
453.497	606.85
453.871	602.33
454.244	612.72
454.618	613.85
454.992	612.95
455.365	612.95
455.739	607.98
456.112	624.93
456.486	617.92
456.859	633.29
457.232	631.93
457.606	631.93
457.979	632.84
458.352	649.56
458.725	643.91
459.099	662.44
459.472	657.47
459.845	671.03
460.218	684.59
460.591	660.63
460.964	661.99
461.337	684.36
461.71	683.23
462.083	684.36
462.456	693.4
462.829	688.65
463.201	707.18
463.574	694.08
463.947	718.71
464.32	714.87
464.692	713.74
465.065	724.59
465.438	719.39
465.81	706.51
466.183	726.85
466.555	737.24
466.928	731.14
467.3	756
467.672	741.99
468.045	769.78
468.417	770.23
468.789	749.9
469.161	777.92
469.534	757.35
469.906	785.6
470.278	785.83
470.65	816.79
471.022	800.97
471.394	809.78
471.766	822.44
472.138	804.36
472.51	825.37
472.882	840.06
473.253	844.36
473.625	866.05
473.997	864.24
474.369	881.87
474.74	868.08
475.112	870.34
475.484	895.2
475.855	909.21
476.227	928.65
476.598	911.02
476.97	937.24
477.341	938.82
477.713	958.93
478.084	967.29
478.455	979.72
478.827	975.65
479.198	1005.71
479.569	1005.71
479.94	1029.44
480.311	1006.39
480.682	1044.35
481.053	1050.45
481.424	1070.57
481.795	1064.01
482.166	1080.51
482.537	1092.94
482.908	1104.91
483.279	1131.13
483.65	1121.64
484.021	1133.16
484.391	1137.23
484.762	1161.64
485.133	1168.87
485.503	1171.81
485.874	1188.75
486.244	1207.96
486.615	1239.15
486.985	1249.77
487.356	1261.97
487.726	1270.79
488.097	1293.61
488.467	1316.89
488.837	1317.79
489.207	1320.5
489.578	1331.12
489.948	1361.18
490.318	1364.79
490.688	1363.44
491.058	1395.08
491.428	1423.32
491.798	1404.57
492.168	1454.74
492.538	1466.03
492.908	1447.96
493.278	1492.47
493.648	1486.37
494.017	1495.64
494.387	1498.58
494.757	1511.46
495.126	1524.11
495.496	1529.76
495.866	1561.17
496.235	1537.22
496.605	1555.07
496.974	1572.02
497.344	1579.93
497.713	1573.6
498.082	1584.22
498.452	1629.87
498.821	1626.03
499.19	1619.03
499.559	1634.62
499.928	1613.15
500.298	1685.01
500.667	1657.67
501.036	1663.32
501.405	1713.26
501.774	1697.22
502.143	1700.15
502.512	1741.73
502.88	1724.56
503.249	1725.69
503.618	1714.84
503.987	1753.71
504.356	1772.69
504.724	1772.69
505.093	1756.87
505.462	1774.73
505.83	1821.51
506.199	1851.79
506.567	1852.01
506.936	1858.11
507.304	1866.7
507.672	1891.79
508.041	1875.52
508.409	1935.4
508.777	1896.53
509.145	1938.56
509.514	1920.26
509.882	1930.2
510.25	1938.34
510.618	1954.84
510.986	1983.08
511.354	1974.5
511.722	2010.2
512.09	2024.66
512.458	2035.74
512.826	2038.45
513.193	2030.77
513.561	2038.22
513.929	2066.92
514.297	2106.24
514.664	2079.58
515.032	2087.71
515.4	2132.01
515.767	2108.5
516.135	2110.54
516.502	2127.03
516.869	2193.7
517.237	2190.99
517.604	2187.82
517.972	2232.12
518.339	2225.34
518.706	2253.36
519.073	2234.15
519.44	2239.12
519.808	2283.64
520.175	2290.19
520.542	2305.33
520.909	2312.57
521.276	2323.87
521.643	2375.39
522.009	2355.73
522.376	2414.03
522.743	2384.43
523.11	2459.23
523.477	2441.15
523.843	2464.65
524.21	2523.18
524.577	2494.48
524.943	2528.61
525.31	2523.86
525.676	2576.97
526.043	2571.77
526.409	2576.29
526.776	2608.38
527.142	2606.34
527.508	2628.94
527.874	2642.28
528.241	2683.86
528.607	2702.16
528.973	2706.45
529.339	2714.82
529.705	2758.88
530.071	2752.78
530.437	2792.1
530.803	2788.71
531.169	2806.79
531.535	2832.1
531.901	2828.71
532.267	2882.49
532.632	2860.57
532.998	2889.73
533.364	2898.77
533.73	2899.67
534.095	2922.27
534.461	2963.17
534.826	2940.35
535.192	2981.02
535.557	2944.41
535.923	3002.94
536.288	3000.91
536.653	3013.34
537.019	2993.9
537.384	3044.75
537.749	3020.34
538.114	3083.62
538.479	3067.57
538.845	3095.14
539.21	3070.06
539.575	3086.78
539.94	3112.55
540.305	3138.76
540.67	3144.86
541.034	3166.56
541.399	3153
541.764	3225.08
542.129	3221.69
542.494	3207.91
542.858	3285.87
543.223	3267.8
543.587	3285.65
543.952	3279.32
544.316	3300.34
544.681	3327.23
545.045	3381.24
545.41	3369.49
545.774	3416.27
546.138	3378.75
546.503	3365.19
546.867	3391.41
547.231	3444.97
547.595	3447
547.959	3457.85
548.324	3466.21
548.688	3466.89
549.052	3515.25
549.416	3534.23
549.779	3518.41
550.143	3492.42
550.507	3540.56
550.871	3552.31
551.235	3591.85
551.599	3658.75
551.962	3647.22
552.326	3649.25
552.689	3633.89
553.053	3684.73
553.417	3730.61
553.78	3750.04
554.143	3735.35
554.507	3770.61
554.87	3797.5
555.234	3829.36
555.597	3830.94
555.96	3838.18
556.323	3889.25
556.686	3872.53
557.05	3927.67
557.413	3961.34
557.776	3966.53
558.139	4005.63
558.502	4039.3
558.865	4071.39
559.228	4124.27
559.59	4100.54
559.953	4155.46
560.316	4211.5
560.679	4239.97
561.041	4240.88
561.404	4310.03
561.767	4329.91
562.129	4288.79
562.492	4375.79
562.854	4390.03
563.217	4420.76
563.579	4480.19
563.941	4506.63
564.304	4562.9
564.666	4540.53
565.028	4610.13
565.39	4663.24
565.753	4681.09
566.115	4702.56
566.477	4776.23
566.839	4765.16
567.201	4833.18
567.563	4886.96
567.925	4984.36
568.287	4942.78
568.648	4950.69
569.01	5053.51
569.372	5118.59
569.734	5132.15
570.095	5160.18
570.457	5241.3
570.819	5270.45
571.18	5255.99
571.542	5342.32
571.903	5372.15
572.265	5429.77
572.626	5490.79
572.987	5526.27
573.349	5612.14
573.71	5633.38
574.071	5691.46
574.432	5739.14
574.794	5809.65
575.155	5873.38
575.516	5887.39
575.877	5876.99
576.238	5972.58
576.599	6108.85
576.96	6103.43
577.32	6171.22
577.681	6244.21
578.042	6349.75
578.403	6360.82
578.763	6439.69
579.124	6573.02
579.485	6618.89
579.845	6659.34
580.206	6801.94
580.566	6804.2
580.927	6926
581.287	6991.77
581.648	7017.53
582.008	7207.35
582.368	7184.98
582.728	7323.28
583.089	7450.96
583.449	7555.59
583.809	7658.19
584.169	7771.86
584.529	7842.14
584.889	8039.2
585.249	8131.62
585.609	8227.89
585.969	8375.91
586.329	8450.71
586.688	8633.76
587.048	8751.49
587.408	8839.63
587.768	9058.83
588.127	9163.91
588.487	9310.12
588.846	9483.68
589.206	9572.71
589.565	9744.46
589.925	10037.11
590.284	10126.15
590.643	10322.75
591.003	10515.51
591.362	10669.18
591.721	10855.84
592.08	11042.51
592.44	11315.04
592.799	11460.57
593.158	11625.09
593.517	11920.9
593.876	12131.74
594.235	12396.59
594.593	12587.78
594.952	12817.37
595.311	12944.15
595.67	13313.41
596.029	13540.29
596.387	13855.99
596.746	14172.37
597.104	14268.86
597.463	14483.77
597.822	14717.66
598.18	14902.52
598.538	15233.81
598.897	15538.43
599.255	15641.48
599.613	16135.48
599.972	16284.85
600.33	16636.94
600.688	16762.58
601.046	17107.43
601.404	17347.2
601.762	17528.66
602.12	17993.74
602.478	18260.17
602.836	18383.78
603.194	18550.33
603.552	18843.21
603.91	19071
604.268	19434.83
604.625	19665.78
604.983	19811.09
605.341	19987.81
605.698	20213.56
606.056	20723.61
606.413	20898.74
606.771	21156.14
607.128	21329.24
607.485	21453.53
607.843	21746.18
608.2	22108.2
608.557	22215.32
608.914	22414.41
609.272	22707.96
609.629	22866.38
609.986	23172.36
610.343	23353.14
610.7	23590.42
611.057	23832
611.414	23867.48
611.771	24171.88
612.127	24403.06
612.484	24457.29
612.841	24728.25
613.198	24789.72
613.554	25058.41
613.911	25325.07
614.267	25449.13
614.624	25583.82
614.98	25741.33
615.337	26039.85
615.693	26070.59
616.05	26225.61
616.406	26510.8
616.762	26521.2
617.118	26600.97
617.475	26661.76
617.831	26949.43
618.187	27069.88
618.543	27275.75
618.899	27322.98
619.255	27555.97
619.611	27496.54
619.967	27672.8
620.323	27938.79
620.678	27922.06
621.034	28015.39
621.39	28047.71
621.746	28162.73
622.101	28534.93
622.457	28344.88
622.812	28623.06
623.168	28692.66
623.523	28658.77
623.879	28756.62
624.234	28691.76
624.589	28985.99
624.945	29041.36
625.3	29117.06
625.655	29220.33
626.01	29276.38
626.365	29361.35
626.72	29340.1
627.075	29336.04
627.43	29508.69
627.785	29427.11
628.14	29550.95
628.495	29580.55
628.85	29597.5
629.205	29601.57
629.559	29870.71
629.914	29708
630.269	29847.66
630.623	29747.33
630.978	29749.36
631.332	30029.35
631.687	30121.1
632.041	29957.72
632.396	30131.72
632.75	30023.7
633.104	30077.03
633.459	29962.91
633.813	29944.16
634.167	30114.32
634.521	30192.74
634.875	30166.52
635.229	30022.8
635.583	30111.61
635.937	30126.98
636.291	30096.02
636.645	30078.84
636.999	30086.07
637.352	30128.56
637.706	30003.59
638.06	30208.33
638.413	30143.02
638.767	30270.25
639.121	30274.54
639.474	30047.66
639.828	30237.93
640.181	30205.17
640.534	30254.88
640.888	30142.57
641.241	30051.95
641.594	30044.04
641.947	30197.03
642.301	30128.78
642.654	30222.57
643.007	30249.01
643.36	30193.87
643.713	30187.99
644.066	30274.09
644.419	30124.26
644.771	29940.77
645.124	29592.53
645.477	29539.87
645.83	29403.83
646.182	29433.89
646.535	29276.15
646.888	29457.62
647.24	29413.55
647.593	29489.25
647.945	29455.36
648.298	29307.56
648.65	29362.48
649.002	29313.21
649.355	29483.38
649.707	29307.56
650.059	29487.22
650.411	29804.95
650.763	29986.19
651.115	30237.03
651.467	30248.1
651.819	30159.07
652.171	30107.32
652.523	29944.16
652.875	30080.65
653.227	29861.9
653.578	30177.37
653.93	30199.97
654.282	30005.4
654.633	29788.68
654.985	30024.15
655.337	30183.02
655.688	30066.64
656.039	29987.32
656.391	29849.47
656.742	29944.83
657.094	30036.36
657.445	30047.43
657.796	29921.11
658.147	29910.94
658.498	29951.16
658.849	29999.75
659.2	29923.14
659.551	29710.26
659.902	29990.71
660.253	29910.94
660.604	30021.67
660.955	29876.81
661.306	30019.18
661.656	29867.32
662.007	29920.88
662.358	29956.36
662.708	29958.17
663.059	29999.75
663.409	29722.24
663.76	30028.9
664.11	30044.94
664.461	29940.77
664.811	30082.23
665.161	29989.35
665.511	29957.04
665.862	30034.78
666.212	30075.68
666.562	30133.53
666.912	30073.42
667.262	30070.25
667.612	30033.65
667.962	30053.98
668.312	29908.9
668.662	30169.23
669.011	30198.84
669.361	30068.67
669.711	30005.85
670.06	29936.47
670.41	30004.27
670.76	29947.55
671.109	30001.56
671.459	30040.2
671.808	29898.96
672.157	29952.97
672.507	29790.49
672.856	29720.43
673.205	29842.46
673.554	29877.72
673.904	29790.49
674.253	29970.14
674.602	29887.43
674.951	29456.03
675.3	29387.33
675.649	29743.03
675.998	29850.6
676.346	29865.06
676.695	29839.53
677.044	29704.84
677.393	29751.84
677.741	29717.04
678.09	29764.5
678.438	29542.36
678.787	29626.88
679.135	29647.89
679.484	29458.52
679.832	29638.4
680.181	29443.15
680.529	29566.76
680.877	29477.05
681.225	29288.35
681.573	29577.16
681.922	29397.96
682.27	29343.27
682.618	29395.02
682.966	29201.8
683.314	29319.77
683.661	29228.69
684.009	29105.31
684.357	28985.31
684.705	28926.1
685.053	28974.92
685.4	28888.82
685.748	28887.01
686.095	28879.55
686.443	28710.52
686.79	28695.83
687.138	28648.15
687.485	28719.1
687.832	28584.64
688.18	28612.44
688.527	28544.42
688.874	28510.3
689.221	28507.81
689.568	28311.2
689.915	28278.44
690.262	28348.27
690.609	28323.86
690.956	28113.7
691.303	28198.21
691.65	27882.97
691.997	28080.25
692.344	27810.2
692.69	27904.21
693.037	27805.23
693.383	27591.45
693.73	27705.12
694.077	27637.1
694.423	27451.57
694.769	27368.4
695.116	27486.37
695.462	27447.5
695.808	27256.77
696.155	27336.54
696.501	27141.74
696.847	27148.52
697.193	26963.44
697.539	27078.24
697.885	26790.34
698.231	26870.79
698.577	26819.04
698.923	26756.44
699.269	26618.37
699.614	26452.72
699.96	26399.16
700.306	26455.43
700.651	26424.47
700.997	26282.78
701.342	26329.56
701.688	26177.93
702.033	26117.14
702.379	26039.17
702.724	26084.14
703.069	26001.66
703.415	25742.23
703.76	25892.06
704.105	25818.39
704.45	25666.98
704.795	25615
705.14	25486.19
705.485	25486.65
705.83	25449.36
706.175	25497.04
706.52	25401.45
706.865	25337.95
707.209	25198.29
707.554	25230.38
707.899	25284.17
708.243	25188.8
708.588	25005.75
708.932	24840.79
709.277	24893.67
709.621	24921.24
709.966	24706.1
710.31	24750.85
710.654	24540.68
710.998	24582.04
711.342	24721.24
711.687	24539.33
712.031	24620.68
712.375	24393.12
712.719	24431.53
713.063	24393.12
713.407	24486.9
713.75	24240.8
714.094	24335.49
714.438	24243.74
714.782	24147.25
715.125	24003.3
715.469	24086.23
715.812	24077.64
716.156	24001.26
716.499	23851.21
716.843	23893.69
717.186	23709.74
717.53	23869.29
717.873	23871.1
718.216	23792.45
718.559	23657.54
718.902	23558.11
719.246	23554.27
719.589	23549.52
719.932	23490.99
720.275	23510.2
720.617	23392.69
720.96	23426.59
721.303	23384.33
721.646	23493.03
721.989	23239.25
722.331	23294.39
722.674	23257.33
723.016	23259.81
723.359	23203.99
723.701	23181.62
724.044	23135.75
724.386	22978.46
724.729	23033.15
725.071	22996.09
725.413	23106.37
725.755	23017.33
726.097	22862.53
726.439	22818.24
726.782	22788.19
727.124	22952.25
727.465	22756.77
727.807	22745.48
728.149	22735.31
728.491	22640.17
728.833	22639.26
729.175	22635.87
729.516	22512.71
729.858	22560.85
730.199	22510
730.541	22582.77
730.882	22525.14
731.224	22562.43
731.565	22469.32
731.906	22437.46
732.248	22464.8
732.589	22302.32
732.93	22173.51
733.271	22248.09
733.612	22267.3
733.953	22321.08
734.294	22258.03
734.635	22133.97
734.976	22263.45
735.317	22100.52
735.658	22146.4
735.999	22106.17
736.339	22058.26
736.68	22004.03
737.021	21986.85
737.361	21928.77
737.702	22094.19
738.042	22061.88
738.383	21956.57
738.723	21931.71
739.063	21834.09
739.404	21839.51
739.744	21845.84
740.084	21704.6
740.424	21773.98
740.764	21787.31
741.104	21789.12
741.444	21622.79
741.784	21496.92
742.124	21681.77
742.464	21663.02
742.804	21509.8
743.143	21544.15
743.483	21487.88
743.823	21401.33
744.162	21449.01
744.502	21477.94
744.841	21331.73
745.181	21518.39
745.52	21345.06
745.86	21421.22
746.199	21289.24
746.538	21308.9
746.877	21318.39
747.216	21244.72
747.556	21171.28
747.895	21211.28
748.234	21166.76
748.573	21149.36
748.911	21124.28
749.25	21089.93
749.589	20982.36
749.928	21078.85
750.267	21125.63
750.605	20910.95
750.944	20967.9
751.283	20804.06
751.621	20844.06
751.96	20767
752.298	20732.65
752.636	20778.97
752.975	20650.39
753.313	20659.88
753.651	20744.85
753.989	20574.01
754.327	20515.48
754.666	20396.16
755.004	20469.83
755.342	20443.84
755.679	20536.27
756.017	20220.34
756.355	20310.74
756.693	20338.53
757.031	20326.1
757.368	20265.09
757.706	20120.23
758.044	20176.28
758.381	20190.51
758.719	20090.18
759.056	20053.79
759.394	20056.73
759.731	19906
760.068	19938.09
760.405	19923.18
760.743	19799.79
761.08	19864.2
761.417	19804.31
761.754	19561.83
762.091	19624.65
