Data from red_cardboard_box_FLMS001491_00004.txt Node
Date: Wed Feb 08 11:31:23 GMT 2017
User: dcchb
Spectrometer: FLMS00149
Trigger mode: 0
Integration Time (sec): 2.000000E-2
Scans to average: 10
Electric dark correction enabled: true
Nonlinearity correction enabled: false
Boxcar width: 0
XAxis mode: Wavelengths
Number of Pixels in Spectrum: 2048
>>>>>Begin Spectral Data<<<<<
341.393	-18.4
341.776	-18.4
342.16	-18.4
342.543	-57.95
342.927	-62.7
343.31	-69.93
343.693	-80.1
344.077	-78.74
344.46	-55.69
344.843	-30.38
345.226	-28.12
345.61	-24.28
345.993	-18.63
346.376	-24.28
346.759	-5.07
347.142	55.94
347.525	37.87
347.908	74.02
348.291	63.85
348.674	81.25
349.057	102.27
349.44	122.61
349.823	140.46
350.206	173.91
350.588	191.31
350.971	207.13
351.354	240.57
351.737	235.83
352.119	253.91
352.502	260.91
352.884	285.77
353.267	283.28
353.65	295.94
354.032	290.74
354.414	290.06
354.797	296.62
355.179	317.41
355.562	327.58
355.944	332.77
356.326	314.92
356.709	320.12
357.091	326.22
357.473	335.49
357.855	360.57
358.238	352.43
358.62	349.04
359.002	325.77
359.384	342.72
359.766	334.13
360.148	343.17
360.53	343.17
360.912	338.42
361.294	361.7
361.676	320.8
362.057	327.8
362.439	313.57
362.821	343.39
363.203	328.25
363.584	328.93
363.966	297.29
364.348	326.22
364.729	321.02
365.111	327.35
365.493	306.56
365.874	305.66
366.256	323.28
366.637	310.4
367.019	304.53
367.4	315.37
367.781	313.34
368.163	314.02
368.544	303.4
368.925	324.41
369.306	311.98
369.688	305.43
370.069	301.14
370.45	311.98
370.831	308.82
371.212	313.11
371.593	318.54
371.974	321.7
372.355	305.88
372.736	320.57
373.117	313.34
373.498	316.5
373.879	308.37
374.26	306.79
374.641	313.57
375.021	317.86
375.402	311.98
375.783	305.2
376.163	320.12
376.544	308.59
376.925	319.21
377.305	315.15
377.686	323.73
378.066	330.97
378.447	322.38
378.827	334.81
379.208	315.6
379.588	327.8
379.968	333.23
380.349	307.92
380.729	326.67
381.109	325.54
381.489	319.67
381.87	341.81
382.25	329.84
382.63	341.36
383.01	351.76
383.39	312.21
383.77	330.06
384.15	359.44
384.53	334.36
384.91	319.67
385.29	337.07
385.67	339.78
386.049	320.57
386.429	336.62
386.809	348.37
387.189	369.38
387.568	327.12
387.948	342.94
388.328	347.24
388.707	351.98
389.087	334.13
389.466	366.45
389.846	347.01
390.225	332.32
390.605	335.03
390.984	360.57
391.363	333.9
391.743	357.86
392.122	336.16
392.501	351.98
392.881	357.41
393.26	348.37
393.639	356.73
394.018	366.45
394.397	364.19
394.776	341.14
395.155	372.32
395.534	339.78
395.913	358.31
396.292	370.06
396.671	367.8
397.05	355.15
397.429	395.14
397.808	362.15
398.186	367.35
398.565	370.51
398.944	378.87
399.323	370.06
399.701	377.52
400.08	358.08
400.458	356.95
400.837	386.78
401.215	399.89
401.594	369.16
401.972	396.5
402.351	362.83
402.729	384.07
403.107	370.29
403.486	377.74
403.864	387.69
404.242	379.1
404.62	394.47
404.999	381.81
405.377	390.4
405.755	387.01
406.133	406.44
406.511	410.74
406.889	401.02
407.267	403.51
407.645	407.57
408.023	387.91
408.401	398.99
408.779	398.99
409.156	402.83
409.534	413.22
409.912	410.29
410.29	428.59
410.667	408.48
411.045	408.03
411.422	398.53
411.8	404.86
412.178	419.78
412.555	432.66
412.933	432.43
413.31	412.55
413.687	426.56
414.065	441.25
414.442	418.65
414.819	441.02
415.197	437.86
415.574	437.63
415.951	432.88
416.328	432.43
416.705	448.25
417.082	462.71
417.46	440.57
417.837	458.87
418.214	437.4
418.591	448.25
418.967	439.44
419.344	449.61
419.721	448.02
420.098	471.75
420.475	481.24
420.852	472.88
421.228	497.06
421.605	464.97
421.982	462.04
422.358	456.61
422.735	496.39
423.111	460.45
423.488	460.23
423.864	465.88
424.241	476.72
424.617	507.01
424.994	481.02
425.37	469.04
425.746	499.32
426.123	503.16
426.499	482.6
426.875	508.36
427.251	481.24
427.627	496.16
428.003	493.22
428.379	516.27
428.756	519.21
429.132	518.76
429.507	529.6
429.883	528.25
430.259	509.27
430.635	531.64
431.011	532.09
431.387	536.16
431.763	553.56
432.138	554.24
432.514	554.46
432.89	544.29
433.265	537.06
433.641	558.98
434.016	562.15
434.392	553.11
434.767	554.46
435.143	544.52
435.518	575.93
435.894	585.2
436.269	562.37
436.644	577.74
437.02	582.48
437.395	571.86
437.77	595.37
438.145	610.51
438.52	604.63
438.895	610.28
439.271	608.92
439.646	592.2
440.021	594.01
440.395	592.43
440.77	616.16
441.145	619.77
441.52	652.99
441.895	615.48
442.27	617.96
442.645	626.1
443.019	633.56
443.394	629.49
443.769	636.95
444.143	641.24
444.518	639.21
444.892	638.53
445.267	629.94
445.641	648.02
446.016	657.51
446.39	631.75
446.764	640.11
447.139	638.08
447.513	632.43
447.887	641.92
448.262	656.16
448.636	660.9
449.01	681.47
449.384	674.23
449.758	676.49
450.132	686.66
450.506	695.93
450.88	675.36
451.254	684.18
451.628	693.89
452.002	691.41
452.376	703.16
452.75	726.89
453.123	716.04
453.497	686.89
453.871	707.91
454.244	728.47
454.618	701.8
454.992	711.97
455.365	745.19
455.739	742.25
456.112	743.38
456.486	770.05
456.859	742.48
457.232	770.73
457.606	763.72
457.979	762.14
458.352	795.59
458.725	774.12
459.099	787.45
459.472	783.38
459.845	797.85
460.218	815.47
460.591	785.87
460.964	798.98
461.337	842.59
461.71	835.13
462.083	837.85
462.456	811.41
462.829	821.57
463.201	837.39
463.574	841.46
463.947	843.95
464.32	872.87
464.692	866.32
465.065	870.16
465.438	877.84
465.81	889.37
466.183	856.15
466.555	930.5
466.928	907.9
467.3	947.67
467.672	916.94
468.045	943.38
468.417	927.79
468.789	938.86
469.161	941.57
469.534	970.72
469.906	999.2
470.278	981.12
470.65	977.05
471.022	987.45
471.394	1001.91
471.766	1009.37
472.138	1029.7
472.51	1031.51
472.882	1051.17
473.253	1042.13
473.625	1084.62
473.997	1075.13
474.369	1096.82
474.74	1097.05
475.112	1101.79
475.484	1139.98
475.855	1129.36
476.227	1131.85
476.598	1165.07
476.97	1184.28
477.341	1194.45
477.713	1189.47
478.084	1200.55
478.455	1210.49
478.827	1228.8
479.198	1283.94
479.569	1254.11
479.94	1326.65
480.311	1298.62
480.682	1299.53
481.053	1351.96
481.424	1366.42
481.795	1333.43
482.166	1419.98
482.537	1377.04
482.908	1418.39
483.279	1416.81
483.65	1466.76
484.021	1480.77
484.391	1480.77
484.762	1481.67
485.133	1474.44
485.503	1535
485.874	1566.87
486.244	1559.63
486.615	1583.81
486.985	1612.51
487.356	1624.49
487.726	1647.99
488.097	1671.04
488.467	1681.44
488.837	1689.57
489.207	1708.33
489.578	1738.16
489.948	1766.18
490.318	1777.71
490.688	1767.31
491.058	1795.11
491.428	1845.28
491.798	1808.44
492.168	1870.59
492.538	1845.95
492.908	1883.69
493.278	1902.22
493.648	1918.95
494.017	1973.86
494.387	1955.78
494.757	1997.59
495.126	1984.03
495.496	1982
495.866	1972.28
496.235	1996.91
496.605	2068.55
496.974	2038.72
497.344	2110.35
497.713	2115.33
498.082	2128.88
498.452	2092.73
498.821	2137.92
499.19	2144.93
499.559	2175.89
499.928	2194.65
500.298	2179.28
500.667	2223.35
501.036	2208.43
501.405	2240.29
501.774	2226.51
502.143	2254.08
502.512	2280.75
502.88	2292.72
503.249	2307.41
503.618	2303.57
503.987	2343.34
504.356	2344.92
504.724	2335.88
505.093	2384.47
505.462	2363.23
505.83	2383.34
506.199	2417.69
506.567	2449.1
506.936	2429.67
507.304	2472.83
507.672	2477.12
508.041	2499.04
508.409	2503.34
508.777	2533.17
509.145	2521.19
509.514	2572.94
509.882	2571.58
510.25	2581.08
510.618	2607.06
510.986	2629.21
511.354	2629.44
511.722	2673.05
512.09	2699.04
512.458	2680.96
512.826	2732.26
513.193	2721.19
513.561	2747.17
513.929	2740.17
514.297	2815.42
514.664	2816.55
515.032	2800.96
515.4	2829.21
515.767	2865.36
516.135	2892.71
516.502	2874.63
516.869	2882.99
517.237	2914.63
517.604	2940.39
517.972	2971.12
518.339	2971.35
518.706	2974.96
519.073	3014.74
519.44	2991.91
519.808	3075.98
520.175	3052.25
520.542	3062.42
520.909	3098.58
521.276	3130.21
521.643	3141.74
522.009	3179.25
522.376	3242.53
522.743	3192.81
523.11	3235.3
523.477	3293.6
523.843	3307.38
524.21	3374.28
524.577	3381.73
524.943	3368.4
525.31	3376.31
525.676	3420.6
526.043	3473.71
526.409	3440.94
526.776	3469.41
527.142	3521.39
527.508	3576.08
527.874	3571.11
528.241	3583.54
528.607	3648.62
528.973	3623.76
529.339	3636.19
529.705	3697.21
530.071	3707.15
530.437	3711.22
530.803	3739.92
531.169	3800.03
531.535	3800.93
531.901	3831.44
532.267	3826.92
532.632	3804.55
532.998	3881.38
533.364	3900.14
533.73	3926.13
534.095	3936.52
534.461	3961.38
534.826	4028.72
535.192	4019.91
535.557	4027.37
535.923	4038.21
536.288	4043.86
536.653	4141.94
537.019	4071.88
537.384	4132.45
537.749	4132.45
538.114	4175.84
538.479	4151.2
538.845	4199.79
539.21	4147.36
539.575	4228.72
539.94	4215.16
540.305	4260.81
540.67	4258.32
541.034	4287.02
541.399	4356.4
541.764	4359.56
542.129	4346.91
542.494	4345.78
542.858	4432.33
543.223	4405.89
543.587	4441.37
543.952	4441.82
544.316	4447.24
544.681	4486.79
545.045	4510.74
545.41	4500.12
545.774	4571.08
546.138	4576.05
546.503	4562.27
546.867	4579.67
547.231	4608.59
547.595	4628.25
547.959	4688.14
548.324	4742.38
548.688	4696.5
549.052	4746.44
549.416	4756.16
549.779	4824.63
550.143	4767.46
550.507	4811.3
550.871	4874.8
551.235	4908.47
551.599	4916.16
551.962	4934.01
552.326	4971.3
552.689	4992.54
553.053	5024.63
553.417	5053.78
553.78	5100.11
554.143	5090.16
554.507	5135.36
554.87	5196.15
555.234	5178.07
555.597	5195.7
555.96	5242.25
556.323	5269.37
556.686	5258.07
557.05	5321.34
557.413	5363.6
557.776	5376.71
558.139	5434.11
558.502	5466.42
558.865	5540.55
559.228	5625.97
559.59	5603.37
559.953	5625.52
560.316	5722.24
560.679	5738.96
561.041	5794.33
561.404	5790.71
561.767	5877.26
562.129	5875
562.492	5936.24
562.854	5963.81
563.217	6030.25
563.579	6091.72
563.941	6138.04
564.304	6218.95
564.666	6243.8
565.028	6303.01
565.39	6282
565.753	6351.6
566.115	6473.63
566.477	6542.78
566.839	6550.46
567.201	6680.63
567.563	6655.55
567.925	6734.64
568.287	6843.56
568.648	6859.38
569.01	6922.88
569.372	7006.5
569.734	7027.51
570.095	7123.1
570.457	7151.35
570.819	7239.26
571.18	7260.5
571.542	7332.59
571.903	7429.08
572.265	7501.85
572.626	7497.78
572.987	7576.2
573.349	7712.92
573.71	7760.38
574.071	7805.57
574.432	7950.88
574.794	8081.95
575.155	8131.21
575.516	8180.7
575.877	8226.8
576.238	8278.33
576.599	8462.5
576.96	8506.57
577.32	8599.22
577.681	8721.48
578.042	8802.83
578.403	8911.98
578.763	8953.11
579.124	9071.75
579.485	9187.46
579.845	9265.19
580.206	9379.54
580.566	9512.65
580.927	9630.16
581.287	9794.45
581.648	9874.9
582.008	10058.17
582.368	10150.37
582.728	10276.02
583.089	10368.22
583.449	10612.73
583.809	10709
584.169	10842.33
584.529	10981.53
584.889	11307.63
585.249	11349.21
585.609	11417.91
585.969	11721.85
586.329	11899.7
586.688	12058.12
587.048	12274.83
587.408	12368.16
587.768	12583.75
588.127	12778.32
588.487	13058.77
588.846	13327.69
589.206	13383.96
589.565	13584.4
589.925	14036.59
590.284	14153.88
590.643	14363.59
591.003	14663.92
591.362	14962.67
591.721	15150.69
592.08	15437.24
592.44	15785.25
592.799	16005.58
593.158	16252.36
593.517	16550.2
593.876	16789.74
594.235	17170.07
594.593	17426.56
594.952	17771.41
595.311	17936.38
595.67	18407.55
596.029	18739.75
596.387	19000.98
596.746	19405.04
597.104	19584.47
597.463	19895.42
597.822	20301.06
598.18	20585.8
598.538	20937.2
598.897	21349.4
599.255	21434.59
599.613	22034.35
599.972	22352.31
600.33	22630.72
600.688	22892.18
601.046	23249.69
601.404	23756.79
601.762	24037.24
602.12	24448.3
602.478	24732.36
602.836	25058.68
603.194	25180.48
603.552	25589.06
603.91	25911.31
604.268	26254.35
604.625	26527.57
604.983	27034.67
605.341	27138.17
605.698	27561.44
606.056	28019.73
606.413	28108.09
606.771	28491.58
607.128	28733.61
607.485	28995.07
607.843	29230.32
608.2	29673.47
608.557	30134.25
608.914	30167.92
609.272	30647
609.629	30926.77
609.986	31222.58
610.343	31327.66
610.7	31733.3
611.057	31843.13
611.414	32090.58
611.771	32383
612.127	32676.1
612.484	32945.25
612.841	33247.61
613.198	33385.92
613.554	33401.28
613.911	33886.24
614.267	33875.17
614.624	34148.16
614.98	34462.5
615.337	34739.55
615.693	34734.13
616.05	34970.06
616.406	35338.86
616.762	35386.32
617.118	35567.33
617.475	35800.32
617.831	36043.02
618.187	36160.31
618.543	36285.73
618.899	36635.32
619.255	36638.49
619.611	36831.7
619.967	37097.23
620.323	37245.02
620.678	37195.31
621.034	37162.54
621.39	37400.95
621.746	37489.99
622.101	37916.42
622.457	37872.58
622.812	37853.37
623.168	38142.85
623.523	38112.12
623.879	38440.02
624.234	38280.02
624.589	38432.34
624.945	38668.04
625.3	38779.9
625.655	38741.48
626.01	38916.84
626.365	38887.47
626.72	38916.17
627.075	39074.58
627.43	39187.12
627.785	39071.42
628.14	39241.36
628.495	39421.01
628.85	39372.65
629.205	39250.85
629.559	39669.37
629.914	39439.77
630.269	39569.26
630.623	39629.14
630.978	39512.53
631.332	39774.67
631.687	39964.05
632.041	39782.58
632.396	39844.05
632.75	39896.03
633.104	40030.04
633.459	39736.71
633.813	39727.9
634.167	39913.88
634.521	39905.97
634.875	39923.82
635.229	39903.03
635.583	39877.04
635.937	39864.16
636.291	39854.9
636.645	39936.25
636.999	39837.5
637.352	39942.58
637.706	39822.36
638.06	39860.77
638.413	39969.92
638.767	39888.57
639.121	39975.57
639.474	39797.72
639.828	39828.23
640.181	40020.32
640.534	40072.75
640.888	39957.49
641.241	39736.48
641.594	39960.88
641.947	40090.15
642.301	39924.95
642.654	40033.42
643.007	40014.67
643.36	39879.08
643.713	39945.52
644.066	40086.3
644.419	39799.98
644.771	39548.24
645.124	39209.27
645.477	39129.27
645.83	38929.72
646.182	38934.24
646.535	38783.74
646.888	39089.95
647.24	38842.72
647.593	39254.24
647.945	38950.74
648.298	38831.2
648.65	38877.97
649.002	38750.97
649.355	38942.83
649.707	38855.6
650.059	39055.15
650.411	39346.89
650.763	39484.51
651.115	39857.16
651.467	39806.54
651.819	39736.03
652.171	39686.99
652.523	39715.92
652.875	39716.14
653.227	39538.3
653.578	39787.56
653.93	39742.81
654.282	39612.19
654.633	39568.35
654.985	39596.37
655.337	39562.25
655.688	39669.82
656.039	39746.88
656.391	39523.61
656.742	39412.2
657.094	39529.26
657.445	39671.85
657.796	39494.46
658.147	39617.39
658.498	39518.18
658.849	39666.43
659.2	39564.51
659.551	39369.94
659.902	39573.32
660.253	39510.5
660.604	39476.83
660.955	39348.02
661.306	39494.68
661.656	39414.46
662.007	39469.82
662.358	39456.04
662.708	39540.1
663.059	39538.52
663.409	39373.56
663.76	39496.26
664.11	39595.47
664.461	39561.8
664.811	39659.2
665.161	39427.56
665.511	39487.68
665.862	39482.25
666.212	39561.8
666.562	39684.06
666.912	39504.4
667.262	39490.84
667.612	39385.53
667.962	39395.25
668.312	39335.59
668.662	39574.23
669.011	39437.51
669.361	39402.71
669.711	39513.66
670.06	39424.63
670.41	39131.98
670.76	39313.67
671.109	39317.06
671.459	39239.55
671.808	39274.35
672.157	39419.2
672.507	39194.58
672.856	39048.14
673.205	39243.16
673.554	39332.43
673.904	39128.82
674.253	39330.62
674.602	39301.92
674.951	38720.69
675.3	38574.93
675.649	39112.32
675.998	38971.76
676.346	39180.11
676.695	39032.77
677.044	38988.03
677.393	39012.21
677.741	39122.26
678.09	38892.44
678.438	38931.98
678.787	38969.27
679.135	38954.81
679.484	38646.57
679.832	38872.1
680.181	38521.15
680.529	38829.84
680.877	38659.9
681.225	38613.58
681.573	38907.13
681.922	38555.05
682.27	38522.96
682.618	38539
682.966	38305.79
683.314	38440.25
683.661	38301.49
684.009	38186.02
684.357	38092.46
684.705	38136.75
685.053	37959.36
685.4	38033.25
685.748	38019.47
686.095	37903.31
686.443	37805.23
686.79	37808.62
687.138	37741.51
687.485	37742.19
687.832	37699.93
688.18	37669.19
688.527	37400.73
688.874	37370.44
689.221	37303.33
689.568	37169.55
689.915	37258.36
690.262	37125.48
690.609	36989.44
690.956	36950.34
691.303	36939.27
691.65	36781.31
691.997	36796.45
692.344	36532.05
692.69	36544.7
693.037	36497.92
693.383	36326.4
693.73	36374.99
694.077	36036.24
694.423	36082.79
694.769	36090.7
695.116	35897.94
695.462	35938.62
695.808	35853.42
696.155	35924.15
696.501	35572.75
696.847	35639.42
697.193	35352.42
697.539	35578.63
697.885	35274.23
698.231	35276.04
698.577	35220.44
698.923	35175.47
699.269	34940.68
699.614	34758.08
699.96	34798.53
700.306	34768.03
700.651	34642.83
700.997	34568.48
701.342	34411.43
701.688	34536.62
702.033	34274.71
702.379	34382.73
702.724	34098.89
703.069	34220.02
703.415	33870.2
703.76	33960.14
704.105	33866.81
704.45	33719.47
704.795	33572.8
705.14	33564.22
705.485	33664.55
705.83	33430.89
706.175	33594.27
706.52	33324.9
706.865	33259.14
707.209	33279.03
707.554	33164.68
707.899	33088.75
708.243	33001.52
708.588	33004.68
708.932	32747.97
709.277	32801.3
709.621	32785.93
709.966	32546.16
710.31	32666.84
710.654	32324.47
710.998	32411.7
711.342	32388.2
711.687	32317.02
712.031	32204.03
712.375	31947.08
712.719	32052.17
713.063	31902.11
713.407	32231.82
713.75	31965.84
714.094	31914.32
714.438	31762.68
714.782	31641.33
715.125	31677.94
715.469	31640.2
715.812	31430.04
716.156	31354.1
716.499	31274.11
716.843	31481.11
717.186	31324.28
717.53	31397.72
717.873	31345.29
718.216	31236.14
718.559	31146.88
718.902	30897.85
719.246	31029.82
719.589	30934.45
719.932	30907.11
720.275	30725.42
720.617	30686.55
720.96	30876.38
721.303	30843.84
721.646	30795.93
721.989	30574.46
722.331	30711.41
722.674	30620.56
723.016	30602.49
723.359	30494.69
723.701	30501.02
724.044	30174.47
724.386	30209.73
724.729	30329.5
725.071	30211.76
725.413	30138.09
725.755	30149.62
726.097	30150.52
726.439	29937.65
726.782	29827.14
727.124	30058.32
727.465	29842.51
727.807	29971.32
728.149	29819.91
728.491	29687.26
728.833	29727.93
729.175	29674.15
729.516	29448.17
729.858	29504.66
730.199	29597.31
730.541	29495.17
730.882	29497.2
731.224	29559.58
731.565	29227.61
731.906	29395.96
732.248	29426.25
732.589	29211.11
732.93	29187.61
733.271	29112.81
733.612	29139.25
733.953	29135.63
734.294	28982.87
734.635	29026.03
734.976	29041.17
735.317	29002.08
735.658	28938.58
735.999	28860.84
736.339	28756.89
736.68	28920.95
737.021	28777.45
737.361	28820.84
737.702	28818.58
738.042	28698.81
738.383	28587.4
738.723	28708.07
739.063	28546.04
739.404	28588.08
739.744	28466.05
740.084	28394.86
740.424	28507.17
740.764	28348.76
741.104	28389.21
741.444	28260.4
741.784	28266.95
742.124	28361.87
742.464	28215.2
742.804	28172.95
743.143	28092.95
743.483	28165.04
743.823	27969.56
744.162	28033.97
744.502	28020.18
744.841	28032.38
745.181	27951.48
745.52	27942.67
745.86	27983.12
746.199	27876
746.538	27781.32
746.877	27945.61
747.216	27812.28
747.556	27808.66
747.895	27669.23
748.234	27582.23
748.573	27583.13
748.911	27657.93
749.25	27508.33
749.589	27488.22
749.928	27436.47
750.267	27425.17
750.605	27445.96
750.944	27384.04
751.283	27210.94
751.621	27335.91
751.96	27208
752.298	27082.58
752.636	27138.85
752.975	27004.16
753.313	26981.79
753.651	26967.33
753.989	26840.33
754.327	26864.73
754.666	26751.29
755.004	26747.9
755.342	26721.23
755.679	26622.03
756.017	26505.87
756.355	26617.96
756.693	26490.28
757.031	26457.06
757.368	26396.95
757.706	26413.22
758.044	26245.76
758.381	26235.14
758.719	26043.51
759.056	26155.82
759.394	26122.38
759.731	25960.8
760.068	25921.93
760.405	25845.55
760.743	25773.23
761.08	25807.81
