Data from red_cardboard_box_FLMS001491_00015.txt Node
Date: Wed Feb 08 11:31:36 GMT 2017
User: dcchb
Spectrometer: FLMS00149
Trigger mode: 0
Integration Time (sec): 2.000000E-2
Scans to average: 10
Electric dark correction enabled: true
Nonlinearity correction enabled: false
Boxcar width: 0
XAxis mode: Wavelengths
Number of Pixels in Spectrum: 2048
>>>>>Begin Spectral Data<<<<<
341.393	-18.8
341.776	-18.8
342.16	-18.8
342.543	-70.32
342.927	-55.18
343.31	-86.14
343.693	-62.19
344.077	-81.62
344.46	-57.67
344.843	-51.34
345.226	-47.27
345.61	-26.93
345.993	-26.03
346.376	-4.11
346.759	9.67
347.142	21.2
347.525	48.54
347.908	67.53
348.291	79.96
348.674	95.32
349.057	121.08
349.44	126.51
349.823	141.87
350.206	160.41
350.588	202.44
350.971	210.57
351.354	205.38
351.737	225.71
352.119	247.63
352.502	259.61
352.884	297.8
353.267	286.05
353.65	305.49
354.032	294.19
354.414	309.1
354.797	310.23
355.179	328.99
355.562	314.75
355.944	311.59
356.326	316.33
356.709	330.34
357.091	350.91
357.473	321.98
357.855	342.1
358.238	339.38
358.62	350.23
359.002	349.78
359.384	357.91
359.766	359.95
360.148	346.84
360.53	357.91
360.912	333.96
361.294	344.58
361.676	349.33
362.057	338.25
362.439	327.18
362.821	353.39
363.203	314.3
363.584	337.12
363.966	317.92
364.348	331.7
364.729	323.56
365.111	301.64
365.493	319.95
365.874	281.31
366.256	320.4
366.637	320.63
367.019	308.42
367.4	325.37
367.781	326.28
368.163	308.88
368.544	305.71
368.925	310.91
369.306	295.32
369.688	307.75
370.069	321.76
370.45	309.33
370.831	321.98
371.212	305.49
371.593	322.66
371.974	307.29
372.355	308.88
372.736	313.4
373.117	311.36
373.498	316.33
373.879	313.17
374.26	309.78
374.641	316.11
375.021	320.18
375.402	328.08
375.783	299.16
376.163	291.25
376.544	314.07
376.925	322.44
377.305	303.23
377.686	305.03
378.066	323.34
378.447	306.39
378.827	335.32
379.208	317.01
379.588	320.4
379.968	314.75
380.349	334.19
380.729	331.02
381.109	315.2
381.489	332.15
381.87	311.14
382.25	337.35
382.63	324.69
383.01	337.8
383.39	347.29
383.77	334.19
384.15	337.35
384.53	313.17
384.91	314.07
385.29	340.97
385.67	324.24
386.049	349.78
386.429	335.32
386.809	331.25
387.189	345.71
387.568	337.58
387.948	327.18
388.328	339.16
388.707	351.13
389.087	329.21
389.466	355.65
389.846	358.14
390.225	335.32
390.605	338.48
390.984	351.81
391.363	347.97
391.743	333.96
392.122	362.43
392.501	337.12
392.881	358.14
393.26	353.17
393.639	361.98
394.018	336.9
394.397	356.11
394.776	363.56
395.155	376.67
395.534	369.21
395.913	330.34
396.292	360.17
396.671	350
397.05	369.67
397.429	377.57
397.808	352.72
398.186	384.81
398.565	355.88
398.944	365.6
399.323	352.49
399.701	364.69
400.08	368.31
400.458	363.56
400.837	380.51
401.215	366.73
401.594	356.78
401.972	360.63
402.351	376.9
402.729	361.3
403.107	349.55
403.486	357.91
403.864	370.57
404.242	359.04
404.62	381.19
404.999	373.51
405.377	370.57
405.755	385.26
406.133	394.98
406.511	374.86
406.889	369.21
407.267	390.68
407.645	397.01
408.023	404.69
408.401	399.95
408.779	408.31
409.156	394.52
409.534	387.07
409.912	409.44
410.29	418.03
410.667	403.79
411.045	396.78
411.422	402.43
411.8	409.89
412.178	400.63
412.555	415.77
412.933	382.55
413.31	398.37
413.687	415.99
414.065	402.66
414.442	420.06
414.819	421.87
415.197	422.32
415.574	412.83
415.951	412.15
416.328	421.42
416.705	419.61
417.082	422.55
417.46	405.6
417.837	434.97
418.214	432.71
418.591	413.96
418.967	426.16
419.344	423
419.721	432.71
420.098	413.28
420.475	424.58
420.852	424.58
421.228	461.64
421.605	465.48
421.982	444.47
422.358	448.08
422.735	443.79
423.111	463.22
423.488	455.76
423.864	443.34
424.241	457.57
424.617	470.45
424.994	453.73
425.37	448.76
425.746	470
426.123	461.41
426.499	482.88
426.875	473.39
427.251	456.67
427.627	475.65
428.003	474.3
428.379	490.11
428.756	469.78
429.132	473.17
429.507	497.12
429.883	481.07
430.259	470
430.635	497.12
431.011	507.06
431.387	500.51
431.763	507.51
432.138	498.02
432.514	532.6
432.89	510.9
433.265	507.97
433.641	510.45
434.016	514.75
434.392	495.76
434.767	535.31
435.143	530.79
435.518	520.85
435.894	504.8
436.269	537.34
436.644	561.75
437.02	542.77
437.395	547.06
437.77	547.51
438.145	556.33
438.52	554.52
438.895	547.29
439.271	555.65
439.646	535.31
440.021	537.34
440.395	577.12
440.77	560.39
441.145	542.54
441.52	555.88
441.895	556.78
442.27	583.67
442.645	585.7
443.019	577.12
443.394	578.25
443.769	601.75
444.143	552.49
444.518	570.11
444.892	584.58
445.267	578.93
445.641	590.9
446.016	603.56
446.39	586.61
446.764	571.92
447.139	584.58
447.513	603.56
447.887	594.52
448.262	597
448.636	605.82
449.01	611.69
449.384	609.89
449.758	616.44
450.132	612.82
450.506	613.73
450.88	628.64
451.254	623.67
451.628	622.77
452.002	635.65
452.376	618.02
452.75	643.56
453.123	625.03
453.497	665.93
453.871	626.83
454.244	661.64
454.618	642.2
454.992	644.91
455.365	655.31
455.739	670.9
456.112	658.92
456.486	702.99
456.859	678.36
457.232	654.4
457.606	682.2
457.979	677.68
458.352	702.99
458.725	694.4
459.099	713.61
459.472	710.45
459.845	702.76
460.218	721.97
460.591	735.53
460.964	699.6
461.337	723.78
461.71	748.41
462.083	737.11
462.456	736.21
462.829	746.38
463.201	740.73
463.574	778.24
463.947	755.42
464.32	760.16
464.692	785.25
465.065	785.25
465.438	800.84
465.81	782.76
466.183	796.55
466.555	789.32
466.928	793.61
467.3	812.37
467.672	805.13
468.045	809.2
468.417	810.56
468.789	834.96
469.161	855.53
469.534	852.82
469.906	829.54
470.278	837.9
470.65	861.63
471.022	886.94
471.394	879.48
471.766	903.44
472.138	892.14
472.51	897.56
472.882	948.41
473.253	930.1
473.625	956.77
473.997	930.78
474.369	940.95
474.74	938.92
475.112	966.26
475.484	973.49
475.855	1006.94
476.227	991.34
476.598	1006.48
476.97	1021.85
477.341	1041.96
477.713	1045.58
478.084	1049.87
478.455	1066.14
478.827	1074.05
479.198	1119.48
479.569	1119.93
479.94	1107.95
480.311	1132.81
480.682	1149.31
481.053	1151.79
481.424	1174.16
481.795	1194.05
482.166	1196.76
482.537	1200.38
482.908	1209.64
483.279	1202.86
483.65	1264.56
484.021	1282.86
484.391	1278.79
484.762	1277.21
485.133	1311.56
485.503	1311.56
485.874	1335.74
486.244	1348.62
486.615	1363.31
486.985	1388.4
487.356	1407.83
487.726	1397.44
488.097	1424.55
488.467	1422.07
488.837	1450.31
489.207	1490.09
489.578	1487.6
489.948	1480.14
490.318	1506.13
490.688	1538
491.058	1519.69
491.428	1556.75
491.798	1553.36
492.168	1573.25
492.538	1613.47
492.908	1618.45
493.278	1635.85
493.648	1625.9
494.017	1662.96
494.387	1678.56
494.757	1700.93
495.126	1672.46
495.496	1712
495.866	1741.61
496.235	1711.55
496.605	1755.17
496.974	1794.71
497.344	1760.36
497.713	1796.07
498.082	1767.59
498.452	1808.95
498.821	1823.86
499.19	1813.02
499.559	1837.65
499.928	1841.27
500.298	1883.07
500.667	1915.16
501.036	1887.37
501.405	1895.73
501.774	1911.55
502.143	1926.91
502.512	1935.95
502.88	1931.66
503.249	1966.91
503.618	1976.85
503.987	1984.09
504.356	1946.35
504.724	1995.16
505.093	1991.54
505.462	2062.73
505.83	2051.2
506.199	2041.94
506.567	2081.03
506.936	2056.17
507.304	2105.44
507.672	2105.44
508.041	2109.51
508.409	2161.71
508.777	2147.47
509.145	2181.14
509.514	2190.18
509.882	2165.32
510.25	2229.28
510.618	2247.13
510.986	2248.26
511.354	2222.95
511.722	2265.89
512.09	2249.39
512.458	2281.71
512.826	2301.14
513.193	2316.51
513.561	2337.75
513.929	2328.48
514.297	2340.01
514.664	2376.17
515.032	2380.01
515.4	2377.97
515.767	2435.15
516.135	2418.88
516.502	2421.81
516.869	2469.95
517.237	2482.38
517.604	2470.4
517.972	2506.78
518.339	2520.34
518.706	2545.43
519.073	2556.5
519.44	2544.07
519.808	2601.25
520.175	2589.04
520.542	2578.87
520.909	2616.39
521.276	2647.35
521.643	2663.84
522.009	2654.58
522.376	2688.7
522.743	2694.58
523.11	2716.27
523.477	2748.36
523.843	2785.2
524.21	2815.7
524.577	2820.67
524.943	2827
525.31	2862.93
525.676	2876.94
526.043	2880.56
526.409	2937.28
526.776	2928.69
527.142	2944.51
527.508	2976.38
527.874	2979.54
528.241	3028.13
528.607	3024.51
528.973	3048.24
529.339	3032.19
529.705	3067.9
530.071	3111.97
530.437	3130.5
530.803	3147.9
531.169	3161.23
531.535	3152.42
531.901	3190.16
532.267	3196.71
532.632	3256.37
532.998	3255.69
533.364	3285.07
533.73	3272.87
534.095	3313.09
534.461	3320.77
534.826	3350.15
535.192	3387.67
535.557	3378.17
535.923	3387.21
536.288	3411.85
536.653	3412.98
537.019	3435.35
537.384	3443.48
537.749	3443.48
538.114	3535.23
538.479	3520.99
538.845	3553.76
539.21	3520.32
539.575	3541.79
539.94	3575.23
540.305	3555.8
540.67	3597.6
541.034	3593.08
541.399	3649.81
541.764	3619.07
542.129	3634.66
542.494	3676.7
542.858	3720.09
543.223	3682.12
543.587	3687.09
543.952	3689.8
544.316	3728
544.681	3752.18
545.045	3791.72
545.41	3839.86
545.774	3803.47
546.138	3845.28
546.503	3844.15
546.867	3836.24
547.231	3842.57
547.595	3886.86
547.959	3948.1
548.324	3939.06
548.688	3990.59
549.052	3995.56
549.416	3977.25
549.779	4001.89
550.143	4027.42
550.507	4058.38
550.871	4099.06
551.235	4103.8
551.599	4159.4
551.962	4168.89
552.326	4128.44
552.689	4246.17
553.053	4204.37
553.417	4217.93
553.78	4315.1
554.143	4303.35
554.507	4298.83
554.87	4358.94
555.234	4362.33
555.597	4369.79
555.96	4459.28
556.323	4512.61
556.686	4461.54
557.05	4548.54
557.413	4520.74
557.776	4597.35
558.139	4657.24
558.502	4607.97
558.865	4634.86
559.228	4708.53
559.59	4756.22
559.953	4809.1
560.316	4827.18
560.679	4852.26
561.041	4872.37
561.404	4936.78
561.767	5003.44
562.129	4928.19
562.492	5042.99
562.854	5073.72
563.217	5092.03
563.579	5159.14
563.941	5215.64
564.304	5233.04
564.666	5250.89
565.028	5309.87
565.39	5344.9
565.753	5427.39
566.115	5458.12
566.477	5468.74
566.839	5533.82
567.201	5609.53
567.563	5591.68
567.925	5688.62
568.287	5726.59
568.648	5691.33
569.01	5825.34
569.372	5872.57
569.734	5933.59
570.095	6019.91
570.457	6030.08
570.819	6090.42
571.18	6117.99
571.542	6153.47
571.903	6214.94
572.265	6305.78
572.626	6402.5
572.987	6424.42
573.349	6472.33
573.71	6548.71
574.071	6586.45
574.432	6656.51
574.794	6753.9
575.155	6778.99
575.516	6807.91
575.877	6928.81
576.238	6981.47
576.599	7063.05
576.96	7069.38
577.32	7158.19
577.681	7305.08
578.042	7384.85
578.403	7432.76
578.763	7484.51
579.124	7619.19
579.485	7720.88
579.845	7833.65
580.206	7856.7
580.566	7929.24
580.927	8073.64
581.287	8239.51
581.648	8222.79
582.008	8409.45
582.368	8571.26
582.728	8674.08
583.089	8775.32
583.449	8875.2
583.809	9010.34
584.169	9159.04
584.529	9226.61
584.889	9490.33
585.249	9571.68
585.609	9702.08
585.969	9924.67
586.329	10010.32
586.688	10213.02
587.048	10313.58
587.408	10535.5
587.768	10732.1
588.127	10886.68
588.487	11055.49
588.846	11360.56
589.206	11480.79
589.565	11688.92
589.925	11912.41
590.284	12179.52
590.643	12330.71
591.003	12647.08
591.362	12905.61
591.721	13068.54
592.08	13356.44
592.44	13621.52
592.799	13852.7
593.158	14090.43
593.517	14369.75
593.876	14702.85
594.235	14897.87
594.593	15223.29
594.952	15555.03
595.311	15848.58
595.67	16120.44
596.029	16495.34
596.387	16821.89
596.746	17101.2
597.104	17371.03
597.463	17709.55
597.822	17994.51
598.18	18294.62
598.538	18528.28
598.897	19060.02
599.255	19118.78
599.613	19738.87
599.972	19958.98
600.33	20423.38
600.688	20672.41
601.046	21143.36
601.404	21420.19
601.762	21677.13
602.12	22053.84
602.478	22354.4
602.836	22697.89
603.194	22964.55
603.552	23346.69
603.91	23480.7
604.268	23996.39
604.625	24169.72
604.983	24611.51
605.341	24774.45
605.698	25144.38
606.056	25551.15
606.413	25848.54
606.771	26211.92
607.128	26460.05
607.485	26733.49
607.843	26896.88
608.2	27314.27
608.557	27580.93
608.914	27703.86
609.272	28204.19
609.629	28438.08
609.986	28690.5
610.343	28867.45
610.7	29396.02
611.057	29543.59
611.414	29722.79
611.771	29957.14
612.127	30351.7
612.484	30523.45
612.841	30850.22
613.198	30764.57
613.554	31044.79
613.911	31414.72
614.267	31632.8
614.624	31753.25
614.98	31937.2
615.337	32232.33
615.693	32357.75
616.05	32448.37
616.406	32974.91
616.762	32955.25
617.118	32889.04
617.475	33247.67
617.831	33515.91
618.187	33582.58
618.543	33886.75
618.899	34100.53
619.255	34204.03
619.611	34182.34
619.967	34511.14
620.323	34605.38
620.678	34618.71
621.034	34662.78
621.39	34911.36
621.746	35019.6
622.101	35420.5
622.457	35188.41
622.812	35360.84
623.168	35623.2
623.523	35660.26
623.879	35810.09
624.234	35636.99
624.589	35927.6
624.945	35932.12
625.3	36072.91
625.655	36166.01
626.01	36268.61
626.365	36421.15
626.72	36484.65
627.075	36403.07
627.43	36424.76
627.785	36559.22
628.14	36697.3
628.495	36854.36
628.85	36830.4
629.205	36694.59
629.559	37076.5
629.914	36980.91
630.269	36989.72
630.623	37068.36
630.978	37004.86
631.332	37113.11
631.687	37198.53
632.041	37077.63
632.396	37282.37
632.75	37189.04
633.104	37304.51
633.459	37140
633.813	37180.22
634.167	37187
634.521	37349.03
634.875	37421.12
635.229	37353.1
635.583	37180
635.937	37215.7
636.291	37400.33
636.645	37405.53
636.999	37203.5
637.352	37321.69
637.706	37195.36
638.06	37441.23
638.413	37287.11
638.767	37308.36
639.121	37413.66
639.474	37136.61
639.828	37217.06
640.181	37495.24
640.534	37365.75
640.888	37342.25
641.241	37208.02
641.594	37273.33
641.947	37525.75
642.301	37285.53
642.654	37390.16
643.007	37332.54
643.36	37352.2
643.713	37288.69
644.066	37501.12
644.419	37174.12
644.771	37009.15
645.124	36465.89
645.477	36634.02
645.83	36464.99
646.182	36278.1
646.535	36324.88
646.888	36420.24
647.24	36375.05
647.593	36493.46
647.945	36453.91
648.298	36337.53
648.65	36242.62
649.002	36324.65
649.355	36395.61
649.707	36347.02
650.059	36413.24
650.411	36994.92
650.763	37045.54
651.115	37366.43
651.467	37254.8
651.819	37261.8
652.171	37258.19
652.523	37169.83
652.875	37103.39
653.227	37049.83
653.578	37289.37
653.93	37151.75
654.282	37110.85
654.633	37023.62
654.985	36999.44
655.337	37155.14
655.688	37063.16
656.039	37276.72
656.391	36956.73
656.742	37034.46
657.094	37064.52
657.445	37161.92
657.796	36914.69
658.147	37024.52
658.498	37111.52
658.849	37003.28
659.2	37041.7
659.551	36901.81
659.902	36991.75
660.253	37033.56
660.604	36992.66
660.955	36827.01
661.306	37007.57
661.656	36938.65
662.007	36989.27
662.358	37213.44
662.708	37068.81
663.059	37077.85
663.409	36784.75
663.76	37082.15
664.11	37080.56
664.461	36976.84
664.811	37078.08
665.161	36913.79
665.511	36897.97
665.862	37051.86
666.212	37015.71
666.562	37051.64
666.912	36997.4
667.262	36966.22
667.612	37036.5
667.962	37030.4
668.312	36886.67
668.662	37221.8
669.011	37047.35
669.361	36917.63
669.711	36875.82
670.06	37010.28
670.41	36899.33
670.76	36765.54
671.109	36953.34
671.459	36857.52
671.808	36794.02
672.157	36917.86
672.507	36769.16
672.856	36638.09
673.205	36720.57
673.554	36705.89
673.904	36718.31
674.253	36820.23
674.602	36673.12
674.951	36133.02
675.3	36038.56
675.649	36623.63
675.998	36670.63
676.346	36647.13
676.695	36776.62
677.044	36524.87
677.393	36697.98
677.741	36588.83
678.09	36511.31
678.438	36413.01
678.787	36545.89
679.135	36562.39
679.484	36260.7
679.832	36403.29
680.181	36254.15
680.529	36323.52
680.877	36293.01
681.225	36173.47
681.573	36366.69
681.922	36157.42
682.27	36052.57
682.618	36048.73
682.966	35978.9
683.314	35995.62
683.661	35861.39
684.009	35669.3
684.357	35628.17
684.705	35603.77
685.053	35610.55
685.4	35663.88
685.748	35463.43
686.095	35468.63
686.443	35345.47
686.79	35325.58
687.138	35397.44
687.485	35316.77
687.832	35245.58
688.18	35331.91
688.527	35086.04
688.874	35103.89
689.221	34951.58
689.568	34799.95
689.915	34863
690.262	34947.97
690.609	34880.4
690.956	34621.87
691.303	34542.55
691.65	34437.47
691.997	34276.57
692.344	34303.24
692.69	34243.58
693.037	34161.32
693.383	33993.41
693.73	34045.62
694.077	33832.06
694.423	33823.7
694.769	33823.93
695.116	33669.81
695.462	33737.38
695.808	33488.79
696.155	33614.67
696.501	33434.33
696.847	33360.66
697.193	33146.2
697.539	33299.87
697.885	33023.72
698.231	32915.25
698.577	32974.68
698.923	32887.23
699.269	32739.44
699.614	32628.25
699.96	32571.53
700.306	32510.74
700.651	32396.85
700.997	32415.15
701.342	32179.9
701.688	32218.09
702.033	31997.99
702.379	32086.57
702.724	32067.82
703.069	32006.8
703.415	31796.41
703.76	31656.07
704.105	31872.34
704.45	31720.48
704.795	31485.91
705.14	31419.92
705.485	31510.32
705.83	31284.56
706.175	31360.26
706.52	31299.93
706.865	31026.49
707.209	31081.4
707.554	31056.54
707.899	31029.65
708.243	30795.08
708.588	30909.43
708.932	30633.28
709.277	30642.09
709.621	30599.83
709.966	30414.75
710.31	30395.32
710.654	30167.98
710.998	30299.73
711.342	30281.2
711.687	30194.64
712.031	30018.15
712.375	30020.19
712.719	29997.81
713.063	29828.33
713.407	30043.69
713.75	29897.48
714.094	29811.83
714.438	29651.16
714.782	29692.74
715.125	29637.82
715.469	29610.03
715.812	29368.9
716.156	29255.46
716.499	29320.77
716.843	29423.14
717.186	29227.21
717.53	29334.55
717.873	29352.41
718.216	29214.33
718.559	29203.48
718.902	28942.7
719.246	29096.14
719.589	28902.7
719.932	28865.41
720.275	28855.92
720.617	28848.92
720.96	28719.65
721.303	28836.71
721.646	28870.84
721.989	28558.98
722.331	28761.24
722.674	28518.53
723.016	28553.78
723.359	28497.51
723.701	28558.75
724.044	28342.72
724.386	28275.37
724.729	28333.9
725.071	28387.69
725.413	28373.67
725.755	28144.08
726.097	28050.29
726.439	28012.55
726.782	27970.07
727.124	28075.38
727.465	28021.82
727.807	27972.33
728.149	28001.48
728.491	27853.01
728.833	27859.34
729.175	27741.83
729.516	27661.83
729.858	27594.26
730.199	27724.65
730.541	27586.8
730.882	27566.46
731.224	27676.52
731.565	27492.57
731.906	27516.75
732.248	27487.37
732.589	27389.75
732.93	27248.73
733.271	27314.04
733.612	27213.93
733.953	27379.12
734.294	27259.35
734.635	27179.58
734.976	27304.32
735.317	27050.55
735.658	27169.64
735.999	27080.15
736.339	26997.21
736.68	27026.82
737.021	26965.12
737.361	26860.49
737.702	27085.35
738.042	26833.15
738.383	26771.91
738.723	26911.11
739.063	26661.63
739.404	26736.43
739.744	26718.13
740.084	26671.12
740.424	26722.42
740.764	26601.97
741.104	26744.11
741.444	26523.33
741.784	26290.34
742.124	26612.14
742.464	26470
742.804	26312.03
743.143	26423.67
743.483	26327.85
743.823	26226.16
744.162	26313.84
744.502	26402.65
744.841	26327.17
745.181	26248.98
745.52	26123.56
745.86	26191.81
746.199	26129.67
746.538	26088.54
746.877	26120.17
747.216	26011.48
747.556	26017.8
747.895	26090.57
748.234	25869.11
748.573	25928.99
748.911	25842.22
749.25	25836.79
749.589	25694.65
749.928	25780.52
750.267	25748.89
750.605	25679.73
750.944	25643.8
751.283	25588.89
751.621	25672.05
751.96	25422.34
752.298	25510.02
752.636	25455.79
752.975	25371.27
753.313	25288.11
753.651	25399.97
753.989	25268.22
754.327	25198.62
754.666	25103.25
755.004	25119.52
755.342	25123.59
755.679	25084.95
756.017	24939.19
756.355	25103.25
756.693	24918.85
757.031	24871.85
757.368	24809.47
757.706	24723.15
758.044	24707.1
758.381	24669.37
758.719	24606.32
759.056	24559.76
759.394	24679.99
759.731	24304.63
760.068	24421.24
760.405	24301.24
760.743	24162.49
761.08	24159.1
761.417	24116.39
761.754	24037.29
762.091	23972.43
