Data from red_cardboard_box_FLMS001491_00041.txt Node
Date: Wed Feb 08 11:32:26 GMT 2017
User: dcchb
Spectrometer: FLMS00149
Trigger mode: 0
Integration Time (sec): 2.000000E-2
Scans to average: 10
Electric dark correction enabled: true
Nonlinearity correction enabled: false
Boxcar width: 0
XAxis mode: Wavelengths
Number of Pixels in Spectrum: 2048
>>>>>Begin Spectral Data<<<<<
341.393	-18.76
341.776	-18.76
342.16	-18.76
342.543	-39.77
342.927	-71.41
343.31	-64.86
343.693	-85.42
344.077	-71.41
344.46	-80
344.843	-64.86
345.226	-21.69
345.61	-49.94
345.993	-26.89
346.376	12.66
346.759	19.89
347.142	18.53
347.525	51.07
347.908	61.02
348.291	66.44
348.674	115.7
349.057	119.77
349.44	129.71
349.823	154.35
350.206	160.22
350.588	192.09
350.971	214.91
351.354	231.63
351.737	220.56
352.119	268.02
352.502	265.3
352.884	274.57
353.267	289.48
353.65	318.18
354.032	311.63
354.414	330.39
354.797	339.88
355.179	337.84
355.562	328.8
355.944	341.69
356.326	361.57
356.709	352.99
357.091	343.04
357.473	332.65
357.855	315.02
358.238	342.82
358.62	344.17
359.002	356.6
359.384	337.17
359.766	346.66
360.148	333.1
360.53	343.72
360.912	344.62
361.294	351.4
361.676	342.36
362.057	326.77
362.439	337.17
362.821	322.93
363.203	337.17
363.584	329.03
363.966	330.61
364.348	324.96
364.729	328.35
365.111	314.34
365.493	319.54
365.874	330.39
366.256	321.35
366.637	330.16
367.019	322.93
367.4	310.95
367.781	309.37
368.163	303.49
368.544	305.98
368.925	328.8
369.306	301.69
369.688	313.44
370.069	347.11
370.45	326.55
370.831	311.18
371.212	309.6
371.593	312.31
371.974	344.85
372.355	322.25
372.736	305.98
373.117	315.7
373.498	325.42
373.879	332.19
374.26	308.92
374.641	322.03
375.021	316.15
375.402	317.05
375.783	315.92
376.163	324.06
376.544	322.7
376.925	306.88
377.305	328.13
377.686	313.66
378.066	327.45
378.447	316.6
378.827	331.29
379.208	323.16
379.588	336.71
379.968	327.45
380.349	327.45
380.729	331.74
381.109	335.81
381.489	335.58
381.87	338.07
382.25	341.69
382.63	317.73
383.01	354.11
383.39	338.3
383.77	363.83
384.15	352.31
384.53	338.75
384.91	335.58
385.29	336.26
385.67	335.36
386.049	328.58
386.429	340.56
386.809	345.08
387.189	335.36
387.568	345.53
387.948	356.83
388.328	331.52
388.707	350.95
389.087	348.47
389.466	383.49
389.846	347.56
390.225	358.86
390.605	374.23
390.984	334.68
391.363	360.44
391.743	374.45
392.122	343.49
392.501	361.57
392.881	370.61
393.26	360.89
393.639	362.25
394.018	352.76
394.397	364.96
394.776	358.18
395.155	378.07
395.534	364.74
395.913	376.49
396.292	363.83
396.671	382.14
397.05	367.45
397.429	361.8
397.808	392.76
398.186	368.13
398.565	387.33
398.944	377.17
399.323	366.77
399.701	354.11
400.08	384.4
400.458	370.39
400.837	385.75
401.215	395.7
401.594	395.7
401.972	372.19
402.351	400.67
402.729	387.79
403.107	387.33
403.486	388.24
403.864	379.43
404.242	396.15
404.62	398.86
404.999	402.48
405.377	397.73
405.755	390.27
406.133	391.63
406.511	387.56
406.889	392.98
407.267	420.55
407.645	395.47
408.023	416.49
408.401	404.06
408.779	415.36
409.156	410.84
409.534	427.11
409.912	442.02
410.29	420.78
410.667	450.61
411.045	402.02
411.422	423.72
411.8	416.03
412.178	434.56
412.555	435.02
412.933	425.07
413.31	424.4
413.687	457.16
414.065	444.28
414.442	444.73
414.819	432.76
415.197	448.35
415.574	462.36
415.951	450.38
416.328	467.78
416.705	459.42
417.082	465.52
417.46	456.26
417.837	462.36
418.214	452.42
418.591	463.72
418.967	473.21
419.344	491.06
419.721	478.41
420.098	467.11
420.475	474.11
420.852	492.19
421.228	478.18
421.605	480.21
421.982	471.4
422.358	492.42
422.735	510.27
423.111	504.85
423.488	496.26
423.864	503.94
424.241	513.88
424.617	492.64
424.994	501.91
425.37	507.78
425.746	502.36
426.123	516.82
426.499	508.46
426.875	514.56
427.251	522.47
427.627	521.34
428.003	533.55
428.379	539.42
428.756	531.74
429.132	526.31
429.507	518.63
429.883	524.51
430.259	555.47
430.635	559.31
431.011	554.79
431.387	530.16
431.763	557.05
432.138	540.1
432.514	567.67
432.89	568.12
433.265	580.1
433.641	574.22
434.016	581.45
434.392	573.54
434.767	574.22
435.143	595.24
435.518	586.43
435.894	597.27
436.269	603.83
436.644	584.17
437.02	583.94
437.395	597.5
437.77	603.37
438.145	608.35
438.52	628.46
438.895	617.38
439.271	611.06
439.646	608.8
440.021	620.55
440.395	645.63
440.77	611.06
441.145	634.33
441.52	636.14
441.895	652.86
442.27	635.69
442.645	633.43
443.019	658.51
443.394	637.05
443.769	646.08
444.143	665.75
444.518	647.21
444.892	661.23
445.267	652.41
445.641	668.01
446.016	695.8
446.39	670.72
446.764	684.05
447.139	663.94
447.513	685.63
447.887	703.03
448.262	668.01
448.636	688.12
449.01	684.28
449.384	690.38
449.758	686.99
450.132	698.51
450.506	708.68
450.88	728.12
451.254	722.01
451.628	709.59
452.002	739.42
452.376	709.59
452.75	726.99
453.123	751.39
453.497	749.13
453.871	753.88
454.244	753.2
454.618	765.86
454.992	750.49
455.365	756.36
455.739	770.15
456.112	743.48
456.486	772.41
456.859	769.02
457.232	788
457.606	787.1
457.979	787.55
458.352	797.04
458.725	819.19
459.099	786.87
459.472	827.55
459.845	837.04
460.218	854.67
460.591	831.39
460.964	853.99
461.337	853.54
461.71	858.51
462.083	865.74
462.456	879.52
462.829	837.04
463.201	880.65
463.574	882.24
463.947	906.87
464.32	890.6
464.692	891.95
465.065	897.83
465.438	922.69
465.81	914.1
466.183	935.57
466.555	920.65
466.928	947.77
467.3	940.31
467.672	962.46
468.045	960.65
468.417	997.49
468.789	998.17
469.161	990.03
469.534	1027.09
469.906	1006.98
470.278	1009.24
470.65	1027.09
471.022	1048.79
471.394	1055.79
471.766	1063.93
472.138	1068.67
472.51	1060.31
472.882	1070.03
473.253	1098.28
473.625	1062.57
473.997	1134.43
474.369	1132.4
474.74	1157.26
475.112	1139.63
475.484	1173.98
475.855	1180.76
476.227	1184.38
476.598	1233.64
476.97	1224.83
477.341	1232.51
477.713	1252.17
478.084	1264.83
478.455	1306.86
478.827	1316.58
479.198	1326.74
479.569	1338.72
479.94	1362
480.311	1362.22
480.682	1416.46
481.053	1396.35
481.424	1412.62
481.795	1446.74
482.166	1442.45
482.537	1465.95
482.908	1472.73
483.279	1505.27
483.65	1521.77
484.021	1544.82
484.391	1554.31
484.762	1569.68
485.133	1577.59
485.503	1606.96
485.874	1647.41
486.244	1678.37
486.615	1671.59
486.985	1678.83
487.356	1743.23
487.726	1710.46
488.097	1771.03
488.467	1794.08
488.837	1810.57
489.207	1799.73
489.578	1808.99
489.948	1857.13
490.318	1865.71
490.688	1905.49
491.058	1903
491.428	1905.94
491.798	1936.9
492.168	1965.82
492.538	2011.47
492.908	1993.17
493.278	2039.04
493.648	2058.48
494.017	2065.93
494.387	2077.69
494.757	2089.44
495.126	2108.65
495.496	2119.49
495.866	2134.18
496.235	2189.77
496.605	2186.38
496.974	2203.56
497.344	2213.5
497.713	2243.1
498.082	2244.46
498.452	2248.98
498.821	2246.95
499.19	2281.3
499.559	2315.87
499.928	2336.89
500.298	2338.47
500.667	2345.48
501.036	2306.61
501.405	2344.35
501.774	2390.9
502.143	2405.81
502.512	2395.19
502.88	2402.42
503.249	2472.48
503.618	2457.56
503.987	2479.48
504.356	2499.14
504.724	2521.97
505.093	2515.87
505.462	2525.81
505.83	2516.32
506.199	2586.82
506.567	2606.71
506.936	2630.67
507.304	2641.96
507.672	2624.56
508.041	2618.24
508.409	2688.52
508.777	2675.86
509.145	2693.26
509.514	2731.68
509.882	2721.06
510.25	2724.67
510.618	2786.59
510.986	2795.63
511.354	2824.56
511.722	2816.65
512.09	2869.76
512.458	2851.9
512.826	2886.03
513.193	2876.99
513.561	2880.83
513.929	2922.18
514.297	2960.37
514.664	2971.22
515.032	2968.96
515.4	3020.94
515.767	3039.24
516.135	3076.3
516.502	3047.15
516.869	3123.31
517.237	3092.8
517.604	3156.75
517.972	3141.16
518.339	3199.69
518.706	3189.29
519.073	3235.62
519.44	3245.56
519.808	3244.89
520.175	3235.62
520.542	3296.41
520.909	3355.17
521.276	3412.34
521.643	3395.16
522.009	3400.59
522.376	3406.24
522.743	3418.67
523.11	3491.21
523.477	3542.96
523.843	3510.19
524.21	3575.73
524.577	3603.07
524.943	3589.51
525.31	3636.29
525.676	3644.88
526.043	3669.73
526.409	3715.38
526.776	3745.89
527.142	3710.64
527.508	3808.94
527.874	3815.49
528.241	3827.24
528.607	3856.85
528.973	3877.86
529.339	3904.53
529.705	3926
530.071	3931.42
530.437	3985.66
530.803	4007.13
531.169	4015.04
531.535	4015.94
531.901	4081.47
532.267	4070.4
532.632	4107.91
532.998	4160.12
533.364	4163.51
533.73	4171.42
534.095	4198.99
534.461	4261.13
534.826	4257.29
535.192	4287.57
535.557	4321.24
535.923	4323.5
536.288	4340.22
536.653	4353.33
537.019	4363.73
537.384	4394.46
537.749	4394.91
538.114	4434.01
538.479	4452.99
538.845	4509.49
539.21	4482.59
539.575	4518.3
539.94	4532.54
540.305	4551.97
540.67	4589.94
541.034	4642.14
541.399	4648.01
541.764	4622.93
542.129	4641.23
542.494	4696.37
542.858	4730.72
543.223	4742.02
543.587	4759.2
543.952	4810.49
544.316	4772.53
544.681	4783.15
545.045	4860.44
545.41	4904.73
545.774	4833.77
546.138	4909.48
546.503	4925.75
546.867	4911.28
547.231	4956.48
547.595	4994.9
547.959	5039.87
548.324	5071.28
548.688	5038.74
549.052	5046.42
549.416	5129.58
549.779	5131.16
550.143	5126.64
550.507	5195.34
550.871	5248.9
551.235	5208.9
551.599	5302.46
551.962	5336.13
552.326	5321.22
552.689	5408.67
553.053	5369.12
553.417	5436.47
553.78	5464.26
554.143	5501.1
554.507	5485.28
554.87	5554.88
555.234	5570.02
555.597	5549.68
555.96	5637.14
556.323	5654.54
556.686	5716.91
557.05	5751.94
557.413	5753.07
557.776	5847.76
558.139	5864.48
558.502	5927.75
558.865	5901.99
559.228	5976.79
559.59	5960.97
559.953	6079.84
560.316	6142.44
560.679	6177.01
561.041	6191.93
561.404	6260.63
561.767	6326.61
562.129	6281.42
562.492	6448.19
562.854	6439.83
563.217	6478.7
563.579	6494.97
563.941	6600.05
564.304	6641.18
564.666	6708.98
565.028	6768.64
565.39	6788.97
565.753	6864.23
566.115	6925.92
566.477	6962.75
566.839	7056.09
567.201	7134.5
567.563	7233.48
567.925	7274.61
568.287	7312.58
568.648	7443.87
569.01	7409.52
569.372	7509.63
569.734	7557.32
570.095	7569.97
570.457	7713.7
570.819	7736.97
571.18	7796.63
571.542	7920.02
571.903	7929.51
572.265	8031.65
572.626	8157.3
572.987	8209.05
573.349	8273.68
573.71	8357.52
574.071	8376.73
574.432	8486.78
574.794	8595.25
575.155	8673.9
575.516	8709.38
575.877	8853.33
576.238	8902.36
576.599	8989.37
576.96	9106.88
577.32	9132.87
577.681	9265.29
578.042	9352.07
578.403	9439.53
578.763	9552.52
579.124	9718.39
579.485	9813.75
579.845	9925.16
580.206	10080.64
580.566	10180.07
580.927	10291.03
581.287	10496.22
581.648	10505.03
582.008	10714.75
582.368	10806.72
582.728	10958.81
583.089	11124.91
583.449	11231.12
583.809	11433.82
584.169	11630.65
584.529	11684.89
584.889	11937.77
585.249	12020.93
585.609	12245.78
585.969	12428.37
586.329	12614.58
586.688	12850.51
587.048	13072.88
587.408	13171.18
587.768	13495.92
588.127	13739.07
588.487	13801.9
588.846	14280.98
589.206	14357.81
589.565	14552.39
589.925	14967.52
590.284	15167.96
590.643	15391.23
591.003	15683.43
591.362	16066.02
591.721	16339.91
592.08	16549.17
592.44	16833.46
592.799	17186.89
593.158	17494.46
593.517	17794.79
593.876	18138.05
594.235	18423.7
594.593	18826.62
594.952	19200.4
595.311	19314.52
595.67	19773.94
596.029	20259.35
596.387	20632.45
596.746	20947.7
597.104	21270.85
597.463	21472.66
597.822	22076.71
598.18	22285.74
598.538	22674.21
598.897	23168.2
599.255	23286.17
599.613	23959.6
599.972	24214.28
600.33	24590.54
600.688	24760.48
601.046	25307.13
601.404	25767.91
601.762	26209.25
602.12	26574.22
602.478	26797.49
602.836	27172.84
603.194	27414.87
603.552	27813.05
603.91	28173.27
604.268	28519.02
604.625	28990.88
604.983	29339.34
605.341	29660.24
605.698	30005.54
606.056	30405.75
606.413	30554.45
606.771	31083.02
607.128	31298.84
607.485	31423.81
607.843	31887.75
608.2	32275.76
608.557	32540.16
608.914	32602.98
609.272	33218.11
609.629	33477.76
609.986	33916.17
610.343	33899.22
610.7	34357.97
611.057	34616.04
611.414	34837.95
611.771	35061
612.127	35467.09
612.484	35754.54
612.841	36015.78
613.198	35976.46
613.554	36315.88
613.911	36624.35
614.267	36832.7
614.624	37021.4
614.98	37203.54
615.337	37457.32
615.693	37589.29
616.05	37667.94
616.406	38163.06
616.762	38111.31
617.118	38370.06
617.475	38599.44
617.831	38801.01
618.187	39009.6
618.543	39063.15
618.899	39605.06
619.255	39553.76
619.611	39596.47
619.967	39983.58
620.323	40056.8
620.678	39983.36
621.034	40090.25
621.39	40197.81
621.746	40347.19
622.101	40832.6
622.457	40506.96
622.812	40772.49
623.168	40939.04
623.523	41110.11
623.879	41347.39
624.234	41115.08
624.589	41307.84
624.945	41426.93
625.3	41661.5
625.655	41689.3
626.01	41700.6
626.365	41835.28
626.72	41833.93
627.075	41987.14
627.43	42062.62
627.785	41953.93
628.14	42220.36
628.495	42150.3
628.85	42304.88
629.205	42161.6
629.559	42411.54
629.914	42288.38
630.269	42581.48
630.623	42333.35
630.978	42362.5
631.332	42675.71
631.687	42664.64
632.041	42600.69
632.396	42806.33
632.75	42601.82
633.104	42818.76
633.459	42567.47
633.813	42634.13
634.167	42574.02
634.521	42729.27
634.875	42730.63
635.229	42695.37
635.583	42419.9
635.937	42505.1
636.291	42637.52
636.645	42688.37
636.999	42647.01
637.352	42887.46
637.706	42433.46
638.06	42841.36
638.413	42626.22
638.767	42763.17
639.121	42682.04
639.474	42393.01
639.828	42626.68
640.181	42780.8
640.534	42656.96
640.888	42673.45
641.241	42509.39
641.594	42602.95
641.947	42801.36
642.301	42517.3
642.654	42740.35
643.007	42684.75
643.36	42668.03
643.713	42639.33
644.066	42804.3
644.419	42388.94
644.771	42169.74
645.124	41840.71
645.477	41785.57
645.83	41580.38
646.182	41437.55
646.535	41528.63
646.888	41589.19
647.24	41532.02
647.593	41691.56
647.945	41573.37
648.298	41339.48
648.65	41511.45
649.002	41241.63
649.355	41521.39
649.707	41345.35
650.059	41595.97
650.411	42193.69
650.763	42170.64
651.115	42543.74
651.467	42369.28
651.819	42348.04
652.171	42375.16
652.523	42265.56
652.875	42311.66
653.227	42209.51
653.578	42518.66
653.93	42347.81
654.282	42309.62
654.633	42079.12
654.985	42237.53
655.337	42286.12
655.688	42186.01
656.039	42418.77
656.391	42092.68
656.742	42113.69
657.094	42165.44
657.445	42310.07
657.796	42140.81
658.147	42040.25
658.498	42070.31
658.849	42344.2
659.2	42028.95
659.551	42002.74
659.902	42177.42
660.253	42126.58
660.604	42199.34
660.955	41956.64
661.306	42060.36
661.656	41988.5
662.007	42120.7
662.358	42127.03
662.708	42001.61
663.059	42031.44
663.409	41771.33
663.76	42167.48
664.11	42147.59
664.461	42291.32
664.811	42237.76
665.161	42022.85
665.511	42098.78
665.862	42252
666.212	42204.31
666.562	42183.75
666.912	42097.42
667.262	41929.07
667.612	42091.1
667.962	42082.96
668.312	42115.5
668.662	42270.3
669.011	42088.16
669.361	42052.45
669.711	42005.68
670.06	41892.46
670.41	41916.64
670.76	41726.13
671.109	42049.97
671.459	41906.69
671.808	41979.91
672.157	41910.08
672.507	41722.97
672.856	41746.7
673.205	41739.02
673.554	41878.9
673.904	41708.06
674.253	41988.95
674.602	41768.85
674.951	41185.81
675.3	40998.24
675.649	41705.57
675.998	41603.65
676.346	41741.95
676.695	41726.13
677.044	41515.97
677.393	41593.26
677.741	41695.63
678.09	41605.91
678.438	41541.28
678.787	41478.01
679.135	41565.46
679.484	41243.89
679.832	41446.37
680.181	41097.45
680.529	41434.84
680.877	41246.6
681.225	41078.69
681.573	41316.65
681.922	41019.03
682.27	40974.52
682.618	40940.62
682.966	40980.62
683.314	40985.59
683.661	40861.52
684.009	40636.9
684.357	40670.8
684.705	40563
685.053	40715.31
685.4	40537.92
685.748	40438.71
686.095	40240.75
686.443	40239.62
686.79	40194.88
687.138	40335.21
687.485	40208.66
687.832	40083.24
688.18	40033.52
688.527	40030.59
688.874	39751.05
689.221	39825.62
689.568	39624.95
689.915	39578.85
690.262	39617.49
690.609	39478.28
690.956	39366.87
691.303	39349.02
691.65	39216.82
691.997	39117.84
692.344	38866.1
692.69	38920.33
693.037	38944.06
693.383	38632.66
693.73	38985.64
694.077	38501.13
694.423	38576.84
694.769	38468.59
695.116	38357.18
695.462	38380.91
695.808	38199.9
696.155	38183.85
696.501	37905.44
696.847	37970.98
697.193	37807.59
697.539	37848.04
697.885	37615.06
698.231	37556.75
698.577	37519.92
698.923	37268.17
699.269	37360.6
699.614	37018.69
699.96	36972.36
700.306	37002.87
700.651	36918.13
700.997	36696.21
701.342	36761.29
701.688	36672.03
702.033	36625.7
702.379	36474.52
702.724	36520.85
703.069	36480.62
703.415	36078.83
703.76	36087.86
704.105	36069.56
704.45	36110.91
704.795	35750.25
705.14	35685.39
705.485	35764.71
705.83	35568.33
706.175	35615.33
706.52	35520.65
706.865	35424.15
707.209	35403.81
707.554	35331.27
707.899	35354.32
708.243	35070.04
708.588	35040.89
708.932	34872.08
709.277	34803.38
709.621	34850.16
709.966	34613.1
710.31	34690.39
710.654	34311.87
710.998	34575.59
711.342	34487.23
711.687	34338.31
712.031	34260.79
712.375	34169.5
712.719	34291.53
713.063	34147.8
713.407	34272.77
713.75	33862.16
714.094	34046.11
714.438	33944.42
714.782	33975.6
715.125	33715.72
715.469	33748.94
715.812	33588.95
716.156	33508.95
716.499	33534.94
716.843	33553.92
717.186	33430.99
717.53	33462.17
717.873	33484.77
718.216	33351.44
718.559	33004.78
718.902	32967.49
719.246	33044.33
719.589	32998.23
719.932	32795.97
720.275	32898.8
720.617	32851.57
720.96	32874.39
721.303	32695.64
721.646	32802.75
721.989	32657.45
722.331	32585.81
722.674	32625.58
723.016	32568.86
723.359	32540.84
723.701	32545.81
724.044	32340.62
724.386	32174.75
724.729	32396.66
725.071	32225.59
725.413	32191.24
725.755	32183.11
726.097	31990.57
726.439	31890.91
726.782	32040.97
727.124	31905.38
727.465	31807.3
727.807	31695.44
728.149	31849.78
728.491	31647.3
728.833	31796
729.175	31610.92
729.516	31493.86
729.858	31555.78
730.199	31512.84
730.541	31580.19
730.882	31375.22
731.224	31552.84
731.565	31342.45
731.906	31298.61
732.248	31409.8
732.589	31182.23
732.93	31162.8
733.271	31065.17
733.612	31146.75
733.953	31142.46
734.294	31110.82
734.635	30870.83
734.976	31119.63
735.317	30832.86
735.658	30963.25
735.999	30818.62
736.339	30767.78
736.68	30883.03
737.021	30726.65
737.361	30593.32
737.702	30744.05
738.042	30660.89
738.383	30445.08
738.723	30532.76
739.063	30519.42
739.404	30582.47
739.744	30499.76
740.084	30390.84
740.424	30348.81
740.764	30483.04
741.104	30462.7
741.444	30231.52
741.784	30252.76
742.124	30228.13
742.464	30186.55
742.804	30054.8
743.143	30084.41
743.483	30018.19
743.823	29895.26
744.162	29864.75
744.502	29875.15
744.841	29975.71
745.181	30061.81
745.52	29907.24
745.86	29833.79
746.199	29780.23
746.538	29756.05
746.877	29748.82
747.216	29742.04
747.556	29607.13
747.895	29601.93
748.234	29479
748.573	29578.88
748.911	29520.35
749.25	29514.48
749.589	29390.87
749.928	29413.69
750.267	29292.34
750.605	29215.5
750.944	29277.2
751.283	29117.88
751.621	29120.59
751.96	29158.78
752.298	29116.52
752.636	29163.98
752.975	28893.7
753.313	28841.73
753.651	28998.56
753.989	28874.95
754.327	28748.62
754.666	28564.9
755.004	28572.58
755.342	28674.05
755.679	28589.08
756.017	28444.68
756.355	28550.89
756.693	28455.52
757.031	28376.65
757.368	28208.07
757.706	28300.5
758.044	28173.72
758.381	28174.17
758.719	28123.1
759.056	28084.69
759.394	27970.34
759.731	27811.7
760.068	27869.55
760.405	27734.19
760.743	27721.3
761.08	27670.23
