Data from red_shiny_book_FLMS001491_00096.txt Node
Date: Wed Feb 08 15:25:38 GMT 2017
User: dcchb
Spectrometer: FLMS00149
Trigger mode: 0
Integration Time (sec): 2.000000E-2
Scans to average: 10
Electric dark correction enabled: true
Nonlinearity correction enabled: false
Boxcar width: 0
XAxis mode: Wavelengths
Number of Pixels in Spectrum: 2048
>>>>>Begin Spectral Data<<<<<
341.393	-20.08
341.776	-20.08
342.16	-20.08
342.543	-47.65
342.927	-69.35
343.31	-52.85
343.693	-79.07
344.077	-59.41
344.46	-71.83
344.843	-65.73
345.226	-35.45
345.61	-28.67
345.993	-31.84
346.376	-7.66
346.759	-1.55
347.142	37.54
347.525	32.12
347.908	61.5
348.291	94.49
348.674	95.39
349.057	113.02
349.44	146.47
349.823	144.66
350.206	172.45
350.588	207.93
350.971	220.14
351.354	210.19
351.737	239.12
352.119	253.81
352.502	288.38
352.884	291.09
353.267	292.68
353.65	314.14
354.032	309.4
354.414	301.94
354.797	321.6
355.179	339.45
355.562	355.95
355.944	317.31
356.326	361.37
356.709	331.77
357.091	318.21
357.473	356.18
357.855	367.48
358.238	333.58
358.62	364.99
359.002	348.95
359.384	343.52
359.766	321.15
360.148	334.03
360.53	350.98
360.912	368.38
361.294	354.37
361.676	329.51
362.057	343.07
362.439	342.84
362.821	314.37
363.203	335.61
363.584	327.48
363.966	337.87
364.348	327.93
364.729	355.95
365.111	305.33
365.493	338.55
365.874	316.63
366.256	311.88
366.637	321.38
367.019	315.73
367.4	336.74
367.781	346.69
368.163	326.35
368.544	324.09
368.925	332.9
369.306	341.49
369.688	318.66
370.069	305.78
370.45	327.7
370.831	312.56
371.212	344.65
371.593	334.71
371.974	320.92
372.355	331.32
372.736	320.02
373.117	326.35
373.498	334.03
373.879	325.22
374.26	323.18
374.641	317.08
375.021	341.71
375.402	347.59
375.783	322.28
376.163	327.7
376.544	341.94
376.925	362.05
377.305	330.19
377.686	323.41
378.066	341.71
378.447	327.25
378.827	343.75
379.208	344.2
379.588	330.87
379.968	338.78
380.349	355.5
380.729	351.88
381.109	340.13
381.489	352.56
381.87	370.64
382.25	348.27
382.63	368.83
383.01	343.3
383.39	350.08
383.77	355.73
384.15	366.8
384.53	349.4
384.91	341.94
385.29	379.23
385.67	366.8
386.049	376.97
386.429	352.56
386.809	379.91
387.189	375.16
387.568	356.86
387.948	368.83
388.328	376.06
388.707	387.36
389.087	365.44
389.466	372
389.846	372.67
390.225	374.93
390.605	352.56
390.984	381.04
391.363	367.7
391.743	376.52
392.122	368.38
392.501	369.74
392.881	394.37
393.26	390.3
393.639	400.24
394.018	384.88
394.397	389.4
394.776	381.04
395.155	406.8
395.534	390.98
395.913	394.37
396.292	402.5
396.671	400.92
397.05	397.53
397.429	402.96
397.808	428.49
398.186	400.24
398.565	414.03
398.944	405.44
399.323	407.93
399.701	409.96
400.08	427.59
400.458	425.78
400.837	425.1
401.215	429.62
401.594	408.83
401.972	425.1
402.351	423.97
402.729	407.7
403.107	430.07
403.486	423.75
403.864	447.7
404.242	411.54
404.62	437.76
404.999	444.31
405.377	450.19
405.755	435.27
406.133	463.29
406.511	436.63
406.889	451.77
407.267	459.68
407.645	471.43
408.023	453.35
408.401	444.76
408.779	466.23
409.156	466.68
409.534	473.91
409.912	486.57
410.29	481.37
410.667	447.25
411.045	478.43
411.422	482.73
411.8	494.7
412.178	500.58
412.555	483.63
412.933	509.85
413.31	528.6
413.687	519.11
414.065	526.79
414.442	536.06
414.819	523.4
415.197	526.34
415.574	542.39
415.951	529.28
416.328	533.57
416.705	571.76
417.082	556.62
417.46	556.17
417.837	565.66
418.214	564.53
418.591	559.34
418.967	561.82
419.344	557.3
419.721	560.47
420.098	568.15
420.475	569.05
420.852	588.94
421.228	583.74
421.605	577.64
421.982	600.46
422.358	593.23
422.735	598.66
423.111	595.94
423.488	589.84
423.864	609.28
424.241	599.79
424.617	581.71
424.994	608.37
425.37	626.23
425.746	635.49
426.123	663.74
426.499	657.86
426.875	681.14
427.251	647.92
427.627	663.06
428.003	639.33
428.379	644.08
428.756	647.24
429.132	661.25
429.507	668.26
429.883	671.65
430.259	713.46
430.635	716.85
431.011	713.46
431.387	712.78
431.763	717.98
432.138	703.96
432.514	722.5
432.89	704.64
433.265	734.02
433.641	736.05
434.016	749.84
434.392	744.19
434.767	777.41
435.143	762.95
435.518	794.58
435.894	788.93
436.269	797.97
436.644	788.03
437.02	759.78
437.395	774.02
437.77	771.31
438.145	794.58
438.52	775.38
438.895	806.56
439.271	824.64
439.646	831.87
440.021	874.36
440.395	857.86
440.77	800.69
441.145	856.28
441.52	840.46
441.895	846.11
442.27	856.05
442.645	842.27
443.019	840.91
443.394	870.51
443.769	918.2
444.143	867.12
444.518	881.59
444.892	899.21
445.267	919.1
445.641	898.08
446.016	891.76
446.39	905.77
446.764	888.59
447.139	878.65
447.513	862.6
447.887	882.26
448.262	872.32
448.636	888.82
449.01	917.52
449.384	925.2
449.758	965.65
450.132	977.4
450.506	960.23
450.88	950.51
451.254	957.07
451.628	950.96
452.002	930.63
452.376	929.27
452.75	942.15
453.123	955.03
453.497	969.04
453.871	976.95
454.244	989.61
454.618	1031.19
454.992	1029.61
455.365	1025.99
455.739	1036.16
456.112	1015.59
456.486	1026.89
456.859	1003.39
457.232	1038.65
457.606	1011.53
457.979	1015.14
458.352	1042.94
458.725	1051.53
459.099	1046.55
459.472	1110.51
459.845	1138.3
460.218	1126.33
460.591	1110.73
460.964	1114.8
461.337	1119.55
461.71	1132.2
462.083	1113.67
462.456	1113.9
462.829	1095.82
463.201	1088.14
463.574	1132.88
463.947	1137.63
464.32	1152.09
464.692	1181.01
465.065	1192.09
465.438	1215.36
465.81	1242.03
466.183	1247
466.555	1236.83
466.928	1226.44
467.3	1211.07
467.672	1193.44
468.045	1231.18
468.417	1227.34
468.789	1216.95
469.161	1258.3
469.534	1317.51
469.906	1309.15
470.278	1367.9
470.65	1346.21
471.022	1413.55
471.394	1416.26
471.766	1408.35
472.138	1425.3
472.51	1427.11
472.882	1389.14
473.253	1411.29
473.625	1411.06
473.997	1397.96
474.369	1417.62
474.74	1403.61
475.112	1495.81
475.484	1517.05
475.855	1586.88
476.227	1583.49
476.598	1640.21
476.97	1637.5
477.341	1670.94
477.713	1657.61
478.084	1637.95
478.455	1657.61
478.827	1650.38
479.198	1655.58
479.569	1626.65
479.94	1676.14
480.311	1756.37
480.682	1755.46
481.053	1823.48
481.424	1857.61
481.795	1901.22
482.166	1949.58
482.537	1976.93
482.908	1989.81
483.279	2047.21
483.65	2040.65
484.021	2062.57
484.391	2042.91
484.762	2017.83
485.133	1966.98
485.503	2003.37
485.874	2077.49
486.244	2088.11
486.615	2166.98
486.985	2234.09
487.356	2278.39
487.726	2370.36
488.097	2398.16
488.467	2408.55
488.837	2468.21
489.207	2510.24
489.578	2457.82
489.948	2437.25
490.318	2416.24
490.688	2434.31
491.058	2434.31
491.428	2415.33
491.798	2467.31
492.168	2532.84
492.538	2571.03
492.908	2618.94
493.278	2699.39
493.648	2759.5
494.017	2829.78
494.387	2847.86
494.757	2861.87
495.126	2936.22
495.496	2887.64
495.866	2876.34
496.235	2889.9
496.605	2789.11
496.974	2785.27
497.344	2797.69
497.713	2797.24
498.082	2819.16
498.452	2869.11
498.821	2888.54
499.19	2997.69
499.559	3038.14
499.928	3128.08
500.298	3177.8
500.667	3249.89
501.036	3237.23
501.405	3221.41
501.774	3186.39
502.143	3173.96
502.512	3125.14
502.88	3093.51
503.249	3080.4
503.618	3025.03
503.987	3042.66
504.356	3052.38
504.724	3079.72
505.093	3146.39
505.462	3199.49
505.83	3230.68
506.199	3292.6
506.567	3387.06
506.936	3420.96
507.304	3472.48
507.672	3468.86
508.041	3453.95
508.409	3386.38
508.777	3359.71
509.145	3319.04
509.514	3252.6
509.882	3231.36
510.25	3249.66
510.618	3240.17
510.986	3239.49
511.354	3291.69
511.722	3374.18
512.09	3390.45
512.458	3500.5
512.826	3490.11
513.193	3603.78
513.561	3629.54
513.929	3654.17
514.297	3676.99
514.664	3683.55
515.032	3614.85
515.4	3607.17
515.767	3533.49
516.135	3516.32
516.502	3414.4
516.869	3433.84
517.237	3424.34
517.604	3427.28
517.972	3457.11
518.339	3523.78
518.706	3586.15
519.073	3646.49
519.44	3736.43
519.808	3820.27
520.175	3824.56
520.542	3890.1
520.909	3910.21
521.276	3936.2
521.643	3908.4
522.009	3826.37
522.376	3801.51
522.743	3758.8
523.11	3684.9
523.477	3669.31
523.843	3628.86
524.21	3612.14
524.577	3667.95
524.943	3727.16
525.31	3794.5
525.676	3907.04
526.043	4031.79
526.409	4089.86
526.776	4173.7
527.142	4256.19
527.508	4298.9
527.874	4344.77
528.241	4309.07
528.607	4289.63
528.973	4289.63
529.339	4174.83
529.705	4172.8
530.071	4136.19
530.437	4072.24
530.803	4069.98
531.169	4065.91
531.535	4081.5
531.901	4105.91
532.267	4176.64
532.632	4336.19
532.998	4389.74
533.364	4499.57
533.73	4596.97
534.095	4704.09
534.461	4774.37
534.826	4879.9
535.192	4881.03
535.557	4875.15
535.923	4802.39
536.288	4786.8
536.653	4669.96
537.019	4662.96
537.384	4520.14
537.749	4484.66
538.114	4539.34
538.479	4512.9
538.845	4571.89
539.21	4528.04
539.575	4617.99
539.94	4749.51
540.305	4876.28
540.67	4989.95
541.034	5054.81
541.399	5164.41
541.764	5274.92
542.129	5329.83
542.494	5377.06
542.858	5337.74
543.223	5290.06
543.587	5267.69
543.952	5189.72
544.316	5135.49
544.681	5021.37
545.045	5016.62
545.41	4967.58
545.774	4901.14
546.138	4933.46
546.503	4973.91
546.867	5011.87
547.231	5087.35
547.595	5234.01
547.959	5326.89
548.324	5345.2
548.688	5536.15
549.052	5618.64
549.416	5700.9
549.779	5697.73
550.143	5732.08
550.507	5761.01
550.871	5651.41
551.235	5603.95
551.599	5588.58
551.962	5516.49
552.326	5410.51
552.689	5323.28
553.053	5229.27
553.417	5141.81
553.78	5236.05
554.143	5180.91
554.507	5219.78
554.87	5311.98
555.234	5468.59
555.597	5509.71
555.96	5617.51
556.323	5718.07
556.686	5866.77
557.05	5939.08
557.413	6037.84
557.776	6031.28
558.139	6047.78
558.502	6091.62
558.865	5977.5
559.228	5939.53
559.59	5836.94
559.953	5716.71
560.316	5692.08
560.679	5586.32
561.041	5549.94
561.404	5544.97
561.767	5524.4
562.129	5512.65
562.492	5549.49
562.854	5646.89
563.217	5732.98
563.579	5886.2
563.941	6026.08
564.304	6139.98
564.666	6255.23
565.028	6351.73
565.39	6400.09
565.753	6462.68
566.115	6494.55
566.477	6504.72
566.839	6455.9
567.201	6370.26
567.563	6297.94
567.925	6161.22
568.287	6128.45
568.648	6030.83
569.01	5935.24
569.372	5936.37
569.734	5895.01
570.095	5937.73
570.457	5942.02
570.819	6072.64
571.18	6121.22
571.542	6247.55
571.903	6375
572.265	6536.58
572.626	6690.25
572.987	6794.2
573.349	6952.39
573.71	7019.05
574.071	7172.27
574.432	7232.61
574.794	7221.53
575.155	7212.04
575.516	7210.91
575.877	7105.83
576.238	7050.69
576.599	6997.36
576.96	6903.8
577.32	6893.41
577.681	6928.43
578.042	6900.41
578.403	6960.98
578.763	7078.26
579.124	7239.16
579.485	7434.41
579.845	7635.99
580.206	7865.58
580.566	8174.5
580.927	8394.16
581.287	8752.34
581.648	8960.92
582.008	9217.19
582.368	9435.71
582.728	9753.9
583.089	9952.76
583.449	10124.51
583.809	10339.19
584.169	10535.8
584.529	10616.92
584.889	10814.66
585.249	10882
585.609	11100.08
585.969	11404.25
586.329	11540.29
586.688	11800.62
587.048	12180.72
587.408	12474.05
587.768	12867.94
588.127	13305.44
588.487	13646.45
588.846	14252.53
589.206	14615.24
589.565	15221.32
589.925	15783.57
590.284	16249.54
590.643	16718.91
591.003	17256.75
591.362	17881.59
591.721	18256.72
592.08	18701.91
592.44	19090.83
592.799	19427.31
593.158	19793.41
593.517	20079.5
593.876	20435.42
594.235	20702.53
594.593	21047.61
594.952	21408.73
595.311	21719.23
595.67	21993.8
596.029	22664.07
596.387	23003.27
596.746	23547.21
597.104	23843.02
597.463	24351.25
597.822	24921.63
598.18	25368.85
598.538	25942.62
598.897	26676.16
599.255	27065.08
599.613	27818.28
599.972	28112.06
600.33	28682.89
600.688	29057.34
601.046	29501.17
601.404	29886.93
601.762	30206.01
602.12	30546.34
602.478	30807.35
602.836	31111.3
603.194	31283.5
603.552	31400.11
603.91	31569.59
604.268	31919.19
604.625	32057.04
604.983	32503.35
605.341	32531.38
605.698	33188.76
606.056	33387.62
606.413	33801.63
606.771	34239.13
607.128	34762.96
607.485	34942.84
607.843	35336.5
608.2	35865.98
608.557	36223.93
608.914	36484.27
609.272	37061.2
609.629	37251.25
609.986	37715.42
610.343	37858.69
610.7	38243.09
611.057	38471.79
611.414	38490.54
611.771	38649.86
612.127	38829.97
612.484	39038.78
612.841	39095.95
613.198	38984.09
613.554	38933.24
613.911	39306.34
614.267	39390.4
614.624	39434.92
614.98	39358.99
615.337	39868.81
615.693	39837.17
616.05	40044.85
616.406	40598.06
616.762	40642.35
617.118	40829.01
617.475	41269
617.831	41518.03
618.187	41739.72
618.543	42018.58
618.899	42260.84
619.255	42374.06
619.611	42555.75
619.967	42698.34
620.323	42986.92
620.678	42819.69
621.034	42916.87
621.39	42849.75
621.746	42708.28
622.101	43418.55
622.457	42830.09
622.812	42893.59
623.168	42828.05
623.523	42750.54
623.879	42922.52
624.234	42666.7
624.589	42845.23
624.945	42915.96
625.3	42994.38
625.655	42951.44
626.01	43103.98
626.365	43263.3
626.72	43286.8
627.075	43537.64
627.43	43546.68
627.785	43662.61
628.14	43870.51
628.495	44152.54
628.85	44175.36
629.205	44168.58
629.559	44475.02
629.914	44252.42
630.269	44382.82
630.623	44369.03
630.978	44362.48
631.332	44345.08
631.687	44454
632.041	44157.51
632.396	44095.82
632.75	43873.45
633.104	43782.38
633.459	43591.2
633.813	43452.45
634.167	43314.6
634.521	43217.42
634.875	43486.12
635.229	43277.53
635.583	43037.77
635.937	43231.21
636.291	43379.45
636.645	43316.63
636.999	43288.16
637.352	43448.6
637.706	43582.84
638.06	43783.28
638.413	43638.43
638.767	43779.89
639.121	43811.53
639.474	43876.39
639.828	43825.99
640.181	44060.11
640.534	44108.02
640.888	43931.08
641.241	43632.55
641.594	43848.14
641.947	43851.98
642.301	43521.6
642.654	43367.25
643.007	43370.64
643.36	43196.41
643.713	42960.71
644.066	43086.13
644.419	42775.85
644.771	42360.5
645.124	41925.71
645.477	41695.2
645.83	41546.73
646.182	41474.64
646.535	41289.79
646.888	41489.33
647.24	41452.72
647.593	41789.21
647.945	41741.3
648.298	41649.78
648.65	41694.53
649.002	41670.35
649.355	41960.51
649.707	41940.17
650.059	42042.09
650.411	42677.32
650.763	42748.73
651.115	43144.88
651.467	42993.47
651.819	42900.37
652.171	42894.04
652.523	42784.44
652.875	42557.78
653.227	42323.44
653.578	42541.06
653.93	42242.99
654.282	42137.23
654.633	41872.37
654.985	41846.39
655.337	41730.91
655.688	41700.4
656.039	41857.46
656.391	41401.2
656.742	41433.06
657.094	41387.19
657.445	41608.2
657.796	41600.06
658.147	41513.06
658.498	41729.55
658.849	41766.61
659.2	41860.4
659.551	41724.35
659.902	42018.36
660.253	42058.36
660.604	42258.35
660.955	42111.24
661.306	42210.67
661.656	42251.8
662.007	42239.82
662.358	42350.78
662.708	42075.98
663.059	42319.82
663.409	42017.23
663.76	42238.69
664.11	42179.48
664.461	42116.66
664.811	41952.15
665.161	41739.95
665.511	41546.28
665.862	41451.82
666.212	41468.54
666.562	41450.46
666.912	41105.16
667.262	41100.64
667.612	40957.6
667.962	40890.25
668.312	40794.21
668.662	41086.18
669.011	41149.23
669.361	41021.1
669.711	41116.01
670.06	40897.48
670.41	41030.81
670.76	41123.47
671.109	41382.89
671.459	41317.81
671.808	41395.32
672.157	41558.71
672.507	41304.7
672.856	41610.91
673.205	41551.93
673.554	41751.7
673.904	41580.63
674.253	41777.01
674.602	41699.27
674.951	41077.37
675.3	40844.38
675.649	41303.12
675.998	41170.92
676.346	41142.22
676.695	41042.11
677.044	40635.8
677.393	40732.06
677.741	40752.86
678.09	40388.8
678.438	40217.5
678.787	40360.1
679.135	40308.12
679.484	39975.7
679.832	40105.19
680.181	39755.37
680.529	39978.19
680.877	39763.5
681.225	39873.33
681.573	40059.09
681.922	39947.9
682.27	39942.48
682.618	40026.77
682.966	40161.01
683.314	40130.27
683.661	40270.61
684.009	40129.14
684.357	40180.89
684.705	40211.4
685.053	40218.41
685.4	40234
685.748	40047.11
686.095	40088.69
686.443	39981.35
686.79	39695.93
687.138	39860.68
687.485	39713.79
687.832	39563.28
688.18	39517.41
688.527	39067.93
688.874	39201.26
689.221	38949.51
689.568	38809.4
689.915	38497.55
690.262	38455.29
690.609	38243.77
690.956	38169.65
691.303	37993.38
691.65	37770.11
691.997	37796.1
692.344	37498.25
692.69	37642.2
693.037	37561.3
693.383	37402.21
693.73	37545.71
694.077	37416.45
694.423	37530.34
694.769	37423
695.116	37317.01
695.462	37592.49
695.808	37367.86
696.155	37563.79
696.501	37256.45
696.847	37317.24
697.193	37176.9
697.539	37459.38
697.885	37060.97
698.231	37050.58
698.577	37089.45
698.923	36990.69
699.269	36806.74
699.614	36666.41
699.96	36431.84
700.306	36456.02
700.651	36190.49
700.997	36049.93
701.342	35877.73
701.688	35734.46
702.033	35487.68
702.379	35451.07
702.724	35208.59
703.069	35277.97
703.415	34716.4
703.76	34877.3
704.105	34787.59
704.45	34602.06
704.795	34470.53
705.14	34479.57
705.485	34382.4
705.83	34149.86
706.175	34223.99
706.52	34347.37
706.865	34161.62
707.209	34175.85
707.554	34167.04
707.899	34358.45
708.243	34191.67
708.588	34177.66
708.932	34136.31
709.277	34171.33
709.621	34247.26
709.966	34041.17
710.31	34065.35
710.654	33821.51
710.998	33918.46
711.342	33991.9
711.687	33874.84
712.031	33704
712.375	33609.54
712.719	33514.85
713.063	33435.99
713.407	33520.28
713.75	33242.77
714.094	33142.43
714.438	32965.04
714.782	32926.85
715.125	32546.52
715.469	32728.89
715.812	32378.84
716.156	32141.33
716.499	32178.39
716.843	32125.29
717.186	31939.98
717.53	31926.19
717.873	32015.23
718.216	31949.92
718.559	31785.18
718.902	31559.65
719.246	31701.34
719.589	31682.59
719.932	31532.76
720.275	31597.16
720.617	31709.03
720.96	31603.04
721.303	31770.04
721.646	31829.47
721.989	31779.76
722.331	31775.92
722.674	31662.25
723.016	31742.7
723.359	31822.69
723.701	31797.84
724.044	31737.05
724.386	31459.09
724.729	31641.91
725.071	31588.35
725.413	31371.18
725.755	31387.23
726.097	31236.72
726.439	31011.64
726.782	30994.47
727.124	31008.93
727.465	30741.59
727.807	30733.91
728.149	30590.64
728.491	30391.77
728.833	30351.09
729.175	30170.76
729.516	30174.15
729.858	30020.48
730.199	30012.35
730.541	29860.94
730.882	29740.94
731.224	29921.05
731.565	29660.94
731.906	29762.64
732.248	29746.14
732.589	29532.81
732.93	29484.68
733.271	29595.86
733.612	29791.34
733.953	29641.06
734.294	29586.14
734.635	29686.03
734.976	29670.89
735.317	29587.72
735.658	29693.94
735.999	29785.01
736.339	29750.66
736.68	29918.79
737.021	29680.38
737.361	29580.49
737.702	29790.21
738.042	29772.8
738.383	29707.04
738.723	29762.41
739.063	29631.11
739.404	29600.61
739.744	29557.22
740.084	29392.93
740.424	29456.88
740.764	29200.84
741.104	29218.24
741.444	29039.72
741.784	28835.2
742.124	28937.57
742.464	28760.4
742.804	28650.35
743.143	28465.49
743.483	28536.45
743.823	28224.6
744.162	28323.13
744.502	28264.37
744.841	28166.75
745.181	28190.25
745.52	27991.38
745.86	28039.07
746.199	27923.14
746.538	27886.98
746.877	28028.44
747.216	28051.27
747.556	27867.32
747.895	27931.95
748.234	27892.4
748.573	27882.46
748.911	27917.94
749.25	28023.25
749.589	27841.56
749.928	28015.11
750.267	28128.1
750.605	28008.56
750.944	28053.3
751.283	27825.74
751.621	27928.79
751.96	27836.58
752.298	27855.57
752.636	27853.76
752.975	27690.15
753.313	27604.05
753.651	27687.44
753.989	27483.6
754.327	27423.26
754.666	27274.57
755.004	27379.87
755.342	27211.29
755.679	27068.92
756.017	26915.7
756.355	26921.35
756.693	26688.37
757.031	26624.19
757.368	26510.52
757.706	26354.59
758.044	26204.76
758.381	26118.44
758.719	26092
759.056	26066.01
759.394	25917.76
759.731	25711.89
760.068	25698.34
760.405	25600.26
760.743	25468.51
