Data from red_shiny_book_FLMS001491_00020.txt Node
Date: Wed Feb 08 15:23:43 GMT 2017
User: dcchb
Spectrometer: FLMS00149
Trigger mode: 0
Integration Time (sec): 2.000000E-2
Scans to average: 10
Electric dark correction enabled: true
Nonlinearity correction enabled: false
Boxcar width: 0
XAxis mode: Wavelengths
Number of Pixels in Spectrum: 2048
>>>>>Begin Spectral Data<<<<<
341.393	-24.17
341.776	-24.17
342.16	-24.17
342.543	-55.35
342.927	-90.6
343.31	-63.71
343.693	-80.66
344.077	-61.91
344.46	-62.36
344.843	-49.25
345.226	-44.05
345.61	-18.29
345.993	-24.17
346.376	7.02
346.759	5.21
347.142	-1.12
347.525	53.12
347.908	47.47
348.291	87.92
348.674	87.7
349.057	117.07
349.44	136.73
349.823	149.16
350.206	156.39
350.588	216.05
350.971	221.93
351.354	235.49
351.737	260.57
352.119	265.32
352.502	277.29
352.884	298.76
353.267	301.7
353.65	308.48
354.032	313.9
354.414	319.78
354.797	317.29
355.179	335.37
355.562	336.73
355.944	343.96
356.326	350.97
356.709	375.6
357.091	349.61
357.473	359.33
357.855	342.6
358.238	340.34
358.62	362.04
359.002	317.07
359.384	373.34
359.766	357.97
360.148	345.09
360.53	361.13
360.912	374.47
361.294	369.5
361.676	350.06
362.057	345.32
362.439	359.55
362.821	361.59
363.203	351.42
363.584	341.47
363.966	344.64
364.348	341.25
364.729	336.05
365.111	348.03
365.493	336.5
365.874	336.05
366.256	332.21
366.637	327.92
367.019	331.76
367.4	341.47
367.781	349.84
368.163	340.34
368.544	335.82
368.925	333.11
369.306	346.9
369.688	334.47
370.069	336.05
370.45	349.16
370.831	359.33
371.212	338.76
371.593	320.23
371.974	348.48
372.355	329.27
372.736	365.43
373.117	349.84
373.498	347.8
373.879	341.02
374.26	370.63
374.641	324.07
375.021	319.1
375.402	351.42
375.783	357.74
376.163	363.62
376.544	359.78
376.925	358.65
377.305	357.52
377.686	363.17
378.066	367.46
378.447	368.14
378.827	360.68
379.208	347.58
379.588	348.03
379.968	365.65
380.349	353.45
380.729	366.56
381.109	368.82
381.489	369.27
381.87	392.77
382.25	377.41
382.63	398.65
383.01	378.54
383.39	378.99
383.77	369.04
384.15	353.23
384.53	376.73
384.91	404.75
385.29	387.8
385.67	388.48
386.049	398.42
386.429	386.67
386.809	369.95
387.189	402.49
387.568	398.65
387.948	391.64
388.328	424.86
388.707	409.04
389.087	411.3
389.466	391.42
389.846	389.61
390.225	390.06
390.605	404.98
390.984	392.32
391.363	408.82
391.743	404.75
392.122	421.92
392.501	423.96
392.881	430.74
393.26	417.18
393.639	436.39
394.018	423.51
394.397	428.93
394.776	433.22
395.155	415.82
395.534	428.48
395.913	415.6
396.292	443.84
396.671	440.45
397.05	418.99
397.429	431.87
397.808	439.78
398.186	458.76
398.565	462.37
398.944	449.72
399.323	444.75
399.701	474.8
400.08	463.5
400.458	461.7
400.837	447.23
401.215	452.66
401.594	441.81
401.972	478.42
402.351	447.01
402.729	453.34
403.107	470.06
403.486	489.94
403.864	469.15
404.242	465.99
404.62	477.74
404.999	464.41
405.377	477.52
405.755	488.36
406.133	489.27
406.511	486.78
406.889	496.95
407.267	527.01
407.645	503.05
408.023	501.47
408.401	515.48
408.779	546.21
409.156	523.84
409.534	522.94
409.912	521.13
410.29	538.76
410.667	564.75
411.045	540.34
411.422	548.47
411.8	568.59
412.178	585.31
412.555	552.32
412.933	557.29
413.31	571.52
413.687	579.21
414.065	593.67
414.442	600.68
414.819	583.28
415.197	614.69
415.574	591.41
415.951	620.11
416.328	593.9
416.705	601.35
417.082	599.55
417.46	633.9
417.837	616.27
418.214	640.68
418.591	641.81
418.967	662.37
419.344	660.11
419.721	676.83
420.098	650.62
420.475	665.53
420.852	667.79
421.228	665.76
421.605	671.41
421.982	683.61
422.358	675.93
422.735	698.98
423.111	708.24
423.488	717.06
423.864	718.41
424.241	708.47
424.617	713.22
424.994	729.49
425.37	727
425.746	720.22
426.123	714.12
426.499	725.87
426.875	706.66
427.251	756.15
427.627	793.67
428.003	783.5
428.379	789.15
428.756	797.73
429.132	781.01
429.507	797.96
429.883	777.39
430.259	786.43
430.635	807.9
431.011	809.48
431.387	811.07
431.763	845.19
432.138	876.83
432.514	862.59
432.89	878.41
433.265	858.97
433.641	881.8
434.016	855.36
434.392	869.14
434.767	872.53
435.143	878.18
435.518	872.76
435.894	897.62
436.269	938.75
436.644	951.85
437.02	937.84
437.395	952.08
437.77	935.81
438.145	941.46
438.52	946.88
438.895	951.4
439.271	954.11
439.646	955.24
440.021	966.99
440.395	994.79
440.77	990.72
441.145	1010.38
441.52	1047.9
441.895	1042.92
442.27	1033.21
442.645	1025.75
443.019	1002.7
443.394	1000.89
443.769	989.82
444.143	1001.8
444.518	1015.13
444.892	1038.18
445.267	1031.85
445.641	1058.74
446.016	1059.2
446.39	1094.22
446.764	1088.12
447.139	1089.03
447.513	1044.05
447.887	1071.4
448.262	1058.74
448.636	1070.27
449.01	1056.94
449.384	1093.77
449.758	1106.2
450.132	1104.39
450.506	1136.93
450.88	1125.86
451.254	1135.35
451.628	1145.52
452.002	1155.46
452.376	1126.31
452.75	1130.15
453.123	1124.5
453.497	1154.11
453.871	1155.46
454.244	1173.09
454.618	1175.58
454.992	1186.42
455.365	1225.29
455.739	1246.54
456.112	1250.6
456.486	1253.31
456.859	1240.66
457.232	1252.41
457.606	1225.07
457.979	1229.13
458.352	1257.38
458.725	1244.95
459.099	1268.46
459.472	1279.75
459.845	1280.88
460.218	1293.31
460.591	1370.37
460.964	1362.69
461.337	1357.04
461.71	1382.8
462.083	1368.11
462.456	1350.26
462.829	1378.28
463.201	1330.37
463.574	1341.67
463.947	1339.64
464.32	1395.23
464.692	1372.63
465.065	1434.1
465.438	1461.22
465.81	1484.04
466.183	1510.71
466.555	1524.04
466.928	1522.69
467.3	1518.17
467.672	1512.52
468.045	1502.12
468.417	1471.16
468.789	1467.32
469.161	1492.86
469.534	1550.26
469.906	1563.59
470.278	1629.8
470.65	1652.85
471.022	1690.82
471.394	1717.26
471.766	1732.4
472.138	1733.53
472.51	1717.71
472.882	1730.82
473.253	1725.62
473.625	1703.92
473.997	1725.39
474.369	1719.06
474.74	1744.15
475.112	1801.77
475.484	1849.23
475.855	1896.69
476.227	1949.57
476.598	2010.81
476.97	2008.1
477.341	2063.01
477.713	2055.55
478.084	2057.36
478.455	2070.47
478.827	2037.02
479.198	2027.76
479.569	2039.06
479.94	2073.63
480.311	2130.81
480.682	2175.78
481.053	2244.25
481.424	2345.04
481.795	2399.27
482.166	2441.53
482.537	2462.55
482.908	2490.8
483.279	2514.3
483.65	2533.28
484.021	2501.42
484.391	2503.9
484.762	2434.53
485.133	2474.75
485.503	2505.26
485.874	2570.34
486.244	2635.43
486.615	2702.54
486.985	2784.57
487.356	2891.46
487.726	2920.84
488.097	3006.04
488.467	3034.51
488.837	3037.9
489.207	2978.24
489.578	3041.74
489.948	2992.25
490.318	3009.88
490.688	2982.08
491.058	2989.09
491.428	3052.14
491.798	3086.26
492.168	3224.11
492.538	3280.83
492.908	3374.16
493.278	3471.56
493.648	3495.06
494.017	3554.04
494.387	3636.75
494.757	3614.61
495.126	3600.37
495.496	3512.92
495.866	3533.93
496.235	3476.08
496.605	3484.89
496.974	3489.19
497.344	3478.57
497.713	3551.11
498.082	3601.73
498.452	3691.67
498.821	3774.38
499.19	3827.26
499.559	3914.71
499.928	3977.08
500.298	3999.01
500.667	4000.81
501.036	3945.67
501.405	3968.5
501.774	3852.57
502.143	3819.12
502.512	3794.94
502.88	3753.36
503.249	3836.07
503.618	3836.75
503.987	3866.81
504.356	3970.98
504.724	4052.79
505.093	4145.44
505.462	4180.47
505.83	4186.34
506.199	4318.09
506.567	4296.62
506.936	4256.17
507.304	4303.18
507.672	4233.8
508.041	4180.02
508.409	4106.57
508.777	4034.03
509.145	4015.95
509.514	4020.93
509.882	4050.08
510.25	4130.98
510.618	4197.87
510.986	4275.38
511.354	4364.87
511.722	4471.08
512.09	4611.42
512.458	4557.86
512.826	4588.82
513.193	4570.06
513.561	4512.66
513.929	4439.45
514.297	4431.99
514.664	4340.24
515.032	4345.89
515.4	4294.14
515.767	4235.38
516.135	4296.17
516.502	4292.33
516.869	4447.35
517.237	4494.81
517.604	4577.29
517.972	4673.56
518.339	4762.15
518.706	4821.81
519.073	4868.81
519.44	4873.78
519.808	4888.7
520.175	4767.12
520.542	4736.61
520.909	4655.94
521.276	4613
521.643	4575.71
522.009	4474.7
522.376	4572.32
522.743	4554.7
523.11	4581.59
523.477	4706.33
523.843	4817.51
524.21	4918.3
524.577	5100.44
524.943	5162.82
525.31	5243.04
525.676	5306.77
526.043	5389.02
526.409	5314.45
526.776	5282.14
527.142	5268.58
527.508	5168.24
527.874	5091.41
528.241	5026.32
528.607	4940.22
528.973	4981.58
529.339	4981.13
529.705	5052.08
530.071	5202.59
530.437	5268.12
530.803	5419.76
531.169	5552.64
531.535	5686.87
531.901	5804.83
532.267	5833.99
532.632	5935.68
532.998	5999.4
533.364	5924.6
533.73	5912.85
534.095	5855
534.461	5765.29
534.826	5723.93
535.192	5643.03
535.557	5604.16
535.923	5553.77
536.288	5605.29
536.653	5672.86
537.019	5706.08
537.384	5848.45
537.749	6015.45
538.114	6145.84
538.479	6341.54
538.845	6373.86
539.21	6466.51
539.575	6523.91
539.94	6629.9
540.305	6654.53
540.67	6570.91
541.034	6510.8
541.399	6412.27
541.764	6328.21
542.129	6275.33
542.494	6165.95
542.858	6129.57
543.223	6109.68
543.587	6116.69
543.952	6168.67
544.316	6344.03
544.681	6438.71
545.045	6589.22
545.41	6726.62
545.774	6880.74
546.138	7052.94
546.503	7115.76
546.867	7193.5
547.231	7241.63
547.595	7167.06
547.959	7126.83
548.324	7034.41
548.688	6913.73
549.052	6856.11
549.416	6758.25
549.779	6559.84
550.143	6572.5
550.507	6545.38
550.871	6562.33
551.235	6604.36
551.599	6744.7
551.962	6828.99
552.326	6875.09
552.689	7078.47
553.053	7191.01
553.417	7364.11
553.78	7502.19
554.143	7588.52
554.507	7645.46
554.87	7615.18
555.234	7638.46
555.597	7470.33
555.96	7397.11
556.323	7311.23
556.686	7160.28
557.05	7097.23
557.413	6966.16
557.776	6937.68
558.139	6918.93
558.502	6886.61
558.865	7018.36
559.228	7086.61
559.59	7250.9
559.953	7422.64
560.316	7621.96
560.679	7719.81
561.041	7981.27
561.404	8052.23
561.767	8149.18
562.129	8199.35
562.492	8198.44
562.854	8115.96
563.217	8088.16
563.579	8013.59
563.941	7891.11
564.304	7781.96
564.666	7629.64
565.028	7506.94
565.39	7434.62
565.753	7430.55
566.115	7416.54
566.477	7483.21
566.839	7550.32
567.201	7696.08
567.563	7811.33
567.925	7945.34
568.287	8163.64
568.648	8372
569.01	8504.65
569.372	8713.91
569.734	8760.46
570.095	8827.58
570.457	8845.66
570.819	8815.38
571.18	8755.94
571.542	8666.45
571.903	8614.7
572.265	8485.89
572.626	8331.32
572.987	8268.72
573.349	8144.66
573.71	8136.52
574.071	8129.52
574.432	8177.65
574.794	8362.73
575.155	8474.14
575.516	8637.98
575.877	8862.15
576.238	9119.1
576.599	9340.56
576.96	9664.17
577.32	9807.44
577.681	10043.82
578.042	10148.67
578.403	10198.84
578.763	10346.18
579.124	10424.37
579.485	10418.5
579.845	10478.83
580.206	10456.91
580.566	10418.95
580.927	10501.66
581.287	10549.34
581.648	10698.04
582.008	10753.18
582.368	10995.88
582.728	11251.92
583.089	11537.56
583.449	11992.24
583.809	12413.7
584.169	12915.83
584.529	13321.92
584.889	13936.14
585.249	14349.02
585.609	14843.92
585.969	15400.29
586.329	15859.03
586.688	16247.27
587.048	16753.02
587.408	17161.6
587.768	17389.61
588.127	17742.37
588.487	18058.75
588.846	18508.23
589.206	18651.95
589.565	18976.92
589.925	19462.33
590.284	19839.49
590.643	20221.63
591.003	20781.61
591.362	21360.58
591.721	22025.42
592.08	22510.38
592.44	23337.25
592.799	24000.96
593.158	24682.75
593.517	25412
593.876	26218.31
594.235	26821.91
594.593	27404.04
594.952	28158.37
595.311	28702.99
595.67	29155.63
596.029	29781.83
596.387	30249.61
596.746	30699.77
597.104	31086.88
597.463	31357.16
597.822	31831.49
598.18	32008.89
598.538	32433.96
598.897	33181.51
599.255	33268.97
599.613	34235.05
599.972	34379.68
600.33	34927.23
600.688	35387.56
601.046	36042.23
601.404	36860.74
601.762	37465.24
602.12	38238.56
602.478	38820.01
602.836	39438.75
603.194	39688.01
603.552	40333.64
603.91	40696.35
604.268	41367.06
604.625	41575.64
604.983	42060.6
605.341	42146.02
605.698	42572
606.056	42851.77
606.413	43118.2
606.771	43303.73
607.128	43522.94
607.485	43560
607.843	43891.29
608.2	44235.24
608.557	44514.1
608.914	44586.64
609.272	45144.14
609.629	45549.55
609.986	46046.49
610.343	46183.66
610.7	46813.02
611.057	47108.38
611.414	47391.76
611.771	47817.29
612.127	48334.11
612.484	48440.32
612.841	48811.16
613.198	48812.52
613.554	49091.83
613.911	49347.64
614.267	49413.86
614.624	49625.83
614.98	49656.56
615.337	49823.56
615.693	49846.39
616.05	49728.88
616.406	50013.16
616.762	49850.23
617.118	49880.74
617.475	49911.92
617.831	50042.99
618.187	50129.32
618.543	50260.61
618.899	50504.67
619.255	50696.53
619.611	50790.09
619.967	51113.25
620.323	51249.29
620.678	51374.03
621.034	51327.7
621.39	51589.39
621.746	51615.38
622.101	52213.1
622.457	52066.22
622.812	52161.13
623.168	52364.06
623.523	52328.58
623.879	52480.44
624.234	52155.25
624.589	52336.04
624.945	52347.11
625.3	52278.41
625.655	52114.58
626.01	52118.42
626.365	52061.24
626.72	52027.35
627.075	52093.56
627.43	52020.12
627.785	51952.32
628.14	52056.05
628.495	52102.15
628.85	52110.06
629.205	52183.27
629.559	52418.97
629.914	52451.52
630.269	52490.84
630.623	52629.36
630.978	52691.51
631.332	52919.98
631.687	52999.98
632.041	52967.66
632.396	53025.29
632.75	52947.77
633.104	52984.61
633.459	52815.35
633.813	52826.65
634.167	52800.21
634.521	52629.14
634.875	52630.04
635.229	52527.45
635.583	52250.84
635.937	52225.99
636.291	52155.7
636.645	52026.22
636.999	51987.57
637.352	52047.91
637.706	51851.53
638.06	51891.76
638.413	51874.58
638.767	51820.12
639.121	52045.88
639.474	51888.37
639.828	51976.95
640.181	52174.46
640.534	52281.35
640.888	52217.17
641.241	52159.32
641.594	52293.78
641.947	52442.93
642.301	52434.79
642.654	52414.46
643.007	52498.75
643.36	52366.55
643.713	52368.35
644.066	52477.96
644.419	52105.76
644.771	51879.1
645.124	51461.03
645.477	51221.94
645.83	50953.25
646.182	50864.44
646.535	50623.54
646.888	50612.92
647.24	50390.33
647.593	50612.47
647.945	50447.28
648.298	50325.24
648.65	50223.55
649.002	50257
649.355	50458.57
649.707	50370.44
650.059	50510.1
650.411	51059.91
650.763	51112.57
651.115	51581.93
651.467	51533.12
651.819	51539
652.171	51591.43
652.523	51612.44
652.875	51578.77
653.227	51456.51
653.578	51679.33
653.93	51484.76
654.282	51373.13
654.633	51350.08
654.985	51326.12
655.337	51288.84
655.688	51146.92
656.039	51164.32
656.391	50818.79
656.742	50788.28
657.094	50706.03
657.445	50791
657.796	50667.61
658.147	50440.95
658.498	50507.16
658.849	50548.06
659.2	50528.86
659.551	50553.49
659.902	50579.93
660.253	50678.68
660.604	50721.39
660.955	50657.44
661.306	50973.59
661.656	50903.99
662.007	50988.28
662.358	51147.82
662.708	51095.17
663.059	51213.36
663.409	50954.83
663.76	51331.55
664.11	51318.44
664.461	51273.02
664.811	51322.05
665.161	51146.01
665.511	51002.51
665.862	50888.39
666.212	50970.43
666.562	50814.72
666.912	50584.22
667.262	50549.87
667.612	50421.97
667.962	50291.8
668.312	50120.05
668.662	50242.99
669.011	50142.2
669.361	50054.74
669.711	50025.82
670.06	49936.55
670.41	49977.46
670.76	50008.19
671.109	50038.92
671.459	50022.2
671.808	50043.22
672.157	50301.97
672.507	50165.47
672.856	50324.79
673.205	50413.38
673.554	50512.36
673.904	50487.5
674.253	50713.93
674.602	50543.77
674.951	50076.66
675.3	49839.16
675.649	50531.57
675.998	50555.52
676.346	50410.44
676.695	50432.59
677.044	50138.13
677.393	50137.68
677.741	50146.49
678.09	49886.16
678.438	49789.44
678.787	49761.64
679.135	49661.08
679.484	49278.94
679.832	49336.12
680.181	48946.07
680.529	49229.45
680.877	49026.3
681.225	48977.48
681.573	49172.51
681.922	48998.95
682.27	48831.95
682.618	49029.23
682.966	48952.17
683.314	49084.83
683.661	49172.28
684.009	49152.62
684.357	49049.57
684.705	49111.27
685.053	49205.73
685.4	49249.79
685.748	49033.53
686.095	49198.49
686.443	49020.87
686.79	48967.31
687.138	49184.48
687.485	49124.37
687.832	48933.42
688.18	48817.94
688.527	48651.16
688.874	48590.6
689.221	48242.81
689.568	48154.91
689.915	47971.63
690.262	47873.11
690.609	47641.47
690.956	47462.04
691.303	47314.7
691.65	47195.38
691.997	47105.67
692.344	46717.43
692.69	46803.98
693.037	46788.84
693.383	46451.67
693.73	46509.53
694.077	46326.25
694.423	46418.91
694.769	46368.06
695.116	46501.39
695.462	46373.48
695.808	46286.25
696.155	46523.99
696.501	46337.55
696.847	46330.32
697.193	46243.77
697.539	46469.98
697.885	46253.26
698.231	46155.18
698.577	46129.2
698.923	46028.41
699.269	45787.28
699.614	45694.86
699.96	45512.26
700.306	45571.7
700.651	45314.08
700.997	45138.26
701.342	44891.26
701.688	44807.65
702.033	44573.08
702.379	44418.28
702.724	44168.12
703.069	44095.8
703.415	43583.95
703.76	43549.6
704.105	43542.6
704.45	43455.37
704.795	43107.58
705.14	42934.03
705.485	43094.7
705.83	42886.57
706.175	43000.47
706.52	42838.89
706.865	42867.14
707.209	42992.33
707.554	42864.88
707.899	42992.78
708.243	42733.13
708.588	42854.25
708.932	42717.76
709.277	42879.56
709.621	42999.34
709.966	42700.59
710.31	42853.12
710.654	42445.45
710.998	42493.36
711.342	42513.47
711.687	42450.42
712.031	42265.34
712.375	42148.51
712.719	42074.16
713.063	41843.89
713.407	41964.56
713.75	41518.47
714.094	41522.99
714.438	41278.93
714.782	41239.61
715.125	40887.3
715.469	40914.64
715.812	40698.83
716.156	40459.29
716.499	40265.4
716.843	40336.13
717.186	40161.22
717.53	40125.06
717.873	40169.13
718.216	40033.99
718.559	39844.16
718.902	39685.07
719.246	39952.41
719.589	39746.99
719.932	39828.35
720.275	40020.88
720.617	39815.69
720.96	39858.85
721.303	39945.86
721.646	39984.95
721.989	39793.77
722.331	40205.51
722.674	40018.62
723.016	40148.11
723.359	39860.89
723.701	40089.81
724.044	39751.06
724.386	39681.91
724.729	39674.68
725.071	39599.2
725.413	39429.26
725.755	39351.07
726.097	39069.95
726.439	38994.7
726.782	38909.95
727.124	38893.45
727.465	38682.39
727.807	38431.77
728.149	38355.62
728.491	38080.14
728.833	38130.08
729.175	37939.13
729.516	37795.63
729.858	37694.62
730.199	37824.33
730.541	37543.89
730.882	37399.03
731.224	37551.8
731.565	37331.69
731.906	37489.65
732.248	37547.73
732.589	37334.17
732.93	37339.15
733.271	37360.39
733.612	37411.01
733.953	37536.88
734.294	37452.14
734.635	37524.68
734.976	37571
735.317	37417.34
735.658	37500.05
735.999	37648.52
736.339	37528.29
736.68	37695.52
737.021	37607.39
737.361	37408.07
737.702	37529.42
738.042	37361.74
738.383	37286.27
738.723	37373.04
739.063	37113.39
739.404	37134.18
739.744	36907.97
740.084	36730.57
740.424	36804.02
740.764	36544.82
741.104	36574.87
741.444	36320.64
741.784	36088.1
742.124	36090.14
742.464	35998.84
742.804	35840.88
743.143	35673.43
743.483	35681.56
743.823	35443.38
744.162	35485.41
744.502	35452.64
744.841	35340.1
745.181	35539.64
745.52	35227.34
745.86	35424.85
746.199	35408.35
746.538	35330.38
746.877	35486.76
747.216	35571.51
747.556	35468.91
747.895	35551.4
748.234	35376.94
748.573	35524.28
748.911	35366.54
749.25	35552.75
749.589	35392.3
749.928	35496.03
750.267	35538.06
750.605	35467.1
750.944	35376.71
751.283	35236.38
751.621	35312.53
751.96	34968.81
752.298	34975.59
752.636	35031.41
752.975	34793.9
753.313	34486.11
753.651	34646.56
753.989	34401.82
754.327	34319.11
754.666	34026.69
755.004	34121.83
755.342	33947.6
755.679	33790.54
756.017	33469.19
756.355	33440.04
756.693	33372.24
757.031	33167.5
757.368	32998.24
757.706	32857.23
758.044	32746.05
758.381	32725.48
758.719	32625.37
759.056	32631.47
759.394	32552.6
