Data from red_cardboard_box_FLMS001491_00100.txt Node
Date: Wed Feb 08 11:33:26 GMT 2017
User: dcchb
Spectrometer: FLMS00149
Trigger mode: 0
Integration Time (sec): 2.000000E-2
Scans to average: 10
Electric dark correction enabled: true
Nonlinearity correction enabled: false
Boxcar width: 0
XAxis mode: Wavelengths
Number of Pixels in Spectrum: 2048
>>>>>Begin Spectral Data<<<<<
341.393	-21.13
341.776	-21.13
342.16	-21.13
342.543	-63.39
342.927	-87.12
343.31	-83.5
343.693	-78.75
344.077	-76.27
344.46	-40.79
344.843	-61.81
345.226	-24.97
345.61	-37.63
345.993	-37.17
346.376	-4.86
346.759	17.74
347.142	10.06
347.525	39.43
347.908	54.8
348.291	85.99
348.674	111.07
349.057	126.66
349.44	106.32
349.823	134.8
350.206	185.64
350.588	191.29
350.971	190.16
351.354	228.13
351.737	251.18
352.119	243.27
352.502	269.94
352.884	288.69
353.267	295.47
353.65	287.34
354.032	300.22
354.414	304.96
354.797	311.74
355.179	305.87
355.562	335.25
355.944	327.34
356.326	340.89
356.709	332.76
357.091	331.18
357.473	357.62
357.855	327.34
358.238	334.34
358.62	336.6
359.002	327.34
359.384	357.84
359.766	321.46
360.148	340.67
360.53	329.37
360.912	352.42
361.294	323.27
361.676	337.96
362.057	328.01
362.439	342.02
362.821	326.43
363.203	320.1
363.584	331.18
363.966	312.42
364.348	325.3
364.729	332.08
365.111	323.49
365.493	320.78
365.874	323.27
366.256	319.2
366.637	310.16
367.019	305.87
367.4	306.55
367.781	314.23
368.163	313.55
368.544	326.21
368.925	302.03
369.306	325.75
369.688	304.06
370.069	339.54
370.45	318.3
370.831	326.66
371.212	323.49
371.593	314.46
371.974	281.69
372.355	321.46
372.736	328.92
373.117	298.41
373.498	298.18
373.879	311.97
374.26	307.22
374.641	323.49
375.021	318.97
375.402	331.18
375.783	303.38
376.163	320.1
376.544	321.01
376.925	345.64
377.305	324.62
377.686	330.5
378.066	319.65
378.447	331.86
378.827	339.31
379.208	336.83
379.588	333.44
379.968	337.96
380.349	344.28
380.729	324.85
381.109	319.65
381.489	337.28
381.87	340.67
382.25	331.18
382.63	336.6
383.01	333.66
383.39	316.71
383.77	350.84
384.15	351.06
384.53	351.06
384.91	357.84
385.29	352.87
385.67	338.64
386.049	347.22
386.429	348.35
386.809	370.27
387.189	364.62
387.568	362.59
387.948	351.52
388.328	365.75
388.707	349.71
389.087	385.19
389.466	361.01
389.846	355.13
390.225	350.84
390.605	377.73
390.984	351.97
391.363	347.9
391.743	366.66
392.122	382.7
392.501	373.66
392.881	379.31
393.26	381.8
393.639	361.69
394.018	358.75
394.397	364.62
394.776	386.54
395.155	387.9
395.534	369.14
395.913	380.89
396.292	377.73
396.671	378.18
397.05	360.56
397.429	387.67
397.808	403.94
398.186	386.09
398.565	387.45
398.944	384.74
399.323	375.7
399.701	387.67
400.08	382.7
400.458	387.45
400.837	387.9
401.215	412.76
401.594	389.26
401.972	390.39
402.351	395.36
402.729	387
403.107	391.52
403.486	409.37
403.864	418.63
404.242	418.86
404.62	418.86
404.999	389.26
405.377	391.06
405.755	405.98
406.133	423.15
406.511	421.12
406.889	426.54
407.267	411.18
407.645	427.22
408.023	427.45
408.401	423.83
408.779	429.03
409.156	412.08
409.534	435.13
409.912	417.28
410.29	441.91
410.667	437.39
411.045	405.07
411.422	455.02
411.8	440.78
412.178	441.23
412.555	435.58
412.933	467.9
413.31	454.79
413.687	467.67
414.065	451.4
414.442	472.87
414.819	477.61
415.197	468.58
415.574	473.09
415.951	468.58
416.328	495.02
416.705	481
417.082	487.33
417.46	471.06
417.837	476.48
418.214	488.69
418.591	475.58
418.967	491.4
419.344	488.24
419.721	499.08
420.098	488.91
420.475	522.13
420.852	502.7
421.228	523.04
421.605	508.57
421.982	504.05
422.358	508.35
422.735	523.94
423.111	515.81
423.488	533.43
423.864	509.25
424.241	519.87
424.617	539.53
424.994	534.11
425.37	530.95
425.746	520.33
426.123	525.3
426.499	537.95
426.875	541.12
427.251	555.58
427.627	561.91
428.003	540.66
428.379	565.75
428.756	542.02
429.132	584.5
429.507	571.17
429.883	584.05
430.259	591.28
430.635	561.68
431.011	596.71
431.387	599.87
431.763	605.07
432.138	602.36
432.514	593.54
432.89	615.92
433.265	609.81
433.641	618.63
434.016	624.5
434.392	627.22
434.767	629.47
435.143	641.45
435.518	616.59
435.894	615.24
436.269	636.93
436.644	651.62
437.02	630.15
437.395	647.33
437.77	662.24
438.145	664.05
438.52	669.47
438.895	664.95
439.271	677.61
439.646	685.29
440.021	708.34
440.395	679.64
440.77	676.71
441.145	699.76
441.52	728
441.895	698.17
442.27	701.11
442.645	679.19
443.019	720.09
443.394	721.68
443.769	701.34
444.143	724.39
444.518	733.2
444.892	719.42
445.267	719.64
445.641	735.01
446.016	720.32
446.39	735.46
446.764	749.92
447.139	725.97
447.513	740.43
447.887	739.98
448.262	739.98
448.636	761
449.01	739.53
449.384	782.47
449.758	753.99
450.132	773.65
450.506	796.48
450.88	767.55
451.254	794.89
451.628	786.31
452.002	796.02
452.376	784.95
452.75	805.29
453.123	787.44
453.497	819.3
453.871	839.41
454.244	845.74
454.618	827.66
454.992	831.28
455.365	836.93
455.739	847.55
456.112	869.69
456.486	875.12
456.859	882.58
457.232	868.79
457.606	864.27
457.979	894.33
458.352	929.58
458.725	924.38
459.099	918.05
459.472	916.25
459.845	927.32
460.218	945.62
460.591	927.09
460.964	944.72
461.337	960.09
461.71	973.19
462.083	974.32
462.456	974.1
462.829	971.16
463.201	995.79
463.574	995.12
463.947	1006.19
464.32	1028.79
464.692	1023.59
465.065	1028.11
465.438	1039.63
465.81	1046.87
466.183	1086.64
466.555	1101.33
466.928	1069.46
467.3	1074.66
467.672	1079.18
468.045	1127.09
468.417	1118.28
468.789	1130.03
469.161	1138.39
469.534	1126.41
469.906	1139.97
470.278	1138.39
470.65	1177.94
471.022	1182.23
471.394	1210.25
471.766	1210.7
472.138	1251.38
472.51	1273.3
472.882	1271.04
473.253	1285.28
473.625	1288.67
473.997	1317.37
474.369	1311.04
474.74	1302.9
475.112	1357.37
475.484	1379.74
475.855	1355.56
476.227	1373.41
476.598	1427.19
476.97	1406.86
477.341	1452.73
477.713	1457.25
478.084	1473.97
478.455	1529.11
478.827	1507.42
479.198	1539.28
479.569	1533.18
479.94	1601.65
480.311	1577.02
480.682	1639.17
481.053	1657.24
481.424	1665.61
481.795	1699.05
482.166	1681.2
482.537	1739.73
482.908	1767.52
483.279	1804.59
483.65	1802.1
484.021	1823.57
484.391	1834.42
484.762	1868.09
485.133	1869.22
485.503	1906.73
485.874	1937.46
486.244	1933.4
486.615	1996.9
486.985	2004.13
487.356	2039.16
487.726	2043.45
488.097	2080.74
488.467	2052.26
488.837	2109.66
489.207	2149.66
489.578	2182.65
489.948	2177.46
490.318	2196.21
490.688	2231.47
491.058	2275.08
491.428	2259.04
491.798	2294.74
492.168	2328.19
492.538	2339.03
492.908	2378.36
493.278	2404.57
493.648	2419.03
494.017	2439.14
494.387	2474.17
494.757	2453.61
495.126	2532.25
495.496	2511.69
495.866	2524.34
496.235	2533.15
496.605	2601.17
496.974	2599.59
497.344	2633.94
497.713	2650.21
498.082	2666.26
498.452	2693.38
498.821	2689.76
499.19	2734.5
499.559	2718.23
499.928	2745.35
500.298	2796.2
500.667	2815.41
501.036	2781.51
501.405	2874.16
501.774	2819.47
502.143	2841.85
502.512	2894.5
502.88	2879.81
503.249	2897.66
503.618	2940.15
503.987	2938.11
504.356	2977.21
504.724	3018.79
505.093	3014.05
505.462	3015.17
505.83	3046.59
506.199	3048.39
506.567	3108.96
506.936	3103.99
507.304	3111.9
507.672	3140.82
508.041	3190.09
508.409	3182.18
508.777	3230.31
509.145	3271.89
509.514	3239.58
509.882	3264.21
510.25	3277.54
510.618	3302.63
510.986	3316.41
511.354	3319.12
511.722	3391.66
512.09	3421.04
512.458	3416.97
512.826	3429.18
513.193	3442.73
513.561	3470.3
513.929	3540.13
514.297	3536.29
514.664	3578.1
515.032	3581.49
515.4	3660.81
515.767	3646.34
516.135	3650.86
516.502	3674.37
516.869	3703.52
517.237	3712.11
517.604	3754.59
517.972	3820.13
518.339	3843.85
518.706	3789.17
519.073	3862.38
519.44	3896.96
519.808	3897.41
520.175	3916.62
520.542	3983.96
520.909	3992.32
521.276	4011.31
521.643	4060.12
522.009	4119.1
522.376	4121.13
522.743	4145.31
523.11	4157.52
523.477	4232.54
523.843	4226.44
524.21	4264.63
524.577	4320.45
524.943	4318.42
525.31	4401.13
525.676	4434.12
526.043	4465.08
526.409	4469.37
526.776	4454.91
527.142	4515.93
527.508	4589.6
527.874	4602.7
528.241	4629.14
528.607	4647.45
528.973	4668.01
529.339	4726.54
529.705	4737.39
530.071	4771.29
530.437	4766.99
530.803	4827.33
531.169	4840.21
531.535	4868.91
531.901	4885.63
532.267	4959.53
532.632	4945.75
532.998	4938.51
533.364	5040.88
533.73	5062.8
534.095	5098.06
534.461	5095.12
534.826	5129.92
535.192	5169.02
535.557	5203.14
535.923	5180.54
536.288	5258.51
536.653	5265.06
537.019	5263.93
537.384	5305.51
537.749	5370.37
538.114	5362.01
538.479	5353.42
538.845	5418.28
539.21	5392.29
539.575	5435.22
539.94	5384.83
540.305	5492.4
540.67	5454.43
541.034	5551.15
541.399	5585.5
541.764	5603.58
542.129	5606.29
542.494	5658.27
542.858	5683.81
543.223	5642.9
543.587	5763.58
543.952	5733.75
544.316	5764.03
544.681	5775.78
545.045	5833.86
545.41	5827.76
545.774	5933.06
546.138	5884.7
546.503	5900.07
546.867	5900.97
547.231	6016.68
547.595	5977.36
547.959	6009.9
548.324	6029.11
548.688	6086.05
549.052	6082.21
549.416	6146.39
549.779	6211.02
550.143	6239.04
550.507	6228.65
550.871	6272.72
551.235	6280.17
551.599	6302.77
551.962	6411.92
552.326	6420.28
552.689	6464.58
553.053	6449.43
553.417	6517.91
553.78	6587.96
554.143	6590
554.507	6655.76
554.87	6659.37
555.234	6722.2
555.597	6732.14
555.96	6792.7
556.323	6842.19
556.686	6867.96
557.05	6925.13
557.413	6917.22
557.776	6985.01
558.139	7055.29
558.502	7062.53
558.865	7136.42
559.228	7165.57
559.59	7236.98
559.953	7284.44
560.316	7338.23
560.679	7446.7
561.041	7430.88
561.404	7491.44
561.767	7635.17
562.129	7666.8
562.492	7744.09
562.854	7816.4
563.217	7846.91
563.579	7867.48
563.941	8014.37
564.304	8002.84
564.666	8128.49
565.028	8088.04
565.39	8220.46
565.753	8314.92
566.115	8383.62
566.477	8416.84
566.839	8568.02
567.201	8617.29
567.563	8695.03
567.925	8720.11
568.287	8810.73
568.648	8898.41
569.01	8992.87
569.372	8977.05
569.734	9086.43
570.095	9177.27
570.457	9271.73
570.819	9349.47
571.18	9478.06
571.542	9513.08
571.903	9594.89
572.265	9734.55
572.626	9761.89
572.987	9826.3
573.349	10001.43
573.71	10092.73
574.071	10144.93
574.432	10234.65
574.794	10369.56
575.155	10455.88
575.516	10495.88
575.877	10606.61
576.238	10699.49
576.599	10810.22
576.96	10949.66
577.32	10988.3
577.681	11131.12
578.042	11303.32
578.403	11348.97
578.763	11535.18
579.124	11659.24
579.485	11768.39
579.845	11950.99
580.206	12015.84
580.566	12209.28
580.927	12397.53
581.287	12541.03
581.648	12681.36
582.008	12899.66
582.368	12986.89
582.728	13176.94
583.089	13368.35
583.449	13484.96
583.809	13748.23
584.169	13975.34
584.529	14087.65
584.889	14336.91
585.249	14501.43
585.609	14703.91
585.969	14984.8
586.329	15175.31
586.688	15385.02
587.048	15695.29
587.408	15848.74
587.768	16144.32
588.127	16436.29
588.487	16647.13
588.846	17028.37
589.206	17257.06
589.565	17475.13
589.925	17836.03
590.284	18186.08
590.643	18342.91
591.003	18783.35
591.362	19095.2
591.721	19431.92
592.08	19792.59
592.44	20082.52
592.799	20460.37
593.158	20723.18
593.517	21253.11
593.876	21584.4
594.235	21948.01
594.593	22239.53
594.952	22733.98
595.311	23040.86
595.67	23480.17
596.029	23866.38
596.387	24340.49
596.746	24797.2
597.104	24993.81
597.463	25326
597.822	25877.4
598.18	26155.58
598.538	26620.88
598.897	27111.26
599.255	27342.44
599.613	28062.43
599.972	28427.84
600.33	28894.04
600.688	29095.62
601.046	29603.4
601.404	30055.37
601.762	30553.89
602.12	31095.34
602.478	31408.33
602.836	31735.55
603.194	32103.68
603.552	32482.87
603.91	32873.6
604.268	33420.93
604.625	33759.23
604.983	34280.57
605.341	34468.59
605.698	35005.75
606.056	35363.48
606.413	35826.06
606.771	36133.85
607.128	36635.08
607.485	36755.08
607.843	37073.49
608.2	37509.18
608.557	37953.01
608.914	38082.28
609.272	38636.16
609.629	38902.82
609.986	39381.68
610.343	39449.25
610.7	40042.68
611.057	40197.02
611.414	40453.51
611.771	40719.49
612.127	40945.25
612.484	41293.04
612.841	41723.31
613.198	41738.22
613.554	41974.6
613.911	42326.23
614.267	42651.87
614.624	42734.81
614.98	43050.05
615.337	43329.37
615.693	43432.64
616.05	43700.21
616.406	44180.42
616.762	44051.84
617.118	44176.8
617.475	44608.43
617.831	44826.5
618.187	45006.39
618.543	45202.99
618.899	45555.07
619.255	45649.53
619.611	45530.44
619.967	45812.47
620.323	46190.31
620.678	46101.95
621.034	46093.59
621.39	46308.95
621.746	46424.66
622.101	47002.94
622.457	46719.34
622.812	46828.03
623.168	47152.77
623.523	47060.12
623.879	47319.32
624.234	47250.85
624.589	47488.13
624.945	47620.33
625.3	47764.73
625.655	47698.29
626.01	47845.86
626.365	47928.57
626.72	47981.68
627.075	48031.39
627.43	48026.65
627.785	47948.91
628.14	48262.57
628.495	48384.6
628.85	48316.58
629.205	48366.98
629.559	48547.99
629.914	48519.06
630.269	48554.32
630.623	48432.96
630.978	48486.75
631.332	48778.94
631.687	48795.21
632.041	48718.38
632.396	48776.68
632.75	48696.23
633.104	48710.7
633.459	48651.04
633.813	48726.06
634.167	48761.99
634.521	48859.39
634.875	48930.58
635.229	48884.7
635.583	48748.89
635.937	48802.67
636.291	48756.35
636.645	48802.67
636.999	48777.59
637.352	48864.59
637.706	48726.06
638.06	48874.53
638.413	48757.48
638.767	48676.57
639.121	48942.1
639.474	48583.47
639.828	48676.57
640.181	48745.95
640.534	48824.59
640.888	48860.75
641.241	48637.48
641.594	48762.22
641.947	48844.7
642.301	48766.29
642.654	48903.01
643.007	48794.08
643.36	48791.82
643.713	48798.83
644.066	48937.58
644.419	48578.27
644.771	48380.99
645.124	48019.42
645.477	47982.81
645.83	47784.85
646.182	47557.28
646.535	47637.96
646.888	47805.64
647.24	47662.59
647.593	47930.15
647.945	47816.26
648.298	47613.55
648.65	47625.3
649.002	47492.2
649.355	47592.99
649.707	47548.02
650.059	47708.24
650.411	48279.3
650.763	48315.23
651.115	48611.94
651.467	48460.99
651.819	48549.57
652.171	48422.12
652.523	48421.21
652.875	48425.73
653.227	48253.53
653.578	48551.6
653.93	48480.42
654.282	48358.16
654.633	48363.59
654.985	48389.8
655.337	48404.49
655.688	48424.83
656.039	48538.27
656.391	48152.29
656.742	48196.81
657.094	48303.25
657.445	48470.7
657.796	48249.69
658.147	48339.41
658.498	48202.46
658.849	48298.73
659.2	48219.41
659.551	48155.01
659.902	48327.43
660.253	48228
660.604	48189.58
660.955	48155.23
661.306	48244.49
661.656	48188.68
662.007	48176.25
662.358	48164.72
662.708	48151.84
663.059	48155.91
663.409	47888.8
663.76	48335.79
664.11	48311.16
664.461	48362.46
664.811	48335.57
665.161	48281.1
665.511	48043.6
665.862	48231.61
666.212	48242.69
666.562	48232.74
666.912	48117.49
667.262	48309.8
667.612	48229.58
667.962	48181.9
668.312	48112.07
668.662	48233.42
669.011	48132.86
669.361	48086.53
669.711	48240.43
670.06	48164.04
670.41	47929.93
670.76	47901.23
671.109	48050.15
671.459	48167.43
671.808	47893.32
672.157	48131.28
672.507	47800.21
672.856	47948.91
673.205	47864.39
673.554	47916.59
673.904	47901.23
674.253	48060.09
674.602	47927.67
674.951	47403.39
675.3	47162.26
675.649	47915.01
675.998	47841.79
676.346	47669.59
676.695	47961.56
677.044	47653.32
677.393	47770.38
677.741	47718.18
678.09	47658.29
678.438	47603.61
678.787	47593.44
679.135	47717.95
679.484	47454.91
679.832	47650.61
680.181	47290.39
680.529	47395.93
680.877	47332.88
681.225	47260.57
681.573	47540.33
681.922	47135.6
682.27	47127.24
682.618	47263.73
682.966	47034.13
683.314	47124.3
683.661	47050.63
684.009	46812.22
684.357	46739.22
684.705	46707.13
685.053	46738.32
685.4	46699.22
685.748	46385.79
686.095	46426.91
686.443	46426.91
686.79	46342.4
687.138	46365
687.485	46389.63
687.832	46244.32
688.18	46208.84
688.527	46200.93
688.874	46020.6
689.221	45957.1
689.568	45846.82
689.915	45647.27
690.262	45742.19
690.609	45627.16
690.956	45549.88
691.303	45488.86
691.65	45162.32
691.997	45286.61
692.344	45030.34
692.69	45104.24
693.037	45016.56
693.383	44894.75
693.73	44890.68
694.077	44764.36
694.423	44537.7
694.769	44680.97
695.116	44466.51
695.462	44376.35
695.808	44308.78
696.155	44469.68
696.501	44094.32
696.847	44139.97
697.193	43774.1
697.539	43968.22
697.885	43671.06
698.231	43476.48
698.577	43514.22
698.923	43408.01
699.269	43234
699.614	43132.76
699.96	43123.72
700.306	43100.67
700.651	42859.78
700.997	42786.78
701.342	42598.09
701.688	42636.73
702.033	42496.62
702.379	42402.16
702.724	42404.87
703.069	42393.57
703.415	41990.2
703.76	42030.65
704.105	42037.43
704.45	41908.84
704.795	41763.08
705.14	41665.01
705.485	41583.88
705.83	41361.96
706.175	41493.94
706.52	41335.98
706.865	41305.92
707.209	41127.62
707.554	41056.21
707.899	41074.74
708.243	40848.3
708.588	40825.93
708.932	40536.9
709.277	40679.95
709.621	40535.54
709.966	40325.15
710.31	40381.88
710.654	40070.02
710.998	40200.41
711.342	40232.28
711.687	39986.86
712.031	39854.88
712.375	39816.47
712.719	39874.77
713.063	39764.94
713.407	39794.09
713.75	39685.62
714.094	39657.15
714.438	39352.75
714.782	39574.89
715.125	39260.55
715.469	39330.38
715.812	39078.41
716.156	38890.62
716.499	38992.08
716.843	38944.85
717.186	38838.64
717.53	38934.91
717.873	38811.97
718.216	38804.52
718.559	38637.29
718.902	38329.95
719.246	38462.38
719.589	38411.08
719.932	38249.95
720.275	38257.64
720.617	38232.33
720.96	38164.76
721.303	38192.78
721.646	38082.95
721.989	37838.44
722.331	37977.87
722.674	37746.24
723.016	37862.85
723.359	37779.68
723.701	37642.29
724.044	37611.55
724.386	37377.89
724.729	37670.08
725.071	37494.49
725.413	37488.84
725.755	37488.62
726.097	37201.17
726.439	37132.47
726.782	37178.34
727.124	37219.25
727.465	36992.13
727.807	37036.88
728.149	37001.85
728.491	36940.38
728.833	36836.43
729.175	36744.23
729.516	36773.38
729.858	36666.49
730.199	36667.17
730.541	36626.49
730.882	36581.07
731.224	36702.88
731.565	36459.27
731.906	36366.16
732.248	36527.74
732.589	36238.26
732.93	36205.04
733.271	36091.59
733.612	36330.91
733.953	36238.03
734.294	36028.32
734.635	35906.97
734.976	35974.53
735.317	35779.96
735.658	35913.29
735.999	35912.16
736.339	35884.14
736.68	35771.38
737.021	35556.92
737.361	35549.91
737.702	35646.86
738.042	35623.58
738.383	35436.47
738.723	35593.3
739.063	35478.95
739.404	35425.4
739.744	35448.45
740.084	35448.22
740.424	35243.25
740.764	35300.43
741.104	35431.5
741.444	35127.32
741.784	34951.51
742.124	35131.84
742.464	35139.98
742.804	34935.01
743.143	34955.58
743.483	34980.89
743.823	34824.73
744.162	34692.08
744.502	34668.58
744.841	34669.26
745.181	34845.52
745.52	34539.54
745.86	34688.01
746.199	34620.45
746.538	34477.85
746.877	34517.85
747.216	34456.38
747.556	34377.06
747.895	34340.9
748.234	34243.96
748.573	34191.76
748.911	34120.12
749.25	34226.56
749.589	34045.32
749.928	34149.72
750.267	34101.59
750.605	33902.5
750.944	33784.99
751.283	33911.54
751.621	33814.37
751.96	33618.66
752.298	33558.1
752.636	33744.08
752.975	33395.17
753.313	33385.22
753.651	33439.69
753.989	33267.26
754.327	33302.51
754.666	33053.71
755.004	33075.85
755.342	33035.4
755.679	33094.84
756.017	32930.32
756.355	32916.99
756.693	32820.72
757.031	32747.73
757.368	32757.44
757.706	32521.07
758.044	32486.49
758.381	32580.5
758.719	32401.29
759.056	32312.94
759.394	32226.16
759.731	32110
760.068	32067.29
760.405	31898.26
