Data from red_cardboard_box_FLMS001491_00094.txt Node
Date: Wed Feb 08 11:33:25 GMT 2017
User: dcchb
Spectrometer: FLMS00149
Trigger mode: 0
Integration Time (sec): 2.000000E-2
Scans to average: 10
Electric dark correction enabled: true
Nonlinearity correction enabled: false
Boxcar width: 0
XAxis mode: Wavelengths
Number of Pixels in Spectrum: 2048
>>>>>Begin Spectral Data<<<<<
341.393	-17.34
341.776	-17.34
342.16	-17.34
342.543	-77.23
342.927	-60.51
343.31	-81.07
343.693	-47.4
344.077	-57.34
344.46	-84.46
344.843	-47.85
345.226	-44.01
345.61	-38.81
345.993	1.41
346.376	7.97
346.759	-5.59
347.142	20.85
347.525	31.02
347.908	57.91
348.291	80.73
348.674	96.33
349.057	110.34
349.44	105.82
349.823	118.47
350.206	172.48
350.588	193.27
350.971	221.97
351.354	237.79
351.737	228.53
352.119	249.77
352.502	260.16
352.884	275.3
353.267	253.38
353.65	303.33
354.032	325.7
354.414	341.06
354.797	287.73
355.179	314.17
355.562	318.92
355.944	335.64
356.326	344
356.709	320.05
357.091	363.44
357.473	341.06
357.855	333.61
358.238	347.39
358.62	343.1
359.002	366.6
359.384	346.04
359.766	354.4
360.148	355.98
360.53	353.95
360.912	337.22
361.294	333.61
361.676	341.06
362.057	334.06
362.439	357.56
362.821	332.48
363.203	346.71
363.584	319.14
363.966	327.05
364.348	318.92
364.729	337.45
365.111	343.1
365.493	314.62
365.874	331.8
366.256	311.69
366.637	342.65
367.019	305.59
367.4	334.28
367.781	325.7
368.163	309.43
368.544	307.39
368.925	334.06
369.306	306.72
369.688	297.45
370.069	322.76
370.45	310.78
370.831	327.96
371.212	314.85
371.593	324.79
371.974	317.56
372.355	327.51
372.736	336.77
373.117	327.73
373.498	318.24
373.879	315.53
374.26	324.12
374.641	320.5
375.021	322.08
375.402	336.54
375.783	327.96
376.163	335.41
376.544	342.19
376.925	310.1
377.305	325.02
377.686	332.48
378.066	324.34
378.447	333.83
378.827	339.71
379.208	333.16
379.588	312.36
379.968	329.77
380.349	319.82
380.729	342.87
381.109	320.5
381.489	339.93
381.87	337.67
382.25	303.1
382.63	325.7
383.01	329.31
383.39	353.49
383.77	360.72
384.15	340.39
384.53	353.04
384.91	339.48
385.29	351.69
385.67	347.84
386.049	358.47
386.429	348.52
386.809	362.53
387.189	356.88
387.568	358.01
387.948	354.4
388.328	369.09
388.707	375.64
389.087	362.53
389.466	374.74
389.846	356.66
390.225	371.57
390.605	381.52
390.984	380.61
391.363	362.08
391.743	381.06
392.122	354.85
392.501	373.83
392.881	384
393.26	373.15
393.639	367.28
394.018	377.9
394.397	368.18
394.776	376.77
395.155	372.48
395.534	391.46
395.913	397.11
396.292	388.07
396.671	383.55
397.05	383.1
397.429	366.37
397.808	403.66
398.186	369.99
398.565	373.61
398.944	397.11
399.323	386.71
399.701	390.33
400.08	369.09
400.458	416.54
400.837	399.37
401.215	394.17
401.594	391.46
401.972	389.65
402.351	403.21
402.729	395.3
403.107	390.33
403.486	400.72
403.864	396.43
404.242	415.64
404.62	414.06
404.999	427.62
405.377	450.89
405.755	404.34
406.133	414.51
406.511	435.98
406.889	424.68
407.267	433.04
407.645	419.71
408.023	428.75
408.401	421.51
408.779	426.94
409.156	434.62
409.534	438.01
409.912	447.5
410.29	450.21
410.667	440.95
411.045	450.67
411.422	469.65
411.8	437.11
412.178	457.45
412.555	445.02
412.933	463.77
413.31	462.64
413.687	448.63
414.065	464.68
414.442	465.35
414.819	475.75
415.197	447.28
415.574	458.58
415.951	480.72
416.328	473.94
416.705	471
417.082	490.21
417.46	496.09
417.837	486.37
418.214	512.13
418.591	472.36
418.967	503.09
419.344	501.06
419.721	502.42
420.098	473.26
420.475	497.44
420.852	524.34
421.228	509.2
421.605	497.22
421.982	521.85
422.358	520.95
422.735	507.84
423.111	490.21
423.488	508.52
423.864	532.25
424.241	543.09
424.617	520.04
424.994	532.92
425.37	521.4
425.746	529.99
426.123	544
426.499	536.54
426.875	529.31
427.251	567.05
427.627	558.69
428.003	551
428.379	554.84
428.756	565.69
429.132	569.08
429.507	570.44
429.883	569.08
430.259	585.35
430.635	568.86
431.011	580.83
431.387	612.7
431.763	596.65
432.138	598.23
432.514	590.1
432.89	632.36
433.265	609.76
433.641	634.39
434.016	604.56
434.392	631.9
434.767	649.53
435.143	630.55
435.518	637.1
435.894	628.97
436.269	657.44
436.644	647.5
437.02	663.99
437.395	656.08
437.77	666.71
438.145	695.63
438.52	691.34
438.895	673.49
439.271	667.84
439.646	666.25
440.021	705.57
440.395	716.42
440.77	672.81
441.145	685.46
441.52	688.85
441.895	703.54
442.27	705.12
442.645	709.87
443.019	725.46
443.394	734.95
443.769	700.6
444.143	715.52
444.518	730.43
444.892	731.11
445.267	720.49
445.641	722.98
446.016	741.73
446.39	746.03
446.764	745.57
447.139	737.44
447.513	762.52
447.887	736.31
448.262	742.41
448.636	760.26
449.01	784.67
449.384	783.31
449.758	749.64
450.132	774.95
450.506	781.5
450.88	788.28
451.254	778.79
451.628	799.81
452.002	791.45
452.376	787.61
452.75	826.02
453.123	812.69
453.497	812.92
453.871	835.74
454.244	847.49
454.618	817.21
454.992	831.9
455.365	850.2
455.739	879.58
456.112	869.64
456.486	879.36
456.859	870.32
457.232	866.7
457.606	901.73
457.979	887.72
458.352	901.73
458.725	913.25
459.099	913.03
459.472	906.7
459.845	921.16
460.218	929.07
460.591	918
460.964	953.93
461.337	962.97
461.71	961.16
462.083	979.47
462.456	974.27
462.829	974.04
463.201	998
463.574	1006.81
463.947	1005
464.32	1029.18
464.692	1016.07
465.065	1040.03
465.438	1023.31
465.81	1049.52
466.183	1074.38
466.555	1084.77
466.928	1099.69
467.3	1080.93
467.672	1111.21
468.045	1101.5
468.417	1123.19
468.789	1119.35
469.161	1131.78
469.534	1140.14
469.906	1166.13
470.278	1187.82
470.65	1175.39
471.022	1173.36
471.394	1211.55
471.766	1198.44
472.138	1225.34
472.51	1245.9
472.882	1246.13
473.253	1279.12
473.625	1284.77
473.997	1306.46
474.369	1322.73
474.74	1347.14
475.112	1332.22
475.484	1373.58
475.855	1380.81
476.227	1378.33
476.598	1411.54
476.97	1413.13
477.341	1441.15
477.713	1450.87
478.084	1459.45
478.455	1477.31
478.827	1538.32
479.198	1578.55
479.569	1560.24
479.94	1569.51
480.311	1605.66
480.682	1624.19
481.053	1628.94
481.424	1659.9
481.795	1690.63
482.166	1698.54
482.537	1720.24
482.908	1798.65
483.279	1762.5
483.65	1816.51
484.021	1794.36
484.391	1858.31
484.762	1860.57
485.133	1864.41
485.503	1915.71
485.874	1950.06
486.244	1952.1
486.615	1962.72
486.985	2010.85
487.356	2059.66
487.726	2049.27
488.097	2057.63
488.467	2073.45
488.837	2141.92
489.207	2124.29
489.578	2162.49
489.948	2208.13
490.318	2272.77
490.688	2254.01
491.058	2261.47
491.428	2272.99
491.798	2333.33
492.168	2382.82
492.538	2347.34
492.908	2367.45
493.278	2388.92
493.648	2440.44
494.017	2443.16
494.387	2445.42
494.757	2454.91
495.126	2520.67
495.496	2498.75
495.866	2531.52
496.235	2585.75
496.605	2639.08
496.974	2609.48
497.344	2617.39
497.713	2633.43
498.082	2704.17
498.452	2690.16
498.821	2713.66
499.19	2746.42
499.559	2757.95
499.928	2767.44
500.298	2776.48
500.667	2822.58
501.036	2807.67
501.405	2833.43
501.774	2857.61
502.143	2845.63
502.512	2874.33
502.88	2928.12
503.249	2927.89
503.618	2961.56
503.987	2961.79
504.356	2974.22
504.724	3003.37
505.093	3041.33
505.462	3051.5
505.83	3053.54
506.199	3090.14
506.567	3088.11
506.936	3073.42
507.304	3141.22
507.672	3178.96
508.041	3174.89
508.409	3214.44
508.777	3249.46
509.145	3280.2
509.514	3248.11
509.882	3279.97
510.25	3308.22
510.618	3380.76
510.986	3381.89
511.354	3338.05
511.722	3419.4
512.09	3405.62
512.458	3381.21
512.826	3439.06
513.193	3475.9
513.561	3475.9
513.929	3525.16
514.297	3552.28
514.664	3562.22
515.032	3615.55
515.4	3635.44
515.767	3637.25
516.135	3710.69
516.502	3680.19
516.869	3748.88
517.237	3699.62
517.604	3805.61
517.972	3833.63
518.339	3837.02
518.706	3851.71
519.073	3882.89
519.44	3850.58
519.808	3951.59
520.175	3970.12
520.542	3939.39
520.909	4016.67
521.276	4050.57
521.643	4045.6
522.009	4063.23
522.376	4135.31
522.743	4168.31
523.11	4144.35
523.477	4246.95
523.843	4206.27
524.21	4276.1
524.577	4346.38
524.943	4342.77
525.31	4388.19
525.676	4413.05
526.043	4437.45
526.409	4425.93
526.776	4524.46
527.142	4510.9
527.508	4573.72
527.874	4614.4
528.241	4658.69
528.607	4656.21
528.973	4665.92
529.339	4678.58
529.705	4807.84
530.071	4794.73
530.437	4831.57
530.803	4872.7
531.169	4853.26
531.535	4917.67
531.901	4885.58
532.267	4935.07
532.632	5012.58
532.998	4991.34
533.364	5011.68
533.73	5068.4
534.095	5067.95
534.461	5115.4
534.826	5146.14
535.192	5173.25
535.557	5210.54
535.923	5195.17
536.288	5276.53
536.653	5274.49
537.019	5288.73
537.384	5324.44
537.749	5359.92
538.114	5363.76
538.479	5377.09
538.845	5399.69
539.21	5424.55
539.575	5487.37
539.94	5460.7
540.305	5490.31
540.67	5523.75
541.034	5519.23
541.399	5649.17
541.764	5605.78
542.129	5643.75
542.494	5643.75
542.858	5663.41
543.223	5696.4
543.587	5774.82
543.952	5715.16
544.316	5747.25
544.681	5746.8
545.045	5808.49
545.41	5882.61
545.774	5977.53
546.138	5851.88
546.503	5949.73
546.867	5961.71
547.231	5994.02
547.595	6021.37
547.959	6041.71
548.324	6036.96
548.688	6122.38
549.052	6088.48
549.416	6108.37
549.779	6184.3
550.143	6226.79
550.507	6267.69
550.871	6269.27
551.235	6336.61
551.599	6370.28
551.962	6387.23
552.326	6420.68
552.689	6438.08
553.053	6464.52
553.417	6489.38
553.78	6610.05
554.143	6560.11
554.507	6652.99
554.87	6738.18
555.234	6824.28
555.597	6773.21
555.96	6826.77
556.323	6827.67
556.686	6891.17
557.05	6985.18
557.413	6976.37
557.776	7036.48
558.139	7075.35
558.502	7096.37
558.865	7170.26
559.228	7229.92
559.59	7288.23
559.953	7318.51
560.316	7444.15
560.679	7426.53
561.041	7534.55
561.404	7525.96
561.767	7662.68
562.129	7621.1
562.492	7742
562.854	7786.07
563.217	7835.33
563.579	7949.9
563.941	7979.73
564.304	8038.72
564.666	8127.07
565.028	8218.6
565.39	8259.05
565.753	8319.84
566.115	8360.06
566.477	8465.82
566.839	8536.1
567.201	8664.91
567.563	8624.46
567.925	8752.14
568.287	8880.05
568.648	8915.75
569.01	8957.79
569.372	9109.2
569.734	9109.87
570.095	9280.72
570.457	9323.43
570.819	9352.8
571.18	9397.1
571.542	9533.59
571.903	9616.98
572.265	9721.16
572.626	9833.24
572.987	9891.77
573.349	9942.39
573.71	10095.61
574.071	10159.56
574.432	10187.81
574.794	10399.33
575.155	10482.04
575.516	10531.98
575.877	10691.98
576.238	10774.24
576.599	10915.93
576.96	10931.07
577.32	11047.68
577.681	11230.95
578.042	11321.34
578.403	11397.95
578.763	11598.85
579.124	11692.86
579.485	11849.91
579.845	11945.96
580.206	12163.13
580.566	12232.73
580.927	12377.81
581.287	12607.18
581.648	12729.67
582.008	12950.22
582.368	13093.27
582.728	13297.11
583.089	13391.79
583.449	13549.08
583.809	13774.16
584.169	13961.27
584.529	14165.56
584.889	14448.26
585.249	14552.22
585.609	14722.61
585.969	15125.99
586.329	15262.71
586.688	15448.46
587.048	15771.17
587.408	15912.63
587.768	16200.99
588.127	16490.02
588.487	16752.38
588.846	17065.37
589.206	17253.84
589.565	17590.55
589.925	17895.63
590.284	18169.07
590.643	18551.89
591.003	18827.36
591.362	19203.62
591.721	19390.28
592.08	19838.86
592.44	20164.72
592.799	20587.99
593.158	20890.35
593.517	21257.8
593.876	21607.62
594.235	21916.09
594.593	22368.51
594.952	22706.35
595.311	23119.22
595.67	23552.21
596.029	24082.59
596.387	24433.99
596.746	24867.65
597.104	25109.68
597.463	25475.54
597.822	26050.22
598.18	26314.17
598.538	26780.14
598.897	27274.82
599.255	27388.04
599.613	28211.07
599.972	28457.39
600.33	28928.56
600.688	29202.68
601.046	29767.41
601.404	30231.13
601.762	30484.9
602.12	31145
602.478	31505.22
602.836	32018.88
603.194	32047.35
603.552	32612.76
603.91	32942.69
604.268	33485.5
604.625	33777.7
604.983	34332.71
605.341	34454.29
605.698	35140.38
606.056	35553.7
606.413	35769.06
606.771	36251.31
607.128	36804.29
607.485	36805.64
607.843	37143.03
608.2	37724.26
608.557	38123.57
608.914	38235.44
609.272	38773.95
609.629	39171.68
609.986	39538.23
610.343	39523.31
610.7	40074.71
611.057	40314.48
611.414	40520.12
611.771	40838.53
612.127	41255.69
612.484	41419.98
612.841	41724.16
613.198	41857.49
613.554	42159.63
613.911	42508.32
614.267	42726.84
614.624	42843
614.98	43190.56
615.337	43518.46
615.693	43613.6
616.05	43767.04
616.406	44258.55
616.762	44222.4
617.118	44421.04
617.475	44475.5
617.831	44909.61
618.187	45155.71
618.543	45259.66
618.899	45572.19
619.255	45749.36
619.611	45723.37
619.967	46154.78
620.323	46226.41
620.678	46143.93
621.034	46254.66
621.39	46426.86
621.746	46530.58
622.101	47000.85
622.457	46801.76
622.812	47010.8
623.168	47198.36
623.523	47328.76
623.879	47503.44
624.234	47188.87
624.589	47495.98
624.945	47561.07
625.3	47745.47
625.655	47846.93
626.01	47971.22
626.365	48015.29
626.72	47999.47
627.075	48138
627.43	48227.26
627.785	48170.77
628.14	48334.6
628.495	48382.97
628.85	48518.33
629.205	48345
629.559	48689.85
629.914	48560.36
630.269	48548.38
630.623	48627.48
630.978	48617.31
631.332	48597.42
631.687	49003.29
632.041	48715.39
632.396	48883.97
632.75	48796.51
633.104	48802.39
633.459	48876.06
633.813	48735.05
634.167	48847.36
634.521	48957.41
634.875	48989.28
635.229	48826.12
635.583	48798.55
635.937	48912.44
636.291	48898.21
636.645	48988.82
636.999	48864.53
637.352	49024.08
637.706	48668.83
638.06	49006.9
638.413	48841.94
638.767	48742.05
639.121	48952.44
639.474	48781.15
639.828	48848.72
640.181	48952.22
640.534	48921.26
640.888	48899.56
641.241	48656.86
641.594	48951.31
641.947	48958.77
642.301	48802.62
642.654	48939.79
643.007	48973.01
643.36	48960.58
643.713	48841.94
644.066	48952.89
644.419	48714.93
644.771	48562.17
645.124	48062.97
645.477	48076.31
645.83	47812.36
646.182	47777.11
646.535	47772.13
646.888	47878.12
647.24	47724
647.593	48003.54
647.945	47836.99
648.298	47661.4
648.65	47585.7
649.002	47553.61
649.355	47757.9
649.707	47636.54
650.059	47860.04
650.411	48254.61
650.763	48337.77
651.115	48814.59
651.467	48579.12
651.819	48664.09
652.171	48657.31
652.523	48488.5
652.875	48619.12
653.227	48410.31
653.578	48712.22
653.93	48716.06
654.282	48401.27
654.633	48285.34
654.985	48500.48
655.337	48410.31
655.688	48460.48
656.039	48607.14
656.391	48319.69
656.742	48392.23
657.094	48485.56
657.445	48462.96
657.796	48350.65
658.147	48398.11
658.498	48309.29
658.849	48300.03
659.2	48222.74
659.551	48167.6
659.902	48291.89
660.253	48311.55
660.604	48402.4
660.955	48140.71
661.306	48320.37
661.656	48396.52
662.007	48286.92
662.358	48372.57
662.708	48284.21
663.059	48298.67
663.409	48039.47
663.76	48308.62
664.11	48454.38
664.461	48291.44
664.811	48289.18
665.161	48368.73
665.511	48243.53
665.862	48333.25
666.212	48363.3
666.562	48346.13
666.912	48209.64
667.262	48250.09
667.612	48168.96
667.962	48354.04
668.312	48209.86
668.662	48295.28
669.011	48245.12
669.361	48220.03
669.711	48228.39
670.06	48177.32
670.41	48152.91
670.76	48050.09
671.109	48211.9
671.459	48145.01
671.808	48051.67
672.157	48238.79
672.507	47915.86
672.856	47818.91
673.205	47930.32
673.554	48155.63
673.904	47960.15
674.253	48274.27
674.602	48086.93
674.951	47428.87
675.3	47300.73
675.649	47967.16
675.998	48026.14
676.346	47902.53
676.695	47938.01
677.044	47681.97
677.393	47810.1
677.741	47891.45
678.09	47741.63
678.438	47736.65
678.787	47824.79
679.135	47761.06
679.484	47463.67
679.832	47607.84
680.181	47348.19
680.529	47600.39
680.877	47477.68
681.225	47372.37
681.573	47616.43
681.922	47311.13
682.27	47245.59
682.618	47225.48
682.966	47146.61
683.314	47185.03
683.661	47070.01
684.009	46967.41
684.357	46826.4
684.705	46732.39
685.053	46856.23
685.4	46782.33
685.748	46648.1
686.095	46683.57
686.443	46485.61
686.79	46525.61
687.138	46518.83
687.485	46472.28
687.832	46415.11
688.18	46452.62
688.527	46142.35
688.874	46102.35
689.221	46047.66
689.568	45876.82
689.915	45799.53
690.262	45930.83
690.609	45698.97
690.956	45521.35
691.303	45509.14
691.65	45359.32
691.997	45451.06
692.344	45084.29
692.69	45118.19
693.037	45253.56
693.383	44856.28
693.73	44910.74
694.077	44830.52
694.423	44688.82
694.769	44608.6
695.116	44547.13
695.462	44652.44
695.808	44301.26
696.155	44385.56
696.501	44080.03
696.847	44310.53
697.193	43830.77
697.539	44011.33
697.885	43690.66
698.231	43547.39
698.577	43599.81
698.923	43521.85
699.269	43248.64
699.614	43227.39
699.96	43121.86
700.306	43004.58
700.651	42940.62
700.997	42855.88
701.342	42693.85
701.688	42826.73
702.033	42571.14
702.379	42568.43
702.724	42394.2
703.069	42598.26
703.415	42200.3
703.76	42158.95
704.105	42199.17
704.45	41879.63
704.795	41748.56
705.14	41789.47
705.485	41596.25
705.83	41424.28
706.175	41610.71
706.52	41416.82
706.865	41332.98
707.209	41366.43
707.554	41116.94
707.899	41163.04
708.243	40975.25
708.588	40943.61
708.932	40663.39
709.277	40665.43
709.621	40675.82
709.966	40344.31
710.31	40402.38
710.654	40215.72
710.998	40211.88
711.342	40318.54
711.687	40152.45
712.031	39956.97
712.375	39893.92
712.719	39949.29
713.063	39827.03
713.407	39981.38
713.75	39700.71
714.094	39621.84
714.438	39476.76
714.782	39609.86
715.125	39441.28
715.469	39484.89
715.812	39241.51
716.156	39055.75
716.499	38982.08
716.843	39053.49
717.186	38819.37
717.53	39123.77
717.873	38958.81
718.216	38918.58
718.559	38587.29
718.902	38425.71
719.246	38581.87
719.589	38413.28
719.932	38279.73
720.275	38347.07
720.617	38052.39
720.96	38210.58
721.303	38223.46
721.646	38345.04
721.989	38030.24
722.331	38228.88
722.674	38009.45
723.016	38015.1
723.359	37880.42
723.701	37846.07
724.044	37670.48
724.386	37559.97
724.729	37577.6
725.071	37451.73
725.413	37568.33
725.755	37521.78
726.097	37366.53
726.439	37180.1
726.782	37180.32
727.124	37357.04
727.465	37143.71
727.807	37104.62
728.149	36971.74
728.491	36991.4
728.833	36944.17
729.175	36879.99
729.516	36910.5
729.858	36827.34
730.199	36805.87
730.541	36669.83
730.882	36615.36
731.224	36813.1
731.565	36555.48
731.906	36516.38
732.248	36585.08
732.589	36319.33
732.93	36257.18
733.271	36220.12
733.612	36318.65
733.953	36226.22
734.294	35998.21
734.635	36060.8
734.976	36202.49
735.317	36042.95
735.658	35854.93
735.999	35892.22
736.339	35715.5
736.68	36074.36
737.021	35806.35
737.361	35604.54
737.702	35876.85
738.042	35561.16
738.383	35586.69
738.723	35765.22
739.063	35570.42
739.404	35612.45
739.744	35484.32
740.084	35432.35
740.424	35465.34
740.764	35297.21
741.104	35358.22
741.444	35142.18
741.784	35066.93
742.124	35293.14
742.464	35016.99
742.804	35166.82
743.143	35081.17
743.483	35010.21
743.823	34922.53
744.162	34929.76
744.502	34892.92
744.841	34733.15
745.181	34782.64
745.52	34710.56
745.86	34762.98
746.199	34710.78
746.538	34634.63
746.877	34611.8
747.216	34523.89
747.556	34457
747.895	34546.94
748.234	34324.35
748.573	34228.54
748.911	34211.81
749.25	34090.01
749.589	34092.04
749.928	34166.62
750.267	34145.37
750.605	34065.38
750.944	33914.42
751.283	33826.51
751.621	33866.51
751.96	33734.31
752.298	33710.58
752.636	33709.45
752.975	33462.23
753.313	33417.26
753.651	33706.51
753.989	33394.66
754.327	33312.17
754.666	33214.55
755.004	33243.25
755.342	33224.95
755.679	33079.41
756.017	32934.78
756.355	33041.9
756.693	32886.88
757.031	32866.31
757.368	32687.33
757.706	32735.01
758.044	32608.24
758.381	32590.61
758.719	32347.23
759.056	32521.46
759.394	32341.8
759.731	32101.36
760.068	32031.76
760.405	31949.27
