Data from red_cardboard_box_FLMS001491_00050.txt Node
Date: Wed Feb 08 11:32:28 GMT 2017
User: dcchb
Spectrometer: FLMS00149
Trigger mode: 0
Integration Time (sec): 2.000000E-2
Scans to average: 10
Electric dark correction enabled: true
Nonlinearity correction enabled: false
Boxcar width: 0
XAxis mode: Wavelengths
Number of Pixels in Spectrum: 2048
>>>>>Begin Spectral Data<<<<<
341.393	-17.09
341.776	-17.09
342.16	-17.09
342.543	-59.8
342.927	-69.07
343.31	-71.1
343.693	-69.29
344.077	-78.11
344.46	-56.64
344.843	-53.02
345.226	-33.59
345.61	-6.47
345.993	-10.99
346.376	-12.57
346.759	0.08
347.142	16.81
347.525	38.05
347.908	40.76
348.291	80.76
348.674	103.36
349.057	111.95
349.44	130.25
349.823	145.84
350.206	181.32
350.588	209.12
350.971	220.19
351.354	225.62
351.737	257.25
352.119	247.08
352.502	267.42
352.884	290.02
353.267	289.12
353.65	312.84
354.032	306.74
354.414	325.73
354.797	302.9
355.179	326.4
355.562	324.14
355.944	324.37
356.326	342
356.709	339.06
357.091	325.95
357.473	330.92
357.855	334.09
358.238	351.49
358.62	364.37
359.002	333.64
359.384	325.95
359.766	332.96
360.148	352.17
360.53	357.59
360.912	342.67
361.294	320.53
361.676	303.58
362.057	326.86
362.439	316.69
362.821	330.25
363.203	331.15
363.584	309.68
363.966	337.7
364.348	334.09
364.729	334.99
365.111	323.47
365.493	312.84
365.874	319.17
366.256	316.69
366.637	324.6
367.019	304.03
367.4	319.85
367.781	309.23
368.163	310.59
368.544	310.81
368.925	323.47
369.306	342.22
369.688	296.8
370.069	336.35
370.45	313.52
370.831	311.49
371.212	313.97
371.593	277.59
371.974	321.88
372.355	322.79
372.736	303.35
373.117	322.11
373.498	331.38
373.879	285.95
374.26	309
374.641	324.37
375.021	322.56
375.402	325.5
375.783	345.16
376.163	334.77
376.544	302.9
376.925	310.81
377.305	306.07
377.686	308.1
378.066	321.21
378.447	321.43
378.827	344.03
379.208	323.24
379.588	306.52
379.968	333.64
380.349	327.99
380.729	320.53
381.109	343.35
381.489	336.35
381.87	332.05
382.25	327.76
382.63	340.64
383.01	330.92
383.39	349.68
383.77	335.9
384.15	335.22
384.53	348.78
384.91	351.04
385.29	325.73
385.67	341.32
386.049	338.61
386.429	358.27
386.809	352.39
387.189	330.47
387.568	343.13
387.948	327.08
388.328	336.12
388.707	331.83
389.087	370.02
389.466	348.1
389.846	366.63
390.225	353.97
390.605	356.69
390.984	372.96
391.363	366.63
391.743	340.41
392.122	345.84
392.501	379.74
392.881	346.06
393.26	355.78
393.639	357.36
394.018	380.19
394.397	353.52
394.776	375.89
395.155	375.22
395.534	348.32
395.913	340.87
396.292	347.42
396.671	361.21
397.05	360.98
397.429	361.88
397.808	374.76
398.186	355.1
398.565	339.96
398.944	374.09
399.323	369.11
399.701	387.65
400.08	392.16
400.458	376.8
400.837	379.51
401.215	365.27
401.594	396.23
401.972	365.27
402.351	358.04
402.729	392.16
403.107	401.2
403.486	392.62
403.864	378.83
404.242	407.76
404.62	389.68
404.999	377.93
405.377	375.22
405.755	399.4
406.133	393.07
406.511	390.36
406.889	418.6
407.267	385.61
407.645	410.24
408.023	403.24
408.401	416.12
408.779	417.02
409.156	410.7
409.534	409.11
409.912	402.56
410.29	423.58
410.667	417.93
411.045	426.97
411.422	411.83
411.8	412.28
412.178	446.63
412.555	431.26
412.933	439.85
413.31	423.8
413.687	431.94
414.065	423.58
414.442	436.23
414.819	423.58
415.197	443.46
415.574	463.35
415.951	433.75
416.328	448.21
416.705	447.08
417.082	450.92
417.46	438.04
417.837	447.08
418.214	469.45
418.591	476.91
418.967	460.64
419.344	471.71
419.721	468.55
420.098	476.91
420.475	488.21
420.852	477.59
421.228	459.96
421.605	480.98
421.982	473.29
422.358	482.11
422.735	477.36
423.111	480.98
423.488	501.99
423.864	494.76
424.241	490.02
424.617	474.2
424.994	507.87
425.37	506.06
425.746	491.82
426.123	522.33
426.499	489.34
426.875	503.8
427.251	527.3
427.627	511.03
428.003	524.82
428.379	513.74
428.756	502.67
429.132	515.55
429.507	541.54
429.883	527.75
430.259	531.14
430.635	526.4
431.011	549.45
431.387	538.6
431.763	529.11
432.138	556.45
432.514	544.93
432.89	538.83
433.265	559.39
433.641	561.88
434.016	553.52
434.392	556.23
434.767	614.98
435.143	578.15
435.518	582.44
435.894	579.28
436.269	583.57
436.644	586.06
437.02	593.97
437.395	573.18
437.77	608.43
438.145	626.06
438.52	619.73
438.895	610.69
439.271	616.79
439.646	620.18
440.021	631.71
440.395	627.86
440.77	629.45
441.145	636.9
441.52	630.12
441.895	645.94
442.27	627.41
442.645	638.94
443.019	632.84
443.394	640.52
443.769	664.25
444.143	673.74
444.518	668.77
444.892	637.13
445.267	630.58
445.641	658.82
446.016	651.37
446.39	648.88
446.764	682.33
447.139	652.05
447.513	655.43
447.887	694.53
448.262	668.99
448.636	689.33
449.01	664.47
449.384	665.38
449.758	675.1
450.132	681.65
450.506	680.07
450.88	679.39
451.254	682.78
451.628	691.82
452.002	699.5
452.376	706.96
452.75	689.33
453.123	725.72
453.497	740.4
453.871	723
454.244	739.05
454.618	744.47
454.992	741.08
455.365	739.05
455.739	772.49
456.112	778.6
456.486	775.21
456.859	769.56
457.232	776.11
457.606	776.79
457.979	771.59
458.352	820.18
458.725	788.31
459.099	774.75
459.472	809.1
459.845	817.01
460.218	818.59
460.591	806.84
460.964	830.8
461.337	835.09
461.71	851.36
462.083	873.28
462.456	836.67
462.829	873.96
463.201	865.82
463.574	873.96
463.947	884.36
464.32	890.68
464.692	908.76
465.065	906.73
465.438	887.29
465.81	911.7
466.183	919.83
466.555	940.62
466.928	934.3
467.3	919.61
467.672	938.82
468.045	974.07
468.417	939.95
468.789	961.19
469.161	971.36
469.534	985.37
469.906	979.95
470.278	1011.81
470.65	1007.52
471.022	1025.37
471.394	1020.17
471.766	1063.11
472.138	1039.83
472.51	1075.08
472.882	1093.62
473.253	1112.37
473.625	1108.3
473.997	1120.51
474.369	1116.67
474.74	1137.46
475.112	1142.43
475.484	1188.3
475.855	1177.23
476.227	1174.07
476.598	1198.47
476.97	1205.48
477.341	1209.77
477.713	1254.29
478.084	1235.31
478.455	1272.37
478.827	1264.91
479.198	1284.57
479.569	1321.63
479.94	1341.74
480.311	1361.63
480.682	1351.01
481.053	1385.36
481.424	1409.77
481.795	1396.66
482.166	1462.19
482.537	1447.73
482.908	1478.46
483.279	1513.72
483.65	1504.23
484.021	1515.3
484.391	1554.17
484.762	1595.07
485.133	1584.22
485.503	1561.4
485.874	1603.21
486.244	1611.57
486.615	1646.14
486.985	1664.22
487.356	1715.07
487.726	1695.18
488.097	1764.33
488.467	1778.57
488.837	1777.89
489.207	1782.18
489.578	1817.44
489.948	1833.48
490.318	1848.85
490.688	1891.33
491.058	1893.14
491.428	1916.19
491.798	1930.66
492.168	1950.32
492.538	1958.9
492.908	1941.05
493.278	1989.18
493.648	1999.81
494.017	2048.17
494.387	2068.73
494.757	2070.54
495.126	2096.98
495.496	2118.22
495.866	2117.09
496.235	2151.44
496.605	2155.06
496.974	2176.98
497.344	2165.9
497.713	2198.67
498.082	2194.6
498.452	2223.76
498.821	2275.73
499.19	2253.36
499.559	2254.71
499.928	2269.18
500.298	2300.14
500.667	2344.88
501.036	2312.11
501.405	2347.82
501.774	2363.86
502.143	2368.61
502.512	2398.44
502.88	2424.88
503.249	2438.21
503.618	2442.51
503.987	2418.78
504.356	2475.5
504.724	2492.67
505.093	2495.84
505.462	2487.03
505.83	2552.33
506.199	2532.22
506.567	2576.51
506.936	2550.07
507.304	2561.6
507.672	2612.9
508.041	2586.68
508.409	2644.08
508.777	2655.38
509.145	2708.49
509.514	2716.4
509.882	2690.86
510.25	2712.56
510.618	2724.76
510.986	2761.37
511.354	2802.5
511.722	2773.35
512.09	2783.74
512.458	2821.25
512.826	2818.77
513.193	2859.67
513.561	2889.5
513.929	2893.34
514.297	2927.01
514.664	2957.52
515.032	2935.83
515.4	3033
515.767	3018.31
516.135	3001.36
516.502	3006.56
516.869	3015.82
517.237	3076.16
517.604	3098.08
517.972	3101.92
518.339	3124.3
518.706	3153
519.073	3141.47
519.44	3179.44
519.808	3183.73
520.175	3247.01
520.542	3259.21
520.909	3285.42
521.276	3332.2
521.643	3332.65
522.009	3342.6
522.376	3383.72
522.743	3374.91
523.11	3500.78
523.477	3451.29
523.843	3494.23
524.21	3489.03
524.577	3543.95
524.943	3615.36
525.31	3584.62
525.676	3621.68
526.043	3660.55
526.409	3670.95
526.776	3686.32
527.142	3715.24
527.508	3740.33
527.874	3776.48
528.241	3818.74
528.607	3784.39
528.973	3820.32
529.339	3844.05
529.705	3884.28
530.071	3930.38
530.437	3941.45
530.803	3968.34
531.169	3967.21
531.535	4003.6
531.901	4013.31
532.267	4036.36
532.632	4073.88
532.998	4096.47
533.364	4145.96
533.73	4144.83
534.095	4175.57
534.461	4168.79
534.826	4192.29
535.192	4227.09
535.557	4288.79
535.923	4254.44
536.288	4266.41
536.653	4300.54
537.019	4315.23
537.384	4350.48
537.749	4376.24
538.114	4400.42
538.479	4390.03
538.845	4402.91
539.21	4409.91
539.575	4448.33
539.94	4513.41
540.305	4491.49
540.67	4506.18
541.034	4526.29
541.399	4574.43
541.764	4589.57
542.129	4664.59
542.494	4638.15
542.858	4656.91
543.223	4686.29
543.587	4706.4
543.952	4697.36
544.316	4747.3
544.681	4787.53
545.045	4762.45
545.41	4797.02
545.774	4826.17
546.138	4839.73
546.503	4856
546.867	4825.49
547.231	4952.04
547.595	4926.28
547.959	4960.86
548.324	4949.11
548.688	5017.58
549.052	5007.41
549.416	5030.01
549.779	5043.12
550.143	5065.49
550.507	5134.64
550.871	5145.49
551.235	5185.26
551.599	5215.54
551.962	5250.12
552.326	5298.25
552.689	5345.48
553.053	5308.19
553.417	5305.48
553.78	5394.75
554.143	5448.76
554.507	5431.81
554.87	5494.63
555.234	5564.68
555.597	5557.9
555.96	5590.9
556.323	5636.55
556.686	5645.81
557.05	5697.34
557.413	5720.39
557.776	5741.85
558.139	5773.49
558.502	5763.1
558.865	5811.46
559.228	5938.23
559.59	5963.09
559.953	5935.3
560.316	6034.05
560.679	6076.76
561.041	6123.77
561.404	6198.11
561.767	6208.06
562.129	6283.99
562.492	6385.91
562.854	6419.13
563.217	6410.31
563.579	6438.11
563.941	6528.05
564.304	6599.91
564.666	6653.92
565.028	6612.34
565.39	6793.13
565.753	6804.43
566.115	6826.57
566.477	6880.81
566.839	6930.75
567.201	7082.38
567.563	7084.19
567.925	7154.02
568.287	7178.43
568.648	7238.31
569.01	7321.25
569.372	7400.34
569.734	7422.71
570.095	7546.55
570.457	7619.77
570.819	7667.91
571.18	7689.37
571.542	7810.95
571.903	7866.77
572.265	7909.48
572.626	8019.76
572.987	8100.66
573.349	8201
573.71	8206.65
574.071	8315.57
574.432	8412.74
574.794	8540.43
575.155	8570.03
575.516	8610.25
575.877	8763.02
576.238	8817.48
576.599	8902.22
576.96	9021.99
577.32	9072.16
577.681	9159.39
578.042	9260.86
578.403	9400.06
578.763	9492.26
579.124	9595.99
579.485	9792.6
579.845	9874.85
580.206	9933.16
580.566	9989.65
580.927	10150.33
581.287	10298.8
581.648	10421.96
582.008	10655.62
582.368	10616.75
582.728	10829.63
583.089	10979.46
583.449	11131.77
583.809	11236.4
584.169	11433.91
584.529	11576.05
584.889	11807.91
585.249	11961.8
585.609	12040.22
585.969	12335.13
586.329	12478.4
586.688	12705.74
587.048	12902.8
587.408	13084.49
587.768	13305.95
588.127	13530.35
588.487	13710.68
588.846	13966.27
589.206	14107.06
589.565	14454.85
589.925	14742.52
590.284	14914.49
590.643	15200.82
591.003	15529.17
591.362	15744.76
591.721	16024.3
592.08	16346.32
592.44	16781.79
592.799	16924.39
593.158	17263.59
593.517	17612.5
593.876	17959.84
594.235	18179.72
594.593	18551.91
594.952	18979.25
595.311	19166.81
595.67	19602.51
596.029	20168.14
596.387	20427.57
596.746	20847.22
597.104	21042.47
597.463	21288.11
597.822	21698.05
598.18	22076.79
598.538	22403.11
598.897	22946.83
599.255	23026.6
599.613	23764.66
599.972	24006.01
600.33	24379.56
600.688	24626.78
601.046	25123.04
601.404	25583.82
601.762	25799.86
602.12	26246.85
602.478	26601.87
602.836	26993.73
603.194	27193.72
603.552	27593.03
603.91	27718.68
604.268	28326.57
604.625	28576.28
604.983	29175.81
605.341	29287.68
605.698	29724.95
606.056	30191.83
606.413	30431.15
606.771	30782.78
607.128	31111.13
607.485	31204.24
607.843	31642.64
608.2	32146.13
608.557	32345
608.914	32495.95
609.272	32944.76
609.629	33257.06
609.986	33714.45
610.343	33753.77
610.7	34222.91
611.057	34372.29
611.414	34619.06
611.771	34834.65
612.127	35268.31
612.484	35424.69
612.841	35827.62
613.198	35862.64
613.554	35977.44
613.911	36416.08
614.267	36440.48
614.624	36722.73
614.98	36982.39
615.337	37390.74
615.693	37454.47
616.05	37679.32
616.406	37907.56
616.762	37960.89
617.118	38211.74
617.475	38298.06
617.831	38503.25
618.187	38740.08
618.543	38938.95
618.899	39209.9
619.255	39251.03
619.611	39463.91
619.967	39639.27
620.323	39870.22
620.678	39916.55
621.034	39890.34
621.39	40168.29
621.746	40129.88
622.101	40638.56
622.457	40349.53
622.812	40543.43
623.168	40797.2
623.523	40809.63
623.879	41080.36
624.234	40905.22
624.589	41152.9
624.945	41239.9
625.3	41391.76
625.655	41478.99
626.01	41517.86
626.365	41524.19
626.72	41627.01
627.075	41749.04
627.43	41816.39
627.785	41648.03
628.14	41982.03
628.495	42121.46
628.85	42052.31
629.205	41944.29
629.559	42274
629.914	42242.59
630.269	42224.74
630.623	42356.26
630.978	42237.39
631.332	42373.89
631.687	42432.19
632.041	42448.91
632.396	42426.54
632.75	42315.13
633.104	42492.98
633.459	42432.87
633.813	42368.01
634.167	42538.4
634.521	42370.5
634.875	42591.51
635.229	42439.19
635.583	42314
635.937	42451.4
636.291	42256.83
636.645	42538.18
636.999	42421.12
637.352	42548.12
637.706	42366.2
638.06	42521.9
638.413	42515.8
638.767	42372.76
639.121	42504.05
639.474	42365.75
639.828	42373.43
640.181	42502.47
640.534	42435.81
640.888	42511.06
641.241	42328.24
641.594	42311.51
641.947	42602.81
642.301	42363.04
642.654	42405.75
643.007	42565.29
643.36	42499.53
643.713	42406.88
644.066	42684.61
644.419	42250.05
644.771	41977.96
645.124	41570.07
645.477	41606.22
645.83	41363.74
646.182	41195.84
646.535	41227.02
646.888	41360.35
647.24	41104.31
647.593	41428.15
647.945	41371.2
648.298	41212.33
648.65	41136.63
649.002	41132.56
649.355	41231.32
649.707	41222.73
650.059	41359.22
650.411	41923.05
650.763	41821.13
651.115	42375.24
651.467	42127.34
651.819	42203.95
652.171	42082.82
652.523	42135.7
652.875	42087.34
653.227	41880.11
653.578	42190.84
653.93	42076.94
654.282	41963.5
654.633	41991.75
654.985	42126.89
655.337	42144.74
655.688	41977.96
656.039	42201.69
656.391	41834.69
656.742	41987.91
657.094	41925.54
657.445	42035.59
657.796	42074.46
658.147	42044.63
658.498	41865.42
658.849	41925.54
659.2	41788.59
659.551	41767.8
659.902	42100.9
660.253	41967.34
660.604	41991.97
660.955	41746.78
661.306	41911.53
661.656	41789.95
662.007	41882.37
662.358	41867.91
662.708	41796.95
663.059	41933.22
663.409	41714.69
663.76	41943.84
664.11	41982.48
664.461	42037.17
664.811	41967.57
665.161	41941.13
665.511	41711.98
665.862	41959.21
666.212	41918.98
666.562	41920.34
666.912	41824.52
667.262	41851.87
667.612	41832.43
667.962	41841.24
668.312	41803.51
668.662	42010.28
669.011	41956.04
669.361	41955.37
669.711	41921.92
670.06	41791.08
670.41	41722.38
670.76	41688.48
671.109	41798.53
671.459	41813.9
671.808	41694.58
672.157	41735.94
672.507	41423.18
672.856	41429.05
673.205	41606.22
673.554	41657.75
673.904	41489.84
674.253	41812.54
674.602	41531.87
674.951	41042.17
675.3	40885.79
675.649	41526.45
675.998	41505.66
676.346	41576.39
676.695	41577.07
677.044	41409.39
677.393	41418.2
677.741	41392.22
678.09	41348.15
678.438	41215.72
678.787	41286.23
679.135	41324.65
679.484	41034.49
679.832	41187.25
680.181	41009.18
680.529	41074.26
680.877	41006.69
681.225	40942.51
681.573	41123.52
681.922	40971.21
682.27	40789.52
682.618	40804.44
682.966	40655.29
683.314	40810.99
683.661	40718.56
684.009	40608.96
684.357	40428.17
684.705	40348.63
685.053	40345.46
685.4	40345.01
685.748	40281.06
686.095	40131.68
686.443	40116.09
686.79	39999.71
687.138	40127.62
687.485	39996.1
687.832	39929.66
688.18	40028.18
688.527	39791.13
688.874	39724.24
689.221	39627.74
689.568	39462.1
689.915	39342.78
690.262	39463.23
690.609	39335.32
690.956	39053.97
691.303	39124.71
691.65	39093.75
691.997	38937.14
692.344	38904.37
692.69	38809.69
693.037	38657.83
693.383	38428.45
693.73	38538.96
694.077	38418.96
694.423	38261.68
694.769	38290.83
695.116	38206.54
695.462	38306.2
695.808	38080.67
696.155	38079.08
696.501	37739.21
696.847	37966.77
697.193	37638.19
697.539	37617.85
697.885	37374.24
698.231	37316.62
698.577	37385.54
698.923	37298.77
699.269	37073.01
699.614	36909.85
699.96	36841.6
700.306	37039.56
700.651	36782.62
700.997	36600.03
701.342	36572.91
701.688	36631.89
702.033	36294.5
702.379	36310.32
702.724	36276.87
703.069	36324.55
703.415	35982.64
703.76	35970.89
704.105	35945.81
704.45	35863.77
704.795	35690.9
705.14	35586.49
705.485	35477.8
705.83	35332.94
706.175	35381.08
706.52	35378.36
706.865	35248.65
707.209	35195.54
707.554	35146.73
707.899	35299.27
708.243	34962.78
708.588	34930.24
708.932	34697.48
709.277	34705.16
709.621	34846.4
709.966	34470.36
710.31	34479.63
710.654	34251.39
710.998	34317.15
711.342	34458.16
711.687	34342.91
712.031	34155.8
712.375	33967.1
712.719	34128.68
713.063	34141.79
713.407	34155.8
713.75	33875.35
714.094	33925.75
714.438	33628.13
714.782	33779.99
715.125	33687.79
715.469	33673.55
715.812	33383.39
716.156	33400.56
716.499	33427
716.843	33348.59
717.186	33151.3
717.53	33342.94
717.873	33320.11
718.216	33205.99
718.559	33128.48
718.902	32804.65
719.246	32973.68
719.589	32788.6
719.932	32738.66
720.275	32700.02
720.617	32684.2
720.96	32648.72
721.303	32712.44
721.646	32610.98
721.989	32475.62
722.331	32490.3
722.674	32348.61
723.016	32467.93
723.359	32327.82
723.701	32469.74
724.044	32194.04
724.386	32109.75
724.729	32199.01
725.071	32171.67
725.413	32106.13
725.755	32069.98
726.097	31946.82
726.439	31826.14
726.782	31773.03
727.124	31825.91
727.465	31733.71
727.807	31735.75
728.149	31779.81
728.491	31528.97
728.833	31643.55
729.175	31418.69
729.516	31449.43
729.858	31456.88
730.199	31436.55
730.541	31387.96
730.882	31357.45
731.224	31460.27
731.565	31260.05
731.906	31262.09
732.248	31302.99
732.589	30999.95
732.93	30870.01
733.271	30922.66
733.612	30965.15
733.953	30972.38
734.294	30830.69
734.635	30974.19
734.976	30988.2
735.317	30802.89
735.658	30665.27
735.999	30753.4
736.339	30632.73
736.68	30677.47
737.021	30514.31
737.361	30464.14
737.702	30580.52
738.042	30460.53
738.383	30418.49
738.723	30467.08
739.063	30407.65
739.404	30451.49
739.744	30257.59
740.084	30130.37
740.424	30310.25
740.764	30335.11
741.104	30282.45
741.444	30082.91
741.784	29935.12
742.124	30174.88
742.464	30036.58
742.804	30064.38
743.143	30027.32
743.483	29929.69
743.823	29757.49
744.162	29822.35
744.502	29872.97
744.841	29743.26
745.181	29798.17
745.52	29636.14
745.86	29699.42
746.199	29661.45
746.538	29579.65
746.877	29609.93
747.216	29609.7
747.556	29512.53
747.895	29585.3
748.234	29319.54
748.573	29500.33
748.911	29312.08
749.25	29452.64
749.589	29218.07
749.928	29230.05
750.267	29207.23
750.605	29170.39
750.944	29018.53
751.283	29009.72
751.621	29116.61
751.96	28824.19
752.298	29033.9
752.636	28879.33
752.975	28802.27
753.313	28679.78
753.651	28821.02
753.989	28634.59
754.327	28515.72
754.666	28471.2
755.004	28589.16
755.342	28507.36
755.679	28480.01
756.017	28246.8
756.355	28352.33
756.693	28252
757.031	28279.57
757.368	28248.83
757.706	28035.28
758.044	28073.02
758.381	28110.31
758.719	27754.16
759.056	27919.58
759.394	27781.28
759.731	27777.43
760.068	27736.08
760.405	27666.7
760.743	27536.08
761.08	27624.44
