Data from red_cardboard_box_FLMS001491_00065.txt Node
Date: Wed Feb 08 11:32:56 GMT 2017
User: dcchb
Spectrometer: FLMS00149
Trigger mode: 0
Integration Time (sec): 2.000000E-2
Scans to average: 10
Electric dark correction enabled: true
Nonlinearity correction enabled: false
Boxcar width: 0
XAxis mode: Wavelengths
Number of Pixels in Spectrum: 2048
>>>>>Begin Spectral Data<<<<<
341.393	4.86
341.776	4.86
342.16	4.86
342.543	-43.5
342.927	-84.18
343.31	-74.01
343.693	-55.48
344.077	-70.85
344.46	-57.74
344.843	-56.16
345.226	-56.83
345.61	-49.38
345.993	-6.67
346.376	-2.6
346.759	-13.67
347.142	42.37
347.525	57.74
347.908	55.7
348.291	66.33
348.674	102.26
349.057	118.98
349.44	130.05
349.823	135.02
350.206	178.41
350.588	198.53
350.971	206.66
351.354	237.39
351.737	244.17
352.119	247.11
352.502	263.38
352.884	259.09
353.267	277.39
353.65	304.29
354.032	311.29
354.414	297.73
354.797	309.71
355.179	320.56
355.562	323.04
355.944	316.71
356.326	317.62
356.709	335.47
357.091	330.27
357.473	351.74
357.855	340.89
358.238	355.58
358.62	338.41
359.002	340.67
359.384	348.35
359.766	332.99
360.148	351.29
360.53	347
360.912	338.86
361.294	327.79
361.676	336.83
362.057	338.41
362.439	333.44
362.821	330.5
363.203	338.18
363.584	331.18
363.966	330.05
364.348	323.04
364.729	314.91
365.111	319.88
365.493	318.75
365.874	321.23
366.256	328.69
366.637	315.13
367.019	329.82
367.4	315.81
367.781	299.31
368.163	314.68
368.544	312.2
368.925	322.82
369.306	349.48
369.688	332.31
370.069	317.62
370.45	328.24
370.831	319.88
371.212	318.75
371.593	318.52
371.974	297.51
372.355	321.91
372.736	317.62
373.117	310.61
373.498	309.94
373.879	323.95
374.26	316.49
374.641	320.33
375.021	311.07
375.402	311.97
375.783	342.93
376.163	316.94
376.544	315.81
376.925	310.61
377.305	322.36
377.686	341.35
378.066	352.42
378.447	349.26
378.827	311.97
379.208	329.37
379.588	321.23
379.968	328.47
380.349	299.54
380.729	311.52
381.109	337.73
381.489	333.66
381.87	339.31
382.25	341.35
382.63	324.62
383.01	323.72
383.39	349.26
383.77	318.75
384.15	332.76
384.53	316.04
384.91	308.58
385.29	352.87
385.67	354.45
386.049	340.67
386.429	344.74
386.809	342.02
387.189	334.57
387.568	353.1
387.948	360.78
388.328	354.68
388.707	339.54
389.087	337.96
389.466	358.75
389.846	325.3
390.225	356.49
390.605	358.52
390.984	343.61
391.363	362.82
391.743	369.14
392.122	359.88
392.501	342.25
392.881	364.62
393.26	376.83
393.639	356.49
394.018	371.18
394.397	382.48
394.776	365.3
395.155	368.69
395.534	355.58
395.913	343.38
396.292	369.59
396.671	359.65
397.05	377.96
397.429	381.8
397.808	365.3
398.186	384.51
398.565	353.1
398.944	361.01
399.323	362.36
399.701	372.53
400.08	362.82
400.458	377.96
400.837	400.33
401.215	376.6
401.594	365.53
401.972	376.83
402.351	371.85
402.729	388.13
403.107	410.27
403.486	394.9
403.864	378.63
404.242	385.41
404.62	389.26
404.999	402.36
405.377	390.84
405.755	386.54
406.133	398.97
406.511	387.22
406.889	408.92
407.267	417.05
407.645	394.23
408.023	410.5
408.401	395.13
408.779	405.75
409.156	417.05
409.534	422.02
409.912	426.54
410.29	421.8
410.667	421.57
411.045	400.55
411.422	412.31
411.8	432.19
412.178	403.27
412.555	432.19
412.933	424.28
413.31	441.46
413.687	443.94
414.065	433.55
414.442	437.84
414.819	447.11
415.197	418.86
415.574	450.27
415.951	429.71
416.328	445.07
416.705	436.94
417.082	462.7
417.46	449.14
417.837	440.55
418.214	448.46
418.591	445.98
418.967	462.02
419.344	455.47
419.721	454.34
420.098	466.32
420.475	453.89
420.852	455.24
421.228	456.82
421.605	456.37
421.982	448.91
422.358	479.87
422.735	481
423.111	476.48
423.488	459.08
423.864	474
424.241	472.64
424.617	486.43
424.994	470.38
425.37	462.93
425.746	477.39
426.123	480.1
426.499	468.12
426.875	492.76
427.251	497.5
427.627	497.5
428.003	508.8
428.379	497.05
428.756	508.8
429.132	492.3
429.507	500.89
429.883	503.83
430.259	504.51
430.635	500.89
431.011	520.55
431.387	529.82
431.763	546.99
432.138	530.49
432.514	539.08
432.89	533.21
433.265	533.43
433.641	535.47
434.016	534.34
434.392	540.44
434.767	557.61
435.143	550.61
435.518	546.77
435.894	565.07
436.269	571.17
436.644	566.43
437.02	563.26
437.395	563.49
437.77	573.88
438.145	589.48
438.52	571.85
438.895	575.01
439.271	579.08
439.646	603.03
440.021	591.74
440.395	575.92
440.77	582.92
441.145	583.37
441.52	594.67
441.895	620.21
442.27	635.35
442.645	618.63
443.019	622.02
443.394	599.42
443.769	622.02
444.143	619.98
444.518	618.18
444.892	606.42
445.267	615.69
445.641	614.33
446.016	610.94
446.39	633.77
446.764	632.19
447.139	638.51
447.513	644.16
447.887	626.09
448.262	647.78
448.636	646.42
449.01	647.55
449.384	654.33
449.758	666.54
450.132	655.69
450.506	660.43
450.88	675.8
451.254	659.98
451.628	693.2
452.002	662.02
452.376	679.19
452.75	684.16
453.123	694.56
453.497	700.89
453.871	685.52
454.244	679.42
454.618	711.05
454.992	708.57
455.365	720.09
455.739	720.55
456.112	729.81
456.486	713.99
456.859	724.16
457.232	741.56
457.606	764.61
457.979	745.18
458.352	738.17
458.725	740.21
459.099	760.09
459.472	767.32
459.845	750.15
460.218	782.69
460.591	770.94
460.964	762.58
461.337	770.26
461.71	809.58
462.083	773.43
462.456	805.29
462.829	806.19
463.201	794.22
463.574	810.94
463.947	802.35
464.32	831.73
464.692	819.75
465.065	842.12
465.438	858.85
465.81	855.68
466.183	859.53
466.555	878.51
466.928	880.09
467.3	875.57
467.672	877.15
468.045	888.68
468.417	894.55
468.789	895.46
469.161	922.8
469.534	928.68
469.906	948.56
470.278	944.72
470.65	946.75
471.022	951.27
471.394	975.91
471.766	958.96
472.138	968.9
472.51	989.92
472.882	998.73
473.253	1031.5
473.625	1014.78
473.997	1029.92
474.369	1040.76
474.74	1056.13
475.112	1050.48
475.484	1076.92
475.855	1099.75
476.227	1106.52
476.598	1122.34
476.97	1114.89
477.341	1143.36
477.713	1160.08
478.084	1155.11
478.455	1176.35
478.827	1177.03
479.198	1194.66
479.569	1211.83
479.94	1234.88
480.311	1214.09
480.682	1260.19
481.053	1306.75
481.424	1293.86
481.795	1285.5
482.166	1314.88
482.537	1330.93
482.908	1356.69
483.279	1365.73
483.65	1407.53
484.021	1436.69
484.391	1444.14
484.762	1437.59
485.133	1433.52
485.503	1465.61
485.874	1496.8
486.244	1488.89
486.615	1495.21
486.985	1518.04
487.356	1556.46
487.726	1580.41
488.097	1581.99
488.467	1604.14
488.837	1611.82
489.207	1637.13
489.578	1642.78
489.948	1666.51
490.318	1682.78
490.688	1693.63
491.058	1698.83
491.428	1737.24
491.798	1751.25
492.168	1751.03
492.538	1793.74
492.908	1821.31
493.278	1800.74
493.648	1849.78
494.017	1826.51
494.387	1895.43
494.757	1898.59
495.126	1880.29
495.496	1908.09
495.866	1904.92
496.235	1928.42
496.605	1953.73
496.974	1948.31
497.344	1996.44
497.713	1965.94
498.082	2000.06
498.452	1995.54
498.821	2020.17
499.19	2035.99
499.559	2053.62
499.928	2073.96
500.298	2086.16
500.667	2115.31
501.036	2120.28
501.405	2120.74
501.774	2137.01
502.143	2153.05
502.512	2147.18
502.88	2212.03
503.249	2183.56
503.618	2207.96
503.987	2240.05
504.356	2227.17
504.724	2257.23
505.093	2252.71
505.462	2293.61
505.83	2278.02
506.199	2277.34
506.567	2306.94
506.936	2324.12
507.304	2318.47
507.672	2371.35
508.041	2351.24
508.409	2377
508.777	2407.51
509.145	2429.65
509.514	2403.89
509.882	2434.85
510.25	2460.39
510.618	2484.34
510.986	2482.31
511.354	2501.52
511.722	2485.25
512.09	2515.75
512.458	2557.11
512.826	2561.4
513.193	2572.25
513.561	2623.77
513.929	2589.42
514.297	2656.09
514.664	2659.25
515.032	2655.41
515.4	2674.84
515.767	2699.48
516.135	2732.7
516.502	2735.63
516.869	2737.22
517.237	2779.93
517.604	2769.53
517.972	2832.81
518.339	2808.63
518.706	2824.45
519.073	2865.57
519.44	2885.46
519.808	2883.2
520.175	2903.99
520.542	2927.95
520.909	2976.08
521.276	2974.05
521.643	3030.77
522.009	3016.08
522.376	3034.84
522.743	3071.44
523.11	3062.63
523.477	3123.42
523.843	3125
524.21	3157.54
524.577	3171.78
524.943	3211.55
525.31	3242.29
525.676	3209.07
526.043	3238.67
526.409	3269.86
526.776	3335.84
527.142	3346.69
527.508	3346.47
527.874	3406.58
528.241	3420.59
528.607	3431.44
528.973	3433.47
529.339	3442.73
529.705	3456.07
530.071	3540.58
530.437	3523.41
530.803	3573.35
531.169	3567.93
531.535	3626.23
531.901	3621.03
532.267	3658.77
532.632	3653.8
532.998	3641.83
533.364	3663.07
533.73	3712.33
534.095	3719.79
534.461	3752.33
534.826	3777.41
535.192	3788.04
535.557	3853.8
535.923	3815.38
536.288	3853.8
536.653	3928.6
537.019	3842.95
537.384	3875.72
537.749	3900.35
538.114	3893.8
538.479	3947.35
538.845	3931.54
539.21	3948.71
539.575	3964.08
539.94	4016.96
540.305	4061.93
540.67	4058.76
541.034	4068.25
541.399	4095.15
541.764	4062.15
542.129	4157.52
542.494	4141.7
542.858	4122.94
543.223	4181.7
543.587	4242.94
543.952	4235.93
544.316	4242.94
544.681	4223.5
545.045	4270.28
545.41	4308.93
545.774	4319.77
546.138	4324.75
546.503	4319.32
546.867	4367.46
547.231	4388.47
547.595	4434.8
547.959	4421.24
548.324	4449.94
548.688	4464.85
549.052	4492.42
549.416	4545.3
549.779	4568.81
550.143	4620.33
550.507	4554.57
550.871	4596.83
551.235	4612.65
551.599	4641.35
551.962	4664.85
552.326	4679.09
552.689	4752.53
553.053	4745.75
553.417	4767.9
553.78	4849.25
554.143	4864.39
554.507	4826.65
554.87	4886.99
555.234	4999.3
555.597	4987.78
555.96	4973.09
556.323	4972.64
556.686	4994.11
557.05	5056.03
557.413	5099.19
557.776	5166.98
558.139	5188.68
558.502	5190.71
558.865	5217.15
559.228	5266.87
559.59	5292.18
559.953	5322.68
560.316	5439.97
560.679	5452.17
561.041	5458.5
561.404	5512.96
561.767	5555.22
562.129	5609.23
562.492	5652.39
562.854	5684.71
563.217	5714.99
563.579	5773.29
563.941	5852.39
564.304	5878.38
564.666	5952.95
565.028	5958.6
565.39	5993.63
565.753	6050.35
566.115	6180.52
566.477	6188.2
566.839	6223.68
567.201	6289.21
567.563	6342.32
567.925	6405.59
568.287	6434.29
568.648	6469.55
569.01	6598.13
569.372	6654.18
569.734	6623.22
570.095	6728.75
570.457	6753.61
570.819	6825.92
571.18	6896.65
571.542	6919.48
571.903	7003.32
572.265	7010.32
572.626	7097.55
572.987	7225.69
573.349	7243.31
573.71	7240.83
574.071	7427.71
574.432	7494.38
574.794	7483.98
575.155	7611.89
575.516	7625.68
575.877	7812.11
576.238	7837.65
576.599	7903.86
576.96	8005.33
577.32	8079.67
577.681	8159.45
578.042	8239.44
578.403	8304.98
578.763	8373.45
579.124	8542.94
579.485	8581.13
579.845	8702.48
580.206	8786.55
580.566	8896.15
580.927	8983.38
581.287	9174.79
581.648	9215.24
582.008	9349.47
582.368	9478.96
582.728	9600.31
583.089	9759.18
583.449	9814.77
583.809	9913.52
584.169	10113.97
584.529	10205.27
584.889	10466.5
585.249	10537.92
585.609	10678.93
585.969	10924.57
586.329	10999.37
586.688	11232.59
587.048	11322.98
587.408	11514.84
587.768	11584.44
588.127	11886.81
588.487	12065.33
588.846	12349.39
589.206	12441.37
589.565	12630.29
589.925	12994.12
590.284	13194.79
590.643	13369.7
591.003	13591.39
591.362	13940.09
591.721	14072.51
592.08	14377.14
592.44	14574.19
592.799	14876.78
593.158	15108.42
593.517	15425.24
593.876	15735.52
594.235	15966.25
594.593	16274.04
594.952	16632.22
595.311	16794.93
595.67	17154.69
596.029	17548.35
596.387	17867.67
596.746	18158.51
597.104	18452.51
597.463	18783.8
597.822	19146.05
598.18	19415.2
598.538	19807.5
598.897	20199.58
599.255	20414.49
599.613	20972.67
599.972	21147.35
600.33	21534.01
600.688	21747.11
601.046	22207.89
601.404	22613.76
601.762	22883.58
602.12	23308.43
602.478	23632.49
602.836	23975.98
603.194	24195.41
603.552	24523.54
603.91	24935.95
604.268	25370.07
604.625	25622.94
604.983	25912.88
605.341	26162.59
605.698	26718.51
606.056	27029.91
606.413	27243.69
606.771	27640.97
607.128	27861.98
607.485	28095.65
607.843	28504.22
608.2	29000.03
608.557	29200.02
608.914	29491.09
609.272	29898.08
609.629	30178.53
609.986	30524.96
610.343	30627.56
610.7	31158.62
611.057	31348.22
611.414	31573.75
611.771	31890.35
612.127	32112.71
612.484	32488.52
612.841	32681.97
613.198	32790.44
613.554	32965.12
613.911	33322.85
614.267	33595.16
614.624	33776.85
614.98	33911.54
615.337	34391.53
615.693	34445.76
616.05	34619.32
616.406	35039.42
616.762	34992.87
617.118	35219.07
617.475	35292.74
617.831	35715.11
618.187	35924.59
618.543	35946.51
618.899	36403.45
619.255	36405.71
619.611	36644.12
619.967	36887.5
620.323	37157.55
620.678	37070.55
621.034	37155.97
621.39	37400.94
621.746	37388.06
622.101	37820.36
622.457	37679.12
622.812	37908.49
623.168	38244.98
623.523	38138.32
623.879	38267.58
624.234	38216.28
624.589	38370.86
624.945	38532.43
625.3	38748.7
625.655	38652.66
626.01	38934.23
626.365	39012.65
626.72	39022.36
627.075	39157.28
627.43	39126.54
627.785	39103.27
628.14	39235.92
628.495	39400.43
628.85	39471.62
629.205	39282.47
629.559	39511.16
629.914	39514.55
630.269	39691.05
630.623	39745.73
630.978	39652.18
631.332	39884.26
631.687	39986.18
632.041	39975.79
632.396	40055.33
632.75	39936.24
633.104	39985.05
633.459	39945.5
633.813	39909.12
634.167	39955.67
634.521	39958.84
634.875	40117.7
635.229	40131.04
635.583	39895.56
635.937	40032.05
636.291	40063.24
636.645	40148.66
636.999	40029.34
637.352	40230.47
637.706	39947.09
638.06	40178.49
638.413	40169.45
638.767	40082
639.121	40181.43
639.474	39962.9
639.828	40069.12
640.181	40193.63
640.534	40189.11
640.888	40084.71
641.241	40033.86
641.594	40170.36
641.947	40269.34
642.301	40215.33
642.654	40324.25
643.007	40292.84
643.36	40240.86
643.713	40208.1
644.066	40429.33
644.419	40086.74
644.771	39785.28
645.124	39496.02
645.477	39357.72
645.83	39223.94
646.182	39139.87
646.535	39136.49
646.888	39295.12
647.24	39129.03
647.593	39284.28
647.945	39310.27
648.298	39183.94
648.65	39175.35
649.002	38962.93
649.355	39122.02
649.707	39191.17
650.059	39339.87
650.411	39782.34
650.763	39715.23
651.115	40262.33
651.467	40113.41
651.819	40098.04
652.171	40038.83
652.523	40094.65
652.875	40035.67
653.227	39955.67
653.578	40230.02
653.93	40066.4
654.282	39912.96
654.633	39901.21
654.985	39890.14
655.337	39990.93
655.688	40058.04
656.039	40035.44
656.391	39790.25
656.742	39936.46
657.094	39949.35
657.445	40159.06
657.796	39863.47
658.147	39839.97
658.498	39758.84
658.849	39776.24
659.2	39827.09
659.551	39656.92
659.902	39860.99
660.253	39854.21
660.604	39933.98
660.955	39711.61
661.306	39969.91
661.656	39951.15
662.007	39922
662.358	39872.74
662.708	39925.84
663.059	39885.39
663.409	39625.74
663.76	39980.3
664.11	39739.18
664.461	39867.09
664.811	39931.04
665.161	39771.27
665.511	39847.88
665.862	39786.19
666.212	39960.42
666.562	40002.68
666.912	39870.93
667.262	39828.9
667.612	39950.47
667.962	39762.23
668.312	39717.49
668.662	39978.5
669.011	39851.27
669.361	39825.51
669.711	39833.42
670.06	39778.95
670.41	39746.41
670.76	39685.4
671.109	39788.67
671.459	39794.09
671.808	39746.64
672.157	39754.1
672.507	39682.23
672.856	39659.64
673.205	39748.9
673.554	39653.99
673.904	39591.16
674.253	39857.37
674.602	39579.86
674.951	39177.84
675.3	38934
675.649	39662.12
675.998	39523.82
676.346	39423.71
676.695	39630.26
677.044	39286.76
677.393	39491.96
677.741	39503.26
678.09	39414.67
678.438	39256.71
678.787	39421.22
679.135	39441.11
679.484	39066.88
679.832	39188.46
680.181	39067.79
680.529	39243.15
680.877	39192.53
681.225	39084.51
681.573	39270.72
681.922	39056.71
682.27	38851.52
682.618	38992.76
682.966	38768.36
683.314	38849.26
683.661	38891.97
684.009	38641.58
684.357	38568.36
684.705	38473.9
685.053	38551.87
685.4	38604.3
685.748	38298.32
686.095	38262.84
686.443	38130.86
686.79	38213.57
687.138	38169.05
687.485	38162.73
687.832	38020.36
688.18	38011.77
688.527	37913.69
688.874	37857.2
689.221	37836.41
689.568	37659.91
689.915	37569.97
690.262	37617.2
690.609	37529.97
690.956	37453.59
691.303	37388.96
691.65	37156.88
691.997	37204.78
692.344	37032.36
692.69	37049.76
693.037	37013.15
693.383	36752.82
693.73	36751.92
694.077	36618.59
694.423	36501.07
694.769	36527.29
695.116	36445.48
695.462	36442.77
695.808	36362.09
696.155	36309.21
696.501	36108.54
696.847	36103.12
697.193	35802.79
697.539	35969.56
697.885	35622.23
698.231	35565.96
698.577	35541.55
698.923	35663.36
699.269	35414.55
699.614	35142.92
699.96	35282.35
700.306	35238.06
700.651	35095.24
700.997	34968.01
701.342	34760.33
701.688	34859.76
702.033	34750.84
702.379	34739.09
702.724	34574.57
703.069	34598.07
703.415	34356.05
703.76	34278.76
704.105	34315.82
704.45	34284.41
704.795	34105.66
705.14	33974.13
705.485	33959.45
705.83	33777.76
706.175	33940.46
706.52	33824.76
706.865	33626.35
707.209	33646.23
707.554	33584.31
707.899	33597.65
708.243	33279.46
708.588	33224.78
708.932	33138.68
709.277	33161.73
709.621	33123.54
709.966	32778.46
710.31	32956.53
710.654	32701.63
710.998	32961.73
711.342	32747.95
711.687	32758.35
712.031	32591.57
712.375	32491.46
712.719	32490.56
713.063	32434.51
713.407	32521.52
713.75	32279.26
714.094	32334.63
714.438	32048.54
714.782	32234.29
715.125	32044.02
715.469	32135.09
715.812	31929.89
716.156	31749.11
716.499	31873.85
716.843	31766.28
717.186	31629.56
717.53	31757.47
717.873	31723.12
718.216	31730.13
718.559	31531.71
718.902	31300.76
719.246	31464.82
719.589	31268.9
719.932	31198.61
720.275	31242.46
720.617	31162.01
720.96	31158.39
721.303	31069.35
721.646	31282.91
721.989	30870.94
722.331	31072.52
722.674	30930.37
723.016	30952.75
723.359	30726.76
723.701	30894.44
724.044	30612.64
724.386	30600.44
724.729	30751.62
725.071	30550.95
725.413	30512.53
725.755	30510.27
726.097	30361.57
726.439	30243.16
726.782	30266.44
727.124	30465.98
727.465	30162.03
727.807	30145.31
728.149	30182.14
728.491	30185.08
728.833	30180.11
729.175	30000.45
729.516	30062.15
729.858	30036.39
730.199	29987.12
730.541	29890.85
730.882	29983.96
731.224	29994.13
731.565	29636.62
731.906	29588.71
732.248	29729.05
732.589	29616.28
732.93	29571.54
733.271	29602.05
733.612	29586.68
733.953	29466
734.294	29453.58
734.635	29412.67
734.976	29463.07
735.317	29282.51
735.658	29361.6
735.999	29277.99
736.339	29140.14
736.68	29279.8
737.021	29232.79
737.361	29082.74
737.702	29168.84
738.042	29113.92
738.383	29157.76
738.723	28973.59
739.063	28938.34
739.404	28992.12
739.744	28879.58
740.084	28819.24
740.424	28930.88
740.764	28798.9
741.104	28826.7
741.444	28618.8
741.784	28637.33
742.124	28652.01
742.464	28681.62
742.804	28616.99
743.143	28525.01
743.483	28508.97
743.823	28381.74
744.162	28355.98
744.502	28511.45
744.841	28308.97
745.181	28440.72
745.52	28329.31
745.86	28307.17
746.199	28168.86
746.538	28124.8
746.877	28281.18
747.216	28141.75
747.556	28122.99
747.895	28163.21
748.234	27914.63
748.573	28044.8
748.911	27933.16
749.25	27993.73
749.589	27848.19
749.928	27827.18
750.267	27887.29
750.605	27804.58
750.944	27780.63
751.283	27667.41
751.621	27671.7
751.96	27479.39
752.298	27598.48
752.636	27593.29
752.975	27333.18
753.313	27328.21
753.651	27549.9
753.989	27319.39
754.327	27157.14
754.666	27094.99
755.004	27118.04
755.342	27070.59
755.679	27096.58
756.017	26889.35
756.355	27086.41
756.693	26822.01
757.031	26871.27
757.368	26795.11
757.706	26678.51
758.044	26659.53
758.381	26631.73
758.719	26541.56
759.056	26582.46
759.394	26437.16
759.731	26351.74
760.068	26350.38
760.405	26280.33
760.743	26185.19
761.08	26192.42
