Data from red_shiny_book_FLMS001491_00091.txt Node
Date: Wed Feb 08 15:25:37 GMT 2017
User: dcchb
Spectrometer: FLMS00149
Trigger mode: 0
Integration Time (sec): 2.000000E-2
Scans to average: 10
Electric dark correction enabled: true
Nonlinearity correction enabled: false
Boxcar width: 0
XAxis mode: Wavelengths
Number of Pixels in Spectrum: 2048
>>>>>Begin Spectral Data<<<<<
341.393	12.81
341.776	12.81
342.16	12.81
342.543	-44.14
342.927	-72.16
343.31	-78.26
343.693	-59.73
344.077	-71.93
344.46	-57.24
344.843	-43.23
345.226	-35.1
345.61	-20.64
345.993	-18.15
346.376	-15.89
346.759	29.76
347.142	19.82
347.525	45.13
347.908	43.77
348.291	63.43
348.674	86.03
349.057	112.24
349.44	126.48
349.823	128.97
350.206	165.12
350.588	203.77
350.971	203.31
351.354	217.78
351.737	211
352.119	222.07
352.502	256.87
352.884	266.36
353.267	280.37
353.65	304.33
354.032	298.68
354.414	309.75
354.797	332.8
355.179	327.83
355.562	328.06
355.944	321.28
356.326	335.29
356.709	358.56
357.091	336.87
357.473	360.37
357.855	351.33
358.238	352.01
358.62	324.89
359.002	354.27
359.384	342.29
359.766	355.85
360.148	338
360.53	359.02
360.912	334.16
361.294	325.12
361.676	329.86
362.057	327.6
362.439	321.5
362.821	347.94
363.203	334.84
363.584	348.62
363.966	330.54
364.348	303.42
364.729	325.12
365.111	320.15
365.493	331.9
365.874	311.11
366.256	336.64
366.637	313.37
367.019	307.94
367.4	311.11
367.781	329.64
368.163	313.37
368.544	309.07
368.925	318.11
369.306	319.02
369.688	308.85
370.069	321.95
370.45	314.72
370.831	327.6
371.212	310.43
371.593	300.03
371.974	294.61
372.355	298.45
372.736	312.92
373.117	318.57
373.498	327.15
373.879	320.37
374.26	323.99
374.641	321.95
375.021	319.47
375.402	337.1
375.783	313.37
376.163	327.6
376.544	335.29
376.925	341.84
377.305	326.93
377.686	335.06
378.066	339.13
378.447	343.2
378.827	322.86
379.208	351.78
379.588	336.87
379.968	329.64
380.349	333.93
380.729	357.21
381.109	346.81
381.489	341.16
381.87	348.17
382.25	358.56
382.63	352.91
383.01	361.73
383.39	356.08
383.77	344.33
384.15	352.46
384.53	359.69
384.91	340.26
385.29	366.02
385.67	378.9
386.049	359.47
386.429	346.13
386.809	369.64
387.189	364.67
387.568	364.67
387.948	375.51
388.328	351.56
388.707	364.89
389.087	354.72
389.466	371.9
389.846	385.46
390.225	358.79
390.605	372.8
390.984	378.68
391.363	367.38
391.743	393.37
392.122	369.19
392.501	375.29
392.881	377.77
393.26	374.16
393.639	384.1
394.018	377.09
394.397	376.19
394.776	385.91
395.155	398.34
395.534	378.9
395.913	396.3
396.292	395.85
396.671	377.77
397.05	397.89
397.429	390.43
397.808	385.91
398.186	390.65
398.565	403.08
398.944	393.14
399.323	394.5
399.701	414.38
400.08	403.76
400.458	396.76
400.837	398.79
401.215	439.92
401.594	430.2
401.972	421.84
402.351	419.58
402.729	409.18
403.107	430.2
403.486	414.38
403.864	432.01
404.242	429.3
404.62	455.74
404.999	437.66
405.377	425.45
405.755	444.21
406.133	441.95
406.511	452.35
406.889	448.73
407.267	453.25
407.645	446.25
408.023	464.1
408.401	460.71
408.779	460.93
409.156	476.53
409.534	470.88
409.912	483.08
410.29	475.4
410.667	484.89
411.045	481.95
411.422	483.31
411.8	504.55
412.178	476.08
412.555	524.66
412.933	517.2
413.31	518.11
413.687	505
414.065	529.41
414.442	509.52
414.819	499.58
415.197	529.63
415.574	518.79
415.951	550.65
416.328	520.14
416.705	550.2
417.082	564.66
417.46	551.55
417.837	551.55
418.214	559.46
418.591	578.67
418.967	555.4
419.344	574.6
419.721	571.89
420.098	571.89
420.475	561.72
420.852	557.43
421.228	600.59
421.605	605.11
421.982	595.39
422.358	595.62
422.735	606.92
423.111	615.05
423.488	591.78
423.864	593.59
424.241	604.66
424.617	592.91
424.994	615.28
425.37	630.87
425.746	626.58
426.123	628.61
426.499	610.31
426.875	640.82
427.251	652.79
427.627	635.17
428.003	653.92
428.379	644.66
428.756	643.75
429.132	665.67
429.507	672.68
429.883	696.41
430.259	709.97
430.635	710.87
431.011	716.29
431.387	711.55
431.763	718.78
432.138	707.48
432.514	716.75
432.89	669.97
433.265	739.8
433.641	722.17
434.016	730.08
434.392	730.53
434.767	749.06
435.143	771.66
435.518	777.99
435.894	770.08
436.269	779.57
436.644	753.81
437.02	761.94
437.395	777.31
437.77	781.83
438.145	764.88
438.52	802.62
438.895	804.65
439.271	808.95
439.646	840.36
440.021	837.65
440.395	870.64
440.77	845.78
441.145	853.69
441.52	868.83
441.895	815.28
442.27	845.1
442.645	812.34
443.019	850.75
443.394	835.16
443.769	862.73
444.143	862.96
444.518	891.43
444.892	906.8
445.267	895.27
445.641	895.73
446.016	875.84
446.39	909.06
446.764	888.95
447.139	887.82
447.513	898.66
447.887	910.87
448.262	891.66
448.636	898.66
449.01	924.65
449.384	931.66
449.758	957.64
450.132	981.37
450.506	969.4
450.88	948.61
451.254	937.98
451.628	929.17
452.002	928.49
452.376	941.83
452.75	907.7
453.123	937.08
453.497	971.43
453.871	984.99
454.244	974.59
454.618	1017.08
454.992	1010.52
455.365	1022.5
455.739	1016.85
456.112	1016.63
456.486	1015.72
456.859	990.19
457.232	997.64
457.606	983.18
457.979	1011.2
458.352	1035.61
458.725	1065.44
459.099	1074.25
459.472	1086.91
459.845	1114.93
460.218	1129.17
460.591	1079.9
460.964	1123.74
461.337	1131.2
461.71	1113.8
462.083	1111.31
462.456	1064.31
462.829	1077.87
463.201	1108.37
463.574	1113.12
463.947	1154.02
464.32	1147.24
464.692	1191.31
465.065	1203.97
465.438	1235.6
465.81	1241.93
466.183	1225.89
466.555	1237.41
466.928	1213.46
467.3	1227.69
467.672	1203.29
468.045	1207.36
468.417	1196.96
468.789	1216.39
469.161	1248.03
469.534	1268.37
469.906	1313.79
470.278	1356.96
470.65	1350.4
471.022	1399.89
471.394	1389.5
471.766	1393.79
472.138	1389.95
472.51	1388.37
472.882	1411.87
473.253	1363.74
473.625	1380.91
473.997	1384.75
474.369	1391.31
474.74	1451.64
475.112	1456.16
475.484	1510.85
475.855	1530.06
476.227	1589.72
476.598	1591.3
476.97	1652.77
477.341	1669.04
477.713	1697.06
478.084	1673.33
478.455	1654.12
478.827	1632.65
479.198	1657.96
479.569	1645.08
479.94	1669.49
480.311	1681.69
480.682	1761.92
481.053	1817.73
481.424	1858.41
481.795	1939.09
482.166	1934.34
482.537	1967.79
482.908	2038.97
483.279	2042.36
483.65	2026.77
484.021	2037.16
484.391	2027.67
484.762	1997.62
485.133	1992.42
485.503	2008.69
485.874	2043.27
486.244	2100.89
486.615	2161.23
486.985	2197.16
487.356	2299.98
487.726	2329.81
488.097	2383.82
488.467	2420.43
488.837	2461.11
489.207	2468.11
489.578	2505.63
489.948	2453.65
490.318	2424.27
490.688	2434.67
491.058	2407.55
491.428	2426.98
491.798	2432.18
492.168	2524.16
492.538	2550.6
492.908	2636.47
493.278	2707.2
493.648	2737.94
494.017	2809.35
494.387	2822.45
494.757	2895.45
495.126	2902.68
495.496	2866.97
495.866	2881.21
496.235	2866.29
496.605	2845.73
496.974	2814.54
497.344	2803.25
497.713	2782.91
498.082	2791.95
498.452	2845.05
498.821	2927.76
499.19	2990.59
499.559	3063.8
499.928	3124.14
500.298	3158.72
500.667	3208.66
501.036	3199.39
501.405	3242.78
501.774	3180.18
502.143	3173.41
502.512	3141.99
502.88	3076.68
503.249	3032.84
503.618	3032.84
503.987	3005.27
504.356	3045.95
504.724	3084.14
505.093	3104.71
505.462	3185.16
505.83	3235.55
506.199	3330.92
506.567	3426.05
506.936	3433.74
507.304	3484.81
507.672	3456.11
508.041	3412.5
508.409	3458.82
508.777	3396.22
509.145	3323.46
509.514	3278.49
509.882	3261.76
510.25	3191.94
510.618	3207.08
510.986	3191.71
511.354	3275.32
511.722	3337.92
512.09	3442.55
512.458	3471.02
512.826	3542.66
513.193	3593.51
513.561	3640.51
513.929	3680.28
514.297	3687.74
514.664	3677.12
515.032	3652.04
515.4	3585.15
515.767	3541.76
516.135	3484.13
516.502	3414.3
516.869	3433.29
517.237	3375.21
517.604	3407.3
517.972	3470.8
518.339	3521.64
518.706	3569.55
519.073	3645.48
519.44	3717.57
519.808	3800.28
520.175	3829.43
520.542	3855.2
520.909	3903.56
521.276	3896.32
521.643	3871.47
522.009	3846.83
522.376	3780.85
522.743	3742.66
523.11	3696.78
523.477	3680.74
523.843	3644.35
524.21	3645.26
524.577	3666.73
524.943	3699.72
525.31	3814.97
525.676	3957.57
526.043	3987.17
526.409	4088.86
526.776	4178.8
527.142	4210.21
527.508	4279.36
527.874	4346.71
528.241	4322.98
528.607	4275.75
528.973	4272.13
529.339	4201.4
529.705	4173.83
530.071	4126.15
530.437	4066.94
530.803	4023.33
531.169	4079.37
531.535	4049.77
531.901	4087.28
532.267	4211.8
532.632	4293.6
532.998	4392.81
533.364	4525.69
533.73	4564.56
534.095	4700.37
534.461	4779.92
534.826	4788.73
535.192	4837.99
535.557	4853.36
535.923	4799.58
536.288	4769.3
536.653	4732.46
537.019	4557.55
537.384	4511
537.749	4511.22
538.114	4466.7
538.479	4494.95
538.845	4530.88
539.21	4589.87
539.575	4658.79
539.94	4730.43
540.305	4891.55
540.67	4975.84
541.034	5069.63
541.399	5181.49
541.764	5265.1
542.129	5364.53
542.494	5374.03
542.858	5370.18
543.223	5286.8
543.587	5294.48
543.952	5144.65
544.316	5101.72
544.681	5003.41
545.045	5020.59
545.41	4995.28
545.774	4987.59
546.138	4923.19
546.503	4964.54
546.867	5046.35
547.231	5165.22
547.595	5227.14
547.959	5297.19
548.324	5397.98
548.688	5488.82
549.052	5595.94
549.416	5635.71
549.779	5739.44
550.143	5714.36
550.507	5733.11
550.871	5721.13
551.235	5635.49
551.599	5526.56
551.962	5455.61
552.326	5327.92
552.689	5329.05
553.053	5217.19
553.417	5180.13
553.78	5214.26
554.143	5180.58
554.507	5226.01
554.87	5332.22
555.234	5459.9
555.597	5536.06
555.96	5594.81
556.323	5709.16
556.686	5885.88
557.05	5937.85
557.413	5988.02
557.776	6044.29
558.139	6062.59
558.502	6028.47
558.865	6025.76
559.228	5928.59
559.59	5857.85
559.953	5728.37
560.316	5707.12
560.679	5615.6
561.041	5564.3
561.404	5581.7
561.767	5494.93
562.129	5501.71
562.492	5623.06
562.854	5654.02
563.217	5755.26
563.579	5879.1
563.941	5999.77
564.304	6116.6
564.666	6256.04
565.028	6364.51
565.39	6415.58
565.753	6462.36
566.115	6445.86
566.477	6479.98
566.839	6424.17
567.201	6406.77
567.563	6276.15
567.925	6230.27
568.287	6108.7
568.648	6050.84
569.01	5970.85
569.372	5906.44
569.734	5878.64
570.095	5945.31
570.457	5946.67
570.819	6058.08
571.18	6148.02
571.542	6250.39
571.903	6428.69
572.265	6551.4
572.626	6667.78
572.987	6818.73
573.349	6924.27
573.71	7040.42
574.071	7102.12
574.432	7207.65
574.794	7265.95
575.155	7225.73
575.516	7117.03
575.877	7105.28
576.238	7061.66
576.599	6985.28
576.96	6912.74
577.32	6909.8
577.681	6909.13
578.042	6935.57
578.403	7002.68
578.763	7108.44
579.124	7277.7
579.485	7434.31
579.845	7607.86
580.206	7825.94
580.566	8099.83
580.927	8425.92
581.287	8691.68
581.648	8924.67
582.008	9272.45
582.368	9490.3
582.728	9782.27
583.089	9925.77
583.449	10160.34
583.809	10299.55
584.169	10443.95
584.529	10673.32
584.889	10857.05
585.249	10873.32
585.609	11106.3
585.969	11311.04
586.329	11556.01
586.688	11787.19
587.048	12188.99
587.408	12430.34
587.768	12859.25
588.127	13280.94
588.487	13655.84
588.846	14164.53
589.206	14608.13
589.565	15143.49
589.925	15743.24
590.284	16313.62
590.643	16725.14
591.003	17282.41
591.362	17765.56
591.721	18178.66
592.08	18576.39
592.44	19017.28
592.799	19462.69
593.158	19724.16
593.517	19998.5
593.876	20387.87
594.235	20697.01
594.593	20996.67
594.952	21396.2
595.311	21646.59
595.67	22092.46
596.029	22564.31
596.387	23025.54
596.746	23581.23
597.104	23877.04
597.463	24313.19
597.822	24951.59
598.18	25338.25
598.538	25960.6
598.897	26698.66
599.255	26999.22
599.613	27874.45
599.972	28168.68
600.33	28778.61
600.688	28932.95
601.046	29607.96
601.404	29976.09
601.762	30233.71
602.12	30661.04
602.478	30873.47
602.836	31188.26
603.194	31213.57
603.552	31437.97
603.91	31629.61
604.268	31994.12
604.625	32150.04
604.983	32556.14
605.341	32584.84
605.698	33106.86
606.056	33567.86
606.413	33801.53
606.771	34081.97
607.128	34634.05
607.485	34928.05
607.843	35185.22
608.2	35868.82
608.557	36314
608.914	36572.75
609.272	36993.53
609.629	37371.6
609.986	37678.94
610.343	37694.53
610.7	38294.52
611.057	38387.85
611.414	38418.35
611.771	38611.12
612.127	38923.65
612.484	38944.22
612.841	39082.74
613.198	39028.96
613.554	38968.4
613.911	39248.84
614.267	39409.51
614.624	39370.42
614.98	39492.22
615.337	39772.67
615.693	39972.21
616.05	40204.07
616.406	40456.49
616.762	40629.82
617.118	40751.17
617.475	41219.64
617.831	41521.32
618.187	41759.28
618.543	41943.69
618.899	42286.05
619.255	42410.34
619.611	42419.83
619.967	42730.78
620.323	42965.81
620.678	42889.88
621.034	42777.56
621.39	42800.39
621.746	42870.89
622.101	43308.17
622.457	42779.14
622.812	42898.91
623.168	42899.82
623.523	42699.6
623.879	43030.21
624.234	42570.56
624.589	42693.95
624.945	42838.8
625.3	42825.7
625.655	42922.87
626.01	43124.9
626.365	43255.29
626.72	43298.23
627.075	43450.76
627.43	43570.54
627.785	43729.4
628.14	43952.67
628.495	43956.74
628.85	44301.82
629.205	44104.08
629.559	44397.41
629.914	44436.28
630.269	44501.36
630.623	44380.68
630.978	44427.46
631.332	44557.85
631.687	44461.36
632.041	44103.85
632.396	44013.91
632.75	43872.9
633.104	43828.61
633.459	43546.58
633.813	43359.69
634.167	43461.61
634.521	43311.56
634.875	43243.09
635.229	43311.56
635.583	43224.1
635.937	43190.88
636.291	43241.05
636.645	43338.68
636.999	43323.99
637.352	43613.25
637.706	43425.91
638.06	43783.64
638.413	43734.82
638.767	43787.48
639.121	43843.75
639.474	43767.59
639.828	43912.9
640.181	43992.67
640.534	43969.39
640.888	43898.44
641.241	43670.19
641.594	43721.94
641.947	43629.52
642.301	43366.92
642.654	43549.07
643.007	43270.66
643.36	43162.86
643.713	42949.08
644.066	43066.82
644.419	42673.38
644.771	42295.09
645.124	41963.8
645.477	41699.17
645.83	41497.6
646.182	41251.27
646.535	41343.02
646.888	41481.78
647.24	41442.23
647.593	41678.16
647.945	41722
648.298	41701.21
648.65	41550.02
649.002	41614.43
649.355	41887.87
649.707	41940.07
650.059	42162.44
650.411	42538.7
650.763	42666.83
651.115	43121.73
651.467	42954.96
651.819	42978.69
652.171	42781.63
652.523	42583.67
652.875	42381.41
653.227	42263.9
653.578	42579.37
653.93	42337.57
654.282	42105.49
654.633	41731.71
654.985	41837.25
655.337	41662.79
655.688	41673.64
656.039	41792.73
656.391	41310.26
656.742	41424.83
657.094	41468.67
657.445	41607.42
657.796	41423.25
658.147	41556.35
658.498	41545.5
658.849	41790.24
659.2	41714.99
659.551	41742.11
659.902	42006.73
660.253	41887.42
660.604	42190.68
660.955	42081.31
661.306	42282.43
661.656	42366.27
662.007	42326.27
662.358	42387.29
662.708	42237.91
663.059	42133.28
663.409	41861.2
663.76	42101.2
664.11	42197.24
664.461	42001.76
664.811	41876.34
665.161	41706.18
665.511	41406.07
665.862	41446.07
666.212	41479.97
666.562	41360.65
666.912	41110.26
667.262	41065.52
667.612	41047.89
667.962	41066.65
668.312	40825.3
668.662	41017.16
669.011	41032.07
669.361	41012.86
669.711	41078.17
670.06	41142.35
670.41	41155.91
670.76	41060.54
671.109	41430.25
671.459	41449.01
671.808	41416.02
672.157	41658.5
672.507	41355.9
672.856	41468.44
673.205	41542.79
673.554	41541.44
673.904	41505.5
674.253	41803.35
674.602	41673.41
674.951	40920.89
675.3	40839.08
675.649	41314.32
675.998	41309.35
676.346	41051.05
676.695	40918.4
677.044	40816.48
677.393	40759.99
677.741	40696.71
678.09	40550.5
678.438	40222.6
678.787	40322.03
679.135	40242.71
679.484	39882.5
679.832	40013.34
680.181	39647.7
680.529	39942.38
680.877	39795.95
681.225	39744.65
681.573	40245.65
681.922	39952.1
682.27	39902.61
682.618	39982.83
682.966	39946.22
683.314	40203.39
683.661	40109.84
684.009	40061.25
684.357	40125.43
684.705	40223.73
685.053	40139.44
685.4	40110.74
685.748	40085.88
686.095	40169.72
686.443	39707.81
686.79	39732.67
687.138	39792.56
687.485	39794.59
687.832	39438.67
688.18	39444.54
688.527	39152.35
688.874	39094.27
689.221	38792.13
689.568	38640.5
689.915	38587.62
690.262	38456.09
690.609	38311.69
690.956	38000.96
691.303	38015.65
691.65	37767.3
691.997	37691.37
692.344	37378.83
692.69	37392.84
693.037	37734.3
693.383	37288.89
693.73	37463.35
694.077	37362.34
694.423	37308.1
694.769	37384.03
695.116	37356.24
695.462	37461.77
695.808	37376.12
696.155	37465.16
696.501	37230.14
696.847	37400.3
697.193	37218.16
697.539	37393.3
697.885	37092.97
698.231	37132.74
698.577	36964.38
698.923	36907.66
699.269	36738.62
699.614	36661.56
699.96	36484.85
700.306	36423.15
700.651	36190.16
700.997	35931.64
701.342	35795.15
701.688	35656.39
702.033	35543.63
702.379	35348.83
702.724	35177.08
703.069	35174.6
703.415	34828.17
703.76	34688.73
704.105	34720.6
704.45	34538.91
704.795	34285.81
705.14	34309.54
705.485	34239.93
705.83	34196.54
706.175	34311.34
706.52	34244.45
706.865	34188.41
707.209	34189.31
707.554	34172.36
707.899	34332.59
708.243	34031.58
708.588	34130.56
708.932	34117.22
709.277	34104.34
709.621	34260.05
709.966	33998.81
710.31	34108.64
710.654	33886.72
710.998	33947.96
711.342	33849.21
711.687	33802.2
712.031	33654.64
712.375	33427.53
712.719	33447.41
713.063	33428.88
713.407	33463.23
713.75	33150.7
714.094	33192.28
714.438	32851.04
714.782	32712.74
715.125	32518.17
715.469	32498.06
715.812	32357.04
716.156	32188.24
716.499	32086.09
716.843	32102.59
717.186	31890.39
717.53	31918.19
717.873	31932.88
718.216	31835.02
718.559	31665.76
718.902	31523.62
719.246	31689.04
719.589	31596.39
719.932	31616.27
720.275	31601.36
720.617	31554.13
720.96	31604.52
721.303	31673.45
721.646	31790.96
721.989	31625.54
722.331	31749.6
722.674	31707.34
723.016	31768.13
723.359	31644.3
723.701	31684.97
724.044	31568.14
724.386	31386.22
724.729	31539.89
725.071	31459.22
725.413	31490.4
725.755	31395.49
726.097	31251.31
726.439	31047.93
726.782	30916.63
727.124	31020.81
727.465	30721.38
727.807	30654.04
728.149	30524.55
728.491	30409.53
728.833	30357.78
729.175	30071.46
729.516	30158.01
729.858	30106.03
730.199	29946.26
730.541	29824
730.882	29822.87
731.224	29824.46
731.565	29553.73
731.906	29629.43
732.248	29820.16
732.589	29528.19
732.93	29510.79
733.271	29601.64
733.612	29696.78
733.953	29581.98
734.294	29487.74
734.635	29569.77
734.976	29741.29
735.317	29690.45
735.658	29851.8
735.999	29789.43
736.339	29603.9
736.68	29821.29
737.021	29713.72
737.361	29620.39
737.702	29850.9
738.042	29821.97
738.383	29675.76
738.723	29629.21
739.063	29505.59
739.404	29646.61
739.744	29431.7
740.084	29267.63
740.424	29195.77
740.764	29202.1
741.104	29277.35
741.444	28939.96
741.784	28905.38
742.124	28847.08
742.464	28737.03
742.804	28605.05
743.143	28452.06
743.483	28378.17
743.823	28187.89
744.162	28272.86
744.502	28156.7
744.841	28092.07
745.181	28030.15
745.52	27968.23
745.86	27937.95
746.199	27924.39
746.538	27944.96
746.877	27843.94
747.216	27946.31
747.556	27796.94
747.895	27885.98
748.234	27871.29
748.573	27979.53
748.911	27925.07
749.25	27920.78
749.589	27916.94
749.928	28063.82
750.267	27935.69
750.605	28060.21
750.944	27935.01
751.283	27888.46
751.621	27970.04
751.96	27807.11
752.298	27839.65
752.636	27935.92
752.975	27780.89
753.313	27662.93
753.651	27726.66
753.989	27638.75
754.327	27405.76
754.666	27312.88
755.004	27361.24
755.342	27105.21
755.679	27083.96
756.017	26935.72
756.355	26899.34
756.693	26679.23
757.031	26684.2
757.368	26396.07
757.706	26376.19
758.044	26264.55
758.381	26232.91
758.719	25984.56
759.056	25967.83
759.394	25776.43
759.731	25704.11
760.068	25739.14
760.405	25540.5
760.743	25527.39
