Data from red_cardboard_box_FLMS001491_00080.txt Node
Date: Wed Feb 08 11:33:07 GMT 2017
User: dcchb
Spectrometer: FLMS00149
Trigger mode: 0
Integration Time (sec): 2.000000E-2
Scans to average: 10
Electric dark correction enabled: true
Nonlinearity correction enabled: false
Boxcar width: 0
XAxis mode: Wavelengths
Number of Pixels in Spectrum: 2048
>>>>>Begin Spectral Data<<<<<
341.393	-33.37
341.776	-33.37
342.16	-33.37
342.543	-49.19
342.927	-71.34
343.31	-67.27
343.693	-68.85
344.077	-72.24
344.46	-67.72
344.843	-35.63
345.226	-33.37
345.61	-42.41
345.993	-18.46
346.376	-13.94
346.759	12.95
347.142	33.74
347.525	49.11
347.908	54.31
348.291	82.55
348.674	106.06
349.057	81.2
349.44	143.8
349.823	160.52
350.206	163.91
350.588	190.12
350.971	181.31
351.354	221.31
351.737	242.78
352.119	250.69
352.502	255.88
352.884	266.73
353.267	297.69
353.65	301.53
354.032	305.6
354.414	311.02
354.797	316.45
355.179	315.32
355.562	306.28
355.944	317.58
356.326	338.37
356.709	337.24
357.091	342.66
357.473	347.86
357.855	354.64
358.238	318.93
358.62	355.32
359.002	343.79
359.384	306.05
359.766	311.02
360.148	333.4
360.53	324.36
360.912	343.79
361.294	325.94
361.676	343.11
362.057	339.95
362.439	336.78
362.821	321.64
363.203	321.87
363.584	309.89
363.966	318.93
364.348	315.32
364.729	324.13
365.111	325.26
365.493	313.51
365.874	310.12
366.256	308.99
366.637	321.19
367.019	316.67
367.4	330.91
367.781	336.11
368.163	308.31
368.544	301.53
368.925	305.37
369.306	310.8
369.688	296.79
370.069	306.73
370.45	308.99
370.831	298.37
371.212	294.07
371.593	306.5
371.974	307.18
372.355	319.16
372.736	280.52
373.117	317.58
373.498	307.41
373.879	315.54
374.26	305.15
374.641	313.28
375.021	298.37
375.402	306.73
375.783	322.55
376.163	300.63
376.544	304.92
376.925	320.51
377.305	309.22
377.686	302.66
378.066	323.9
378.447	311.93
378.827	316.45
379.208	328.42
379.588	326.39
379.968	320.74
380.349	305.83
380.729	310.34
381.109	325.26
381.489	311.02
381.87	331.81
382.25	304.47
382.63	314.86
383.01	322.32
383.39	312.83
383.77	313.06
384.15	318.03
384.53	326.84
384.91	318.25
385.29	330.23
385.67	321.87
386.049	339.5
386.429	335.66
386.809	334.98
387.189	320.29
387.568	330.46
387.948	362.55
388.328	345.15
388.707	341.76
389.087	337.46
389.466	355.77
389.846	330.68
390.225	346.5
390.605	337.24
390.984	346.05
391.363	345.37
391.743	341.08
392.122	354.41
392.501	336.56
392.881	338.14
393.26	332.04
393.639	355.32
394.018	344.47
394.397	356.22
394.776	338.14
395.155	367.52
395.534	346.5
395.913	334.75
396.292	347.18
396.671	364.35
397.05	355.32
397.429	356.45
397.808	349.67
398.186	357.8
398.565	352.15
398.944	353.96
399.323	361.19
399.701	367.29
400.08	355.54
400.458	355.54
400.837	355.54
401.215	379.5
401.594	359.16
401.972	370
402.351	344.92
402.729	370.91
403.107	357.12
403.486	375.65
403.864	362.32
404.242	354.64
404.62	373.85
404.999	368.65
405.377	373.17
405.755	382.21
406.133	396.22
406.511	356.45
406.889	384.92
407.267	387.63
407.645	370
408.023	383.11
408.401	360.51
408.779	398.03
409.156	371.13
409.534	379.27
409.912	395.09
410.29	377.46
410.667	384.47
411.045	397.8
411.422	384.47
411.8	400.06
412.178	386.5
412.555	391.25
412.933	386.5
413.31	389.21
413.687	374.75
414.065	426.95
414.442	398.7
414.819	413.17
415.197	415.88
415.574	391.47
415.951	432.15
416.328	422.66
416.705	403.22
417.082	415.43
417.46	429.66
417.837	410.68
418.214	414.3
418.591	416.78
418.967	412.49
419.344	422.66
419.721	433.73
420.098	431.47
420.475	410
420.852	436.67
421.228	435.77
421.605	441.64
421.982	421.53
422.358	428.76
422.735	438.93
423.111	428.99
423.488	427.86
423.864	441.64
424.241	436.22
424.617	428.53
424.994	440.29
425.37	456.1
425.746	433.73
426.123	467.18
426.499	437.35
426.875	453.62
427.251	455.65
427.627	452.71
428.003	457.69
428.379	452.04
428.756	445.26
429.132	447.29
429.507	461.75
429.883	463.34
430.259	468.98
430.635	480.28
431.011	487.29
431.387	500.17
431.763	497.68
432.138	482.32
432.514	481.41
432.89	498.36
433.265	478.25
433.641	494.97
434.016	523.67
434.392	489.32
434.767	511.02
435.143	488.19
435.518	500.17
435.894	488.19
436.269	499.94
436.644	514.41
437.02	508.76
437.395	513.05
437.77	533.62
438.145	519.38
438.52	513.96
438.895	517.12
439.271	530.68
439.646	523.9
440.021	516.89
440.395	543.33
440.77	545.37
441.145	531.36
441.52	536.1
441.895	522.99
442.27	551.02
442.645	546.72
443.019	529.55
443.394	519.15
443.769	546.04
444.143	549.89
444.518	546.04
444.892	549.43
445.267	572.94
445.641	555.54
446.016	539.04
446.39	558.02
446.764	565.93
447.139	563.9
447.513	542.88
447.887	565.93
448.262	558.93
448.636	579.94
449.01	582.43
449.384	591.69
449.758	593.95
450.132	587.85
450.506	577.46
450.88	580.17
451.254	592.37
451.628	579.26
452.002	570.23
452.376	593.5
452.75	585.59
453.123	610.9
453.497	584.01
453.871	616.1
454.244	605.25
454.618	626.04
454.992	602.99
455.365	616.1
455.739	617.23
456.112	649.09
456.486	616.55
456.859	624.23
457.232	647.96
457.606	646.16
457.979	643.67
458.352	661.3
458.725	633.95
459.099	664.69
459.472	654.97
459.845	655.42
460.218	658.58
460.591	666.95
460.964	685.7
461.337	657.23
461.71	682.09
462.083	710.33
462.456	694.06
462.829	711.01
463.201	692.03
463.574	680.28
463.947	696.78
464.32	715.98
464.692	719.6
465.065	713.05
465.438	743.78
465.81	737
466.183	731.35
466.555	714.85
466.928	758.02
467.3	765.02
467.672	761.18
468.045	752.37
468.417	773.61
468.789	764.12
469.161	775.64
469.534	782.87
469.906	795.3
470.278	791.24
470.65	803.44
471.022	825.36
471.394	814.29
471.766	810.22
472.138	812.03
472.51	815.87
472.882	850.22
473.253	854.29
473.625	880.73
473.997	866.71
474.369	881.63
474.74	871.46
475.112	904.68
475.484	899.71
475.855	894.28
476.227	908.75
476.598	909.88
476.97	912.36
477.341	948.97
477.713	935.87
478.084	958.69
478.455	986.94
478.827	975.19
479.198	1019.93
479.569	1017.44
479.94	1002.08
480.311	1032.13
480.682	1059.25
481.053	1050.21
481.424	1050.21
481.795	1049.76
482.166	1099.93
482.537	1120.27
482.908	1149.19
483.279	1124.56
483.65	1148.51
484.021	1174.05
484.391	1180.6
484.762	1156.88
485.133	1172.02
485.503	1186.03
485.874	1193.49
486.244	1213.82
486.615	1244.78
486.985	1241.62
487.356	1266.25
487.726	1269.87
488.097	1261.73
488.467	1287.27
488.837	1343.54
489.207	1320.49
489.578	1349.64
489.948	1352.8
490.318	1365.91
490.688	1392.58
491.058	1405.68
491.428	1422.18
491.798	1403.65
492.168	1428.73
492.538	1441.84
492.908	1485
493.278	1484.1
493.648	1461.28
494.017	1501.95
494.387	1493.59
494.757	1492.91
495.126	1543.76
495.496	1533.14
495.866	1565.91
496.235	1552.8
496.605	1573.59
496.974	1580.59
497.344	1621.27
497.713	1600.03
498.082	1588.5
498.452	1633.7
498.821	1639.8
499.19	1637.09
499.559	1644.55
499.928	1669.86
500.298	1675.51
500.667	1701.95
501.036	1717.09
501.405	1724.55
501.774	1694.04
502.143	1734.94
502.512	1707.14
502.88	1745.56
503.249	1741.27
503.618	1777.43
503.987	1770.65
504.356	1742.4
504.724	1811.77
505.093	1780.14
505.462	1805.9
505.83	1821.27
506.199	1805.45
506.567	1839.8
506.936	1833.69
507.304	1884.54
507.672	1896.52
508.041	1895.84
508.409	1911.88
508.777	1922.73
509.145	1902.17
509.514	1940.58
509.882	1954.6
510.25	1941.94
510.618	1959.57
510.986	1977.87
511.354	2014.03
511.722	1998.89
512.09	2002.05
512.458	2018.77
512.826	2073.24
513.193	2068.26
513.561	2065.33
513.929	2069.62
514.297	2076.85
514.664	2101.26
515.032	2100.58
515.4	2127.47
515.767	2152.56
516.135	2207.7
516.502	2177.41
516.869	2199.79
517.237	2202.5
517.604	2168.38
517.972	2227.13
518.339	2245.89
518.706	2239.11
519.073	2254.25
519.44	2276.85
519.808	2309.16
520.175	2276.85
520.542	2348.26
520.909	2373.12
521.276	2329.73
521.643	2365.66
522.009	2372.89
522.376	2382.38
522.743	2386.67
523.11	2443.62
523.477	2436.16
523.843	2444.07
524.21	2507.12
524.577	2488.82
524.943	2543.51
525.31	2549.83
525.676	2546.44
526.043	2577.86
526.409	2601.13
526.776	2604.52
527.142	2654.01
527.508	2621.7
527.874	2652.2
528.241	2677.51
528.607	2693.33
528.973	2712.09
529.339	2707.8
529.705	2734.24
530.071	2789.83
530.437	2770.85
530.803	2814.69
531.169	2835.02
531.535	2855.59
531.901	2813.1
532.267	2845.87
532.632	2878.86
532.998	2915.7
533.364	2872.99
533.73	2900.56
534.095	2917.96
534.461	2964.74
534.826	2938.07
535.192	2982.82
535.557	3014
535.923	3009.48
536.288	3028.24
536.653	3032.08
537.019	3036.15
537.384	3044.06
537.749	3068.69
538.114	3101.46
538.479	3121.12
538.845	3110.95
539.21	3078.86
539.575	3136.94
539.94	3122.47
540.305	3146.65
540.67	3151.4
541.034	3183.26
541.399	3218.07
541.764	3202.7
542.129	3243.38
542.494	3232.98
542.858	3254.22
543.223	3284.28
543.587	3309.36
543.952	3293.09
544.316	3288.8
544.681	3341.9
545.045	3311.17
545.41	3339.64
545.774	3345.07
546.138	3395.91
546.503	3432.97
546.867	3396.82
547.231	3423.26
547.595	3480.66
547.959	3471.84
548.324	3479.3
548.688	3522.69
549.052	3492.63
549.416	3543.48
549.779	3510.71
550.143	3546.19
550.507	3583.71
550.871	3623.03
551.235	3582.12
551.599	3655.12
551.962	3655.57
552.326	3665.51
552.689	3703.02
553.053	3712.52
553.417	3673.87
553.78	3738.73
554.143	3730.82
554.507	3780.54
554.87	3784.15
555.234	3860.53
555.597	3893.08
555.96	3909.12
556.323	3893.3
556.686	3916.8
557.05	3911.83
557.413	3991.83
557.776	3999.29
558.139	4050.36
558.502	4039.74
558.865	4065.27
559.228	4121.32
559.59	4135.1
559.953	4209.68
560.316	4224.37
560.679	4222.78
561.041	4268.88
561.404	4270.47
561.767	4339.39
562.129	4328.32
562.492	4452.83
562.854	4457.13
563.217	4393.18
563.579	4510.23
563.941	4501.42
564.304	4520.86
564.666	4616.22
565.028	4645.37
565.39	4677.91
565.753	4712.94
566.115	4771.7
566.477	4746.16
566.839	4806.72
567.201	4849.66
567.563	4901.64
567.925	4905.03
568.287	4971.24
568.648	4989.77
569.01	5041.75
569.372	5138.01
569.734	5121.29
570.095	5234.96
570.457	5268.86
570.819	5277.45
571.18	5305.92
571.542	5409.19
571.903	5406.48
572.265	5445.58
572.626	5548.63
572.987	5550.89
573.349	5602.41
573.71	5628.85
574.071	5685.57
574.432	5723.31
574.794	5841.95
575.155	5888.96
575.516	5952.46
575.877	5966.69
576.238	6005.79
576.599	6055.05
576.96	6172.79
577.32	6226.35
577.681	6317.64
578.042	6360.81
578.403	6336.85
578.763	6473.35
579.124	6576.17
579.485	6660.01
579.845	6771.19
580.206	6735.71
580.566	6850.74
580.927	6926.22
581.287	6983.39
581.648	7087.12
582.008	7179.09
582.368	7242.59
582.728	7408.01
583.089	7515.35
583.449	7520.32
583.809	7676.25
584.169	7813.88
584.529	7920.77
584.889	8037.37
585.249	8063.14
585.609	8237.14
585.969	8429.68
586.329	8516.23
586.688	8681.2
587.048	8770.24
587.408	8900.18
587.768	9047.97
588.127	9193.5
588.487	9375.19
588.846	9504.91
589.206	9630.1
589.565	9832.58
589.925	9998.68
590.284	10181.27
590.643	10320.7
591.003	10565.22
591.362	10800.01
591.721	10964.08
592.08	11122.72
592.44	11328.59
592.799	11512.99
593.158	11791.62
593.517	11910.27
593.876	12143.03
594.235	12387.77
594.593	12602.9
594.952	12926.06
595.311	13042.21
595.67	13387.06
596.029	13561.07
596.387	13866.82
596.746	14139.81
597.104	14251.9
597.463	14612.12
597.822	14848.27
598.18	15005.1
598.538	15218.65
598.897	15620.68
599.255	15708.13
599.613	16271.06
599.972	16342.47
600.33	16624.94
600.688	16765.05
601.046	17134.08
601.404	17494.75
601.762	17678.7
602.12	18023.55
602.478	18226.26
602.836	18464.9
603.194	18700.14
603.552	18936.52
603.91	19089.74
604.268	19428.03
604.625	19654.02
604.983	19968.13
605.341	20144.63
605.698	20520.89
606.056	20683.14
606.413	20875.45
606.771	21102.79
607.128	21525.15
607.485	21517.92
607.843	21789.78
608.2	22182.31
608.557	22336.66
608.914	22596.31
609.272	22824.1
609.629	23126.02
609.986	23321.04
610.343	23344.32
610.7	23785.43
611.057	23867.01
611.414	24072.43
611.771	24270.39
612.127	24422.25
612.484	24524.85
612.841	24876.48
613.198	24936.14
613.554	25080.99
613.911	25302
614.267	25533.41
614.624	25684.59
614.98	25885.94
615.337	26086.84
615.693	26089.78
616.05	26368.19
616.406	26577.22
616.762	26673.04
617.118	26769.99
617.475	26642.31
617.831	27113.71
618.187	27240.03
618.543	27285.68
618.899	27571.32
619.255	27439.35
619.611	27657.2
619.967	27868.04
620.323	28055.83
620.678	28050.41
621.034	27951.43
621.39	28183.51
621.746	28315.48
622.101	28662.59
622.457	28460.11
622.812	28570.62
623.168	28781.01
623.523	28682.48
623.879	29091.28
624.234	28846.77
624.589	29113.2
624.945	29158.63
625.3	29249.02
625.655	29281.11
626.01	29399.52
626.365	29402.46
626.72	29446.75
627.075	29533.76
627.43	29542.34
627.785	29514.55
628.14	29728.55
628.495	29831.15
628.85	29844.94
629.205	29706.18
629.559	29959.73
629.914	29802.9
630.269	29997.93
630.623	29832.73
630.978	30044.03
631.332	30201.31
631.687	30189.11
632.041	30017.13
632.396	30176
632.75	30188.2
633.104	30270.91
633.459	30126.96
633.813	30112.73
634.167	30042.9
634.521	30173.06
634.875	30251.03
635.229	30193.4
635.583	30081.54
635.937	30209.9
636.291	30182.78
636.645	30143.91
636.999	30160.86
637.352	30299.16
637.706	30135.32
638.06	30285.6
638.413	30191.37
638.767	30318.14
639.121	30187.3
639.474	30183.91
639.828	30328.99
640.181	30289.44
640.534	30348.2
640.888	30369.22
641.241	30131.03
641.594	30337.35
641.947	30239.05
642.301	30267.75
642.654	30258.26
643.007	30242.89
643.36	30314.98
643.713	30273.17
644.066	30331.7
644.419	30199.5
644.771	29948.44
645.124	29676.35
645.477	29673.87
645.83	29630.03
646.182	29527.2
646.535	29500.99
646.888	29486.07
647.24	29476.13
647.593	29619.63
647.945	29663.92
648.298	29477.49
648.65	29407.66
649.002	29382.57
649.355	29525.62
649.707	29628.67
650.059	29638.39
650.411	29906.18
650.763	29944.82
651.115	30355.66
651.467	30155.21
651.819	30356.56
652.171	30228.65
652.523	30182.1
652.875	30216.23
653.227	30103.23
653.578	30318.14
653.93	30308.43
654.282	30064.59
654.633	30152.27
654.985	30265.94
655.337	30164.02
655.688	30120.18
656.039	30137.13
656.391	29923.8
656.742	30025.72
657.094	30013.07
657.445	30098.71
657.796	30073.4
658.147	29956.8
658.498	30044.25
658.849	30040.41
659.2	30025.95
659.551	29952.28
659.902	30079.73
660.253	29943.92
660.604	30223.23
660.955	29949.34
661.306	30045.83
661.656	30003.35
662.007	30117.47
662.358	30107.75
662.708	30012.84
663.059	30109.11
663.409	29814.88
663.76	30121.31
664.11	30090.8
664.461	30124.93
664.811	30049.68
665.161	30079.28
665.511	30007.64
665.862	30084.48
666.212	30103.46
666.562	30119.5
666.912	30042.22
667.262	30143.23
667.612	30131.71
667.962	30176.68
668.312	29925.39
668.662	30165.83
669.011	30153.18
669.361	30082.67
669.711	30185.04
670.06	30161.99
670.41	29955.89
670.76	30004.48
671.109	30118.6
671.459	30007.42
671.808	29850.81
672.157	29999.28
672.507	29843.13
672.856	29895.56
673.205	29929.91
673.554	30065.72
673.904	29870.25
674.253	30057.36
674.602	29825.5
674.951	29562.23
675.3	29377.38
675.649	29802.45
675.998	29997.02
676.346	29797.03
676.695	29977.59
677.044	29780.98
677.393	29878.83
677.741	29919.96
678.09	29792.51
678.438	29804.71
678.787	29718.16
679.135	29760.19
679.484	29509.8
679.832	29675.67
680.181	29548.45
680.529	29609.69
680.877	29503.7
681.225	29542.57
681.573	29689.69
681.922	29580.76
682.27	29323.37
682.618	29375.8
682.966	29292.63
683.314	29446.98
683.661	29320.43
684.009	29119.53
684.357	29169.25
684.705	29044.28
685.053	28985.07
685.4	29006.99
685.748	29001.57
686.095	28915.02
686.443	28829.37
686.79	28785.53
687.138	28852.42
687.485	28834.11
687.832	28679.77
688.18	28695.81
688.527	28666.21
688.874	28580.56
689.221	28456.72
689.568	28375.14
689.915	28352.32
690.262	28330.4
690.609	28267.12
690.956	28183.96
691.303	28221.93
691.65	28074.36
691.997	27998.2
692.344	28032.78
692.69	27862.16
693.037	27970.41
693.383	27730.19
693.73	27851.09
694.077	27570.42
694.423	27640.02
694.769	27620.36
695.116	27585.56
695.462	27612
695.808	27453.13
696.155	27395.73
696.501	27154.38
696.847	27203.42
697.193	27027.16
697.539	27168.62
697.885	26806.82
698.231	26954.84
698.577	27008.85
698.923	26823.32
699.269	26594.4
699.614	26605.02
699.96	26598.92
700.306	26652.7
700.651	26429.43
700.997	26392.82
701.342	26298.81
701.688	26285.03
702.033	26096.33
702.379	26162.77
702.724	26048.43
703.069	26175.65
703.415	25885.94
703.76	25972.72
704.105	25867.19
704.45	25812.05
704.795	25574.77
705.14	25681.43
705.485	25587.42
705.83	25564.6
706.175	25629.91
706.52	25428.33
706.865	25414.77
707.209	25365.96
707.554	25344.26
707.899	25345.84
708.243	25170.26
708.588	25049.81
708.932	24990.6
709.277	24981.79
709.621	25054.78
709.966	24821.56
710.31	24917.16
710.654	24624.28
710.998	24754.9
711.342	24797.38
711.687	24747.22
712.031	24677.61
712.375	24530.73
712.719	24540.89
713.063	24484.4
713.407	24532.53
713.75	24517.39
714.094	24355.59
714.438	24247.79
714.782	24305.87
715.125	24220
715.469	24211.19
715.812	23975.94
716.156	23924.64
716.499	24004.86
716.843	23923.51
717.186	23761.71
717.53	24001.7
717.873	23986.78
718.216	23838.77
718.559	23856.39
718.902	23596.29
719.246	23655.95
719.589	23578.66
719.932	23486.91
720.275	23498.89
720.617	23592.44
720.96	23406.01
721.303	23517.64
721.646	23496.4
721.989	23281.72
722.331	23405.56
722.674	23298.89
723.016	23417.76
723.359	23311.1
723.701	23288.72
724.044	23146.81
724.386	23162.85
724.729	23192
725.071	23091.44
725.413	23004.21
725.755	23101.61
726.097	23015.74
726.439	22840.15
726.782	22927.15
727.124	22961.5
727.465	22860.94
727.807	22803.31
728.149	22795.18
728.491	22665.24
728.833	22799.7
729.175	22716.99
729.516	22599.7
729.858	22619.14
730.199	22687.38
730.541	22643.09
730.882	22656.65
731.224	22764.44
731.565	22485.13
731.906	22503.89
732.248	22497.11
732.589	22377.56
732.93	22338.01
733.271	22391.35
733.612	22293.95
733.953	22345.25
734.294	22258.02
734.635	22292.82
734.976	22340.27
735.317	22192.48
735.658	22253.04
735.999	22184.35
736.339	22131.01
736.68	22196.55
737.021	22054.63
737.361	21969.89
737.702	22085.14
738.042	22003.11
738.383	21953.39
738.723	22015.08
739.063	21744.81
739.404	21936.22
739.744	21875.43
740.084	21888.31
740.424	21843.56
740.764	21722.89
741.104	21798.82
741.444	21722.44
741.784	21676.79
742.124	21689.22
742.464	21685.83
742.804	21599.95
743.143	21589.11
743.483	21701.65
743.823	21483.8
744.162	21575.55
744.502	21474.31
744.841	21431.6
745.181	21454.65
745.52	21372.16
745.86	21422.11
746.199	21360.86
746.538	21324.93
746.877	21367.64
747.216	21368.1
747.556	21267.53
747.895	21295.33
748.234	21211.04
748.573	21201.77
748.911	21157.93
749.25	21108.67
749.589	21078.16
749.928	21075.67
750.267	21087.43
750.605	20975.56
750.944	21044.49
751.283	20866.41
751.621	20969.91
751.96	20847.88
752.298	20783.03
752.636	20786.64
752.975	20655.35
753.313	20701.9
753.651	20783.93
753.989	20657.38
754.327	20576.93
754.666	20568.57
755.004	20545.52
755.342	20535.58
755.679	20442.24
756.017	20387.56
756.355	20530.6
756.693	20330.16
757.031	20343.26
757.368	20305.53
757.706	20179.43
758.044	20228.24
758.381	20218.75
758.719	20138.3
759.056	20148.02
759.394	20083.16
759.731	19955.48
760.068	19994.35
760.405	19831.41
760.743	19895.37
761.08	19902.82
761.417	19789.61
761.754	19767.01
762.091	19640.46
