Data from red_shiny_book_FLMS001491_00058.txt Node
Date: Wed Feb 08 15:25:03 GMT 2017
User: dcchb
Spectrometer: FLMS00149
Trigger mode: 0
Integration Time (sec): 2.000000E-2
Scans to average: 10
Electric dark correction enabled: true
Nonlinearity correction enabled: false
Boxcar width: 0
XAxis mode: Wavelengths
Number of Pixels in Spectrum: 2048
>>>>>Begin Spectral Data<<<<<
341.393	1.91
341.776	1.91
342.16	1.91
342.543	-62.5
342.927	-50.75
343.31	-58.66
343.693	-69.05
344.077	-70.63
344.46	-56.85
344.843	-65.89
345.226	-55.72
345.61	-34.93
345.993	-16.4
346.376	6.65
346.759	5.75
347.142	29.48
347.525	43.71
347.908	60.44
348.291	92.07
348.674	80.1
349.057	109.93
349.44	132.52
349.823	156.48
350.206	165.97
350.588	229.25
350.971	226.76
351.354	234.44
351.737	238.06
352.119	253.43
352.502	279.87
352.884	290.26
353.267	307.89
353.65	295.68
354.032	332.97
354.414	301.79
354.797	325.97
355.179	330.94
355.562	352.41
355.944	339.52
356.326	326.42
356.709	350.15
357.091	337.49
357.473	361.45
357.855	351.95
358.238	361.67
358.62	364.84
359.002	353.54
359.384	375
359.766	366.87
360.148	351.5
360.53	344.5
360.912	337.94
361.294	346.98
361.676	347.43
362.057	343.14
362.439	359.64
362.821	323.48
363.203	359.86
363.584	353.31
363.966	337.27
364.348	341.33
364.729	333.2
365.111	348.11
365.493	355.12
365.874	337.49
366.256	313.31
366.637	334.78
367.019	325.29
367.4	327.55
367.781	329.81
368.163	339.3
368.544	313.54
368.925	339.75
369.306	358.96
369.688	339.98
370.069	335.23
370.45	329.36
370.831	336.81
371.212	330.94
371.593	321.9
371.974	340.43
372.355	346.53
372.736	365.29
373.117	353.31
373.498	347.21
373.879	342.46
374.26	332.07
374.641	344.95
375.021	357.6
375.402	353.99
375.783	345.17
376.163	375.23
376.544	344.95
376.925	344.04
377.305	338.17
377.686	370.94
378.066	352.86
378.447	363.03
378.827	364.61
379.208	357.6
379.588	365.06
379.968	361.45
380.349	367.55
380.729	364.16
381.109	372.07
381.489	377.72
381.87	362.8
382.25	356.47
382.63	375.23
383.01	368.9
383.39	391.73
383.77	402.57
384.15	379.98
384.53	366.64
384.91	391.5
385.29	388.56
385.67	390.6
386.049	390.82
386.429	404.83
386.809	408.68
387.189	407.77
387.568	385.85
387.948	385.85
388.328	405.96
388.707	376.13
389.087	404.16
389.466	422.01
389.846	415.68
390.225	413.65
390.605	410.71
390.984	407.09
391.363	411.61
391.743	429.92
392.122	416.59
392.501	421.56
392.881	440.09
393.26	451.39
393.639	433.99
394.018	429.47
394.397	422.91
394.776	445.28
395.155	452.52
395.534	435.57
395.913	443.48
396.292	426.53
396.671	426.3
397.05	442.35
397.429	441.44
397.808	453.65
398.186	429.69
398.565	443.03
398.944	458.39
399.323	441.22
399.701	466.3
400.08	473.08
400.458	490.93
400.837	502.23
401.215	467.66
401.594	473.76
401.972	459.52
402.351	484.83
402.729	461.1
403.107	466.08
403.486	489.58
403.864	480.54
404.242	494.55
404.62	501.55
404.999	500.2
405.377	499.29
405.755	494.1
406.133	475.34
406.511	513.98
406.889	520.54
407.267	526.86
407.645	511.05
408.023	520.54
408.401	542.68
408.779	533.87
409.156	528.67
409.534	525.28
409.912	541.55
410.29	527.32
410.667	545.17
411.045	570.03
411.422	572.06
411.8	582.91
412.178	587.65
412.555	583.59
412.933	579.29
413.31	583.81
413.687	595.56
414.065	616.81
414.442	608.44
414.819	616.35
415.197	616.81
415.574	613.87
415.951	648.44
416.328	626.52
416.705	678.05
417.082	644.38
417.46	631.04
417.837	647.09
418.214	645.96
418.591	660.87
418.967	664.94
419.344	672.17
419.721	697.03
420.098	711.72
420.475	705.62
420.852	700.87
421.228	708.33
421.605	716.24
421.982	703.13
422.358	706.07
422.735	696.35
423.111	685.73
423.488	736.35
423.864	721.89
424.241	763.92
424.617	774.09
424.994	764.37
425.37	770.7
425.746	778.84
426.123	761.43
426.499	717.14
426.875	756.69
427.251	775.9
427.627	800.08
428.003	804.6
428.379	821.55
428.756	823.58
429.132	850.02
429.507	828.78
429.883	857.7
430.259	843.92
430.635	819.06
431.011	805.05
431.387	857.7
431.763	863.8
432.138	831.04
432.514	903.13
432.89	910.13
433.265	936.57
433.641	941.54
434.016	936.8
434.392	945.84
434.767	921.43
435.143	909.91
435.518	921.66
435.894	906.97
436.269	953.29
436.644	974.54
437.02	994.42
437.395	1014.08
437.77	1028.32
438.145	1054.76
438.52	1055.66
438.895	1048.43
439.271	1017.25
439.646	1011.82
440.021	1029.22
440.395	1046.17
440.77	1008.66
441.145	1019.96
441.52	1096.34
441.895	1081.2
442.27	1116.91
442.645	1111.71
443.019	1118.94
443.394	1111.26
443.769	1128.43
444.143	1075.78
444.518	1069.45
444.892	1074.42
445.267	1075.55
445.641	1094.53
446.016	1126.4
446.39	1159.62
446.764	1186.06
447.139	1193.06
447.513	1186.51
447.887	1190.58
448.262	1192.16
448.636	1176.11
449.01	1135.44
449.384	1138.37
449.758	1162.55
450.132	1183.12
450.506	1160.97
450.88	1177.02
451.254	1193.51
451.628	1265.83
452.002	1268.77
452.376	1282.55
452.75	1283.91
453.123	1257.69
453.497	1245.49
453.871	1226.96
454.244	1227.64
454.618	1262.89
454.992	1242.78
455.365	1248.2
455.739	1326.39
456.112	1349.22
456.486	1370.01
456.859	1386.28
457.232	1425.6
457.606	1413.4
457.979	1398.93
458.352	1388.31
458.725	1375.43
459.099	1352.83
459.472	1361.42
459.845	1360.52
460.218	1407.07
460.591	1433.73
460.964	1465.37
461.337	1510.79
461.71	1533.62
462.083	1568.42
462.456	1556.89
462.829	1530.23
463.201	1535.43
463.574	1526.16
463.947	1514.86
464.32	1520.28
464.692	1513.51
465.065	1513.51
465.438	1529.55
465.81	1589.21
466.183	1624.46
466.555	1661.75
466.928	1724.8
467.3	1735.19
467.672	1739.94
468.045	1774.52
468.417	1737
468.789	1700.39
469.161	1705.36
469.534	1691.58
469.906	1704.46
470.278	1724.35
470.65	1758.24
471.022	1828.53
471.394	1861.29
471.766	1913.72
472.138	1966.15
472.51	1998.92
472.882	2023.1
473.253	2080.95
473.625	2039.59
473.997	2021.51
474.369	1977.22
474.74	1971.8
475.112	1944.45
475.484	2025.81
475.855	2033.94
476.227	2095.86
476.598	2147.84
476.97	2260.6
477.341	2317.78
477.713	2382.18
478.084	2387.38
478.455	2475.06
478.827	2461.28
479.198	2457.21
479.569	2414.5
479.94	2421.28
480.311	2402.97
480.682	2401.62
481.053	2427.15
481.424	2484.1
481.795	2577.21
482.166	2678.67
482.537	2717.09
482.908	2870.98
483.279	2909.17
483.65	2990.98
484.021	3049.74
484.391	3031.88
484.762	3018.78
485.133	2990.98
485.503	2925.67
485.874	2935.39
486.244	2972.9
486.615	2995.27
486.985	2987.14
487.356	3089.51
487.726	3221.26
488.097	3357.52
488.467	3426.45
488.837	3578.08
489.207	3641.59
489.578	3694.24
489.948	3700.57
490.318	3687.91
490.688	3653.11
491.058	3625.31
491.428	3619.44
491.798	3570.63
492.168	3558.65
492.538	3610.63
492.908	3682.94
493.278	3763.16
493.648	3794.8
494.017	3973.55
494.387	4080.9
494.757	4231.85
495.126	4289.48
495.496	4315.47
495.866	4339.87
496.235	4322.47
496.605	4256.03
496.974	4237.05
497.344	4096.04
497.713	4086.09
498.082	4079.99
498.452	4069.82
498.821	4144.17
499.19	4224.39
499.559	4271.4
499.928	4483.82
500.298	4597.27
500.667	4731.05
501.036	4757.71
501.405	4822.34
501.774	4795.23
502.143	4755.68
502.512	4701.44
502.88	4652.63
503.249	4522.47
503.618	4485.4
503.987	4402.69
504.356	4442.02
504.724	4418.74
505.093	4530.83
505.462	4610.15
505.83	4693.31
506.199	4842.68
506.567	4991.15
506.936	5120.19
507.304	5250.36
507.672	5208.55
508.041	5248.1
508.409	5157.03
508.777	5127.2
509.145	5026.86
509.514	4987.99
509.882	4881.78
510.25	4754.55
510.618	4732.86
510.986	4772.63
511.354	4913.42
511.722	5044.03
512.09	5117.7
512.458	5202.67
512.826	5292.84
513.193	5481.76
513.561	5529.9
513.929	5620.97
514.297	5632.49
514.664	5563.79
515.032	5539.61
515.4	5445.83
515.767	5313.41
516.135	5143.47
516.502	5088.55
516.869	5053.98
517.237	5025.28
517.604	5096.91
517.972	5220.3
518.339	5385.95
518.706	5521.08
519.073	5676.11
519.44	5841.98
519.808	5968.98
520.175	6006.04
520.542	6085.36
520.909	6100.5
521.276	6002.43
521.643	5903.22
522.009	5861.64
522.376	5733.51
522.743	5641.98
523.11	5550.69
523.477	5499.16
523.843	5495.1
524.21	5573.96
524.577	5685.15
524.943	5870.68
525.31	6067.96
525.676	6269.54
526.043	6397.67
526.409	6575.75
526.776	6749.07
527.142	6745.01
527.508	6752.92
527.874	6719.02
528.241	6651.22
528.607	6545.69
528.973	6409.42
529.339	6265.7
529.705	6234.96
530.071	6152.03
530.437	6139.6
530.803	6159.48
531.169	6261.63
531.535	6401.06
531.901	6567.61
532.267	6815.96
532.632	7041.04
532.998	7152.45
533.364	7330.98
533.73	7428.15
534.095	7579.11
534.461	7609.62
534.826	7588.15
535.192	7463.63
535.557	7270.42
535.923	7155.84
536.288	7026.58
536.653	6897.77
537.019	6827.04
537.384	6778.68
537.749	6821.84
538.114	7001.72
538.479	7081.49
538.845	7227.03
539.21	7393.58
539.575	7654.36
539.94	7907.69
540.305	8047.57
540.67	8255.7
541.034	8294.57
541.399	8430.84
541.764	8357.17
542.129	8338.86
542.494	8180.9
542.858	7961.02
543.223	7814.36
543.587	7654.81
543.952	7484.87
544.316	7443.07
544.681	7416.18
545.045	7473.57
545.41	7569.84
545.774	7773.45
546.138	7900.68
546.503	8149.94
546.867	8345.87
547.231	8669.25
547.595	8818.17
547.959	8895.68
548.324	9033.08
548.688	9047.77
549.052	9042.12
549.416	8915.57
549.779	8766.2
550.143	8606.43
550.507	8413.44
550.871	8321.91
551.235	8041.7
551.599	7937.97
551.962	7879.44
552.326	7859.1
552.689	7992.21
553.053	8105.65
553.417	8289.82
553.78	8565.98
554.143	8740.21
554.507	9016.13
554.87	9177.48
555.234	9375.9
555.597	9384.03
555.96	9469
556.323	9546.06
556.686	9439.4
557.05	9287.54
557.413	9164.15
557.776	9001.9
558.139	8803.48
558.502	8690.94
558.865	8487.56
559.228	8461.12
559.59	8385.42
559.953	8359.65
560.316	8496.6
560.679	8669.7
561.041	8890.03
561.404	9024.04
561.767	9378.61
562.129	9487.76
562.492	9829.44
562.854	10002.1
563.217	9977.46
563.579	10177.46
563.941	10162.09
564.304	10148.31
564.666	10112.15
565.028	9878.03
565.39	9751.25
565.753	9598.04
566.115	9386.97
566.477	9284.83
566.839	9045.28
567.201	9069.46
567.563	9016.81
567.925	9109.92
568.287	9199.63
568.648	9361.66
569.01	9610.47
569.372	9871.93
569.734	10123
570.095	10431.69
570.457	10599.59
570.819	10870.1
571.18	10928.85
571.542	11020.37
571.903	11020.83
572.265	11001.39
572.626	10942.86
572.987	10830.77
573.349	10575.41
573.71	10496.77
574.071	10273.5
574.432	10090.23
574.794	10013.85
575.155	9908.76
575.516	9924.81
575.877	10129.1
576.238	10204.58
576.599	10432.82
576.96	10638.24
577.32	11031.9
577.681	11350.99
578.042	11719.11
578.403	12061.7
578.763	12387.12
579.124	12654.23
579.485	12818.29
579.845	13005.18
580.206	13119.53
580.566	13186.42
580.927	13163.82
581.287	13269.13
581.648	13125.18
582.008	13183.93
582.368	13187.77
582.728	13256.93
583.089	13307.32
583.449	13485.85
583.809	13792.73
584.169	14070.46
584.529	14456.67
584.889	15053.04
585.249	15470.65
585.609	16010.3
585.969	16723.05
586.329	17353.54
586.688	18043.69
587.048	18792.83
587.408	19274.62
587.768	19820.82
588.127	20293.12
588.487	20676.84
588.846	21212.2
589.206	21552.98
589.565	21722.24
589.925	22064.83
590.284	22195.22
590.643	22624.81
591.003	22908.88
591.362	23458.24
591.721	23613.26
592.08	24074.27
592.44	24665.67
592.799	25194.69
593.158	25729.14
593.517	26490.02
593.876	27281.64
594.235	28013.37
594.593	28838.66
594.952	29684.52
595.311	30445.63
595.67	31125.16
596.029	31991.8
596.387	32507.94
596.746	33213.91
597.104	33593.57
597.463	34156.04
597.822	34652.97
598.18	34898.16
598.538	35141.77
598.897	35459.28
599.255	35527.07
599.613	36112.6
599.972	36354.17
600.33	36746.03
600.688	36923.87
601.046	37628.26
601.404	38114.58
601.762	38418.75
602.12	39233.42
602.478	39763.35
602.836	40383.9
603.194	40903.66
603.552	41617.99
603.91	42016.17
604.268	42816.6
604.625	43190.15
604.983	44008.89
605.341	44140.63
605.698	44631.24
606.056	45199.59
606.413	45398.68
606.771	45579.47
607.128	45856.75
607.485	45790.08
607.843	45828.5
608.2	46251.54
608.557	46355.94
608.914	46352.78
609.272	46529.04
609.629	46996.6
609.986	47206.32
610.343	47263.94
610.7	47645.4
611.057	47883.81
611.414	48114.77
611.771	48599.27
612.127	48891.24
612.484	49241.06
612.841	49799.92
613.198	49860.71
613.554	50154.94
613.911	50623.63
614.267	50841.93
614.624	50936.16
614.98	51094.35
615.337	51436.94
615.693	51457.73
616.05	51379.31
616.406	51568.91
616.762	51472.64
617.118	51419.31
617.475	51396.94
617.831	51459.31
618.187	51413.89
618.543	51373.44
618.899	51544.51
619.255	51547.44
619.611	51493.66
619.967	51706.76
620.323	51937.72
620.678	51934.78
621.034	52003.7
621.39	52155.11
621.746	52333.86
622.101	52857.47
622.457	52809.78
622.812	52985.6
623.168	53252.71
623.523	53351.46
623.879	53527.05
624.234	53407.06
624.589	53562.08
624.945	53607.5
625.3	53643.66
625.655	53600.27
626.01	53599.59
626.365	53421.07
626.72	53365.7
627.075	53281.64
627.43	53134.52
627.785	53081.64
628.14	53053.85
628.495	53016.56
628.85	52890.01
629.205	52801.42
629.559	53069.89
629.914	52985.82
630.269	53099.49
630.623	53187.4
630.978	53145.14
631.332	53395.98
631.687	53513.27
632.041	53463.78
632.396	53742.87
632.75	53676.88
633.104	53930.66
633.459	53871.9
633.813	53921.62
634.167	53936.53
634.521	53955.74
634.875	53928.4
635.229	53864.9
635.583	53640.5
635.937	53655.19
636.291	53491.12
636.645	53403.89
636.999	53191.69
637.352	53201.41
637.706	52899.5
638.06	52948.54
638.413	52823.57
638.767	52606.4
639.121	52670.35
639.474	52509.9
639.828	52590.35
640.181	52660.64
640.534	52741.76
640.888	52717.36
641.241	52688.66
641.594	52844.13
641.947	53112.37
642.301	53136.55
642.654	53252.94
643.007	53393.72
643.36	53375.64
643.713	53430.78
644.066	53600.95
644.419	53385.59
644.771	53204.8
645.124	52845.26
645.477	52710.13
645.83	52469.68
646.182	52341.32
646.535	52023.82
646.888	52068.11
647.24	51853.65
647.593	51817.72
647.945	51716.93
648.298	51356.04
648.65	51278.3
649.002	51117.85
649.355	51212.54
649.707	51034.24
650.059	51157.62
650.411	51699.3
650.763	51713.77
651.115	52029.92
651.467	52110.14
651.819	52140.87
652.171	52171.38
652.523	52241.89
652.875	52372.96
653.227	52264.71
653.578	52704.02
653.93	52585.38
654.282	52556.68
654.633	52473.07
654.985	52590.35
655.337	52621.09
655.688	52641.88
656.039	52601.65
656.391	52297.25
656.742	52238.95
657.094	52220.87
657.445	52083.25
657.796	51890.26
658.147	51665.18
658.498	51674.45
658.849	51549.48
659.2	51469.03
659.551	51349.71
659.902	51381.35
660.253	51273.55
660.604	51372.08
660.955	51208.02
661.306	51394.68
661.656	51421.12
662.007	51554.9
662.358	51549.03
662.708	51783.14
663.059	51754.44
663.409	51777.49
663.76	52023.14
664.11	52065.85
664.461	52266.97
664.811	52246.63
665.161	52195.56
665.511	52198.73
665.862	52317.14
666.212	52294.09
666.562	52206.18
666.912	52092.74
667.262	52045.96
667.612	51784.5
667.962	51803.71
668.312	51569.14
668.662	51664.5
669.011	51429.26
669.361	51277.17
669.711	51091.86
670.06	50897.07
670.41	50787.01
670.76	50701.36
671.109	50809.84
671.459	50678.99
671.808	50734.13
672.157	50775.26
672.507	50629.5
672.856	50703.4
673.205	50909.04
673.554	51130.96
673.904	50982.26
674.253	51314.23
674.602	51276.26
674.951	51115.14
675.3	50900
675.649	51612.53
675.998	51599.19
676.346	51608.91
676.695	51664.05
677.044	51545.86
677.393	51587.44
677.741	51446.66
678.09	51369.82
678.438	51038.76
678.787	51298.64
679.135	51107.91
679.484	50674.25
679.832	50750.63
680.181	50369.17
680.529	50435.38
680.877	50189.51
681.225	50066.35
681.573	50220.25
681.922	49809.18
682.27	49735.06
682.618	49725.8
682.966	49629.3
683.314	49701.84
683.661	49741.62
684.009	49662.3
684.357	49664.33
684.705	49751.56
685.053	49803.31
685.4	49902.52
685.748	49826.36
686.095	49897.09
686.443	49843.99
686.79	49947.49
687.138	50140.48
687.485	50255.27
687.832	50062.74
688.18	50038.78
688.527	49953.81
688.874	50053.47
689.221	49886.7
689.568	49660.04
689.915	49474.05
690.262	49471.34
690.609	49212.36
690.956	49005.59
691.303	48811.47
691.65	48526.28
691.997	48488.77
692.344	48122.22
692.69	47916.13
693.037	47847.43
693.383	47437.72
693.73	47507.32
694.077	47112.31
694.423	47201.12
694.769	46964.06
695.116	47055.13
695.462	46910.96
695.808	46919.54
696.155	47112.98
696.501	46937.85
696.847	47029.6
697.193	46943.05
697.539	47151.85
697.885	46938.98
698.231	46993.89
698.577	47149.37
698.923	47216.94
699.269	47013.55
699.614	47009.71
699.96	46978.75
700.306	46845.87
700.651	46754.12
700.997	46473.23
701.342	46605.2
701.688	46625.54
702.033	46353.91
702.379	46118.21
702.724	45894.71
703.069	45740.82
703.415	45042.3
703.76	45269.42
704.105	45006.6
704.45	44775.19
704.795	44413.85
705.14	44206.17
705.485	44006.4
705.83	43919.17
706.175	43833.75
706.52	43670.36
706.865	43577.48
707.209	43454.32
707.554	43418.17
707.899	43567.77
708.243	43520.08
708.588	43457.71
708.932	43225.85
709.277	43408
709.621	43553.76
709.966	43459.97
710.31	43665.84
710.654	43337.49
710.998	43663.81
711.342	43632.62
711.687	43487.09
712.031	43487.77
712.375	43493.19
712.719	43466.53
713.063	43316.47
713.407	43518.28
713.75	43116.71
714.094	43116.93
714.438	42938.63
714.782	42917.61
715.125	42662.93
715.469	42591.3
715.812	42277.18
716.156	41852.33
716.499	41765.55
716.843	41661.83
717.186	41355.17
717.53	41422.74
717.873	41296.41
718.216	41140.03
718.559	40865.01
718.902	40535.76
719.246	40689.65
719.589	40436.78
719.932	40416.44
720.275	40398.81
720.617	40460.96
720.96	40440.84
721.303	40577.56
721.646	40565.59
721.989	40530.33
722.331	40770.33
722.674	40721.97
723.016	40792.47
723.359	40785.92
723.701	40961.51
724.044	40842.41
724.386	40652.36
724.729	40890.32
725.071	40748.18
725.413	40872.92
725.755	40727.62
726.097	40651.23
726.439	40476.77
726.782	40318.36
727.124	40476.1
727.465	40178.93
727.807	40116.78
728.149	39780.07
728.491	39594.09
728.833	39668.43
729.175	39327.2
729.516	39129.01
729.858	38937.61
730.199	38803.15
730.541	38601.57
730.882	38535.36
731.224	38574.9
731.565	38177.85
731.906	38274.57
732.248	38187.8
732.589	38136.72
732.93	37915.03
733.271	38002.72
733.612	38176.04
733.953	38108.25
734.294	37989.38
734.635	37992.09
734.976	38261.69
735.317	38233.67
735.658	38223.73
735.999	38303.27
736.339	38323.61
736.68	38613.77
737.021	38352.99
737.361	38422.59
737.702	38731.96
738.042	38432.99
738.383	38638.18
738.723	38615.58
739.063	38521.35
739.404	38441.12
739.744	38419.2
740.084	38300.11
740.424	38168.81
740.764	38193.22
741.104	38086.33
741.444	37687.47
741.784	37621.48
742.124	37571.09
742.464	37353.92
742.804	37176.3
743.143	37028.96
743.483	36897.66
743.823	36588.52
744.162	36578.12
744.502	36484.56
744.841	36236.89
745.181	36320.27
745.52	36160.05
745.86	36123.44
746.199	36019.26
746.538	36030.11
746.877	36148.3
747.216	35979.04
747.556	35992.15
747.895	36007.51
748.234	35928.65
748.573	36013.16
748.911	36037.12
749.25	36063.33
749.589	35933.62
749.928	36127.96
750.267	36245.93
750.605	36202.76
750.944	36242.54
751.283	36116.44
751.621	36242.08
751.96	36086.83
752.298	36113.05
752.636	36146.72
752.975	36059.72
753.313	35868.53
753.651	36019.94
753.989	35766.62
754.327	35630.35
754.666	35382.22
755.004	35387.19
755.342	35320.98
755.679	35144.71
756.017	34742.01
756.355	34853.19
756.693	34557.83
757.031	34520.77
757.368	34156.04
757.706	34105.42
758.044	33913.56
758.381	33721.02
758.719	33536.17
759.056	33598.31
