Data from red_cardboard_box_FLMS001491_00040.txt Node
Date: Wed Feb 08 11:32:06 GMT 2017
User: dcchb
Spectrometer: FLMS00149
Trigger mode: 0
Integration Time (sec): 2.000000E-2
Scans to average: 10
Electric dark correction enabled: true
Nonlinearity correction enabled: false
Boxcar width: 0
XAxis mode: Wavelengths
Number of Pixels in Spectrum: 2048
>>>>>Begin Spectral Data<<<<<
341.393	-3.42
341.776	-3.42
342.16	-3.42
342.543	-58.56
342.927	-35.28
343.31	-72.57
343.693	-68.73
344.077	-66.24
344.46	-58.78
344.843	-57.88
345.226	-29.63
345.61	-15.62
345.993	-26.92
346.376	-17.2
346.759	-2.97
347.142	33.42
347.525	35.45
347.908	58.95
348.291	81.33
348.674	92.85
349.057	114.55
349.44	128.56
349.823	144.15
350.206	178.95
350.588	194.99
350.971	215.56
351.354	222.79
351.737	251.72
352.119	254.2
352.502	269.57
352.884	272.28
353.267	280.64
353.65	300.98
354.032	301.21
354.414	319.29
354.797	307.99
355.179	342.56
355.562	331.04
355.944	331.49
356.326	352.5
356.709	339.85
357.091	346.63
357.473	364.26
357.855	350.92
358.238	356.8
358.62	341.43
359.002	337.14
359.384	365.16
359.766	364.71
360.148	352.73
360.53	334.2
360.912	336.91
361.294	337.82
361.676	339.17
362.057	322.45
362.439	315.44
362.821	323.35
363.203	312.96
363.584	335.56
363.966	333.07
364.348	347.53
364.729	335.78
365.111	323.81
365.493	317.48
365.874	325.39
366.256	323.81
366.637	302.56
367.019	332.84
367.4	329.68
367.781	326.52
368.163	307.53
368.544	317.48
368.925	296.24
369.306	316.12
369.688	335.78
370.069	301.43
370.45	303.69
370.831	312.05
371.212	310.92
371.593	306.4
371.974	314.77
372.355	298.49
372.736	308.44
373.117	337.36
373.498	315.67
373.879	303.01
374.26	307.31
374.641	323.13
375.021	315.44
375.402	325.61
375.783	327.65
376.163	312.28
376.544	311.83
376.925	301.88
377.305	310.02
377.686	315.44
378.066	316.12
378.447	316.12
378.827	298.95
379.208	324.71
379.588	320.42
379.968	341.66
380.349	328.55
380.729	324.71
381.109	339.17
381.489	324.93
381.87	343.92
382.25	319.06
382.63	324.71
383.01	304.37
383.39	333.3
383.77	327.87
384.15	343.92
384.53	324.93
384.91	339.62
385.29	338.04
385.67	329.45
386.049	345.27
386.429	347.31
386.809	342.79
387.189	334.65
387.568	347.08
387.948	358.15
388.328	359.96
388.707	345.05
389.087	368.55
389.466	354.54
389.846	347.53
390.225	353.18
390.605	364.93
390.984	363.58
391.363	338.72
391.743	339.17
392.122	360.19
392.501	342.79
392.881	360.87
393.26	353.41
393.639	348.89
394.018	350.25
394.397	359.51
394.776	332.84
395.155	366.29
395.534	367.19
395.913	358.61
396.292	358.38
396.671	362.9
397.05	362.22
397.429	356.57
397.808	367.42
398.186	375.33
398.565	358.83
398.944	361.09
399.323	354.99
399.701	367.87
400.08	359.74
400.458	375.78
400.837	355.22
401.215	371.49
401.594	374.65
401.972	364.48
402.351	371.71
402.729	365.39
403.107	378.94
403.486	387.53
403.864	385.5
404.242	389.57
404.62	388.89
404.999	383.01
405.377	399.06
405.755	386.85
406.133	399.96
406.511	394.54
406.889	392.73
407.267	408.1
407.645	391.83
408.023	402.22
408.401	388.66
408.779	396.35
409.156	405.84
409.534	400.41
409.912	408.77
410.29	405.16
410.667	407.42
411.045	406.51
411.422	416.68
411.8	409
412.178	416.01
412.555	430.02
412.933	413.07
413.31	436.34
413.687	422.11
414.065	418.72
414.442	436.34
414.819	426.18
415.197	416.23
415.574	430.69
415.951	425.27
416.328	445.61
416.705	437.47
417.082	456
417.46	446.97
417.837	469.11
418.214	434.99
418.591	432.28
418.967	458.04
419.344	445.16
419.721	461.65
420.098	453.07
420.475	432.95
420.852	461.2
421.228	436.57
421.605	452.84
421.982	423.24
422.358	471.6
422.735	470.02
423.111	455.55
423.488	446.29
423.864	481.99
424.241	455.55
424.617	465.04
424.994	466.85
425.37	482.67
425.746	476.8
426.123	488.09
426.499	477.02
426.875	484.25
427.251	475.67
427.627	486.96
428.003	484.93
428.379	493.97
428.756	493.07
429.132	489.9
429.507	484.7
429.883	494.87
430.259	513.86
430.635	518.15
431.011	503.46
431.387	496.91
431.763	517.02
432.138	514.99
432.514	509.34
432.89	521.77
433.265	526.74
433.641	527.42
434.016	536.91
434.392	525.16
434.767	552.5
435.143	556.57
435.518	560.63
435.894	534.19
436.269	547.98
436.644	566.51
437.02	567.87
437.395	575.32
437.77	542.1
438.145	533.29
438.52	555.44
438.895	550.92
439.271	554.99
439.646	576.45
440.021	572.39
440.395	600.41
440.77	586.85
441.145	587.3
441.52	578.04
441.895	603.8
442.27	579.17
442.645	592.27
443.019	607.64
443.394	604.02
443.769	618.94
444.143	604.48
444.518	619.62
444.892	603.35
445.267	594.53
445.641	603.12
446.016	620.52
446.39	623.01
446.764	627.75
447.139	614.42
447.513	623.68
447.887	600.41
448.262	613.06
448.636	633.4
449.01	627.3
449.384	636.79
449.758	633.4
450.132	628.43
450.506	658.03
450.88	651.48
451.254	656
451.628	640.86
452.002	656.23
452.376	662.55
452.75	655.1
453.123	663.23
453.497	668.88
453.871	665.94
454.244	678.37
454.618	665.72
454.992	677.69
455.365	686.73
455.739	686.73
456.112	689.45
456.486	697.35
456.859	708.43
457.232	697.13
457.606	701.65
457.979	713.17
458.352	725.15
458.725	723.57
459.099	727.18
459.472	718.14
459.845	719.05
460.218	741.87
460.591	757.24
460.964	766.28
461.337	760.4
461.71	779.16
462.083	750.69
462.456	776.67
462.829	764.25
463.201	791.36
463.574	790.23
463.947	812.38
464.32	807.63
464.692	824.58
465.065	791.82
465.438	818.93
465.81	814.19
466.183	834.98
466.555	837.46
466.928	844.02
467.3	849.67
467.672	839.95
468.045	841.98
468.417	867.07
468.789	861.64
469.161	855.77
469.534	868.2
469.906	875.65
470.278	919.04
470.65	902.09
471.022	923.34
471.394	937.35
471.766	912.49
472.138	946.16
472.51	964.92
472.882	951.36
473.253	945.26
473.625	976.67
473.997	996.56
474.369	992.26
474.74	1015.09
475.112	1031.81
475.484	1004.92
475.855	1035.65
476.227	1030.23
476.598	1064.12
476.97	1076.55
477.341	1080.4
477.713	1094.41
478.084	1082.88
478.455	1124.01
478.827	1155.65
479.198	1139.15
479.569	1140.05
479.94	1171.92
480.311	1159.94
480.682	1184.12
481.053	1212.14
481.424	1238.36
481.795	1242.88
482.166	1265.02
482.537	1260.5
482.908	1281.29
483.279	1302.08
483.65	1311.12
484.021	1325.36
484.391	1315.87
484.762	1364.46
485.133	1362.87
485.503	1373.49
485.874	1401.52
486.244	1407.39
486.615	1454.17
486.985	1445.13
487.356	1450.1
487.726	1481.74
488.097	1477.9
488.467	1501.4
488.837	1534.17
489.207	1510.89
489.578	1554.51
489.948	1580.5
490.318	1598.12
490.688	1597.67
491.058	1638.35
491.428	1629.76
491.798	1685.35
492.168	1671.57
492.538	1705.46
492.908	1692.58
493.278	1752.24
493.648	1749.76
494.017	1754.95
494.387	1790.89
494.757	1771
495.126	1780.94
495.496	1801.28
495.866	1806.48
496.235	1803.54
496.605	1821.17
496.974	1839.92
497.344	1843.99
497.713	1873.59
498.082	1868.17
498.452	1916.31
498.821	1922.86
499.19	1915.4
499.559	1919.92
499.928	1962.86
500.298	1929.64
500.667	1967.15
501.036	1994.95
501.405	1992.46
501.774	1989.98
502.143	1987.72
502.512	2032.69
502.88	2024.33
503.249	2063.87
503.618	2078.11
503.987	2059.8
504.356	2049.64
504.724	2068.17
505.093	2116.07
505.462	2121.27
505.83	2098.9
506.199	2144.32
506.567	2167.15
506.936	2169.86
507.304	2189.52
507.672	2210.54
508.041	2166.92
508.409	2208.05
508.777	2237.88
509.145	2249.86
509.514	2264.32
509.882	2251.89
510.25	2238.1
510.618	2273.36
510.986	2341.61
511.354	2358.55
511.722	2352.23
512.09	2340.93
512.458	2366.69
512.826	2385.9
513.193	2395.61
513.561	2407.37
513.929	2398.55
514.297	2439
514.664	2458.44
515.032	2455.5
515.4	2509.74
515.767	2478.1
516.135	2514.03
516.502	2516.06
516.869	2573.24
517.237	2575.05
517.604	2556.51
517.972	2567.14
518.339	2626.34
518.706	2613.69
519.073	2628.38
519.44	2627.47
519.808	2680.81
520.175	2703.4
520.542	2722.61
520.909	2756.28
521.276	2747.47
521.643	2783.63
522.009	2764.64
522.376	2771.42
522.743	2837.41
523.11	2849.61
523.477	2879.22
523.843	2900.91
524.21	2934.81
524.577	2918.77
524.943	2937.97
525.31	2970.74
525.676	3001.7
526.043	3006.67
526.409	3034.24
526.776	3027.46
527.142	3080.34
527.508	3123.73
527.874	3123.28
528.241	3135.26
528.607	3146.33
528.973	3154.69
529.339	3190.17
529.705	3217.06
530.071	3243.05
530.437	3270.39
530.803	3237.85
531.169	3310.17
531.535	3255.71
531.901	3301.35
532.267	3337.06
532.632	3343.39
532.998	3363.95
533.364	3433.78
533.73	3381.35
534.095	3414.57
534.461	3441.01
534.826	3457.96
535.192	3489.15
535.557	3526.21
535.923	3485.08
536.288	3524.17
536.653	3531.63
537.019	3547.68
537.384	3558.07
537.749	3585.19
538.114	3624.51
538.479	3606.43
538.845	3650.95
539.21	3646.2
539.575	3657.95
539.94	3666.99
540.305	3702.25
540.67	3737.27
541.034	3694.56
541.399	3766.2
541.764	3746.77
542.129	3791.96
542.494	3803.26
542.858	3797.16
543.223	3819.53
543.587	3902.02
543.952	3818.63
544.316	3838.74
544.681	3864.73
545.045	3908.34
545.41	3904.5
545.774	3909.25
546.138	3909.02
546.503	3967.33
546.867	4008.68
547.231	3995.35
547.595	4030.15
547.959	4037.15
548.324	4060.88
548.688	4070.6
549.052	4105.63
549.416	4125.29
549.779	4161.67
550.143	4098.62
550.507	4183.36
550.871	4202.12
551.235	4216.81
551.599	4227.43
551.962	4235.57
552.326	4315.56
552.689	4302.01
553.053	4300.65
553.417	4311.95
553.78	4328.67
554.143	4367.54
554.507	4399.86
554.87	4459.97
555.234	4493.86
555.597	4486.63
555.96	4530.02
556.323	4550.81
556.686	4560.08
557.05	4577.25
557.413	4623.8
557.776	4591.72
558.139	4694.31
558.502	4715.55
558.865	4709.23
559.228	4790.13
559.59	4816.79
559.953	4799.39
560.316	4863.35
560.679	4852.73
561.041	4887.98
561.404	4959.84
561.767	4995.55
562.129	4988.77
562.492	5120.06
562.854	5126.84
563.217	5146.73
563.579	5207.97
563.941	5275.77
564.304	5281.19
564.666	5345.14
565.028	5353.73
565.39	5397.12
565.753	5428.08
566.115	5484.57
566.477	5535.19
566.839	5563.22
567.201	5576.32
567.563	5668.98
567.925	5739.26
568.287	5758.46
568.648	5798.92
569.01	5821.74
569.372	5883.43
569.734	5955.07
570.095	5993.03
570.457	6063.77
570.819	6046.14
571.18	6133.37
571.542	6178.57
571.903	6233.71
572.265	6266.7
572.626	6332.23
572.987	6419.92
573.349	6456.53
573.71	6569.52
574.071	6631.89
574.432	6639.12
574.794	6687.71
575.155	6831.43
575.516	6798.89
575.877	6910.3
576.238	6948.94
576.599	7049.96
576.96	7134.93
577.32	7195.49
577.681	7271.87
578.042	7315.49
578.403	7460.11
578.763	7436.84
579.124	7550.28
579.485	7700.11
579.845	7752.99
580.206	7858.75
580.566	7921.12
580.927	8056.26
581.287	8216.7
581.648	8188.23
582.008	8301.22
582.368	8411.05
582.728	8631.38
583.089	8749.8
583.449	8818.5
583.809	8914.31
584.169	9026.63
584.529	9178.26
584.889	9305.04
585.249	9397.92
585.609	9538.7
585.969	9755.42
586.329	9818.24
586.688	9961.29
587.048	10147.28
587.408	10291.23
587.768	10501.62
588.127	10637.21
588.487	10825.9
588.846	11084.43
589.206	11181.15
589.565	11360.13
589.925	11573.9
590.284	11775.93
590.643	11955.14
591.003	12225.41
591.362	12450.94
591.721	12685.74
592.08	12808.9
592.44	13079.85
592.799	13310.13
593.158	13450.24
593.517	13848.87
593.876	14076.21
594.235	14250.9
594.593	14506.26
594.952	14803.2
595.311	15037.99
595.67	15279.34
596.029	15690.41
596.387	15906.9
596.746	16174.69
597.104	16461.69
597.463	16704.62
597.822	17029.13
598.18	17246.98
598.538	17516.57
598.897	17900.29
599.255	18077.91
599.613	18524.46
599.972	18709.99
600.33	19145.91
600.688	19284.21
601.046	19591.77
601.404	19911.54
601.762	20208.71
602.12	20611.63
602.478	20951.51
602.836	21099.3
603.194	21220.88
603.552	21749.23
603.91	21959.62
604.268	22287.52
604.625	22440.51
604.983	22873.27
605.341	23014.96
605.698	23459.47
606.056	23750.53
606.413	24006.35
606.771	24179.9
607.128	24552.32
607.485	24680.9
607.843	24952.31
608.2	25387.78
608.557	25675.68
608.914	25792.29
609.272	26117.25
609.629	26407.19
609.986	26727.63
610.343	26782.54
610.7	27138.92
611.057	27309.54
611.414	27548.17
611.771	27674.5
612.127	28062.06
612.484	28194.26
612.841	28463.63
613.198	28700.46
613.554	28718.09
613.911	29117.4
614.267	29244.17
614.624	29481.23
614.98	29567.56
615.337	29785.18
615.693	29940.43
616.05	30072.63
616.406	30360.3
616.762	30348.78
617.118	30462.45
617.475	30576.12
617.831	31019.04
618.187	31036.9
618.543	31295.87
618.899	31569.54
619.255	31611.8
619.611	31666.94
619.967	31836.42
620.323	32196.87
620.678	32074.16
621.034	32083.87
621.39	32291.1
621.746	32280.03
622.101	32810.86
622.457	32492.45
622.812	32761.6
623.168	32862.84
623.523	32882.27
623.879	33211.08
624.234	33023.51
624.589	33241.81
624.945	33354.8
625.3	33498.07
625.655	33505.53
626.01	33720.22
626.365	33686.54
626.72	33721.57
627.075	33760.44
627.43	33829.14
627.785	33694.23
628.14	34131.73
628.495	34159.98
628.85	34074.33
629.205	34026.42
629.559	34333.76
629.914	34186.87
630.269	34304.83
630.623	34317.94
630.978	34305.96
631.332	34356.36
631.687	34525.84
632.041	34360.42
632.396	34492.85
632.75	34565.39
633.104	34512.06
633.459	34438.61
633.813	34509.12
634.167	34526.97
634.521	34512.51
634.875	34705.05
635.229	34584.6
635.583	34472.06
635.937	34554.32
636.291	34566.29
636.645	34637.25
636.999	34538.27
637.352	34710.7
637.706	34484.49
638.06	34600.19
638.413	34610.14
638.767	34585.05
639.121	34643.13
639.474	34614.65
639.828	34621.66
640.181	34634.54
640.534	34773.97
640.888	34555.67
641.241	34480.42
641.594	34551.15
641.947	34725.39
642.301	34525.39
642.654	34759.51
643.007	34787.98
643.36	34618.04
643.713	34611.72
644.066	34694.88
644.419	34527.2
644.771	34199.07
645.124	33936.48
645.477	33992.3
645.83	33673.66
646.182	33771.06
646.535	33659.88
646.888	33860.32
647.24	33627.56
647.593	33868.01
647.945	33802.47
648.298	33765.64
648.65	33719.31
649.002	33556.6
649.355	33689.03
649.707	33750.72
650.059	33871.85
650.411	34179.86
650.763	34317.49
651.115	34667.99
651.467	34533.3
651.819	34482.68
652.171	34512.06
652.523	34423.47
652.875	34484.04
653.227	34322.46
653.578	34608.55
653.93	34587.99
654.282	34350.48
654.633	34323.59
654.985	34325.62
655.337	34536.24
655.688	34478.16
656.039	34538.05
656.391	34212.86
656.742	34410.37
657.094	34281.33
657.445	34374.44
657.796	34345.06
658.147	34385.51
658.498	34388.22
658.849	34321.56
659.2	34348
659.551	34289.47
659.902	34258.51
660.253	34312.29
660.604	34278.39
660.955	34113.65
661.306	34263.7
661.656	34229.13
662.007	34402.23
662.358	34376.69
662.708	34378.5
663.059	34325.85
663.409	34227.32
663.76	34370.14
664.11	34304.38
664.461	34485.39
664.811	34368.33
665.161	34397.49
665.511	34226.19
665.862	34359.52
666.212	34420.54
666.562	34397.26
666.912	34336.24
667.262	34336.02
667.612	34465.73
667.962	34416.69
668.312	34257.83
668.662	34431.38
669.011	34364.94
669.361	34465.05
669.711	34326.53
670.06	34170.82
670.41	34145.74
670.76	34098.51
671.109	34316.58
671.459	34279.07
671.808	34133.54
672.157	34321.33
672.507	34045.18
672.856	34132.41
673.205	34146.64
673.554	34273.19
673.904	34042.01
674.253	34289.47
674.602	34113.2
674.951	33721.12
675.3	33456.04
675.649	34018.96
675.998	34129.7
676.346	34089.92
676.695	34168.34
677.044	33812.64
677.393	33965.18
677.741	33976.71
678.09	33917.95
678.438	33918.85
678.787	33919.31
679.135	33967.89
679.484	33789.14
679.832	33967.21
680.181	33625.98
680.529	33713.66
680.877	33686.09
681.225	33570.39
681.573	33871.62
681.922	33641.12
682.27	33522.71
682.618	33557.51
682.966	33428.7
683.314	33628.24
683.661	33350.51
684.009	33196.61
684.357	33118.42
684.705	33187.12
685.053	33042.72
685.4	33061.25
685.748	33082.04
686.095	33006.34
686.443	32946.9
686.79	32829.17
687.138	32789.17
687.485	32804.53
687.832	32587.36
688.18	32723.63
688.527	32565.9
688.874	32512.11
689.221	32509.63
689.568	32302.17
689.915	32220.82
690.262	32300.14
690.609	32273.93
690.956	32154.83
691.303	32047.49
691.65	31934.27
691.997	31990.09
692.344	31788.29
692.69	31730.89
693.037	31686.14
693.383	31499.93
693.73	31631.91
694.077	31439.15
694.423	31454.74
694.769	31306.04
695.116	31184.69
695.462	31301.3
695.808	31063.56
696.155	31174.29
696.501	30987.41
696.847	30910.12
697.193	30741.54
697.539	30791.25
697.885	30653.4
698.231	30605.49
698.577	30611.14
698.923	30472.84
699.269	30341.55
699.614	30193.3
699.96	30271.04
700.306	30213.41
700.651	30044.15
700.997	29981.1
701.342	29915.57
701.688	29762.13
702.033	29811.62
702.379	29812.07
702.724	29659.3
703.069	29735.01
703.415	29407.33
703.76	29511.06
704.105	29544.28
704.45	29343.16
704.795	29325.53
705.14	29140.45
705.485	29214.57
705.83	28973.22
706.175	29118.08
706.52	28940.45
706.865	28881.02
707.209	28780.46
707.554	28855.94
707.899	28846.9
708.243	28619.78
708.588	28627.24
708.932	28413.24
709.277	28457.53
709.621	28458.88
709.966	28160.59
710.31	28273.8
710.654	28020.7
710.998	28090.76
711.342	28198.1
711.687	28018.22
712.031	28085.56
712.375	27858.45
712.719	27927.6
713.063	27880.59
713.407	27933.02
713.75	27671.79
714.094	27711.56
714.438	27547.72
714.782	27751.56
715.125	27488.06
715.469	27486.93
715.812	27298.01
716.156	27185.25
716.499	27297.56
716.843	27214.62
717.186	27199.93
717.53	27226.83
717.873	27284
718.216	27113.16
718.559	27120.84
718.902	26970.34
719.246	26949.09
719.589	26916.55
719.932	26715.43
720.275	26724.47
720.617	26787.29
720.96	26690.34
721.303	26616.67
721.646	26596.79
721.989	26583
722.331	26709.1
722.674	26607.86
723.016	26540.52
723.359	26583
723.701	26374.42
724.044	26275.89
724.386	26268.89
724.729	26326.29
725.071	26238.15
725.413	26121.54
725.755	26112.28
726.097	26131.94
726.439	26020.98
726.782	25953.64
727.124	26025.95
727.465	26056.24
727.807	25903.47
728.149	25857.82
728.491	25818.28
728.833	25946.18
729.175	25738.28
729.516	25630.26
729.858	25651.05
730.199	25600.43
730.541	25597.94
730.882	25685.17
731.224	25701.67
731.565	25436.82
731.906	25543.25
732.248	25520.88
732.589	25495.12
732.93	25289.25
733.271	25303.49
733.612	25343.94
733.953	25365.41
734.294	25346.2
734.635	25259.19
734.976	25318.63
735.317	25108.01
735.658	25145.07
735.999	25166.09
736.339	25055.81
736.68	25074.34
737.021	25069.14
737.361	24953.89
737.702	25126.99
738.042	24925.19
738.383	24917.51
738.723	25030.27
739.063	24800.9
739.404	24840
739.744	24790.73
740.084	24673.22
740.424	24743.73
740.764	24673.22
741.104	24616.05
741.444	24569.04
741.784	24455.6
742.124	24621.47
742.464	24541.93
742.804	24507.35
743.143	24536.95
743.483	24478.65
743.823	24390.06
744.162	24402.27
744.502	24407.24
744.841	24320.46
745.181	24360.24
745.52	24215.15
745.86	24260.8
746.199	24157.08
746.538	24199.11
746.877	24126.12
747.216	24199.56
747.556	24164.08
747.895	24049.96
748.234	24011.09
748.573	23992.34
748.911	23949.85
749.25	23961.6
749.589	23790.98
749.928	23822.62
750.267	23882.96
750.605	23868.72
750.944	23748.05
751.283	23746.01
751.621	23765.22
751.96	23599.35
752.298	23680.71
752.636	23660.37
752.975	23472.35
753.313	23473.25
753.651	23556.19
753.989	23331.11
754.327	23292.92
754.666	23221.51
755.004	23335.18
755.342	23278.23
755.679	23251.34
756.017	23075.98
756.355	23072.13
756.693	22984.9
757.031	23051.34
757.368	23070.33
757.706	22908.3
758.044	22881.18
758.381	22913.27
758.719	22690.9
759.056	22696.78
759.394	22697.68
759.731	22616.55
760.068	22617.23
760.405	22523.67
760.743	22385.37
761.08	22472.38
761.417	22313.74
