Data from red_cardboard_box_FLMS001491_00053.txt Node
Date: Wed Feb 08 11:32:46 GMT 2017
User: dcchb
Spectrometer: FLMS00149
Trigger mode: 0
Integration Time (sec): 2.000000E-2
Scans to average: 10
Electric dark correction enabled: true
Nonlinearity correction enabled: false
Boxcar width: 0
XAxis mode: Wavelengths
Number of Pixels in Spectrum: 2048
>>>>>Begin Spectral Data<<<<<
341.393	-18.06
341.776	-18.06
342.16	-18.06
342.543	-72.98
342.927	-65.07
343.31	-61.68
343.693	-65.97
344.077	-68.68
344.46	-59.65
344.843	-64.84
345.226	-45.86
345.61	-28.91
345.993	-3.6
346.376	-10.83
346.759	8.38
347.142	15.83
347.525	67.36
347.908	56.74
348.291	74.14
348.674	75.94
349.057	111.65
349.44	105.77
349.823	133.8
350.206	149.84
350.588	191.87
350.971	211.76
351.354	221.7
351.737	234.58
352.119	252.44
352.502	263.51
352.884	238.43
353.267	261.02
353.65	307.58
354.032	296.05
354.414	294.02
354.797	293.57
355.179	317.97
355.562	319.55
355.944	304.64
356.326	310.97
356.709	331.3
357.091	320.91
357.473	345.09
357.855	324.07
358.238	329.95
358.62	329.72
359.002	361.36
359.384	334.24
359.766	323.17
360.148	324.75
360.53	339.89
360.912	344.64
361.294	332.89
361.676	330.85
362.057	321.14
362.439	328.37
362.821	315.49
363.203	315.03
363.584	343.73
363.966	340.12
364.348	323.85
364.729	301.7
365.111	323.62
365.493	319.55
365.874	326.56
366.256	299.22
366.637	318.2
367.019	310.97
367.4	306.22
367.781	305.32
368.163	306.22
368.544	307.35
368.925	306.67
369.306	322.04
369.688	310.97
370.069	299.67
370.45	291.53
370.831	307.35
371.212	294.24
371.593	313.45
371.974	306.45
372.355	293.57
372.736	321.14
373.117	305.54
373.498	296.73
373.879	300.35
374.26	306.9
374.641	299.67
375.021	296.96
375.402	309.38
375.783	320.68
376.163	312.1
376.544	324.75
376.925	323.85
377.305	337.18
377.686	330.85
378.066	310.97
378.447	319.78
378.827	317.52
379.208	325.88
379.588	336.28
379.968	344.19
380.349	340.34
380.729	336.05
381.109	329.5
381.489	343.51
381.87	336.73
382.25	320.91
382.63	334.02
383.01	308.48
383.39	366.33
383.77	327.01
384.15	340.57
384.53	338.76
384.91	331.3
385.29	341.7
385.67	343.28
386.049	350.51
386.429	336.95
386.809	341.93
387.189	352.32
387.568	339.44
387.948	338.31
388.328	368.37
388.707	350.29
389.087	355.94
389.466	354.13
389.846	357.52
390.225	352.77
390.605	349.84
390.984	360.68
391.363	355.49
391.743	346.45
392.122	343.28
392.501	343.51
392.881	347.58
393.26	352.77
393.639	356.84
394.018	371.98
394.397	365.88
394.776	352.77
395.155	362.94
395.534	362.04
395.913	362.26
396.292	377.41
396.671	364.52
397.05	362.94
397.429	380.57
397.808	357.29
398.186	396.84
398.565	362.49
398.944	354.13
399.323	382.83
399.701	362.94
400.08	388.93
400.458	377.63
400.837	390.74
401.215	400.68
401.594	395.48
401.972	371.76
402.351	381.47
402.729	383.73
403.107	390.96
403.486	372.43
403.864	388.93
404.242	393.22
404.62	378.76
404.999	414.24
405.377	395.26
405.755	400.91
406.133	404.98
406.511	402.72
406.889	404.52
407.267	413.11
407.645	383.73
408.023	422.15
408.401	416.73
408.779	403.85
409.156	421.02
409.534	410.85
409.912	420.57
410.29	410.4
410.667	414.24
411.045	424.41
411.422	425.54
411.8	432.09
412.178	427.35
412.555	431.64
412.933	431.64
413.31	440.68
413.687	454.01
414.065	441.13
414.442	443.17
414.819	456.73
415.197	454.69
415.574	419.89
415.951	454.69
416.328	447.01
416.705	431.64
417.082	446.33
417.46	449.49
417.837	456.95
418.214	493.56
418.591	459.44
418.967	451.3
419.344	467.12
419.721	465.76
420.098	479.78
420.475	473.9
420.852	488.81
421.228	477.74
421.605	475.71
421.982	464.41
422.358	469.15
422.735	508.25
423.111	486.78
423.488	481.81
423.864	499.21
424.241	500.57
424.617	500.79
424.994	497.63
425.37	501.92
425.746	478.42
426.123	511.19
426.499	482.94
426.875	512.99
427.251	524.52
427.627	512.77
428.003	538.76
428.379	537.4
428.756	506.22
429.132	520.68
429.507	537.18
429.883	531.07
430.259	519.77
430.635	552.77
431.011	545.08
431.387	539.89
431.763	550.06
432.138	549.15
432.514	581.92
432.89	559.1
433.265	589.6
433.641	571.3
434.016	554.35
434.392	564.52
434.767	602.03
435.143	582.82
435.518	591.86
435.894	602.03
436.269	574.91
436.644	606.78
437.02	598.64
437.395	619.66
437.77	614.91
438.145	635.48
438.52	611.52
438.895	629.83
439.271	602.48
439.646	636.61
440.021	626.89
440.395	649.49
440.77	616.95
441.145	633.67
441.52	638.87
441.895	633.44
442.27	655.59
442.645	636.61
443.019	656.27
443.394	628.25
443.769	650.62
444.143	674.35
444.518	681.35
444.892	675.7
445.267	672.31
445.641	666.66
446.016	682.93
446.39	693.56
446.764	661.69
447.139	703.27
447.513	682.03
447.887	678.19
448.262	675.02
448.636	678.87
449.01	721.58
449.384	710.5
449.758	700.79
450.132	687.23
450.506	703.05
450.88	731.29
451.254	721.58
451.628	750.95
452.002	701.01
452.376	713.22
452.75	723.84
453.123	722.03
453.497	750.5
453.871	755.93
454.244	766.55
454.618	760.22
454.992	749.37
455.365	753.89
455.739	783.04
456.112	798.41
456.486	787.56
456.859	788.24
457.232	797.28
457.606	769.94
457.979	783.95
458.352	828.47
458.725	800.22
459.099	834.57
459.472	824.85
459.845	817.17
460.218	830.27
460.591	816.94
460.964	842.93
461.337	875.25
461.71	856.26
462.083	865.53
462.456	880.67
462.829	882.93
463.201	877.05
463.574	870.5
463.947	886.54
464.32	924.96
464.692	922.7
465.065	914.57
465.438	938.07
465.81	938.29
466.183	952.53
466.555	961.34
466.928	933.32
467.3	959.99
467.672	946.88
468.045	964.28
468.417	999.99
468.789	976.94
469.161	1009.71
469.534	1000.44
469.906	1019.65
470.278	1009.25
470.65	1020.1
471.022	1055.81
471.394	1061.91
471.766	1087.67
472.138	1071.17
472.51	1090.15
472.882	1095.8
473.253	1101.91
473.625	1111.4
473.997	1113.43
474.369	1171.06
474.74	1178.06
475.112	1178.74
475.484	1180.77
475.855	1209.47
476.227	1218.29
476.598	1225.52
476.97	1224.16
477.341	1252.64
477.713	1276.82
478.084	1253.09
478.455	1303.03
478.827	1321.79
479.198	1306.19
479.569	1315.91
479.94	1362.46
480.311	1388.45
480.682	1387.77
481.053	1450.82
481.424	1419.19
481.795	1449.47
482.166	1486.53
482.537	1484.27
482.908	1528.34
483.279	1494.89
483.65	1547.77
484.021	1563.59
484.391	1588.9
484.762	1617.6
485.133	1613.76
485.503	1620.31
485.874	1656.69
486.244	1678.61
486.615	1711.83
486.985	1685.62
487.356	1711.38
487.726	1754.32
488.097	1771.72
488.467	1786.18
488.837	1808.78
489.207	1816.24
489.578	1875.22
489.948	1867.76
490.318	1889.68
490.688	1911.38
491.058	1931.94
491.428	1967.65
491.798	1998.38
492.168	2007.64
492.538	2000.41
492.908	2031.83
493.278	2043.35
493.648	2052.62
494.017	2110.47
494.387	2067.08
494.757	2098.26
495.126	2159.05
495.496	2133.52
495.866	2202.89
496.235	2188.66
496.605	2220.75
496.974	2192.27
497.344	2227.53
497.713	2237.7
498.082	2287.19
498.452	2253.29
498.821	2275.66
499.19	2345.72
499.559	2303
499.928	2347.75
500.298	2350.01
500.667	2390.23
501.036	2369.67
501.405	2390.01
501.774	2409.67
502.143	2451.48
502.512	2407.86
502.88	2447.86
503.249	2496.45
503.618	2459.16
503.987	2469.78
504.356	2531.7
504.724	2550
505.093	2548.87
505.462	2550.46
505.83	2583.68
506.199	2604.24
506.567	2613.28
506.936	2660.74
507.304	2654.63
507.672	2652.6
508.041	2663.67
508.409	2706.16
508.777	2712.26
509.145	2722.43
509.514	2723.78
509.882	2787.74
510.25	2757
510.618	2793.39
510.986	2810.11
511.354	2826.83
511.722	2838.58
512.09	2886.49
512.458	2882.65
512.826	2905.25
513.193	2904.8
513.561	2947.51
513.929	2955.64
514.297	3013.95
514.664	3028.18
515.032	3032.48
515.4	3049.65
515.767	3041.74
516.135	3064.11
516.502	3082.87
516.869	3156.54
517.237	3169.65
517.604	3156.54
517.972	3216.2
518.339	3185.24
518.706	3195.86
519.073	3288.74
519.44	3236.77
519.808	3316.54
520.175	3318.8
520.542	3323.99
520.909	3389.98
521.276	3400.38
521.643	3410.32
522.009	3426.14
522.376	3516.53
522.743	3468.17
523.11	3524.44
523.477	3518.57
523.843	3565.57
524.21	3655.51
524.577	3671.1
524.943	3673.14
525.31	3682.4
525.676	3677.66
526.043	3724.21
526.409	3763.76
526.776	3754.94
527.142	3841.04
527.508	3847.6
527.874	3867.48
528.241	3910.19
528.607	3876.97
528.973	3932.79
529.339	3920.59
529.705	4002.17
530.071	3999.91
530.437	4034.71
530.803	4075.39
531.169	4093.24
531.535	4127.14
531.901	4122.62
532.267	4140.47
532.632	4204.88
532.998	4242.61
533.364	4249.62
533.73	4239.22
534.095	4301.37
534.461	4254.37
534.826	4344.31
535.192	4362.61
535.557	4383.85
535.923	4405.77
536.288	4437.86
536.653	4435.15
537.019	4444.42
537.384	4473.12
537.749	4485.77
538.114	4493.23
538.479	4553.79
538.845	4530.06
539.21	4528.03
539.575	4569.61
539.94	4596.28
540.305	4642.38
540.67	4620.91
541.034	4679.44
541.399	4673.11
541.764	4723.51
542.129	4708.14
542.494	4789.72
542.858	4789.72
543.223	4824.97
543.587	4844.86
543.952	4874.01
544.316	4811.87
544.681	4859.32
545.045	4938.87
545.41	4979.77
545.774	4918.75
546.138	4944.52
546.503	5018.87
546.867	4993.33
547.231	5057.96
547.595	5092.31
547.959	5079.88
548.324	5111.29
548.688	5168.92
549.052	5181.35
549.416	5207.56
549.779	5184.96
550.143	5238.97
550.507	5270.84
550.871	5300.44
551.235	5320.33
551.599	5401
551.962	5400.32
552.326	5416.37
552.689	5482.36
553.053	5465.86
553.417	5487.1
553.78	5573.43
554.143	5543.15
554.507	5624.05
554.87	5668.57
555.234	5711.05
555.597	5716.25
555.96	5742.01
556.323	5787.43
556.686	5808.9
557.05	5906.53
557.413	5857.94
557.776	5960.31
558.139	5947.65
558.502	5966.41
558.865	6031.27
559.228	6130.02
559.59	6200.08
559.953	6197.37
560.316	6301.54
560.679	6361.88
561.041	6362.33
561.404	6365.27
561.767	6468.32
562.129	6455.44
562.492	6556.23
562.854	6596.68
563.217	6653.17
563.579	6763.23
563.941	6779.27
564.304	6818.37
564.666	6914.18
565.028	6945.37
565.39	6972.94
565.753	7063.33
566.115	7110.34
566.477	7122.09
566.839	7228.3
567.201	7331.12
567.563	7349.88
567.925	7475.3
568.287	7522.3
568.648	7549.19
569.01	7633.71
569.372	7745.8
569.734	7811.11
570.095	7877.77
570.457	7924.1
570.819	7979.92
571.18	8088.62
571.542	8190.99
571.903	8272.79
572.265	8315.95
572.626	8391.21
572.987	8460.58
573.349	8520.47
573.71	8627.13
574.071	8652.44
574.432	8800.69
574.794	8888.37
575.155	8909.84
575.516	8994.13
575.877	9196.38
576.238	9228.7
576.599	9341.24
576.96	9412.87
577.32	9589.14
577.681	9609.48
578.042	9710.04
578.403	9770.38
578.763	9920.88
579.124	10047.43
579.485	10168.11
579.845	10340.53
580.206	10474.31
580.566	10590.02
580.927	10656.23
581.287	10870.01
581.648	10977.35
582.008	11207.18
582.368	11323.11
582.728	11426.61
583.089	11585.02
583.449	11708.63
583.809	11891
584.169	12123.76
584.529	12218
584.889	12567.82
585.249	12639.46
585.609	12831.54
585.969	13037.64
586.329	13278.31
586.688	13555.36
587.048	13742.25
587.408	13854.57
587.768	14078.06
588.127	14343.37
588.487	14661.55
588.846	14937.25
589.206	15110.35
589.565	15318.03
589.925	15792.14
590.284	15980.38
590.643	16209.76
591.003	16566.36
591.362	16823.07
591.721	17118.43
592.08	17482.94
592.44	17824.18
592.799	18062.14
593.158	18484.05
593.517	18802.46
593.876	19157.25
594.235	19465.04
594.593	19919.26
594.952	20206.94
595.311	20610.55
595.67	20889.18
596.029	21476.06
596.387	21776.84
596.746	22149.49
597.104	22478.97
597.463	22856.14
597.822	23224.04
598.18	23609.79
598.538	23980.85
598.897	24573.38
599.255	24700.16
599.613	25485.22
599.972	25793.69
600.33	26235.26
600.688	26477.96
601.046	26940.32
601.404	27506.86
601.762	27787.31
602.12	28333.05
602.478	28735.98
602.836	29120.83
603.194	29373.03
603.552	29806.69
603.91	30154.7
604.268	30686.89
604.625	30826.1
604.983	31375.01
605.341	31768.22
605.698	32225.83
606.056	32679.38
606.413	32932.26
606.771	33393.26
607.128	33746.7
607.485	33961.38
607.843	34299.68
608.2	34723.39
608.557	35225.08
608.914	35448.57
609.272	35746.64
609.629	36074.09
609.986	36574.65
610.343	36688.54
610.7	37241.75
611.057	37458.92
611.414	37708.85
611.771	38069.3
612.127	38483.52
612.484	38707.02
612.841	38987.46
613.198	38934.81
613.554	39412.76
613.911	39805.52
614.267	39926.42
614.624	39956.03
614.98	40550.13
615.337	40804.36
615.693	40926.17
616.05	41010.91
616.406	41536.55
616.762	41549.66
617.118	41731.35
617.475	41849.54
617.831	42121.62
618.187	42355.51
618.543	42525.22
618.899	42970.41
619.255	42979.9
619.611	43076.4
619.967	43324.98
620.323	43737.4
620.678	43686.78
621.034	43691.75
621.39	43878.86
621.746	44042.25
622.101	44444.04
622.457	44298.51
622.812	44489.92
623.168	44704.6
623.523	44785.5
623.879	45017.81
624.234	44883.81
624.589	45025.5
624.945	45208.77
625.3	45250.12
625.655	45363.57
626.01	45475.43
626.365	45603.33
626.72	45532.38
627.075	45698.93
627.43	45737.79
627.785	45694.41
628.14	45901.18
628.495	46033.83
628.85	46058.69
629.205	46162.42
629.559	46257.55
629.914	46238.57
630.269	46277.89
630.623	46192.02
630.978	46264.33
631.332	46456.42
631.687	46487.38
632.041	46366.48
632.396	46553.37
632.75	46506.14
633.104	46550.43
633.459	46372.58
633.813	46552.91
634.167	46527.83
634.521	46526.02
634.875	46591.11
635.229	46649.86
635.583	46418.91
635.937	46464.56
636.291	46539.36
636.645	46519.47
636.999	46528.96
637.352	46598.56
637.706	46523.99
638.06	46765.56
638.413	46594.95
638.767	46618.45
639.121	46722.4
639.474	46461.84
639.828	46556.08
640.181	46724.89
640.534	46711.78
640.888	46664.55
641.241	46382.98
641.594	46659.8
641.947	46633.82
642.301	46583.87
642.654	46612.8
643.007	46665.45
643.36	46594.04
643.713	46635.62
644.066	46774.6
644.419	46463.65
644.771	46289.64
645.124	45832.03
645.477	45821.63
645.83	45639.72
646.182	45437.92
646.535	45614.18
646.888	45716.55
647.24	45450.34
647.593	45665.25
647.945	45669.1
648.298	45301.42
648.65	45232.72
649.002	45260.52
649.355	45506.61
649.707	45447.41
650.059	45554.75
650.411	46059.82
650.763	46245.13
651.115	46597.88
651.467	46509.3
651.819	46512.01
652.171	46318.57
652.523	46417.55
652.875	46354.73
653.227	46318.57
653.578	46571.9
653.93	46491.45
654.282	46367.16
654.633	46359.47
654.985	46454.61
655.337	46331
655.688	46385.24
656.039	46619.13
656.391	46161.06
656.742	46205.35
657.094	46316.99
657.445	46455.29
657.796	46284.9
658.147	46171.46
658.498	46287.16
658.849	46191.79
659.2	46217.78
659.551	46104.34
659.902	46209.42
660.253	46068.41
660.604	46303.43
660.955	46091.91
661.306	46179.36
661.656	46072.25
662.007	46163.09
662.358	46220.72
662.708	46280.15
663.059	46233.83
663.409	46015.53
663.76	46320.6
664.11	46228.86
664.461	46308.4
664.811	46240.38
665.161	46139.37
665.511	46079.25
665.862	46160.16
666.212	46281.74
666.562	46255.52
666.912	46168.52
667.262	46059.14
667.612	46104.56
667.962	46125.58
668.312	46118.35
668.662	46336.87
669.011	46200.16
669.361	46197.9
669.711	46172.59
670.06	46124.23
670.41	45948.64
670.76	46017.11
671.109	46156.09
671.459	46019.82
671.808	46011.91
672.157	46108.18
672.507	45901.41
672.856	45777.34
673.205	46000.61
673.554	46055.98
673.904	45867.73
674.253	46121.29
674.602	45878.81
674.951	45333.74
675.3	45221.42
675.649	45803.56
675.998	45640.4
676.346	45747.06
676.695	45898.02
677.044	45571.25
677.393	45731.47
677.741	45774.18
678.09	45635.65
678.438	45631.81
678.787	45614.41
679.135	45539.83
679.484	45370.35
679.832	45517.46
680.181	45223.68
680.529	45480.85
680.877	45336.22
681.225	45269.78
681.573	45561.75
681.922	45255.77
682.27	45113.86
682.618	45208.54
682.966	45137.36
683.314	45069.79
683.661	44992.5
684.009	44853.52
684.357	44690.36
684.705	44631.16
685.053	44666.64
685.4	44742.79
685.748	44539.18
686.095	44530.14
686.443	44299.19
686.79	44263.71
687.138	44362.92
687.485	44349.36
687.832	44094.9
688.18	44352.97
688.527	44063.04
688.874	44116.82
689.221	43976.26
689.568	43709.6
689.915	43694.23
690.262	43698.53
690.609	43546.44
690.956	43459.44
691.303	43345.77
691.65	43217.86
691.997	43379.44
692.344	42971.77
692.69	43048.15
693.037	43037.07
693.383	42693.35
693.73	42867.59
694.077	42668.95
694.423	42677.99
694.769	42531.78
695.116	42447.71
695.462	42310.54
695.808	42171.11
696.155	42237.32
696.501	41920.49
696.847	42010.43
697.193	41759.82
697.539	41978.12
697.885	41545.36
698.231	41502.2
698.577	41561.63
698.923	41479.38
699.269	41297.91
699.614	41113.96
699.96	41026.96
700.306	41143.57
700.651	40999.39
700.997	40762.78
701.342	40670.36
701.688	40659.96
702.033	40627.65
702.379	40545.39
702.724	40331.38
703.069	40441.44
703.415	40005.74
703.76	39952.64
704.105	40012.97
704.45	39821.11
704.795	39646.66
705.14	39704.05
705.485	39619.31
705.83	39494.12
706.175	39556.26
706.52	39440.33
706.865	39196.72
707.209	39268.81
707.554	39133
707.899	39222.26
708.243	38853.46
708.588	38890.07
708.932	38708.6
709.277	38727.58
709.621	38672.9
709.966	38425.9
710.31	38523.75
710.654	38143.64
710.998	38146.36
711.342	38254.38
711.687	38165.79
712.031	38001.95
712.375	37855.74
712.719	37946.36
713.063	37912.46
713.407	37927.38
713.75	37650.1
714.094	37787.5
714.438	37538.46
714.782	37569.65
715.125	37401.97
715.469	37520.16
715.812	37258.24
716.156	37121.52
716.499	37181.18
716.843	37208.75
717.186	36877.46
717.53	37091.69
717.873	37063.9
718.216	36906.61
718.559	36772.15
718.902	36576.68
719.246	36579.84
719.589	36597.24
719.932	36514.76
720.275	36427.3
720.617	36411.71
720.96	36229.8
721.303	36382.56
721.646	36361.77
721.989	36005.62
722.331	36324.03
722.674	36030.25
723.016	36209.01
723.359	35947.09
723.701	36075.68
724.044	35920.88
724.386	35655.35
724.729	35807.43
725.071	35814.21
725.413	35764.72
725.755	35648.57
726.097	35496.48
726.439	35392.53
726.782	35405.18
727.124	35585.97
727.465	35303.04
727.807	35229.6
728.149	35193.44
728.491	35116.6
728.833	35184.17
729.175	34910.06
729.516	35054.46
729.858	34989.15
730.199	35087.68
730.541	34858.31
730.882	34860.11
731.224	35015.82
731.565	34717.07
731.906	34795.26
732.248	34703.06
732.589	34663.06
732.93	34507.13
733.271	34467.58
733.612	34433.91
733.953	34598.2
734.294	34394.82
734.635	34304.65
734.976	34433.01
735.317	34242.05
735.658	34272.33
735.999	34219
736.339	34096.07
736.68	34271.2
737.021	34049.06
737.361	34005.22
737.702	34095.84
738.042	33960.25
738.383	33997.99
738.723	33948.5
739.063	33898.56
739.404	33917.09
739.744	33687.72
740.084	33547.83
740.424	33732.23
740.764	33639.81
741.104	33804.32
741.444	33622.41
741.784	33271
742.124	33553.48
742.464	33452.92
742.804	33262.42
743.143	33270.33
743.483	33234.17
743.823	33068.07
744.162	33122.08
744.502	33158.46
744.841	33031.46
745.181	33301.74
745.52	32976.1
745.86	32988.07
746.199	32842.54
746.538	32882.99
746.877	33048.18
747.216	32912.6
747.556	32821.3
747.895	32786.5
748.234	32681.19
748.573	32594.19
748.911	32548.76
749.25	32577.69
749.589	32388.32
749.928	32495.88
750.267	32566.39
750.605	32441.42
750.944	32353.51
751.283	32392.38
751.621	32350.8
751.96	32171.6
752.298	32165.95
752.636	32054.09
752.975	32047.31
753.313	31925.95
753.651	31966.63
753.989	31640.31
754.327	31817.03
754.666	31662.91
755.004	31682.57
755.342	31701.78
755.679	31558.51
756.017	31313.32
756.355	31572.97
756.693	31247.55
757.031	31410.04
757.368	31235.35
757.706	31189.7
758.044	31140.66
758.381	31049.14
758.719	31041.01
759.056	31005.53
759.394	30969.37
759.731	30647.34
760.068	30607.34
760.405	30540.68
760.743	30422.72
