Data from red_cardboard_box_FLMS001491_00085.txt Node
Date: Wed Feb 08 11:33:16 GMT 2017
User: dcchb
Spectrometer: FLMS00149
Trigger mode: 0
Integration Time (sec): 2.000000E-2
Scans to average: 10
Electric dark correction enabled: true
Nonlinearity correction enabled: false
Boxcar width: 0
XAxis mode: Wavelengths
Number of Pixels in Spectrum: 2048
>>>>>Begin Spectral Data<<<<<
341.393	-23.33
341.776	-23.33
342.16	-23.33
342.543	-56.78
342.927	-71.24
343.31	-80.28
343.693	-55.42
344.077	-55.87
344.46	-65.37
344.843	-50.22
345.226	-43.9
345.61	-43.9
345.993	-9.55
346.376	6.5
346.759	7.4
347.142	20.51
347.525	40.62
347.908	50.79
348.291	67.06
348.674	84.69
349.057	126.95
349.44	135.08
349.823	139.15
350.206	153.84
350.588	194.29
350.971	197.68
351.354	226.83
351.737	236.77
352.119	271.35
352.502	258.69
352.884	274.06
353.267	310.44
353.65	303.66
354.032	296.43
354.414	319.26
354.797	319.94
355.179	304.12
355.562	344.34
355.944	323.1
356.326	333.27
356.709	326.04
357.091	358.8
357.473	323.55
357.855	355.64
358.238	365.13
358.62	363.32
359.002	345.47
359.384	335.75
359.766	337.56
360.148	338.69
360.53	337.79
360.912	356.54
361.294	338.92
361.676	362.42
362.057	328.52
362.439	333.49
362.821	328.52
363.203	337.79
363.584	350.89
363.966	308.18
364.348	319.71
364.729	326.26
365.111	313.16
365.493	317.9
365.874	328.97
366.256	329.43
366.637	338.69
367.019	302.99
367.4	316.32
367.781	320.16
368.163	302.99
368.544	305.25
368.925	320.39
369.306	339.14
369.688	342.08
370.069	301.86
370.45	320.61
370.831	309.77
371.212	324.68
371.593	325.81
371.974	320.39
372.355	312.93
372.736	327.39
373.117	315.42
373.498	326.94
373.879	331.91
374.26	326.04
374.641	321.97
375.021	331.91
375.402	337.11
375.783	333.27
376.163	332.82
376.544	351.8
376.925	310.9
377.305	322.65
377.686	340.5
378.066	362.42
378.447	334.17
378.827	321.07
379.208	333.04
379.588	317.22
379.968	338.01
380.349	336.21
380.729	326.49
381.109	329.88
381.489	340.05
381.87	346.83
382.25	336.88
382.63	350.22
383.01	338.69
383.39	351.8
383.77	351.57
384.15	362.19
384.53	345.47
384.91	361.52
385.29	352.02
385.67	356.54
386.049	358.58
386.429	344.12
386.809	353.83
387.189	351.35
387.568	357.22
387.948	342.99
388.328	352.93
388.707	346.83
389.087	347.05
389.466	369.88
389.846	357.9
390.225	345.02
390.605	343.89
390.984	352.48
391.363	370.33
391.743	366.71
392.122	364.91
392.501	372.14
392.881	366.26
393.26	362.65
393.639	366.49
394.018	363.78
394.397	386.83
394.776	373.72
395.155	364.45
395.534	373.94
395.913	360.39
396.292	360.39
396.671	361.97
397.05	357.22
397.429	384.79
397.808	375.07
398.186	360.61
398.565	359.71
398.944	358.35
399.323	391.57
399.701	387.05
400.08	361.06
400.458	387.28
400.837	414.17
401.215	373.49
401.594	397.45
401.972	385.02
402.351	397.67
402.729	394.96
403.107	387.96
403.486	382.76
403.864	387.28
404.242	395.87
404.62	382.08
404.999	394.96
405.377	394.74
405.755	418.24
406.133	397.45
406.511	397.67
406.889	414.85
407.267	438.58
407.645	402.19
408.023	419.82
408.401	408.75
408.779	409.88
409.156	408.75
409.534	407.62
409.912	415.75
410.29	408.52
410.667	417.11
411.045	436.99
411.422	422.53
411.8	434.51
412.178	452.14
412.555	444.68
412.933	427.95
413.31	427.28
413.687	434.73
414.065	448.97
414.442	456.88
414.819	449.65
415.197	448.29
415.574	472.02
415.951	458.46
416.328	469.31
416.705	444.45
417.082	474.28
417.46	461.4
417.837	462.3
418.214	476.09
418.591	474.96
418.967	473.38
419.344	465.69
419.721	480.61
420.098	448.29
420.475	478.57
420.852	467.95
421.228	502.98
421.605	476.09
421.982	505.47
422.358	473.15
422.735	495.3
423.111	486.48
423.488	502.08
423.864	512.47
424.241	506.6
424.617	494.85
424.994	501.85
425.37	516.31
425.746	504.79
426.123	523.77
426.499	531.23
426.875	522.64
427.251	512.02
427.627	505.92
428.003	540.95
428.379	518.8
428.756	507.95
429.132	528.52
429.507	550.21
429.883	559.02
430.259	556.54
430.635	544.79
431.011	532.36
431.387	539.82
431.763	554.28
432.138	554.73
432.514	562.64
432.89	559.25
433.265	577.56
433.641	587.95
434.016	575.52
434.392	569.42
434.767	587.72
435.143	592.02
435.518	616.2
435.894	623.88
436.269	611.9
436.644	601.74
437.02	608.74
437.395	615.52
437.77	587.95
438.145	610.32
438.52	611.68
438.895	646.93
439.271	620.27
439.646	658.68
440.021	632.92
440.395	609.19
440.77	624.56
441.145	637.89
441.52	657.1
441.895	652.81
442.27	669.08
442.645	662.3
443.019	667.95
443.394	637.67
443.769	650.77
444.143	663.65
444.518	675.86
444.892	652.81
445.267	656.2
445.641	683.99
446.016	653.94
446.39	663.43
446.764	700.49
447.139	695.52
447.513	668.63
447.887	688.51
448.262	681.73
448.636	693.71
449.01	704.11
449.384	711.56
449.758	720.15
450.132	713.6
450.506	728.29
450.88	699.13
451.254	732.13
451.628	713.6
452.002	717.21
452.376	713.6
452.75	735.29
453.123	758.34
453.497	738.46
453.871	748.62
454.244	766.93
454.618	761.28
454.992	748.85
455.365	767.15
455.739	780.94
456.112	771
456.486	777.32
456.859	761.05
457.232	779.13
457.606	784.33
457.979	812.13
458.352	819.58
458.725	800.15
459.099	851.45
459.472	805.12
459.845	808.06
460.218	848.96
460.591	852.58
460.964	830.43
461.337	853.03
461.71	853.93
462.083	860.94
462.456	883.76
462.829	888.06
463.201	887.15
463.574	855.51
463.947	892.12
464.32	888.73
464.692	913.82
465.065	924.89
465.438	915.85
465.81	948.62
466.183	941.61
466.555	932.8
466.928	939.81
467.3	957.43
467.672	961.05
468.045	966.25
468.417	979.35
468.789	1001.27
469.161	1027.26
469.534	1026.13
469.906	1003.98
470.278	1007.37
470.65	1049.18
471.022	1057.54
471.394	1051.44
471.766	1065.23
472.138	1070.88
472.51	1105.45
472.882	1077.2
473.253	1087.82
473.625	1114.26
473.997	1119.24
474.369	1169.4
474.74	1128.05
475.112	1188.16
475.484	1169.86
475.855	1208.05
476.227	1199.46
476.598	1237.43
476.97	1227.26
477.341	1276.07
477.713	1273.58
478.084	1270.64
478.455	1317.2
478.827	1318.55
479.198	1335.95
479.569	1359.91
479.94	1374.82
480.311	1364.43
480.682	1409.17
481.053	1388.83
481.424	1453.92
481.795	1431.77
482.166	1460.02
482.537	1512.22
482.908	1534.37
483.279	1513.12
483.65	1545.44
484.021	1574.82
484.391	1566.23
484.762	1591.77
485.133	1593.12
485.503	1610.3
485.874	1623.63
486.244	1666.11
486.615	1682.39
486.985	1704.31
487.356	1711.99
487.726	1738.2
488.097	1748.15
488.467	1758.77
488.837	1827.01
489.207	1813.91
489.578	1837.41
489.948	1827.92
490.318	1870.18
490.688	1891.65
491.058	1900.23
491.428	1941.59
491.798	1969.16
492.168	1989.5
492.538	1986.33
492.908	1999.89
493.278	2053.67
493.648	2076.27
494.017	2075.82
494.387	2099.78
494.757	2134.12
495.126	2121.47
495.496	2116.05
495.866	2130.06
496.235	2170.51
496.605	2176.61
496.974	2173.45
497.344	2210.96
497.713	2245.99
498.082	2247.34
498.452	2253.44
498.821	2251.86
499.19	2260.45
499.559	2324.18
499.928	2315.36
500.298	2312.65
500.667	2331.41
501.036	2375.25
501.405	2403.72
501.774	2343.16
502.143	2386.55
502.512	2439.43
502.88	2428.58
503.249	2434.91
503.618	2459.31
503.987	2472.87
504.356	2497.5
504.724	2498.18
505.093	2494.12
505.462	2537.28
505.83	2546.32
506.199	2518.75
506.567	2610.72
506.936	2623.83
507.304	2625.64
507.672	2622.25
508.041	2646.2
508.409	2695.47
508.777	2687.56
509.145	2695.47
509.514	2748.35
509.882	2739.08
510.25	2748.57
510.618	2796.03
510.986	2773.88
511.354	2827.67
511.722	2833.09
512.09	2882.81
512.458	2872.64
512.826	2889.59
513.193	2870.15
513.561	2952.86
513.929	2939.98
514.297	2964.39
514.664	2995.57
515.032	2991.05
515.4	3024.95
515.767	3025.85
516.135	3092.74
516.502	3037.15
516.869	3117.15
517.237	3122.35
517.604	3124.61
517.972	3150.82
518.339	3195.79
518.706	3170.48
519.073	3215.9
519.44	3231.72
519.808	3295
520.175	3260.2
520.542	3290.7
520.909	3341.1
521.276	3322.12
521.643	3360.31
522.009	3433.07
522.376	3437.14
522.743	3474.2
523.11	3464.49
523.477	3498.38
523.843	3547.65
524.21	3593.3
524.577	3602.33
524.943	3595.1
525.31	3651.37
525.676	3643.69
526.043	3731.82
526.409	3718.26
526.776	3746.74
527.142	3769.56
527.508	3797.36
527.874	3805.95
528.241	3837.81
528.607	3875.55
528.973	3907.86
529.339	3922.33
529.705	3939.95
530.071	3988.09
530.437	4050.46
530.803	4038.48
531.169	4102.89
531.535	4030.57
531.901	4087.97
532.267	4082.32
532.632	4148.76
532.998	4167.29
533.364	4134.52
533.73	4211.36
534.095	4234.86
534.461	4210.68
534.826	4279.83
535.192	4271.02
535.557	4351.24
535.923	4380.17
536.288	4379.26
536.653	4399.6
537.019	4327.51
537.384	4366.61
537.749	4449.09
538.114	4455.87
538.479	4508.75
538.845	4495.87
539.21	4521.63
539.575	4541.97
539.94	4573.38
540.305	4584.23
540.67	4586.49
541.034	4599.6
541.399	4628.52
541.764	4651.12
542.129	4683.21
542.494	4693.61
542.858	4761.85
543.223	4720.95
543.587	4777.9
543.952	4809.99
544.316	4780.83
544.681	4845.69
545.045	4802.53
545.41	4852.92
545.774	4921.85
546.138	4951.9
546.503	4919.59
546.867	4954.39
547.231	5008.17
547.595	5060.15
547.959	5040.71
548.324	5045.69
548.688	5083.65
549.052	5099.7
549.416	5082.97
549.779	5150.32
550.143	5163.42
550.507	5216.3
550.871	5273.25
551.235	5232.8
551.599	5299.24
551.962	5397.32
552.326	5339.01
552.689	5336.07
553.053	5399.12
553.417	5437.99
553.78	5468.27
554.143	5581.27
554.507	5592.56
554.87	5548.5
555.234	5631.43
555.597	5620.36
555.96	5710.3
556.323	5733.8
556.686	5727.93
557.05	5842.05
557.413	5807.7
557.776	5870.98
558.139	5885.66
558.502	5994.59
558.865	5983.74
559.228	6038.65
559.59	6133.57
559.953	6115.04
560.316	6188.48
560.679	6260.12
561.041	6240.91
561.404	6347.12
561.767	6388.02
562.129	6390.06
562.492	6486.78
562.854	6504.63
563.217	6539.21
563.579	6608.58
563.941	6675.7
564.304	6784.4
564.666	6825.75
565.028	6830.05
565.39	6834.11
565.753	7001.34
566.115	7023.49
566.477	7085.86
566.839	7193.88
567.201	7216.93
567.563	7270.71
567.925	7377.38
568.287	7428.45
568.648	7420.99
569.01	7587.09
569.372	7624.38
569.734	7652.85
570.095	7744.15
570.457	7804.71
570.819	7938.04
571.18	7949.34
571.542	8066.62
571.903	8091.93
572.265	8201.31
572.626	8269.56
572.987	8308.88
573.349	8451.92
573.71	8521.75
574.071	8589.77
574.432	8728.98
574.794	8818.92
575.155	8879.03
575.516	8959.48
575.877	9053.94
576.238	9117.22
576.599	9244.45
576.96	9326.03
577.32	9439.24
577.681	9499.58
578.042	9645.79
578.403	9775.28
578.763	9857.54
579.124	9970.53
579.485	10109.06
579.845	10234.7
580.206	10397.86
580.566	10466.79
580.927	10577.52
581.287	10773.9
581.648	10871.3
582.008	11063.16
582.368	11208.01
582.728	11320.78
583.089	11435.35
583.449	11609.81
583.809	11820.88
584.169	12007.09
584.529	12114.43
584.889	12446.4
585.249	12560.52
585.609	12704.24
585.969	12996.66
586.329	13121.41
586.688	13409.53
587.048	13568.4
587.408	13732.01
587.768	13946.7
588.127	14238.21
588.487	14404.08
588.846	14729.95
589.206	14955.26
589.565	15225.08
589.925	15580.55
590.284	15785.29
590.643	16140.08
591.003	16365.16
591.362	16710.24
591.721	16964.02
592.08	17249.89
592.44	17549.76
592.799	17883.54
593.158	18187.49
593.517	18480.59
593.876	18825.21
594.235	19146.33
594.593	19435.36
594.952	19937.27
595.311	20173.2
595.67	20501.1
596.029	20946.96
596.387	21271.93
596.746	21824.68
597.104	22056.76
597.463	22396.64
597.822	22761.6
598.18	23088.15
598.538	23474.58
598.897	24002.7
599.255	24100.1
599.613	24782.79
599.972	24996.8
600.33	25496.67
600.688	25653.05
601.046	26170.55
601.404	26483.77
601.762	26891.89
602.12	27383.18
602.478	27638.09
602.836	28055.25
603.194	28408.01
603.552	28728.45
603.91	28925.96
604.268	29517.13
604.625	29693.63
604.983	30170.45
605.341	30426.26
605.698	30903.31
606.056	31266.69
606.413	31560.47
606.771	31868.71
607.128	32250.62
607.485	32419.43
607.843	32686.54
608.2	33167.21
608.557	33573.3
608.914	33770.58
609.272	34150.68
609.629	34453.5
609.986	34776.2
610.343	34924
610.7	35474.49
611.057	35537.09
611.414	35729.17
611.771	36069.96
612.127	36402.38
612.484	36656.61
612.841	36897.96
613.198	36970.72
613.554	37236.93
613.911	37493.19
614.267	37782.9
614.624	37860.42
614.98	38075.55
615.337	38391.7
615.693	38595.09
616.05	38804.12
616.406	39079.82
616.762	39092.25
617.118	39300.83
617.475	39605.23
617.831	39868.5
618.187	39967.48
618.543	40249.51
618.899	40431.87
619.255	40680.46
619.611	40550.74
619.967	40893.78
620.323	41171.52
620.678	41083.38
621.034	41108.47
621.39	41306.65
621.746	41322.02
622.101	41825.06
622.457	41588
622.812	41900.31
623.168	41954.77
623.523	42082.9
623.879	42361.54
624.234	42038.16
624.589	42368.77
624.945	42539.62
625.3	42546.17
625.655	42690.8
626.01	42780.06
626.365	42808.31
626.72	42822.77
627.075	42928.98
627.43	42872.49
627.785	42988.42
628.14	43101.64
628.495	43139.15
628.85	43349.54
629.205	43221.63
629.559	43560.61
629.914	43282.87
630.269	43425.69
630.623	43371.01
630.978	43440.38
631.332	43651
631.687	43652.13
632.041	43687.38
632.396	43695.97
632.75	43529.87
633.104	43683.09
633.459	43654.39
633.813	43493.26
634.167	43612.13
634.521	43662.3
634.875	43869.07
635.229	43678.12
635.583	43642.64
635.937	43619.81
636.291	43677.67
636.645	43680.38
636.999	43633.15
637.352	43941.39
637.706	43649.87
638.06	43801.28
638.413	43719.47
638.767	43690.55
639.121	43779.58
639.474	43534.39
639.828	43693.71
640.181	43740.71
640.534	43857.77
640.888	43681.05
641.241	43661.85
641.594	43554.28
641.947	43829.98
642.301	43728.96
642.654	43703.2
643.007	43735.97
643.36	43832.01
643.713	43756.53
644.066	43857.1
644.419	43532.36
644.771	43258.02
645.124	42961.53
645.477	42838.14
645.83	42673.85
646.182	42544.14
646.535	42614.64
646.888	42656.68
647.24	42520.41
647.593	42746.62
647.945	42603.34
648.298	42462.56
648.65	42413.07
649.002	42317.02
649.355	42552.04
649.707	42401.09
650.059	42603.57
650.411	43087.17
650.763	43152.03
651.115	43532.13
651.467	43428.63
651.819	43439.48
652.171	43431.8
652.523	43346.37
652.875	43325.81
653.227	43187.73
653.578	43488.52
653.93	43396.32
654.282	43242.2
654.633	43188.64
654.985	43234.96
655.337	43354.06
655.688	43263.66
656.039	43467.5
656.391	43154.29
656.742	43142.31
657.094	43225.25
657.445	43314.51
657.796	43148.41
658.147	43236.55
658.498	43116.55
658.849	43325.36
659.2	43084.01
659.551	43182.31
659.902	43250.56
660.253	43200.84
660.604	43224.12
660.955	43082.88
661.306	43096.21
661.656	43238.35
662.007	43132.82
662.358	43275.19
662.708	43236.09
663.059	43184.8
663.409	43053.05
663.76	43348.86
664.11	43192.71
664.461	43224.57
664.811	43343.21
665.161	43177.57
665.511	43139.6
665.862	43145.7
666.212	43270.44
666.562	43212.37
666.912	43137.79
667.262	43119.71
667.612	43094.86
667.962	43121.52
668.312	43134.63
668.662	43239.71
669.011	43162.65
669.361	43076.32
669.711	43111.58
670.06	43066.16
670.41	42992.49
670.76	42831.13
671.109	43011.69
671.459	42879.72
671.808	42936.22
672.157	42961.07
672.507	42760.85
672.856	42766.73
673.205	42853.28
673.554	42923.33
673.904	42667.3
674.253	43002.43
674.602	42827.29
674.951	42357.7
675.3	42113.41
675.649	42766.95
675.998	42703.23
676.346	42594.53
676.695	42785.49
677.044	42578.48
677.393	42643.34
677.741	42832.72
678.09	42602.67
678.438	42480.18
678.787	42538.49
679.135	42533.51
679.484	42399.73
679.832	42452.84
680.181	42250.36
680.529	42401.77
680.877	42152.96
681.225	42246.06
681.573	42538.71
681.922	42290.58
682.27	41981.21
682.618	42154.54
682.966	42009.01
683.314	42016.47
683.661	42045.84
684.009	41724.04
684.357	41738.73
684.705	41628.91
685.053	41781.22
685.4	41601.11
685.748	41391.4
686.095	41462.58
686.443	41233.44
686.79	41350.04
687.138	41260.55
687.485	41288.35
687.832	41070.5
688.18	41139.65
688.527	40996.83
688.874	40975.59
689.221	40881.81
689.568	40617.18
689.915	40621.47
690.262	40758.87
690.609	40426.68
690.956	40556.39
691.303	40378.99
691.65	40260.13
691.997	40217.64
692.344	40034.6
692.69	39983.07
693.037	40067.14
693.383	39643.19
693.73	39827.82
694.077	39567.72
694.423	39555.51
694.769	39549.86
695.116	39460.15
695.462	39293.37
695.808	39219.25
696.155	39280.04
696.501	38988.52
696.847	39000.05
697.193	38703.78
697.539	38835.98
697.885	38583.56
698.231	38505.15
698.577	38595.76
698.923	38443.68
699.269	38279.16
699.614	38012.05
699.96	38104.03
700.306	38121.65
700.651	37899.29
700.997	37826.07
701.342	37635.11
701.688	37685.05
702.033	37450.94
702.379	37553.08
702.724	37431.95
703.069	37403.03
703.415	37081
703.76	37209.81
704.105	37126.2
704.45	37026.54
704.795	36834
705.14	36792.65
705.485	36764.17
705.83	36656.61
706.175	36641.69
706.52	36618.19
706.865	36462.49
707.209	36271.08
707.554	36220.91
707.899	36224.98
708.243	35983.63
708.588	35946.79
708.932	35868.83
709.277	35785.9
709.621	35804.43
709.966	35447.6
710.31	35669.29
710.654	35328.05
710.998	35397.43
711.342	35370.76
711.687	35382.06
712.031	35259.13
712.375	35072.02
712.719	35180.26
713.063	35165.57
713.407	35128.06
713.75	34902.75
714.094	35019.36
714.438	34722.19
714.782	34786.15
715.125	34635.64
715.469	34794.51
715.812	34439.94
716.156	34304.58
716.499	34347.74
716.843	34443.78
717.186	34189.55
717.53	34413.28
717.873	34279.04
718.216	34207.63
718.559	34076.56
718.902	33881.99
719.246	34073.62
719.589	33807.19
719.932	33615.56
720.275	33677.25
720.617	33724.03
720.96	33544.15
721.303	33614.2
721.646	33649.68
721.989	33388.22
722.331	33616.01
722.674	33478.16
723.016	33548.21
723.359	33358.84
723.701	33368.56
724.044	33169.69
724.386	33160.65
724.729	33204.95
725.071	33034.78
725.413	33062.13
725.755	32996.82
726.097	32937.61
726.439	32768.8
726.782	32827.1
727.124	32920.89
727.465	32628.69
727.807	32727.44
728.149	32645.64
728.491	32689.93
728.833	32592.98
729.175	32521.12
729.516	32476.15
729.858	32304.86
730.199	32384.18
730.541	32308.02
730.882	32310.73
731.224	32429.37
731.565	32178.08
731.906	32061.02
732.248	32153
732.589	32070.96
732.93	31979.89
733.271	32007.24
733.612	31929.73
733.953	31876.39
734.294	31804.3
734.635	31786.9
734.976	32015.6
735.317	31762.72
735.658	31598.89
735.999	31694.48
736.339	31597.76
736.68	31681.82
737.021	31583.52
737.361	31465.33
737.702	31654.03
738.042	31479.57
738.383	31363.86
738.723	31496.29
739.063	31357.76
739.404	31436.41
739.744	31154.83
740.084	31215.62
740.424	31365.45
740.764	31193.7
741.104	31278.22
741.444	31028.96
741.784	30881.62
742.124	31008.17
742.464	31014.04
742.804	30878.45
743.143	30851.79
743.483	30870.09
743.823	30591
744.162	30621.96
744.502	30691.11
744.841	30612.25
745.181	30687.05
745.52	30628.97
745.86	30594.85
746.199	30550.33
746.538	30497.67
746.877	30523.43
747.216	30437.11
747.556	30376.55
747.895	30378.13
748.234	30237.11
748.573	30174.07
748.911	30175.87
749.25	30242.76
749.589	30056.55
749.928	29998.48
750.267	30126.83
750.605	30040.06
750.944	29951.7
751.283	29865.6
751.621	29911.47
751.96	29737.24
752.298	29760.29
752.636	29699.73
752.975	29524.59
753.313	29476.68
753.651	29663.8
753.989	29492.05
754.327	29384.26
754.666	29268.33
755.004	29405.5
755.342	29336.12
755.679	29202.34
756.017	29097.26
756.355	29198.72
756.693	29043.7
757.031	29185.84
757.368	28982.23
757.706	28921.67
758.044	28829.02
758.381	28870.14
758.719	28704.05
759.056	28700.66
759.394	28662.24
759.731	28504.28
760.068	28376.6
760.405	28302.93
760.743	28301.12
761.08	28484.17
