Data from red_cardboard_box_FLMS001491_00007.txt Node
Date: Wed Feb 08 11:31:24 GMT 2017
User: dcchb
Spectrometer: FLMS00149
Trigger mode: 0
Integration Time (sec): 2.000000E-2
Scans to average: 10
Electric dark correction enabled: true
Nonlinearity correction enabled: false
Boxcar width: 0
XAxis mode: Wavelengths
Number of Pixels in Spectrum: 2048
>>>>>Begin Spectral Data<<<<<
341.393	-16.98
341.776	-16.98
342.16	-16.98
342.543	-69.18
342.927	-75.96
343.31	-62.85
343.693	-83.87
344.077	-53.81
344.46	-53.36
344.843	-47.03
345.226	-43.87
345.61	-34.83
345.993	-53.13
346.376	-13.14
346.759	10.59
347.142	21.44
347.525	51.72
347.908	50.14
348.291	82.23
348.674	96.01
349.057	133.75
349.44	134.43
349.823	149.8
350.206	167.2
350.588	205.62
350.971	220.53
351.354	234.99
351.737	251.49
352.119	261.21
352.502	264.6
352.884	282.22
353.267	281.55
353.65	292.62
354.032	314.31
354.414	297.37
354.797	325.16
355.179	328.55
355.562	317.93
355.944	310.92
356.326	314.99
356.709	335.33
357.091	328.78
357.473	350.92
357.855	336.69
358.238	339.17
358.62	334.2
359.002	342.56
359.384	352.5
359.766	325.61
360.148	347.53
360.53	335.56
360.912	337.59
361.294	352.73
361.676	326.97
362.057	330.58
362.439	330.58
362.821	346.4
363.203	348.66
363.584	326.29
363.966	321.77
364.348	335.33
364.729	328.32
365.111	313.64
365.493	332.62
365.874	310.47
366.256	325.16
366.637	326.52
367.019	303.92
367.4	322.9
367.781	315.44
368.163	289.91
368.544	322.9
368.925	313.18
369.306	292.39
369.688	300.08
370.069	308.89
370.45	304.6
370.831	298.49
371.212	315.22
371.593	296.69
371.974	305.5
372.355	311.38
372.736	318.16
373.117	294.65
373.498	301.66
373.879	321.09
374.26	308.66
374.641	306.86
375.021	294.2
375.402	314.54
375.783	301.66
376.163	305.05
376.544	311.6
376.925	334.2
377.305	319.74
377.686	326.29
378.066	313.18
378.447	335.33
378.827	341.43
379.208	315.9
379.588	326.52
379.968	336.69
380.349	309.57
380.729	319.06
381.109	329.91
381.489	331.04
381.87	343.01
382.25	324.48
382.63	336.46
383.01	333.97
383.39	354.31
383.77	344.6
384.15	336.69
384.53	318.38
384.91	361.09
385.29	356.35
385.67	351.15
386.049	336.69
386.429	343.01
386.809	337.14
387.189	342.56
387.568	388.44
387.948	332.17
388.328	343.01
388.707	351.37
389.087	364.71
389.466	337.36
389.846	344.82
390.225	352.73
390.605	336.91
390.984	354.09
391.363	346.4
391.743	375.33
392.122	353.18
392.501	371.26
392.881	385.95
393.26	358.83
393.639	361.54
394.018	359.28
394.397	369
394.776	346.18
395.155	349.57
395.534	358.15
395.913	365.61
396.292	369.91
396.671	369
397.05	387.53
397.429	365.39
397.808	374.2
398.186	364.71
398.565	370.58
398.944	381.2
399.323	359.74
399.701	375.33
400.08	380.75
400.458	359.06
400.837	385.72
401.215	359.28
401.594	371.49
401.972	401.77
402.351	378.94
402.729	379.62
403.107	376.23
403.486	397.25
403.864	386.18
404.242	393.41
404.62	403.35
404.999	391.6
405.377	386.85
405.755	410.13
406.133	404.93
406.511	393.63
406.889	398.61
407.267	404.03
407.645	400.64
408.023	405.84
408.401	421.43
408.779	408.55
409.156	413.75
409.534	405.38
409.912	417.59
410.29	418.04
410.667	424.82
411.045	422.79
411.422	409.45
411.8	434.31
412.178	416.23
412.555	411.94
412.933	435.21
413.31	420.53
413.687	418.49
414.065	436.8
414.442	409
414.819	433.63
415.197	442.9
415.574	448.1
415.951	450.58
416.328	444.48
416.705	423.46
417.082	438.38
417.46	447.42
417.837	460.98
418.214	466.17
418.591	478.6
418.967	446.29
419.344	458.72
419.721	444.48
420.098	463.46
420.475	441.09
420.852	470.92
421.228	455.33
421.605	476.8
421.982	473.18
422.358	478.6
422.735	486.29
423.111	475.89
423.488	491.26
423.864	492.61
424.241	482.22
424.617	492.61
424.994	491.26
425.37	495.55
425.746	482.22
426.123	501.88
426.499	482.67
426.875	500.98
427.251	496.23
427.627	498.49
428.003	510.24
428.379	495.55
428.756	492.84
429.132	511.6
429.507	509.56
429.883	523.12
430.259	531.26
430.635	534.19
431.011	527.64
431.387	535.32
431.763	539.84
432.138	532.61
432.514	538.04
432.89	546.17
433.265	532.16
433.641	557.25
434.016	548.88
434.392	533.29
434.767	578.04
435.143	552.73
435.518	578.94
435.894	571.48
436.269	566.74
436.644	576.68
437.02	591.14
437.395	568.77
437.77	612.16
438.145	586.85
438.52	608.77
438.895	602.44
439.271	610.35
439.646	610.35
440.021	625.94
440.395	618.49
440.77	623.46
441.145	612.61
441.52	631.59
441.895	615.1
442.27	640.63
442.645	621.88
443.019	642.44
443.394	615.1
443.769	629.33
444.143	638.6
444.518	652.38
444.892	647.41
445.267	638.6
445.641	662.55
446.016	651.25
446.39	652.61
446.764	634.53
447.139	653.06
447.513	688.09
447.887	676.11
448.262	665.04
448.636	664.59
449.01	672.72
449.384	672.5
449.758	663.68
450.132	678.82
450.506	705.26
450.88	692.38
451.254	666.17
451.628	703.23
452.002	702.78
452.376	699.61
452.75	714.53
453.123	684.02
453.497	702.1
453.871	710.46
454.244	743.46
454.618	751.82
454.992	730.12
455.365	753.17
455.739	740.29
456.112	730.12
456.486	773.28
456.859	741.42
457.232	746.17
457.606	751.14
457.979	757.69
458.352	773.28
458.725	787.75
459.099	816.22
459.472	788.43
459.845	812.15
460.218	812.38
460.591	776.67
460.964	809.22
461.337	810.8
461.71	809.89
462.083	853.96
462.456	840.18
462.829	839.05
463.201	855.09
463.574	852.83
463.947	849.21
464.32	889.21
464.692	857.35
465.065	888.08
465.438	873.62
465.81	890.57
466.183	920.4
466.555	884.24
466.928	914.52
467.3	921.53
467.672	965.82
468.045	928.08
468.417	929.66
468.789	938.93
469.161	931.02
469.534	945.48
469.906	956.33
470.278	997.69
470.65	999.49
471.022	1017.35
471.394	1011.02
471.766	1007.18
472.138	1020.06
472.51	1045.82
472.882	1053.73
473.253	1046.95
473.625	1037.68
473.997	1084.69
474.369	1106.84
474.74	1113.61
475.112	1106.16
475.484	1113.16
475.855	1141.18
476.227	1141.86
476.598	1151.81
476.97	1177.79
477.341	1198.13
477.713	1222.31
478.084	1199.49
478.455	1232.48
478.827	1254.18
479.198	1277.45
479.569	1280.39
479.94	1308.64
480.311	1308.19
480.682	1303.21
481.053	1342.99
481.424	1365.81
481.795	1395.87
482.166	1384.34
482.537	1404.68
482.908	1399.48
483.279	1457.11
483.65	1441.52
484.021	1476.77
484.391	1483.1
484.762	1498.24
485.133	1528.75
485.503	1547.05
485.874	1552.7
486.244	1578.91
486.615	1602.87
486.985	1595.41
487.356	1612.13
487.726	1638.12
488.097	1680.38
488.467	1699.59
488.837	1699.36
489.207	1713.15
489.578	1762.64
489.948	1752.92
490.318	1777.55
490.688	1802.64
491.058	1821.17
491.428	1833.37
491.798	1856.19
492.168	1867.72
492.538	1864.78
492.908	1891
493.278	1904.33
493.648	1919.92
494.017	1930.32
494.387	1966.25
494.757	1987.26
495.126	1982.29
495.496	2019.35
495.866	1987.04
496.235	2022.74
496.605	2046.92
496.974	2069.07
497.344	2079.01
497.713	2107.94
498.082	2112.46
498.452	2156.75
498.821	2171.67
499.19	2159.69
499.559	2164.89
499.928	2176.64
500.298	2186.81
500.667	2226.81
501.036	2233.36
501.405	2250.99
501.774	2243.75
502.143	2275.84
502.512	2280.36
502.88	2297.54
503.249	2311.1
503.618	2333.02
503.987	2344.77
504.356	2356.07
504.724	2346.8
505.093	2381.83
505.462	2389.51
505.83	2373.47
506.199	2406.46
506.567	2431.77
506.936	2432.22
507.304	2472.68
507.672	2501.37
508.041	2473.81
508.409	2492.79
508.777	2524.43
509.145	2563.52
509.514	2565.1
509.882	2601.03
510.25	2563.75
510.618	2631.09
510.986	2618.89
511.354	2648.72
511.722	2699.56
512.09	2686.91
512.458	2723.06
512.826	2681.94
513.193	2743.63
513.561	2739.11
513.929	2789.28
514.297	2838.32
514.664	2796.28
515.032	2811.88
515.4	2852.33
515.767	2874.7
516.135	2862.04
516.502	2896.17
516.869	2900.46
517.237	2943.17
517.604	2983.62
517.972	2958.99
518.339	2977.97
518.706	2989.05
519.073	3007.8
519.44	3001.7
519.808	3075.6
520.175	3036.73
520.542	3095.94
520.909	3122.38
521.276	3115.37
521.643	3172.32
522.009	3227.01
522.376	3220.23
522.743	3223.39
523.11	3226.33
523.477	3278.3
523.843	3344.52
524.21	3356.04
524.577	3391.3
524.943	3387.68
525.31	3387.91
525.676	3428.13
526.043	3470.61
526.409	3445.98
526.776	3492.99
527.142	3502.03
527.508	3553.32
527.874	3575.02
528.241	3565.3
528.607	3664.51
528.973	3669.03
529.339	3642.59
529.705	3648.01
530.071	3744.51
530.437	3723.94
530.803	3772.75
531.169	3790.15
531.535	3767.1
531.901	3817.95
532.267	3850.04
532.632	3864.5
532.998	3879.19
533.364	3933.43
533.73	3950.6
534.095	3934.78
534.461	3981.34
534.826	4001.67
535.192	4011.62
535.557	4057.72
535.923	4034.67
536.288	4070.15
536.653	4148.34
537.019	4062.01
537.384	4120.77
537.749	4128.22
538.114	4157.83
538.479	4182.23
538.845	4223.36
539.21	4196.7
539.575	4228.11
539.94	4261.33
540.305	4263.81
540.67	4275.11
541.034	4315.34
541.399	4315.79
541.764	4389.91
542.129	4373.42
542.494	4430.36
542.858	4383.36
543.223	4452.06
543.587	4444.37
543.952	4453.87
544.316	4441.44
544.681	4497.93
545.045	4500.64
545.41	4587.2
545.774	4580.19
546.138	4578.61
546.503	4586.29
546.867	4624.48
547.231	4631.04
547.595	4690.92
547.959	4694.31
548.324	4699.51
548.688	4749.45
549.052	4746.97
549.416	4768.89
549.779	4788.32
550.143	4756
550.507	4850.01
550.871	4883.91
551.235	4885.49
551.599	4946.96
551.962	4964.59
552.326	4960.75
552.689	5010.01
553.053	5014.98
553.417	5021.76
553.78	5133.62
554.143	5146.5
554.507	5129.1
554.87	5177.01
555.234	5179.27
555.597	5244.13
555.96	5303.34
556.323	5317.35
556.686	5355.76
557.05	5374.29
557.413	5313.73
557.776	5403.9
558.139	5471.69
558.502	5505.36
558.865	5555.98
559.228	5604.34
559.59	5650.9
559.953	5684.79
560.316	5704.23
560.679	5720.05
561.041	5832.59
561.404	5854.06
561.767	5859.7
562.129	5861.29
562.492	6019.25
562.854	6017.67
563.217	6053.15
563.579	6066.7
563.941	6157.1
564.304	6196.42
564.666	6293.37
565.028	6310.09
565.39	6356.19
565.753	6393.02
566.115	6421.5
566.477	6544.21
566.839	6552.12
567.201	6617.65
567.563	6644.99
567.925	6803.18
568.287	6762.05
568.648	6862.39
569.01	6916.63
569.372	6963.4
569.734	7013.35
570.095	7166.79
570.457	7178.09
570.819	7220.12
571.18	7310.06
571.542	7341.47
571.903	7415.82
572.265	7476.61
572.626	7599.32
572.987	7667.11
573.349	7648.58
573.71	7797.28
574.071	7885.87
574.432	7898.75
574.794	8049.25
575.155	8093.54
575.516	8182.13
575.877	8250.15
576.238	8323.82
576.599	8464.61
576.96	8524.72
577.32	8591.38
577.681	8757.03
578.042	8781.21
578.403	8936.01
578.763	8991.37
579.124	9131.71
579.485	9272.5
579.845	9354.08
580.206	9434.3
580.566	9496.67
580.927	9669.1
581.287	9804.46
581.648	9855.31
582.008	10094.4
582.368	10083.32
582.728	10285.8
583.089	10459.81
583.449	10529.64
583.809	10740.48
584.169	10829.97
584.529	11004.2
584.889	11250.3
585.249	11311.99
585.609	11518.09
585.969	11678.76
586.329	11886.21
586.688	12096.38
587.048	12277.62
587.408	12473.77
587.768	12634.67
588.127	12805.51
588.487	12982.46
588.846	13347.64
589.206	13520.29
589.565	13633.96
589.925	13938.81
590.284	14128.64
590.643	14469.65
591.003	14695.63
591.362	14955.06
591.721	15202.96
592.08	15367.93
592.44	15788.26
592.799	15941.93
593.158	16219.66
593.517	16490.61
593.876	16881.56
594.235	17162.01
594.593	17468.44
594.952	17789.11
595.311	18059.84
595.67	18350
596.029	18752.7
596.387	19032.24
596.746	19450.76
597.104	19610.3
597.463	19909.96
597.822	20250.06
598.18	20597.17
598.538	20850.27
598.897	21226.53
599.255	21477.83
599.613	22098.83
599.972	22184.7
600.33	22593.73
600.688	22763.89
601.046	23251.79
601.404	23701.72
601.762	23999.11
602.12	24398.65
602.478	24673.22
602.836	25034.57
603.194	25128.35
603.552	25623.25
603.91	25932.17
604.268	26307.08
604.625	26468.88
604.983	26895.08
605.341	27053.05
605.698	27556.76
606.056	27863.65
606.413	28199.91
606.771	28441.71
607.128	28841.25
607.485	29085.76
607.843	29351.29
608.2	29609.36
608.557	30018.17
608.914	30174.32
609.272	30621.09
609.629	30897.92
609.986	31257.91
610.343	31294.06
610.7	31743.09
611.057	31878.46
611.414	32033.25
611.771	32327.03
612.127	32708.94
612.484	32895.15
612.841	33227.57
613.198	33241.58
613.554	33353.45
613.911	33845.18
614.267	33985.07
614.624	34086.99
614.98	34345.96
615.337	34732.84
615.693	34785.95
616.05	34965.83
616.406	35411.24
616.762	35416.22
617.118	35468.87
617.475	35648.3
617.831	35987.27
618.187	36180.04
618.543	36191.34
618.899	36677.2
619.255	36560.82
619.611	36730.08
619.967	37020.47
620.323	37199.22
620.678	37278.09
621.034	37246.9
621.39	37308.6
621.746	37514.92
622.101	37959.43
622.457	37762.82
622.812	37982.93
623.168	38131.4
623.523	38098.41
623.879	38436.93
624.234	38207.55
624.589	38533.2
624.945	38612.06
625.3	38688.22
625.655	38772.29
626.01	38949.91
626.365	38942.22
626.72	38916.01
627.075	39120.75
627.43	39251.14
627.785	39012.73
628.14	39119.85
628.495	39428.54
628.85	39381.31
629.205	39401.65
629.559	39648.87
629.914	39632.83
630.269	39622.21
630.623	39542.43
630.978	39459.27
631.332	39757.12
631.687	39833.95
632.041	39825.82
632.396	39890.67
632.75	39727.29
633.104	39850.22
633.459	39801.19
633.813	39864.69
634.167	39819.26
634.521	39906.95
634.875	40000.95
635.229	39964.12
635.583	39786.72
635.937	39902.88
636.291	39894.97
636.645	39975.87
636.999	39846.61
637.352	39917.11
637.706	39741.3
638.06	40022.2
638.413	39857.45
638.767	39958.02
639.121	39978.13
639.474	39889.32
639.828	39793.05
640.181	39948.3
640.534	40108.97
640.888	39908.3
641.241	39899.26
641.594	39820.62
641.947	39992.59
642.301	39924.12
642.654	39944.23
643.007	40064.46
643.36	39833.27
643.713	39873.05
644.066	40074.62
644.419	39636.9
644.771	39492.27
645.124	39192.39
645.477	39097.93
645.83	38853.64
646.182	39012.51
646.535	38848.22
646.888	38884.37
647.24	38811.15
647.593	39097.47
647.945	38874.2
648.298	38791.49
648.65	38880.98
649.002	38732.51
649.355	38893.64
649.707	38812.06
650.059	38942.9
650.411	39436.67
650.763	39347.86
651.115	39992.37
651.467	39779.72
651.819	39810.45
652.171	39681.64
652.523	39737.68
652.875	39692.26
653.227	39563.68
653.578	39882.99
653.93	39756.89
654.282	39490.01
654.633	39598.7
654.985	39719.61
655.337	39711.47
655.688	39604.81
656.039	39821.3
656.391	39427.86
656.742	39414.98
657.094	39586.05
657.445	39753.5
657.796	39635.09
658.147	39531.14
658.498	39393.74
658.849	39492.04
659.2	39500.18
659.551	39388.77
659.902	39519.38
660.253	39495.66
660.604	39633.73
660.955	39228.54
661.306	39480.97
661.656	39474.41
662.007	39454.53
662.358	39374.53
662.708	39423.12
663.059	39512.83
663.409	39339.05
663.76	39573.39
664.11	39505.37
664.461	39594.64
664.811	39496.33
665.161	39467.86
665.511	39348.77
665.862	39358.03
666.212	39465.83
666.562	39542.89
666.912	39332.72
667.262	39417.47
667.612	39358.94
667.962	39516.9
668.312	39371.82
668.662	39676.22
669.011	39521.64
669.361	39443.45
669.711	39441.87
670.06	39363.46
670.41	39240.97
670.76	39212.73
671.109	39463.34
671.459	39238.26
671.808	39127.98
672.157	39297.47
672.507	39064.71
672.856	39126.4
673.205	39194.65
673.554	39266.51
673.904	39066.52
674.253	39386.51
674.602	39103.35
674.951	38649.13
675.3	38454.33
675.649	39177.7
675.998	39083.46
676.346	39098.38
676.695	39125.72
677.044	38937.25
677.393	38950.81
677.741	39045.05
678.09	38881.44
678.438	38784.26
678.787	38913.07
679.135	38898.16
679.484	38709.46
679.832	38805.51
680.181	38613.42
680.529	38812.96
680.877	38638.05
681.225	38622.69
681.573	38710.82
681.922	38505.63
682.27	38400.09
682.618	38436.93
682.966	38305.86
683.314	38398.51
683.661	38369.81
684.009	38123.49
684.357	38048.01
684.705	37933.89
685.053	37966.88
685.4	37941.12
685.748	37878.75
686.095	37856.15
686.443	37721.24
686.79	37766.44
687.138	37889.6
687.485	37752.43
687.832	37662.94
688.18	37744.29
688.527	37479.21
688.874	37481.92
689.221	37461.36
689.568	37172.1
689.915	37080.13
690.262	37042.84
690.609	36937.53
690.956	36987.93
691.303	36839.68
691.65	36601.95
691.997	36779.57
692.344	36620.48
692.69	36494.38
693.037	36449.18
693.383	36263.65
693.73	36334.16
694.077	36107.04
694.423	36133.26
694.769	36015.07
695.116	36032.24
695.462	35999.7
695.808	35684.01
696.155	35891.46
696.501	35671.35
696.847	35613.72
697.193	35370.79
697.539	35514.29
697.885	35304.13
698.231	35215.54
698.577	35151.82
698.923	35071.14
699.269	34793.63
699.614	34755.89
699.96	34724.71
700.306	34804.25
700.651	34631.6
700.997	34502.12
701.342	34475
701.688	34571.94
702.033	34253.08
702.379	34273.65
702.724	34284.27
703.069	34205.17
703.415	33816.94
703.76	33928.12
704.105	33891.51
704.45	33815.13
704.795	33571.74
705.14	33605.87
705.485	33404.97
705.83	33397.06
706.175	33453.33
706.52	33330.17
706.865	33156.61
707.209	33194.81
707.554	33066.22
707.899	33098.76
708.243	32893.34
708.588	32964.08
708.932	32752.1
709.277	32660.58
709.621	32703.52
709.966	32439.8
710.31	32551.88
710.654	32176.98
710.998	32278.45
711.342	32467.14
711.687	32231.67
712.031	32038.68
712.375	32001.39
712.719	32047.72
713.063	31961.17
713.407	32098.11
713.75	31944.44
714.094	31970.66
714.438	31869.64
714.782	31815.86
715.125	31666.26
715.469	31689.76
715.812	31473.27
716.156	31362.54
716.499	31381.97
716.843	31450.67
717.186	31131.36
717.53	31254.07
717.873	31367.28
718.216	31174.97
718.559	31137.01
718.902	30880.06
719.246	31025.37
719.589	30976.78
719.932	30741.76
720.275	30782.67
720.617	30788.31
720.96	30583.8
721.303	30720.07
721.646	30815.21
721.989	30533.41
722.331	30584.03
722.674	30537.93
723.016	30567.98
723.359	30415.67
723.701	30524.14
724.044	30297.71
724.386	30163.92
724.729	30338.16
725.071	30147.65
725.413	30253.64
725.755	30209.35
726.097	29946.53
726.439	29917.6
726.782	29905.4
727.124	30046.19
727.465	29776.59
727.807	29758.51
728.149	29760.32
728.491	29675.58
728.833	29752.86
729.175	29610.04
729.516	29574.79
729.858	29556.03
730.199	29548.12
730.541	29488.46
730.882	29481.23
731.224	29544.05
731.565	29337.73
731.906	29468.35
732.248	29237.17
732.589	29293.44
732.93	29042.37
733.271	29129.83
733.612	29057.96
733.953	29139.54
734.294	28986.33
734.635	29010.73
734.976	29060.68
735.317	28879.89
735.658	28795.6
735.999	28836.28
736.339	28755.37
736.68	28935.26
737.021	28675.6
737.361	28708.37
737.702	28803.51
738.042	28677.86
738.383	28615.72
738.723	28660.24
739.063	28531.65
739.404	28602.61
739.744	28410.3
740.084	28384.99
740.424	28453.46
740.764	28502.27
741.104	28413.91
741.444	28243.52
741.784	28318.32
742.124	28297.98
742.464	28151.55
742.804	28140.7
743.143	28128.72
743.483	28104.09
743.823	27824.32
744.162	27997.65
744.502	27957.2
744.841	27924.44
745.181	28034.04
745.52	27848.51
745.86	28026.13
746.199	27876.07
746.538	27766.93
746.877	27805.57
747.216	27848.96
747.556	27774.16
747.895	27774.38
748.234	27758.79
748.573	27597.66
748.911	27486.71
749.25	27540.72
749.589	27417.56
749.928	27301.4
750.267	27407.39
750.605	27399.48
750.944	27358.12
751.283	27174.17
751.621	27296.2
751.96	27186.38
752.298	27044.68
752.636	27125.59
752.975	26991.8
753.313	26973.95
753.651	27015.31
753.989	26881.07
754.327	26687.41
754.666	26601.98
755.004	26735.31
755.342	26689.21
755.679	26588.65
756.017	26534.87
756.355	26655.54
756.693	26476.11
757.031	26525.83
757.368	26403.57
757.706	26324.93
758.044	26297.36
758.381	26303.91
758.719	26150.47
759.056	26138.95
759.394	26079.06
759.731	25897.14
760.068	25848.78
760.405	25777.37
760.743	25811.27
761.08	25709.8
