Data from red_shiny_book_FLMS001491_00078.txt Node
Date: Wed Feb 08 15:25:22 GMT 2017
User: dcchb
Spectrometer: FLMS00149
Trigger mode: 0
Integration Time (sec): 2.000000E-2
Scans to average: 10
Electric dark correction enabled: true
Nonlinearity correction enabled: false
Boxcar width: 0
XAxis mode: Wavelengths
Number of Pixels in Spectrum: 2048
>>>>>Begin Spectral Data<<<<<
341.393	-1.65
341.776	-1.65
342.16	-1.65
342.543	-75.32
342.927	-58.15
343.31	-78.26
343.693	-59.28
344.077	-58.6
344.46	-68.09
344.843	-42.33
345.226	-38.71
345.61	-32.39
345.993	-6.62
346.376	-15.89
346.759	13.94
347.142	4.9
347.525	49.87
347.908	53.26
348.291	67.27
348.674	110.21
349.057	100.72
349.44	141.39
349.823	160.38
350.206	164.67
350.588	169.42
350.971	215.06
351.354	221.17
351.737	243.76
352.119	259.13
352.502	247.61
352.884	265.01
353.267	282.18
353.65	281.96
354.032	307.72
354.414	317.21
354.797	315.18
355.179	318.34
355.562	316.08
355.944	326.93
356.326	315.4
356.709	355.17
357.091	336.87
357.473	327.6
357.855	330.32
358.238	335.29
358.62	346.36
359.002	341.16
359.384	345.23
359.766	341.62
360.148	356.76
360.53	332.8
360.912	355.85
361.294	336.19
361.676	322.63
362.057	326.7
362.439	319.24
362.821	340.94
363.203	337.32
363.584	315.18
363.966	323.31
364.348	321.28
364.729	319.24
365.111	302.52
365.493	338.9
365.874	342.52
366.256	319.02
366.637	336.42
367.019	316.53
367.4	322.18
367.781	320.82
368.163	321.95
368.544	327.38
368.925	322.41
369.306	321.05
369.688	313.37
370.069	313.82
370.45	316.08
370.831	345.46
371.212	330.54
371.593	329.19
371.974	328.96
372.355	309.07
372.736	304.33
373.117	310.43
373.498	305.91
373.879	328.96
374.26	318.34
374.641	308.85
375.021	339.13
375.402	331.9
375.783	320.37
376.163	316.53
376.544	307.72
376.925	346.81
377.305	330.99
377.686	339.36
378.066	338
378.447	331.22
378.827	347.04
379.208	325.8
379.588	348.39
379.968	355.63
380.349	316.53
380.729	340.49
381.109	339.36
381.489	344.33
381.87	352.46
382.25	348.62
382.63	363.08
383.01	335.51
383.39	342.75
383.77	341.16
384.15	342.29
384.53	353.82
384.91	345.46
385.29	347.72
385.67	352.91
386.049	353.82
386.429	361.28
386.809	364.44
387.189	352.46
387.568	364.21
387.948	359.24
388.328	365.12
388.707	363.08
389.087	352.24
389.466	373.25
389.846	371.22
390.225	370.32
390.605	353.59
390.984	368.51
391.363	359.02
391.743	369.19
392.122	377.09
392.501	359.24
392.881	362.18
393.26	387.49
393.639	381.39
394.018	375.96
394.397	375.74
394.776	373.25
395.155	390.2
395.534	396.3
395.913	378.9
396.292	406.47
396.671	411.22
397.05	387.94
397.429	407.38
397.808	400.82
398.186	407.15
398.565	391.33
398.944	399.24
399.323	376.87
399.701	394.04
400.08	407.38
400.458	401.27
400.837	413.25
401.215	397.43
401.594	425.23
401.972	403.53
402.351	413.25
402.729	411.67
403.107	421.16
403.486	439.47
403.864	419.13
404.242	412.8
404.62	414.38
404.999	434.27
405.377	403.99
405.755	416.64
406.133	427.04
406.511	443.99
406.889	437.21
407.267	445.79
407.645	446.02
408.023	444.21
408.401	441.5
408.779	440.14
409.156	454.83
409.534	431.56
409.912	468.17
410.29	436.75
410.667	467.71
411.045	491.22
411.422	460.93
411.8	472.23
412.178	491.89
412.555	479.24
412.933	493.7
413.31	483.31
413.687	495.51
414.065	495.74
414.442	496.19
414.819	510.88
415.197	528.05
415.574	511.33
415.951	521.27
416.328	534.83
416.705	508.62
417.082	524.21
417.46	521.72
417.837	542.29
418.214	541.38
418.591	522.4
418.967	545
419.344	561.72
419.721	548.84
420.098	563.53
420.475	564.66
420.852	553.81
421.228	556.98
421.605	566.24
421.982	569.86
422.358	555.62
422.735	592.23
423.111	574.83
423.488	566.02
423.864	580.03
424.241	594.72
424.617	588.39
424.994	595.17
425.37	604.89
425.746	597.43
426.123	619.35
426.499	615.96
426.875	579.58
427.251	633.13
427.627	635.84
428.003	630.65
428.379	629.07
428.756	658.67
429.132	676.52
429.507	631.55
429.883	669.06
430.259	669.97
430.635	630.42
431.011	662.74
431.387	669.29
431.763	689.18
432.138	681.04
432.514	691.44
432.89	676.75
433.265	720.14
433.641	716.97
434.016	727.59
434.392	733.7
434.767	701.15
435.143	723.75
435.518	719.23
435.894	727.59
436.269	751.1
436.644	741.15
437.02	763.07
437.395	725.11
437.77	754.94
438.145	773.24
438.52	779.34
438.895	780.7
439.271	770.08
439.646	792.45
440.021	776.86
440.395	782.51
440.77	791.77
441.145	777.08
441.52	782.51
441.895	802.85
442.27	828.61
442.645	795.39
443.019	841.49
443.394	831.32
443.769	840.59
444.143	859.79
444.518	839.91
444.892	811.89
445.267	838.55
445.641	842.62
446.016	837.2
446.39	847.14
446.764	846.01
447.139	841.49
447.513	874.48
447.887	870.87
448.262	871.09
448.636	887.36
449.01	891.88
449.384	870.64
449.758	897.98
450.132	886.91
450.506	868.16
450.88	861.6
451.254	908.15
451.628	894.82
452.002	908.38
452.376	914.93
452.75	920.58
453.123	941.6
453.497	942.73
453.871	928.27
454.244	930.07
454.618	933.24
454.992	948.38
455.365	958.77
455.739	941.6
456.112	939.11
456.486	953.8
456.859	956.97
457.232	988.6
457.606	973.92
457.979	976.4
458.352	1014.59
458.725	1002.61
459.099	1028.38
459.472	1025.44
459.845	1023.18
460.218	1010.3
460.591	1031.77
460.964	1006
461.337	1030.18
461.71	1027.47
462.083	1046.23
462.456	1062.27
462.829	1072.9
463.201	1109.73
463.574	1102.95
463.947	1114.7
464.32	1109.73
464.692	1109.5
465.065	1075.16
465.438	1098.88
465.81	1123.74
466.183	1112.22
466.555	1125.1
466.928	1152.67
467.3	1145.66
467.672	1163.74
468.045	1206.45
468.417	1213.91
468.789	1230.18
469.161	1236.96
469.534	1242.38
469.906	1240.8
470.278	1249.16
470.65	1260.01
471.022	1249.39
471.394	1262.5
471.766	1250.52
472.138	1282.83
472.51	1268.6
472.882	1337.07
473.253	1355.15
473.625	1377.07
473.997	1384.53
474.369	1433.56
474.74	1427.24
475.112	1449.38
475.484	1439.44
475.855	1503.84
476.227	1464.3
476.598	1463.85
476.97	1468.82
477.341	1466.33
477.713	1474.24
478.084	1525.09
478.455	1547.91
478.827	1599.44
479.198	1632.88
479.569	1648.93
479.94	1704.74
480.311	1733.22
480.682	1728.47
481.053	1749.26
481.424	1759.88
481.795	1745.42
482.166	1774.8
482.537	1740.22
482.908	1787
483.279	1787.68
483.65	1839.43
484.021	1848.69
484.391	1905.42
484.762	1959.2
485.133	1982.48
485.503	2038.07
485.874	2078.97
486.244	2097.28
486.615	2142.92
486.985	2104.28
487.356	2130.27
487.726	2172.75
488.097	2144.05
488.467	2144.05
488.837	2185.63
489.207	2196.71
489.578	2205.97
489.948	2270.38
490.318	2279.87
490.688	2349.92
491.058	2407.1
491.428	2451.16
491.798	2521.22
492.168	2555.57
492.538	2585.4
492.908	2573.42
493.278	2565.74
493.648	2563.7
494.017	2540.43
494.387	2544.95
494.757	2533.65
495.126	2575.23
495.496	2563.48
495.866	2581.56
496.235	2648
496.605	2697.94
496.974	2743.59
497.344	2863.81
497.713	2895.22
498.082	2906.29
498.452	2916.46
498.821	2859.74
499.19	2899.97
499.559	2903.81
499.928	2900.64
500.298	2870.59
500.667	2866.29
501.036	2845.73
501.405	2823.58
501.774	2807.99
502.143	2855.9
502.512	2913.3
502.88	2977.25
503.249	2996.01
503.618	3060.19
503.987	3082.33
504.356	3102.67
504.724	3145.84
505.093	3101.99
505.462	3095.22
505.83	3090.24
506.199	3087.31
506.567	3097.93
506.936	3055.44
507.304	3033.97
507.672	3047.53
508.041	3040.53
508.409	3063.8
508.777	3123.46
509.145	3188.32
509.514	3181.77
509.882	3234.19
510.25	3298.15
510.618	3331.59
510.986	3313.97
511.354	3332.27
511.722	3342.21
512.09	3320.75
512.458	3301.54
512.826	3266.51
513.193	3228.09
513.561	3221.77
513.929	3180.41
514.297	3232.16
514.664	3224.25
515.032	3240.97
515.4	3298.83
515.767	3318.03
516.135	3385.15
516.502	3386.96
516.869	3480.97
517.237	3484.58
517.604	3522.1
517.972	3512.15
518.339	3526.16
518.706	3525.03
519.073	3463.12
519.44	3459.05
519.808	3470.8
520.175	3393.74
520.542	3371.14
520.909	3339.28
521.276	3340.41
521.643	3387.64
522.009	3403.46
522.376	3508.99
522.743	3522.77
523.11	3588.99
523.477	3702.66
523.843	3734.75
524.21	3771.58
524.577	3763.45
524.943	3812.03
525.31	3805.03
525.676	3799.15
526.043	3759.83
526.409	3763.45
526.776	3712.6
527.142	3647.52
527.508	3652.04
527.874	3647.74
528.241	3657.01
528.607	3713.96
528.973	3791.02
529.339	3823.11
529.705	3904.69
530.071	4045.02
530.437	4100.61
530.803	4126.37
531.169	4214.73
531.535	4212.47
531.901	4249.31
532.267	4251.12
532.632	4290.66
532.998	4232.59
533.364	4218.12
533.73	4149.88
534.095	4083.21
534.461	4119.6
534.826	4145.13
535.192	4119.82
535.557	4125.24
535.923	4165.47
536.288	4216.77
536.653	4322.08
537.019	4418.34
537.384	4468.29
537.749	4530.88
538.114	4600.94
538.479	4697.21
538.845	4672.12
539.21	4705.12
539.575	4691.11
539.94	4674.16
540.305	4648.17
540.67	4637.55
541.034	4565.69
541.399	4548.06
541.764	4532.01
542.129	4512.58
542.494	4541.28
542.858	4557.32
543.223	4559.36
543.587	4635.97
543.952	4737.43
544.316	4777.43
544.681	4854.27
545.045	4955.96
545.41	5076.63
545.774	5056.07
546.138	5120.7
546.503	5176.52
546.867	5143.52
547.231	5161.6
547.595	5031.89
547.959	5016.97
548.324	5016.75
548.688	4911.21
549.052	4860.37
549.416	4791.89
549.779	4823.08
550.143	4840.71
550.507	4863.98
550.871	4906.47
551.235	4968.61
551.599	5026.01
551.962	5068.04
552.326	5160.25
552.689	5231.88
553.053	5222.16
553.417	5348.04
553.78	5395.27
554.143	5390.3
554.507	5378.77
554.87	5385.32
555.234	5402.05
555.597	5261.26
555.96	5262.62
556.323	5125.9
556.686	5107.14
557.05	5064.43
557.413	5047.25
557.776	5030.31
558.139	5089.74
558.502	5075.28
558.865	5077.54
559.228	5242.28
559.59	5242.5
559.953	5335.61
560.316	5452.89
560.679	5511.87
561.041	5659.89
561.404	5660.12
561.767	5698.99
562.129	5747.57
562.492	5773.79
562.854	5693.34
563.217	5670.74
563.579	5621.93
563.941	5518.2
564.304	5504.87
564.666	5457.41
565.028	5430.97
565.39	5345.78
565.753	5348.04
566.115	5295.16
566.477	5406.34
566.839	5415.15
567.201	5524.98
567.563	5599.78
567.925	5686.11
568.287	5779.21
568.648	5885.42
569.01	5995.48
569.372	6101.69
569.734	6105.53
570.095	6141.69
570.457	6210.16
570.819	6164.97
571.18	6169.26
571.542	6135.81
571.903	6027.12
572.265	6010.17
572.626	5984.4
572.987	5901.7
573.349	5911.19
573.71	5888.59
574.071	5926.33
574.432	5952.32
574.794	6011.75
575.155	6040.67
575.516	6107.34
575.877	6241.8
576.238	6428.01
576.599	6597.72
576.96	6741.22
577.32	6815.8
577.681	7051.04
578.042	7105.96
578.403	7224.15
578.763	7294.88
579.124	7422.11
579.485	7510.01
579.845	7519.73
580.206	7580.75
580.566	7579.39
580.927	7750.01
581.287	7780.97
581.648	7825.71
582.008	8053.28
582.368	8191.8
582.728	8341.18
583.089	8559.7
583.449	8842.63
583.809	9083.53
584.169	9413.92
584.529	9771.42
584.889	10250.96
585.249	10509.03
585.609	10914.9
585.969	11347.88
586.329	11665.39
586.688	12066.28
587.048	12542.65
587.408	12816.09
587.768	13239.13
588.127	13476.64
588.487	13809.06
588.846	14202.72
589.206	14439.78
589.565	14814.91
589.925	15166.99
590.284	15426.87
590.643	15872.28
591.003	16230.24
591.362	16614.18
591.721	17050.1
592.08	17473.37
592.44	18024.31
592.799	18618.65
593.158	19116.26
593.517	19526.65
593.876	20138.61
594.235	20771.13
594.593	21177
594.952	21740.15
595.311	22252.45
595.67	22852.21
596.029	23351.86
596.387	23830.72
596.746	24234.32
597.104	24586.85
597.463	25004.7
597.822	25312.48
598.18	25483.55
598.538	25997.21
598.897	26410.76
599.255	26550.64
599.613	27337.06
599.972	27471.98
600.33	27869.93
600.688	28172.97
601.046	28595.79
601.404	29144.93
601.762	29513.73
602.12	30324.78
602.478	30551.22
602.836	31055.16
603.194	31371.53
603.552	31917.06
603.91	32254.45
604.268	32753.87
604.625	33133.97
604.983	33567.18
605.341	33743.9
605.698	34281.74
606.056	34548.17
606.413	34733.03
606.771	35105
607.128	35483.29
607.485	35577.07
607.843	35505.89
608.2	35914.01
608.557	36344.96
608.914	36243.27
609.272	36738.4
609.629	36908.56
609.986	37263.81
610.343	37332.51
610.7	37866.28
611.057	37962.32
611.414	38143.56
611.771	38571.34
612.127	38768.4
612.484	39316.18
612.841	39645.67
613.198	39699.45
613.554	39968.37
613.911	40492.65
614.267	40713.21
614.624	40626.43
614.98	40842.25
615.337	41182.8
615.693	41300.54
616.05	41372.4
616.406	41667.08
616.762	41487.88
617.118	41551.83
617.475	41760.64
617.831	41679.29
618.187	41943.46
618.543	41985.72
618.899	42162.21
619.255	42041.08
619.611	42132.15
619.967	42374.63
620.323	42551.8
620.678	42545.25
621.034	42627.06
621.39	42792.93
621.746	42998.12
622.101	43455.06
622.457	43457.77
622.812	43596.3
623.168	43792.22
623.523	43919.9
623.879	44191.31
624.234	43848.95
624.589	44230.4
624.945	44315.6
625.3	44338.65
625.655	44405.77
626.01	44419.78
626.365	44274.47
626.72	44309.5
627.075	44344.98
627.43	44165.55
627.785	44100.46
628.14	44038.09
628.495	44205.32
628.85	44080.8
629.205	43911.77
629.559	44269.95
629.914	44129.39
630.269	44122.16
630.623	44177.98
630.978	44089.17
631.332	44396.73
631.687	44475.82
632.041	44405.32
632.396	44670.85
632.75	44426.33
633.104	44618.19
633.459	44434.92
633.813	44706.78
634.167	44711.07
634.521	44757.17
634.875	44868.13
635.229	44757.62
635.583	44538.19
635.937	44673.11
636.291	44589.94
636.645	44415.26
636.999	44241.25
637.352	44409.61
637.706	44056.4
638.06	44224.08
638.413	43998.09
638.767	43768.72
639.121	43677.2
639.474	43461.39
639.828	43653.7
640.181	43713.36
640.534	43705.67
640.888	43651.66
641.241	43451.44
641.594	43657.31
641.947	43843.97
642.301	43872.22
642.654	43769.63
643.007	43926.01
643.36	43918.55
643.713	43941.6
644.066	44209.39
644.419	44014.59
644.771	43652.34
645.124	43426.58
645.477	43265.23
645.83	43035.63
646.182	42981.17
646.535	42725.81
646.888	42892.36
647.24	42460.51
647.593	42716.32
647.945	42591.8
648.298	42140.52
648.65	42004.47
649.002	41892.39
649.355	42041.76
649.707	41888.32
650.059	41949.56
650.411	42383.22
650.763	42367.4
651.115	42886.26
651.467	42601.07
651.819	42651.46
652.171	42587.96
652.523	42717.9
652.875	42672.71
653.227	42607.17
653.578	42863.66
653.93	42955.86
654.282	42779.6
654.633	42895.98
654.985	43015.3
655.337	43080.38
655.688	43077.67
656.039	43191.11
656.391	42910.89
656.742	42923.77
657.094	43032.7
657.445	43036.54
657.796	42832.93
658.147	42749.77
658.498	42567.4
658.849	42665.25
659.2	42390.23
659.551	42256.22
659.902	42248.31
660.253	42136
660.604	42158.37
660.955	41927.64
661.306	42122.89
661.656	41908.66
662.007	42027.98
662.358	41953.85
662.708	41855.33
663.059	42057.35
663.409	41820.3
663.76	42009.22
664.11	42148.43
664.461	42249.89
664.811	42337.57
665.161	42459.38
665.511	42231.14
665.862	42416.89
666.212	42632.93
666.562	42571.92
666.912	42601.07
667.262	42498.92
667.612	42493.95
667.962	42522.43
668.312	42375.54
668.662	42512.94
669.011	42257.35
669.361	42188.88
669.711	42094.64
670.06	41910.69
670.41	41681.55
670.76	41645.84
671.109	41785.72
671.459	41637.48
671.808	41684.94
672.157	41553.87
672.507	41133.09
672.856	41277.94
673.205	41261.44
673.554	41327.43
673.904	41253.99
674.253	41540.98
674.602	41372.63
674.951	40866.43
675.3	40727.22
675.649	41384.15
675.998	41377.37
676.346	41393.64
676.695	41760.41
677.044	41475.45
677.393	41665.5
677.741	41737.59
678.09	41666.4
678.438	41539.63
678.787	41689.91
679.135	41661.88
679.484	41425.05
679.832	41584.82
680.181	41191.61
680.529	41242.01
680.877	41005.4
681.225	41014.9
681.573	41174.89
681.922	40702.36
682.27	40692.19
682.618	40611.52
682.966	40603.38
683.314	40378.3
683.661	40308.7
684.009	40070.06
684.357	40030.74
684.705	39867.81
685.053	39932.66
685.4	39814.7
685.748	39759.11
686.095	39717.98
686.443	39609.96
686.79	39553.69
687.138	39794.36
687.485	39848.6
687.832	39719.34
688.18	39774.25
688.527	39671.65
688.874	39699.22
689.221	39651.09
689.568	39498.33
689.915	39492.22
690.262	39644.76
690.609	39642.73
690.956	39407.93
691.303	39504.43
691.65	39154.15
691.997	39180.82
692.344	38874.61
692.69	38867.61
693.037	38799.81
693.383	38430.33
693.73	38530.44
694.077	38272.82
694.423	38186.72
694.769	37904.47
695.116	37813.62
695.462	37819.73
695.808	37502.45
696.155	37516.46
696.501	37121.44
696.847	37174.77
697.193	37011.16
697.539	36975.23
697.885	36708.57
698.231	36680.77
698.577	36709.7
698.923	36764.84
699.269	36685.52
699.614	36491.85
699.96	36476.48
700.306	36564.39
700.651	36440.1
700.997	36370.5
701.342	36517.39
701.688	36432.87
702.033	36378.18
702.379	36537.27
702.724	36347
703.069	36419.31
703.415	36026.78
703.76	36048.93
704.105	36119.66
704.45	35921.7
704.795	35619.78
705.14	35603.74
705.485	35674.7
705.83	35335.95
706.175	35257.08
706.52	35004.43
706.865	34999.01
707.209	34815.29
707.554	34567.16
707.899	34613.71
708.243	34363.09
708.588	34301.17
708.932	33962.43
709.277	33986.83
709.621	33878.36
709.966	33703
710.31	33867.97
710.654	33543
710.998	33652.6
711.342	33789.55
711.687	33526.73
712.031	33446.06
712.375	33439.73
712.719	33586.62
713.063	33484.47
713.407	33543.45
713.75	33587.29
714.094	33589.1
714.438	33406.28
714.782	33585.26
715.125	33441.54
715.469	33498.94
715.812	33465.04
716.156	33242.67
716.499	33260.98
716.843	33274.76
717.186	33013.98
717.53	33157.93
717.873	33273.18
718.216	33139.4
718.559	32788.9
718.902	32680.88
719.246	32591.61
719.589	32347.55
719.932	32246.31
720.275	32185.52
720.617	32089.93
720.96	32088.35
721.303	31919.32
721.646	31889.03
721.989	31604.3
722.331	31599.78
722.674	31663.96
723.016	31465.77
723.359	31478.42
723.701	31523.62
724.044	31308.26
724.386	31230.75
724.729	31397.97
725.071	31221.71
725.413	31268.49
725.755	31216.51
726.097	31106.23
726.439	31142.84
726.782	31124.08
727.124	31405.88
727.465	31190.3
727.807	31152.33
728.149	31207.24
728.491	31183.06
728.833	31288.15
729.175	31118.89
729.516	31094.25
729.858	31052.22
730.199	31182.39
730.541	30936.74
730.882	30975.16
731.224	30940.81
731.565	30755.5
731.906	30673.47
732.248	30758.89
732.589	30507.38
732.93	30324.33
733.271	30274.61
733.612	30346.48
733.953	30274.84
734.294	30026.03
734.635	29820.16
734.976	29925.92
735.317	29626.04
735.658	29753.5
735.999	29627.17
736.339	29562.77
736.68	29544.69
737.021	29513.5
737.361	29305.37
737.702	29564.58
738.042	29348.99
738.383	29326.84
738.723	29304.24
739.063	29277.35
739.404	29417.23
739.744	29440.74
740.084	29260.63
740.424	29434.41
740.764	29434.86
741.104	29595.54
741.444	29355.77
741.784	29413.85
742.124	29373.39
742.464	29405.71
742.804	29371.36
743.143	29407.29
743.483	29265.15
743.823	29109.67
744.162	29252.04
744.502	29309.22
744.841	29123.46
745.181	29205.04
745.52	28933.86
745.86	29123.91
746.199	28956
746.538	28836.01
746.877	28895.89
747.216	28687.99
747.556	28567.77
747.895	28614.77
748.234	28311.95
748.573	28211.17
748.911	28171.84
749.25	27970.49
749.589	27997.61
749.928	27954.22
750.267	27935.47
750.605	27770.05
750.944	27709.03
751.283	27553.56
751.621	27613.44
751.96	27525.31
752.298	27501.81
752.636	27584.74
752.975	27303.39
753.313	27375.48
753.651	27404.41
753.989	27298.42
754.327	27282.6
754.666	27300.45
755.004	27325.99
755.342	27366.44
755.679	27400.79
756.017	27260.23
756.355	27375.03
756.693	27143.4
757.031	27269.49
757.368	27167.35
757.706	27233.79
758.044	27135.26
758.381	27068.82
758.719	26907.7
759.056	26888.94
759.394	26913.8
759.731	26703.18
760.068	26627.25
760.405	26429.97
760.743	26351.1
761.08	26354.04
