Data from red_shiny_book_FLMS001491_00001.txt Node
Date: Wed Feb 08 15:23:33 GMT 2017
User: dcchb
Spectrometer: FLMS00149
Trigger mode: 0
Integration Time (sec): 2.000000E-2
Scans to average: 10
Electric dark correction enabled: true
Nonlinearity correction enabled: false
Boxcar width: 0
XAxis mode: Wavelengths
Number of Pixels in Spectrum: 2048
>>>>>Begin Spectral Data<<<<<
341.393	-1.4
341.776	-1.4
342.16	-1.4
342.543	-71.9
342.927	-64.45
343.31	-45.24
343.693	-68.06
344.077	-66.26
344.46	-51.57
344.843	-45.69
345.226	-75.97
345.61	-36.88
345.993	-1.85
346.376	-20.61
346.759	11.93
347.142	25.49
347.525	52.84
347.908	67.07
348.291	75.44
348.674	89.45
349.057	89.9
349.44	140.52
349.823	150.24
350.206	161.54
350.588	217.35
350.971	227.75
351.354	237.69
351.737	232.04
352.119	261.87
352.502	263.45
352.884	295.09
353.267	309.33
353.65	301.64
354.032	318.82
354.414	330.8
354.797	332.83
355.179	355.2
355.562	323.79
355.944	343.23
356.326	364.24
356.709	351.36
357.091	357.01
357.473	342.32
357.855	348.88
358.238	350.91
358.62	362.21
359.002	355.2
359.384	334.19
359.766	339.61
360.148	352.72
360.53	343.68
360.912	373.73
361.294	345.03
361.676	355.2
362.057	350.91
362.439	346.39
362.821	355.88
363.203	356.56
363.584	321.98
363.966	337.8
364.348	315.88
364.729	339.84
365.111	330.8
365.493	325.6
365.874	321.53
366.256	339.61
366.637	324.24
367.019	318.59
367.4	326.28
367.781	324.47
368.163	310.46
368.544	317.46
368.925	333.96
369.306	343.23
369.688	327.63
370.069	335.99
370.45	331.47
370.831	334.41
371.212	334.19
371.593	334.64
371.974	332.6
372.355	305.94
372.736	343
373.117	331.47
373.498	342.32
373.879	329.67
374.26	332.83
374.641	339.61
375.021	338.48
375.402	344.58
375.783	337.8
376.163	354.98
376.544	348.42
376.925	345.03
377.305	336.67
377.686	348.65
378.066	354.98
378.447	332.83
378.827	345.26
379.208	360.17
379.588	341.64
379.968	351.13
380.349	353.39
380.729	372.6
381.109	354.07
381.489	347.29
381.87	362.21
382.25	365.37
382.63	359.27
383.01	363.79
383.39	368.08
383.77	373.73
384.15	352.04
384.53	373.51
384.91	359.95
385.29	377.35
385.67	396.56
386.049	393.85
386.429	372.83
386.809	368.54
387.189	381.19
387.568	378.93
387.948	380.29
388.328	392.26
388.707	393.62
389.087	380.74
389.466	381.19
389.846	392.94
390.225	386.84
390.605	393.17
390.984	397.01
391.363	395.65
391.743	388.2
392.122	398.14
392.501	390.46
392.881	425.71
393.26	409.21
393.639	399.95
394.018	437.46
394.397	412.6
394.776	400.85
395.155	416.67
395.534	409.44
395.913	428.65
396.292	434.3
396.671	426.84
397.05	422.32
397.429	437.91
397.808	430.91
398.186	412.38
398.565	436.78
398.944	401.98
399.323	418.03
399.701	444.92
400.08	428.42
400.458	418.7
400.837	437.23
401.215	448.31
401.594	448.99
401.972	450.57
402.351	442.43
402.729	443.11
403.107	451.92
403.486	448.31
403.864	462.77
404.242	463.9
404.62	454.18
404.999	456.67
405.377	456.44
405.755	489.44
406.133	485.82
406.511	472.71
406.889	490.11
407.267	500.74
407.645	493.28
408.023	494.86
408.401	492.83
408.779	495.54
409.156	476.78
409.534	497.12
409.912	517.91
410.29	516.33
410.667	544.12
411.045	516.55
411.422	530.11
411.8	523.79
412.178	535.76
412.555	547.06
412.933	528.31
413.31	542.54
413.687	541.64
414.065	579.83
414.442	572.82
414.819	548.64
415.197	576.44
415.574	591.13
415.951	579.6
416.328	583.22
416.705	576.44
417.082	597
417.46	593.39
417.837	591.35
418.214	594.52
418.591	617.12
418.967	606.04
419.344	596.55
419.721	631.13
420.098	603.33
420.475	597.68
420.852	637.45
421.228	623.22
421.605	646.27
421.982	641.3
422.358	651.69
422.735	669.32
423.111	659.6
423.488	673.61
423.864	659.15
424.241	677.68
424.617	684.23
424.994	676.32
425.37	674.52
425.746	707.96
426.123	698.24
426.499	700.28
426.875	709.77
427.251	732.37
427.627	730.56
428.003	745.7
428.379	717.68
428.756	702.99
429.132	724.01
429.507	712.71
429.883	729.66
430.259	745.93
430.635	749.77
431.011	775.08
431.387	781.63
431.763	794.29
432.138	799.26
432.514	799.03
432.89	804.23
433.265	785.02
433.641	790.45
434.016	832.25
434.392	803.33
434.767	811.24
435.143	828.86
435.518	854.85
435.894	870.9
436.269	867.51
436.644	877
437.02	883.55
437.395	864.57
437.77	860.5
438.145	872.7
438.52	863.44
438.895	881.74
439.271	876.09
439.646	912.02
440.021	930.78
440.395	893.72
440.77	906.83
441.145	937.33
441.52	982.3
441.895	940.95
442.27	931.01
442.645	905.47
443.019	949.09
443.394	920.84
443.769	968.07
444.143	940.5
444.518	985.47
444.892	979.37
445.267	996.09
445.641	1001.74
446.016	999.48
446.39	995.64
446.764	1003.55
447.139	986.15
447.513	973.72
447.887	974.62
448.262	988.18
448.636	994.73
449.01	1021.17
449.384	1049.2
449.758	1068.86
450.132	1076.77
450.506	1070.66
450.88	1050.78
451.254	1025.47
451.628	1045.58
452.002	1046.94
452.376	1018.24
452.75	1039.48
453.123	1064.34
453.497	1077.9
453.871	1106.82
454.244	1129.19
454.618	1162.86
454.992	1136.65
455.365	1146.82
455.739	1169.87
456.112	1147.95
456.486	1121.96
456.859	1143.2
457.232	1126.26
457.606	1134.84
457.979	1133.94
458.352	1159.7
458.725	1159.93
459.099	1219.81
459.472	1225.91
459.845	1256.65
460.218	1248.96
460.591	1271.34
460.964	1238.12
461.337	1243.09
461.71	1217.55
462.083	1251
462.456	1218.23
462.829	1263.2
463.201	1278.57
463.574	1272.24
463.947	1317.21
464.32	1375.29
464.692	1382.52
465.065	1378.45
465.438	1376.64
465.81	1380.94
466.183	1403.54
466.555	1387.94
466.928	1323.09
467.3	1365.8
467.672	1346.59
468.045	1373.93
468.417	1403.54
468.789	1413.48
469.161	1449.41
469.534	1484.66
469.906	1544.32
470.278	1561.27
470.65	1557.88
471.022	1549.3
471.394	1592.68
471.766	1556.75
472.138	1524.21
472.51	1533.48
472.882	1561.95
473.253	1587.03
473.625	1605.34
473.997	1622.74
474.369	1666.13
474.74	1671.78
475.112	1763.08
475.484	1812.57
475.855	1843.75
476.227	1812.11
476.598	1857.76
476.97	1806.92
477.341	1836.29
477.713	1811.66
478.084	1823.86
478.455	1845.56
478.827	1866.12
479.198	1922.17
479.569	1948.15
479.94	2023.18
480.311	2090.07
480.682	2140.92
481.053	2157.87
481.424	2196.51
481.795	2187.02
482.166	2196.74
482.537	2225.89
482.908	2224.08
483.279	2184.53
483.65	2187.02
484.021	2232.89
484.391	2278.09
484.762	2291.87
485.133	2376.62
485.503	2434.02
485.874	2524.64
486.244	2581.81
486.615	2671.75
486.985	2676.72
487.356	2741.35
487.726	2721.24
488.097	2703.39
488.467	2679.89
488.837	2688.47
489.207	2662.03
489.578	2682.6
489.948	2731.19
490.318	2755.59
490.688	2815.25
491.058	2903.38
491.428	2974.34
491.798	3089.59
492.168	3149.48
492.538	3186.31
492.908	3220.21
493.278	3230.61
493.648	3199.87
494.017	3221.57
494.387	3165.52
494.757	3128.91
495.126	3164.39
495.496	3119.42
495.866	3164.85
496.235	3237.84
496.605	3269.02
496.974	3384.05
497.344	3438.29
497.713	3532.07
498.082	3556.7
498.452	3616.13
498.821	3631.27
499.19	3618.39
499.559	3627.43
499.928	3556.02
500.298	3518.74
500.667	3528
501.036	3433.09
501.405	3473.09
501.774	3492.3
502.143	3495.01
502.512	3562.8
502.88	3677.15
503.249	3744.27
503.618	3791.95
503.987	3856.81
504.356	3895.67
504.724	3933.41
505.093	3929.35
505.462	3913.3
505.83	3856.58
506.199	3847.09
506.567	3836.92
506.936	3736.58
507.304	3706.75
507.672	3702.46
508.041	3747.43
508.409	3754.21
508.777	3833.98
509.145	3920.31
509.514	3976.35
509.882	4053.64
510.25	4110.13
510.618	4178.15
510.986	4206.4
511.354	4210.24
511.722	4193.29
512.09	4128.89
512.458	4044.6
512.826	3995.78
513.193	3943.13
513.561	3926.18
513.929	3899.52
514.297	3943.36
514.664	3979.06
515.032	4035.78
515.4	4163.24
515.767	4208.43
516.135	4307.19
516.502	4333.4
516.869	4473.96
517.237	4442.55
517.604	4419.5
517.972	4424.7
518.339	4359.17
518.706	4305.16
519.073	4255.66
519.44	4173.18
519.808	4131.6
520.175	4130.24
520.542	4114.43
520.909	4100.19
521.276	4214.54
521.643	4257.02
522.009	4425.15
522.376	4548.76
522.743	4573.85
523.11	4749.89
523.477	4795.54
523.843	4831.24
524.21	4810.9
524.577	4811.36
524.943	4768.87
525.31	4687.97
525.676	4690.68
526.043	4598.25
526.409	4478.26
526.776	4558.93
527.142	4529.1
527.508	4562.78
527.874	4617.24
528.241	4713.73
528.607	4824.69
528.973	4950.56
529.339	5080.28
529.705	5195.53
530.071	5360.27
530.437	5408.85
530.803	5309.65
531.169	5359.14
531.535	5319.59
531.901	5277.33
532.267	5197.11
532.632	5158.24
532.998	5106.72
533.364	5064.68
533.73	5017.68
534.095	5061.29
534.461	5118.02
534.826	5190.1
535.192	5273.94
535.557	5438.01
535.923	5540.15
536.288	5657.89
536.653	5786.7
537.019	5856.3
537.384	5972.23
537.749	6002.29
538.114	5931.78
538.479	5905.79
538.845	5832.8
539.21	5678.23
539.575	5678.23
539.94	5602.75
540.305	5550.32
540.67	5483.2
541.034	5514.61
541.399	5588.96
541.764	5645.46
542.129	5790.77
542.494	5907.6
542.858	6035.28
543.223	6140.59
543.587	6303.52
543.952	6371.09
544.316	6482.27
544.681	6483.18
545.045	6497.19
545.41	6469.17
545.774	6434.59
546.138	6327.02
546.503	6275.95
546.867	6161.15
547.231	6092.45
547.595	6009.97
547.959	6003.87
548.324	5957.77
548.688	5992.79
549.052	6116.41
549.416	6169.06
549.779	6227.59
550.143	6472.1
550.507	6633.46
550.871	6710.52
551.235	6830.06
551.599	6827.35
551.962	6855.82
552.326	6860.34
552.689	6869.61
553.053	6764.98
553.417	6691.31
553.78	6628.71
554.143	6510.75
554.507	6404.53
554.87	6344.65
555.234	6289.51
555.597	6261.71
555.96	6269.17
556.323	6323.41
556.686	6395.72
557.05	6499.67
557.413	6602.95
557.776	6770.63
558.139	6947.12
558.502	6995.25
558.865	7193.21
559.228	7246.77
559.59	7324.96
559.953	7294.91
560.316	7331.29
560.679	7233.44
561.041	7108.02
561.404	7065.99
561.767	6927.69
562.129	6790.06
562.492	6713.23
562.854	6675.26
563.217	6661.25
563.579	6615.83
563.941	6731.08
564.304	6843.17
564.666	6961.81
565.028	7164.97
565.39	7254.68
565.753	7482.02
566.115	7507.1
566.477	7626.88
566.839	7747.55
567.201	7834.33
567.563	7836.36
567.925	7816.7
568.287	7792.3
568.648	7685.86
569.01	7604.5
569.372	7523.83
569.734	7332.42
570.095	7301.69
570.457	7228.47
570.819	7206.32
571.18	7122.03
571.542	7224.85
571.903	7247
572.265	7393.89
572.626	7562.47
572.987	7645.86
573.349	7908.68
573.71	8093.76
574.071	8212.17
574.432	8482.22
574.794	8535.1
575.155	8699.84
575.516	8672.05
575.877	8735.1
576.238	8768.54
576.599	8741.42
576.96	8761.08
577.32	8604.48
577.681	8547.08
578.042	8593.18
578.403	8542.78
578.763	8527.64
579.124	8614.19
579.485	8754.53
579.845	8895.99
580.206	9089.66
580.566	9290.11
580.927	9650.1
581.287	9994.72
581.648	10269.29
582.008	10670.86
582.368	11020.23
582.728	11380.22
583.089	11585.64
583.449	11916.93
583.809	12297.26
584.169	12479.63
584.529	12668.78
584.889	13009.11
585.249	13129.1
585.609	13385.37
585.969	13591.24
586.329	13813.15
586.688	14108.51
587.048	14379.01
587.408	14728.38
587.768	15172.44
588.127	15620.79
588.487	16027.11
588.846	16756.35
589.206	17122.45
589.565	17740.73
589.925	18519.92
590.284	19034.03
590.643	19702.49
591.003	20246.66
591.362	20909.24
591.721	21419.51
592.08	21964.58
592.44	22527.05
592.799	22954.38
593.158	23428.04
593.517	23736.96
593.876	24159.77
594.235	24546.43
594.593	24978.28
594.952	25314.55
595.311	25768.77
595.67	26086.5
596.029	26781.4
596.387	27265.46
596.746	27950.18
597.104	28254.81
597.463	28884.85
597.822	29525.51
598.18	30191.48
598.538	30695.42
598.897	31580.37
599.255	31949.85
599.613	32901.24
599.972	33336.03
600.33	33978.95
600.688	34254.88
601.046	34927.85
601.404	35322.87
601.762	35643.77
602.12	36251.89
602.478	36377.98
602.836	36923.73
603.194	36916.28
603.552	37145.2
603.91	37364.17
604.268	37907.44
604.625	38058.39
604.983	38582.9
605.341	38665.61
605.698	39266.5
606.056	39822.19
606.413	40089.3
606.771	40794.14
607.128	41124.07
607.485	41489.71
607.843	41968.8
608.2	42522.46
608.557	43078.6
608.914	43254.41
609.272	43855.75
609.629	44153.37
609.986	44672
610.343	44552.23
610.7	45026.12
611.057	45241.25
611.414	45322.83
611.771	45412.32
612.127	45577.97
612.484	45671.75
612.841	45658.19
613.198	45723.28
613.554	45867.23
613.911	46134.79
614.267	46144.28
614.624	46289.81
614.98	46616.36
615.337	47007.76
615.693	47037.36
616.05	47453.17
616.406	47802.77
616.762	47896.33
617.118	48171.8
617.475	48231.46
617.831	48682.29
618.187	48847.94
618.543	49102.85
618.899	49382.84
619.255	49411.09
619.611	49397.75
619.967	49670.06
620.323	49768.59
620.678	49587.35
621.034	49461.03
621.39	49349.39
621.746	49357.98
622.101	49738.99
622.457	49378.09
622.812	49451.54
623.168	49512.1
623.523	49534.02
623.879	49766.56
624.234	49423.74
624.589	49870.06
624.945	49914.13
625.3	50016.95
625.655	50102.14
626.01	50260.33
626.365	50420.78
626.72	50535.58
627.075	50648.12
627.43	50796.14
627.785	50837.26
628.14	50962.23
628.495	51114.32
628.85	51017.6
629.205	50982.8
629.559	51141.89
629.914	51004.27
630.269	50946.19
630.623	50785.06
630.978	50671.62
631.332	50708.68
631.687	50643.15
632.041	50464.85
632.396	50401.12
632.75	50299.43
633.104	50270.5
633.459	50151.63
633.813	50214.23
634.167	50137.17
634.521	50270.73
634.875	50346.2
635.229	50434.56
635.583	50323.83
635.937	50513.88
636.291	50523.37
636.645	50711.84
636.999	50704.39
637.352	50795.46
637.706	50599.08
638.06	50841.56
638.413	50746.87
638.767	50652.19
639.121	50725.18
639.474	50545.97
639.828	50535.35
640.181	50593.2
640.534	50503.71
640.888	50316.37
641.241	50105.76
641.594	49934.69
641.947	50035.7
642.301	49906.22
642.654	49910.96
643.007	49749.16
643.36	49722.27
643.713	49594.13
644.066	49786.9
644.419	49517.98
644.771	49417.19
645.124	49059.01
645.477	49132
645.83	48899.69
646.182	48934.04
646.535	48985.11
646.888	49214.71
647.24	49090.42
647.593	49472.33
647.945	49224.43
648.298	49170.42
648.65	49136.97
649.002	48981.95
649.355	49178.33
649.707	48997.09
650.059	49075.05
650.411	49443.4
650.763	49421.93
651.115	49642.49
651.467	49396.17
651.819	49270.75
652.171	49134.48
652.523	49056.07
652.875	48841.39
653.227	48617.44
653.578	48907.6
653.93	48783.53
654.282	48588.96
654.633	48631.45
654.985	48578.57
655.337	48744.89
655.688	48704.44
656.039	49025.56
656.391	48746.25
656.742	49014.94
657.094	49083.19
657.445	49315.95
657.796	49290.86
658.147	49254.93
658.498	49331.09
658.849	49499.9
659.2	49398.66
659.551	49249.96
659.902	49392.56
660.253	49264.42
660.604	49277.31
660.955	49111.89
661.306	49196.18
661.656	48902.17
662.007	48841.61
662.358	48756.19
662.708	48573.82
663.059	48402.75
663.409	48213.15
663.76	48417.22
664.11	48307.84
664.461	48361.17
664.811	48151.23
665.161	48237.56
665.511	48111.91
665.862	48186.71
666.212	48396.2
666.562	48462.64
666.912	48518.91
667.262	48434.62
667.612	48556.2
667.962	48659.92
668.312	48651.11
668.662	48863.31
669.011	48838
669.361	48876.86
669.711	48912.12
670.06	48841.39
670.41	48738.34
670.76	48722.29
671.109	48859.01
671.459	48690.88
671.808	48429.87
672.157	48584.67
672.507	48202.76
672.856	48175.19
673.205	48249.76
673.554	48120.5
673.904	47844.58
674.253	48028.53
674.602	47802.09
674.951	47191.94
675.3	46920.76
675.649	47598.71
675.998	47399.39
676.346	47515.77
676.695	47680.96
677.044	47351.25
677.393	47598.25
677.741	47707.86
678.09	47610.68
678.438	47682.32
678.787	47878.92
679.135	47815.65
679.484	47675.09
679.832	47979.26
680.181	47802.54
680.529	47935.19
680.877	47902.88
681.225	47771.36
681.573	48049.54
681.922	47747.18
682.27	47621.98
682.618	47478.03
682.966	47540.85
683.314	47577.46
683.661	47384.93
684.009	47118.94
684.357	46816.35
684.705	46715.34
685.053	46643.93
685.4	46502.46
685.748	46283.49
686.095	46195.35
686.443	45976.83
686.79	45930.28
687.138	45966.21
687.485	45893.89
687.832	45800.79
688.18	45794.23
688.527	45637.63
688.874	45743.39
689.221	45704.07
689.568	45554.24
689.915	45717.4
690.262	45842.59
690.609	45718.3
690.956	45760.34
691.303	45862.71
691.65	45575.93
691.997	45720.34
692.344	45385.2
692.69	45433.79
693.037	45526.67
693.383	45232.89
693.73	45401.48
694.077	45133.69
694.423	45135.27
694.769	44701.61
695.116	44625
695.462	44430.65
695.808	44312.24
696.155	44235.63
696.501	43795.87
696.847	43719.71
697.193	43353.17
697.539	43301.19
697.885	42987.98
698.231	42856.68
698.577	42845.84
698.923	42727.65
699.269	42627.54
699.614	42472.29
699.96	42325.4
700.306	42378.73
700.651	42318.62
700.997	42213.99
701.342	42165.85
701.688	42348
702.033	42181
702.379	42296.47
702.724	42295.57
703.069	42428.22
703.415	41952.07
703.76	41967.44
704.105	42324.95
704.45	42145.29
704.795	41819.2
705.14	41932.19
705.485	41840.21
705.83	41576.04
706.175	41694.45
706.52	41494.91
706.865	41277.52
707.209	41253.79
707.554	40884.31
707.899	40876.85
708.243	40616.29
708.588	40519.8
708.932	40142.18
709.277	40136.3
709.621	40041.84
709.966	39719.59
710.31	39836.2
710.654	39397.79
710.998	39346.27
711.342	39337.23
711.687	39166.16
712.031	39118.7
712.375	38957.58
712.719	39102.66
713.063	38988.31
713.407	39120.28
713.75	39037.12
714.094	39045.26
714.438	39001.64
714.782	39127.97
715.125	38969.33
715.469	39243.9
715.812	39047.29
716.156	38922.55
716.499	39000.29
716.843	39133.84
717.186	38863.34
717.53	39144.69
717.873	39064.24
718.216	38977.92
718.559	38705.83
718.902	38533.63
719.246	38509.91
719.589	38328.67
719.932	38147.2
720.275	38029.01
720.617	37922.35
720.96	37673.54
721.303	37612.08
721.646	37560.55
721.989	37252.09
722.331	37335.93
722.674	37092.32
723.016	37096.84
723.359	36951.98
723.701	36965.54
724.044	36799.44
724.386	36490.52
724.729	36671.54
725.071	36599.9
725.413	36489.85
725.755	36534.36
726.097	36441.03
726.439	36429.28
726.782	36430.86
727.124	36625.66
727.465	36618.66
727.807	36520.13
728.149	36544.08
728.491	36561.26
728.833	36657.75
729.175	36539.34
729.516	36540.24
729.858	36520.58
730.199	36493.91
730.541	36432.22
730.882	36499.56
731.224	36668.15
731.565	36210.53
731.906	36250.3
732.248	36304.31
732.589	35869.07
732.93	35918.79
733.271	35720.83
733.612	35633.14
733.953	35614.39
734.294	35327.84
734.635	35342.53
734.976	35266.83
735.317	34917.68
735.658	34917.23
735.999	34895.31
736.339	34782.55
736.68	34752.72
737.021	34640.18
737.361	34370.35
737.702	34550.24
738.042	34410.35
738.383	34360.86
738.723	34413.29
739.063	34364.93
739.404	34513.63
739.744	34362.44
740.084	34351.37
740.424	34514.08
740.764	34386.4
741.104	34627.3
741.444	34463.91
741.784	34458.49
742.124	34675.66
742.464	34556.34
742.804	34582.78
743.143	34636.34
743.483	34570.8
743.823	34496.23
744.162	34338.49
744.502	34498.26
744.841	34327.64
745.181	34389.11
745.52	34282.67
745.86	34118.83
746.199	34083.58
746.538	34013.3
746.877	34014.43
747.216	33859.18
747.556	33640.66
747.895	33501.9
748.234	33501.45
748.573	33256.71
748.911	33145.75
749.25	33068.69
749.589	32808.59
749.928	32761.36
750.267	32785.54
750.605	32631.87
750.944	32547.8
751.283	32372.67
751.621	32414.92
751.96	32239.79
752.298	32309.62
752.636	32239.56
752.975	32090.87
753.313	32158.21
753.651	32283.4
753.989	32226
754.327	32066.01
754.666	31998.44
755.004	32123.18
755.342	32193.46
755.679	32165.67
756.017	32003.86
756.355	32083.18
756.693	32033.24
757.031	32139
757.368	31936.07
757.706	31992.11
758.044	31883.87
758.381	31874.15
758.719	31677.54
759.056	31682.74
759.394	31572.23
759.731	31442.52
760.068	31336.53
760.405	31212.47
