Data from red_shiny_book_FLMS001491_00086.txt Node
Date: Wed Feb 08 15:25:29 GMT 2017
User: dcchb
Spectrometer: FLMS00149
Trigger mode: 0
Integration Time (sec): 2.000000E-2
Scans to average: 10
Electric dark correction enabled: true
Nonlinearity correction enabled: false
Boxcar width: 0
XAxis mode: Wavelengths
Number of Pixels in Spectrum: 2048
>>>>>Begin Spectral Data<<<<<
341.393	-13.15
341.776	-13.15
342.16	-13.15
342.543	-83.43
342.927	-68.29
343.31	-57.67
343.693	-73.26
344.077	-73.26
344.46	-82.3
344.843	-54.05
345.226	-39.14
345.61	-34.39
345.993	-17.44
346.376	-2.53
346.759	15.32
347.142	30.01
347.525	27.75
347.908	73.85
348.291	84.25
348.674	93.06
349.057	109.79
349.44	132.61
349.823	159.05
350.206	172.61
350.588	197.92
350.971	209.22
351.354	223.91
351.737	244.92
352.119	233.62
352.502	266.84
352.884	277.92
353.267	296
353.65	296.9
354.032	293.06
354.414	303
354.797	301.19
355.179	308.42
355.562	312.94
355.944	344.13
356.326	346.62
356.709	330.12
357.091	344.36
357.473	353.39
357.855	362.21
358.238	346.39
358.62	335.09
359.002	339.38
359.384	354.98
359.766	372.38
360.148	345.03
360.53	350.91
360.912	347.75
361.294	348.65
361.676	330.12
362.057	338.93
362.439	323.11
362.821	305.49
363.203	341.64
363.584	336.9
363.966	324.69
364.348	310.23
364.729	350.68
365.111	326.5
365.493	323.11
365.874	330.12
366.256	323.34
366.637	308.65
367.019	322.66
367.4	324.02
367.781	333.28
368.163	329.89
368.544	339.84
368.925	341.42
369.306	321.31
369.688	316.56
370.069	303.45
370.45	328.08
370.831	315.88
371.212	324.92
371.593	313.4
371.974	333.06
372.355	331.7
372.736	311.36
373.117	329.89
373.498	310.23
373.879	338.48
374.26	333.96
374.641	318.37
375.021	317.92
375.402	312.72
375.783	323.56
376.163	341.19
376.544	362.66
376.925	317.92
377.305	329.21
377.686	325.15
378.066	347.97
378.447	343.23
378.827	348.65
379.208	346.16
379.588	356.11
379.968	339.84
380.349	353.62
380.729	368.54
381.109	346.62
381.489	331.93
381.87	357.01
382.25	336.45
382.63	349.55
383.01	341.87
383.39	344.36
383.77	347.75
384.15	357.01
384.53	356.56
384.91	351.59
385.29	360.63
385.67	350.68
386.049	357.24
386.429	366.5
386.809	362.66
387.189	354.98
387.568	373.51
387.948	360.17
388.328	372.38
388.707	366.95
389.087	371.47
389.466	363.11
389.846	364.02
390.225	367.86
390.605	368.76
390.984	386.61
391.363	374.19
391.743	380.51
392.122	372.15
392.501	387.29
392.881	395.2
393.26	386.84
393.639	395.65
394.018	383
394.397	401.75
394.776	385.26
395.155	374.19
395.534	406.05
395.913	398.14
396.292	380.51
396.671	385.94
397.05	403.11
397.429	395.2
397.808	380.51
398.186	416.67
398.565	398.37
398.944	390.46
399.323	388.42
399.701	402.88
400.08	393.39
400.458	424.13
400.837	423.68
401.215	413.96
401.594	414.86
401.972	419.38
402.351	411.92
402.729	424.58
403.107	409.21
403.486	429.78
403.864	429.32
404.242	414.86
404.62	422.32
404.999	430.23
405.377	417.8
405.755	420.74
406.133	432.71
406.511	423.22
406.889	461.19
407.267	454.86
407.645	445.14
408.023	448.99
408.401	449.66
408.779	447.18
409.156	433.17
409.534	461.87
409.912	466.39
410.29	447.86
410.667	474.07
411.045	480.85
411.422	486.72
411.8	464.13
412.178	500.74
412.555	469.55
412.933	500.74
413.31	497.35
413.687	493.05
414.065	507.97
414.442	511.13
414.819	526.72
415.197	508.87
415.574	522.66
415.951	499.83
416.328	514.52
416.705	492.6
417.082	537.34
417.46	516.78
417.837	535.31
418.214	537.8
418.591	557.23
418.967	549.77
419.344	566.04
419.721	559.26
420.098	551.58
420.475	548.87
420.852	551.13
421.228	561.52
421.605	575.31
421.982	556.1
422.358	597.23
422.735	590.22
423.111	587.96
423.488	592.71
423.864	574.86
424.241	590.22
424.617	588.87
424.994	595.65
425.37	576.89
425.746	592.26
426.123	582.09
426.499	597.68
426.875	627.29
427.251	627.96
427.627	635.42
428.003	638.13
428.379	621.64
428.756	629.77
429.132	639.71
429.507	637.91
429.883	611.47
430.259	641.97
430.635	655.53
431.011	659.15
431.387	661.64
431.763	689.88
432.138	672.71
432.514	675.42
432.89	705.02
433.265	670.9
433.641	696.44
434.016	687.85
434.392	657.34
434.767	719.71
435.143	718.13
435.518	705.93
435.894	736.66
436.269	753.61
436.644	747.73
437.02	748.41
437.395	765.59
437.77	767.62
438.145	741.18
438.52	754.97
438.895	738.24
439.271	749.32
439.646	776.89
440.021	776.21
440.395	794.74
440.77	792.25
441.145	795.42
441.52	817.79
441.895	791.8
442.27	808.75
442.645	789.32
443.019	787.73
443.394	764.01
443.769	794.96
444.143	805.36
444.518	800.39
444.892	819.37
445.267	834.06
445.641	865.92
446.016	852.59
446.39	855.3
446.764	858.69
447.139	845.36
447.513	824.57
447.887	817.56
448.262	805.59
448.636	819.37
449.01	871.12
449.384	858.69
449.758	871.12
450.132	886.94
450.506	885.81
450.88	910.89
451.254	906.83
451.628	914.51
452.002	905.7
452.376	883.32
452.75	873.16
453.123	879.26
453.497	862.76
453.871	868.86
454.244	893.95
454.618	933.04
454.992	974.62
455.365	941.63
455.739	981.85
456.112	1001.29
456.486	952.93
456.859	961.29
457.232	955.86
457.606	949.09
457.979	931.01
458.352	942.98
458.725	954.73
459.099	952.02
459.472	982.3
459.845	1017.78
460.218	1018.24
460.591	1027.5
460.964	1058.01
461.337	1075.18
461.71	1052.59
462.083	1029.54
462.456	1050.78
462.829	1022.76
463.201	1021.17
463.574	1017.78
463.947	1021.63
464.32	1029.31
464.692	1045.13
465.065	1059.82
465.438	1073.83
465.81	1113.6
466.183	1113.37
466.555	1166.03
466.928	1159.25
467.3	1139.36
467.672	1117.44
468.045	1116.31
468.417	1114.5
468.789	1099.36
469.161	1101.62
469.534	1127.84
469.906	1136.65
470.278	1200.6
470.65	1163.09
471.022	1244.9
471.394	1289.87
471.766	1309.98
472.138	1300.71
472.51	1300.49
472.882	1318.79
473.253	1291.22
473.625	1288.06
473.997	1282.64
474.369	1260.49
474.74	1281.51
475.112	1291
475.484	1366.7
475.855	1361.28
476.227	1421.62
476.598	1462.74
476.97	1457.77
477.341	1498.68
477.713	1509.52
478.084	1527.6
478.455	1544.1
478.827	1535.51
479.198	1555.17
479.569	1473.37
479.94	1521.05
480.311	1505.45
480.682	1525.79
481.053	1593.14
481.424	1627.71
481.795	1655.51
482.166	1705.9
482.537	1772.34
482.908	1801.94
483.279	1822.28
483.65	1864.99
484.021	1886.91
484.391	1839.23
484.762	1819.12
485.133	1799.23
485.503	1785.22
485.874	1823.64
486.244	1847.14
486.615	1879.68
486.985	1895.5
487.356	1972.11
487.726	2064.08
488.097	2097.3
488.467	2160.13
488.837	2230.18
489.207	2222.27
489.578	2237.64
489.948	2264.98
490.318	2243.51
490.688	2211.65
491.058	2176.85
491.428	2174.36
491.798	2170.97
492.168	2224.31
492.538	2204.65
492.908	2284.64
493.278	2374.36
493.648	2389.95
494.017	2469.72
494.387	2519.44
494.757	2565.54
495.126	2561.02
495.496	2596.5
495.866	2589.04
496.235	2597.4
496.605	2559.21
496.974	2516.95
497.344	2468.14
497.713	2455.03
498.082	2448.48
498.452	2505.43
498.821	2541.36
499.19	2574.58
499.559	2652.77
499.928	2683.5
500.298	2766.21
500.667	2829.94
501.036	2854.12
501.405	2872.42
501.774	2852.54
502.143	2874.46
502.512	2820.9
502.88	2751.98
503.249	2727.8
503.618	2683.73
503.987	2631.07
504.356	2654.35
504.724	2671.53
505.093	2708.59
505.462	2716.04
505.83	2818.41
506.199	2915.14
506.567	2991.07
506.936	2968.24
507.304	3038.3
507.672	3121.91
508.041	3046.21
508.409	3032.42
508.777	3013.44
509.145	2954.91
509.514	2878.75
509.882	2859.32
510.25	2829.49
510.618	2820.9
510.986	2858.64
511.354	2855.48
511.722	2913.33
512.09	2967.11
512.458	3012.31
512.826	3079.88
513.193	3175.92
513.561	3175.47
513.929	3222.7
514.297	3284.62
514.664	3242.36
515.032	3217.5
515.4	3143.83
515.767	3087.33
516.135	3092.76
516.502	2961.91
516.869	3009.82
517.237	2951.07
517.604	2915.36
517.972	2998.52
518.339	3037.62
518.706	3100.22
519.073	3121.23
519.44	3226.54
519.808	3325.07
520.175	3391.28
520.542	3414.33
520.909	3422.69
521.276	3429.7
521.643	3388.12
522.009	3352.41
522.376	3328.23
522.743	3248.01
523.11	3210.27
523.477	3187.22
523.843	3101.57
524.21	3100.22
524.577	3115.36
524.943	3216.6
525.31	3256.37
525.676	3341.11
526.043	3478.06
526.409	3528.9
526.776	3665.62
527.142	3744.49
527.508	3737.49
527.874	3777.94
528.241	3750.82
528.607	3734.1
528.973	3659.75
529.339	3612.74
529.705	3581.56
530.071	3573.2
530.437	3496.36
530.803	3458.17
531.169	3479.64
531.535	3497.94
531.901	3517.38
532.267	3630.14
532.632	3703.14
532.998	3811.38
533.364	3986.29
533.73	4023.35
534.095	4138.61
534.461	4181.77
534.826	4253.63
535.192	4219.51
535.557	4219.51
535.923	4180.64
536.288	4107.65
536.653	4001.21
537.019	3920.31
537.384	3886.41
537.749	3844.83
538.114	3808.67
538.479	3859.74
538.845	3862.68
539.21	3908.33
539.575	4045.95
539.94	4136.12
540.305	4263.12
540.67	4291.14
541.034	4384.93
541.399	4551.02
541.764	4571.14
542.129	4667.18
542.494	4704.01
542.858	4643
543.223	4572.27
543.587	4526.39
543.952	4395.32
544.316	4358.26
544.681	4237.36
545.045	4244.14
545.41	4225.38
545.774	4223.35
546.138	4187.19
546.503	4254.54
546.867	4347.87
547.231	4454.53
547.595	4572.27
547.959	4697.46
548.324	4802.77
548.688	4849.55
549.052	4928.19
549.416	4973.16
549.779	4963.89
550.143	4957.57
550.507	4964.8
550.871	4865.14
551.235	4783.33
551.599	4705.6
551.962	4627.86
552.326	4520.52
552.689	4475.32
553.053	4395.77
553.417	4402.78
553.78	4422.21
554.143	4442.1
554.507	4542.66
554.87	4665.15
555.234	4806.61
555.597	4865.59
555.96	5014.06
556.323	5101.29
556.686	5159.6
557.05	5195.75
557.413	5292.7
557.776	5228.07
558.139	5272.36
558.502	5130.22
558.865	5072.82
559.228	4986.49
559.59	4896.55
559.953	4807.29
560.316	4703.11
560.679	4678.25
561.041	4623.11
561.404	4610.91
561.767	4680.06
562.129	4731.58
562.492	4877.57
562.854	4928.64
563.217	5057
563.579	5234.17
563.941	5340.61
564.304	5436.88
564.666	5540.15
565.028	5644.33
565.39	5626.48
565.753	5635.97
566.115	5609.75
566.477	5524.78
566.839	5445.24
567.201	5393.26
567.563	5295.41
567.925	5181.74
568.287	5110.56
568.648	5005.7
569.01	4986.95
569.372	4982.2
569.734	5035.98
570.095	5091.58
570.457	5202.31
570.819	5270.1
571.18	5431.45
571.542	5557.1
571.903	5652.24
572.265	5870.99
572.626	5969.74
572.987	6055.17
573.349	6134.49
573.71	6183.07
574.071	6134.94
574.432	6141.04
574.794	6156.86
575.155	6030.76
575.516	5909.86
575.877	5906.47
576.238	5873.7
576.599	5775.4
576.96	5816.53
577.32	5818.34
577.681	5845.91
578.042	5926.13
578.403	6048.39
578.763	6172.68
579.124	6420.35
579.485	6661.25
579.845	6922.26
580.206	7037.96
580.566	7299.88
580.927	7516.14
581.287	7819.19
581.648	8014.89
582.008	8213.98
582.368	8460.3
582.728	8550.47
583.089	8654.19
583.449	8755.43
583.809	8884.47
584.169	9051.47
584.529	9151.36
584.889	9331.46
585.249	9524.23
585.609	9725.13
585.969	10020.03
586.329	10275.62
586.688	10593.8
587.048	11004.41
587.408	11336.38
587.768	11824.28
588.127	12318.73
588.487	12807.53
588.846	13383.33
589.206	13787.62
589.565	14241.17
589.925	14768.16
590.284	15176.51
590.643	15660.34
591.003	16137.61
591.362	16535.79
591.721	16853.07
592.08	17060.98
592.44	17626.84
592.799	17844.23
593.158	18182.3
593.517	18498
593.876	18813.02
594.235	19151.54
594.593	19564.41
594.952	20000.11
595.311	20443.49
595.67	20888.45
596.029	21424.25
596.387	22057.91
596.746	22659.7
597.104	22950.54
597.463	23629.39
597.822	24268.02
598.18	24691.51
598.538	25280.42
598.897	25872.95
599.255	26147.97
599.613	26981.62
599.972	27170.99
600.33	27764.43
600.688	27868.38
601.046	28320.34
601.404	28724.17
601.762	28989.93
602.12	29420.2
602.478	29592.85
602.836	29867.65
603.194	29922.79
603.552	30292.49
603.91	30457.69
604.268	30902.87
604.625	31266.25
604.983	31697.88
605.341	31978.1
605.698	32533.34
606.056	33021.24
606.413	33455.12
606.771	34012.85
607.128	34419.84
607.485	34483.8
607.843	35052.37
608.2	35608.51
608.557	35865.91
608.914	36109.06
609.272	36564.87
609.629	36801.25
609.986	37188.58
610.343	37283.72
610.7	37538.63
611.057	37681.9
611.414	37596.94
611.771	37658.63
612.127	37918.96
612.484	38076.7
612.841	38204.38
613.198	38224.72
613.554	38359.18
613.911	38788.77
614.267	38937.92
614.624	38998.71
614.98	39323.22
615.337	39726.6
615.693	39842.75
616.05	40080.94
616.406	40612.45
616.762	40814.03
617.118	41096.96
617.475	41309.15
617.831	41490.84
618.187	41793.21
618.543	41855.13
618.899	42245.63
619.255	42133.31
619.611	42334.66
619.967	42396.58
620.323	42512.29
620.678	42298.05
621.034	42213.54
621.39	42236.81
621.746	42080.89
622.101	42648.1
622.457	42205.63
622.812	42310.71
623.168	42306.42
623.523	42310.71
623.879	42655.56
624.234	42485.39
624.589	42785.05
624.945	42934.2
625.3	43105.26
625.655	43232.27
626.01	43365.6
626.365	43561.07
626.72	43608.53
627.075	43846.94
627.43	43909.09
627.785	43940.27
628.14	44018.24
628.495	44201.06
628.85	44182.07
629.205	44011.91
629.559	44289.41
629.914	44082.41
630.269	44065.47
630.623	44004.68
630.978	43684.46
631.332	43793.61
631.687	43878.8
632.041	43572.82
632.396	43432.94
632.75	43375.99
633.104	43332.6
633.459	43178.48
633.813	43159.5
634.167	43209.22
634.521	43316.33
634.875	43397.01
635.229	43444.01
635.583	43279.5
635.937	43569.66
636.291	43692.14
636.645	43781.63
636.999	43733.72
637.352	43891.23
637.706	43783.21
638.06	44071.12
638.413	43957.9
638.767	43966.26
639.121	43960.38
639.474	43728.53
639.828	43747.73
640.181	43674.52
640.534	43817.56
640.888	43451.47
641.241	43208.09
641.594	43237.46
641.947	43213.51
642.301	43078.82
642.654	42944.37
643.007	42837.25
643.36	42915.44
643.713	42717.7
644.066	42764.71
644.419	42571.27
644.771	42360.2
645.124	42036.37
645.477	42052.19
645.83	41857.84
646.182	41827.11
646.535	41948.01
646.888	42140.09
647.24	41908.01
647.593	42245.17
647.945	42161.11
648.298	42028.01
648.65	42273.65
649.002	42059.19
649.355	42190.49
649.707	41978.06
650.059	42194.78
650.411	42414.66
650.763	42438.16
651.115	42805.16
651.467	42606.75
651.819	42429.58
652.171	42322.01
652.523	42084.5
652.875	42071.62
653.227	41844.28
653.578	41887.67
653.93	41878.86
654.282	41677.05
654.633	41557.28
654.985	41675.02
655.337	41715.92
655.688	41691.06
656.039	41919.76
656.391	41601.35
656.742	41857.84
657.094	41830.72
657.445	42249.92
657.796	42116.59
658.147	42223.71
658.498	42081.79
658.849	42395.23
659.2	42401.78
659.551	42362.91
659.902	42525.17
660.253	42315.23
660.604	42394.1
660.955	42169.02
661.306	42289.02
661.656	42072.98
662.007	42167.21
662.358	41905.52
662.708	41882.02
663.059	41618.52
663.409	41317.97
663.76	41548.24
664.11	41576.72
664.461	41439.09
664.811	41173.34
665.161	41167.91
665.511	41094.02
665.862	41103.51
666.212	41141.7
666.562	41193
666.912	41169.72
667.262	41139.44
667.612	41291.53
667.962	41384.63
668.312	41444.07
668.662	41682.25
669.011	41510.05
669.361	41654.46
669.711	41685.42
670.06	41562.71
670.41	41735.36
670.76	41759.99
671.109	41873.43
671.459	41849.7
671.808	41763.83
672.157	41839.54
672.507	41491.3
672.856	41452.43
673.205	41279.32
673.554	41381.92
673.904	41202.72
674.253	41299.44
674.602	41067.35
674.951	40381.95
675.3	40202.52
675.649	40730.19
675.998	40553.69
676.346	40421.49
676.695	40572
677.044	40360.93
677.393	40383.75
677.741	40474.83
678.09	40340.82
678.438	40320.03
678.787	40586.46
679.135	40409.52
679.484	40371.33
679.832	40429.4
680.181	40417.2
680.529	40490.87
680.877	40533.13
681.225	40519.8
681.573	40953.01
681.922	40602.73
682.27	40477.76
682.618	40651.32
682.966	40661.26
683.314	40602.05
683.661	40503.98
684.009	40309.86
684.357	40130.2
684.705	40137.21
685.053	39986.7
685.4	39967.04
685.748	39607.5
686.095	39509.65
686.443	39250.23
686.79	39137.69
687.138	39094.97
687.485	39113.96
687.832	38936.11
688.18	38955.77
688.527	38581.99
688.874	38641.43
689.221	38584.71
689.568	38362.56
689.915	38202.12
690.262	38341.1
690.609	38143.59
690.956	38292.06
691.303	38263.58
691.65	38105.62
691.997	38260.87
692.344	38128.22
692.69	38134.77
693.037	38254.09
693.383	37967.09
693.73	38226.75
694.077	37973.87
694.423	38166.64
694.769	37951.95
695.116	38025.17
695.462	37770.94
695.808	37761.45
696.155	37723.94
696.501	37389.93
696.847	37398.52
697.193	37014.58
697.539	37124.18
697.885	36800.57
698.231	36612.33
698.577	36491.88
698.923	36321.26
699.269	36214.82
699.614	35917.88
699.96	35867.94
700.306	35825.91
700.651	35512.47
700.997	35383.89
701.342	35398.35
701.688	35285.58
702.033	35257.79
702.379	35183.44
702.724	35064.8
703.069	35230.67
703.415	34879.94
703.76	34998.36
704.105	35078.13
704.45	35062.31
704.795	34856.89
705.14	34849.44
705.485	34948.42
705.83	34831.36
706.175	35032.03
706.52	34812.6
706.865	34889.44
707.209	34774.41
707.554	34660.97
707.899	34809.89
708.243	34540.74
708.588	34359.05
708.932	34237.93
709.277	34223.01
709.621	34151.6
709.966	33792.97
710.31	33889.69
710.654	33640.88
710.998	33446.31
711.342	33505.74
711.687	33328.35
712.031	33069.37
712.375	32944.4
712.719	32802.03
713.063	32662.38
713.407	32781.47
713.75	32661.92
714.094	32579.89
714.438	32416.73
714.782	32373.57
715.125	32359.78
715.469	32419.67
715.812	32274.59
716.156	32184.2
716.499	32187.59
716.843	32311.65
717.186	32247.47
717.53	32353.46
717.873	32422.16
718.216	32294.02
718.559	32261.03
718.902	32140.58
719.246	32281.14
719.589	32152.56
719.932	32029.62
720.275	32117.98
720.617	32125.67
720.96	32195.27
721.303	32165.21
721.646	31936.75
721.989	31899.01
722.331	32009.29
722.674	31639.58
723.016	31737.88
723.359	31525.68
723.701	31481.62
724.044	31151.68
724.386	31064.68
724.729	31070.1
725.071	31022.19
725.413	30827.62
725.755	30694.97
726.097	30619.27
726.439	30381.31
726.782	30328.2
727.124	30449.55
727.465	30268.09
727.807	30267.86
728.149	30146.51
728.491	30158.71
728.833	30168.2
729.175	30186.06
729.516	30106.28
729.858	30118.26
730.199	30181.31
730.541	30049.79
730.882	30117.36
731.224	30204.36
731.565	30191.93
731.906	30198.26
732.248	30358.03
732.589	30120.75
732.93	30174.08
733.271	30227.19
733.612	30133.85
733.953	30141.99
734.294	30138.83
734.635	30068.77
734.976	30062.9
735.317	29857.7
735.658	30003.69
735.999	29856.12
736.339	29743.81
736.68	29821.09
737.021	29591.27
737.361	29486.64
737.702	29610.48
738.042	29296.59
738.383	29231.05
738.723	29165.97
739.063	28987.67
739.404	28914.23
739.744	28919.65
740.084	28714.23
740.424	28791.52
740.764	28659.54
741.104	28648.92
741.444	28466.33
741.784	28303.39
742.124	28577.06
742.464	28458.19
742.804	28414.8
743.143	28394.01
743.483	28368.93
743.823	28269.27
744.162	28401.24
744.502	28426.1
744.841	28337.07
745.181	28488.47
745.52	28447.8
745.86	28486.44
746.199	28487.34
746.538	28500
746.877	28601.92
747.216	28478.08
747.556	28386.33
747.895	28460.23
748.234	28283.96
748.573	28327.35
748.911	28163.28
749.25	28271.98
749.589	28107.92
749.928	28219.55
750.267	28086
750.605	27901.82
750.944	27787.25
751.283	27635.16
751.621	27670.87
751.96	27530.99
752.298	27343.19
752.636	27317.88
752.975	27149.3
753.313	27079.92
753.651	27109.75
753.989	26992.24
754.327	26707.5
754.666	26445.82
755.004	26623.89
755.342	26540.28
755.679	26519.94
756.017	26263.67
756.355	26494.4
756.693	26275.88
757.031	26379.83
757.368	26143.9
757.706	26209.44
758.044	26169.89
758.381	26106.39
758.719	26115.43
759.056	26172.6
759.394	26267.97
759.731	25962.44
760.068	26051.93
760.405	25962.21
760.743	25948.65
