Data from red_shiny_book_FLMS001491_00092.txt Node
Date: Wed Feb 08 15:25:37 GMT 2017
User: dcchb
Spectrometer: FLMS00149
Trigger mode: 0
Integration Time (sec): 2.000000E-2
Scans to average: 10
Electric dark correction enabled: true
Nonlinearity correction enabled: false
Boxcar width: 0
XAxis mode: Wavelengths
Number of Pixels in Spectrum: 2048
>>>>>Begin Spectral Data<<<<<
341.393	-18.12
341.776	-18.12
342.16	-18.12
342.543	-65.13
342.927	-70.1
343.31	-67.16
343.693	-50.21
344.077	-57.22
344.46	-62.41
344.843	-72.13
345.226	-38.69
345.61	-49.31
345.993	-4.79
346.376	-6.37
346.759	-0.04
347.142	23.69
347.525	37.47
347.908	59.17
348.291	72.05
348.674	98.49
349.057	117.47
349.44	132.61
349.823	149.56
350.206	176.22
350.588	196.56
350.971	192.49
351.354	240.86
351.737	248.31
352.119	260.74
352.502	278.59
352.884	279.5
353.267	270.91
353.65	298.71
354.032	309.55
354.414	305.94
354.797	326.5
355.179	323.11
355.562	312.27
355.944	332.15
356.326	356.11
356.709	339.84
357.091	363.34
357.473	354.3
357.855	357.91
358.238	359.72
358.62	344.81
359.002	353.62
359.384	350.68
359.766	346.16
360.148	346.39
360.53	327.63
360.912	353.17
361.294	332.6
361.676	352.72
362.057	349.55
362.439	332.38
362.821	325.6
363.203	323.34
363.584	322.66
363.966	324.47
364.348	308.88
364.729	343.9
365.111	335.32
365.493	323.56
365.874	325.82
366.256	306.84
366.637	291.02
367.019	315.88
367.4	303.45
367.781	323.56
368.163	315.88
368.544	330.8
368.925	310.46
369.306	325.6
369.688	319.72
370.069	324.69
370.45	307.29
370.831	321.98
371.212	314.98
371.593	313.62
371.974	313.85
372.355	319.72
372.736	336.22
373.117	328.54
373.498	320.4
373.879	315.66
374.26	328.54
374.641	339.38
375.021	310.91
375.402	323.56
375.783	336.45
376.163	342.55
376.544	333.51
376.925	336.45
377.305	328.08
377.686	314.3
378.066	328.76
378.447	352.26
378.827	340.06
379.208	338.48
379.588	337.35
379.968	334.86
380.349	330.8
380.729	333.28
381.109	324.47
381.489	342.77
381.87	340.51
382.25	339.61
382.63	351.59
383.01	375.54
383.39	350
383.77	345.26
384.15	364.92
384.53	356.11
384.91	349.33
385.29	358.82
385.67	363.34
386.049	379.38
386.429	370.57
386.809	345.49
387.189	378.7
387.568	373.06
387.948	344.81
388.328	380.29
388.707	358.82
389.087	363.79
389.466	374.64
389.846	392.49
390.225	407.63
390.605	379.38
390.984	356.33
391.363	383.9
391.743	372.38
392.122	388.2
392.501	383.9
392.881	386.61
393.26	390.91
393.639	394.3
394.018	375.99
394.397	404.24
394.776	389.55
395.155	400.17
395.534	395.65
395.913	387.52
396.292	420.06
396.671	413.28
397.05	405.6
397.429	398.14
397.808	389.33
398.186	397.01
398.565	396.33
398.944	406.95
399.323	410.79
399.701	388.42
400.08	409.21
400.458	423.68
400.837	431.13
401.215	426.39
401.594	419.83
401.972	407.18
402.351	430.45
402.729	413.28
403.107	413.28
403.486	432.26
403.864	430.68
404.242	427.29
404.62	441.98
404.999	442.43
405.377	463.22
405.755	449.44
406.133	428.42
406.511	440.62
406.889	455.99
407.267	447.86
407.645	463.45
408.023	437.69
408.401	450.57
408.779	459.83
409.156	472.04
409.534	462.77
409.912	483.79
410.29	468.65
410.667	470.45
411.045	478.82
411.422	486.05
411.8	484.01
412.178	493.28
412.555	526.95
412.933	524.46
413.31	487.63
413.687	532.6
414.065	520.85
414.442	513.39
414.819	503.9
415.197	529.44
415.574	518.81
415.951	536.67
416.328	538.47
416.705	552.71
417.082	535.99
417.46	577.12
417.837	531.47
418.214	553.62
418.591	570.11
418.967	558.59
419.344	558.59
419.721	573.28
420.098	565.82
420.475	579.38
420.852	591.81
421.228	595.42
421.605	608.53
421.982	596.78
422.358	610.56
422.735	601.07
423.111	583.22
423.488	603.33
423.864	600.62
424.241	595.42
424.617	599.26
424.994	633.16
425.37	639.71
425.746	637
426.123	652.6
426.499	642.65
426.875	666.38
427.251	655.31
427.627	665.25
428.003	665.7
428.379	643.56
428.756	648.08
429.132	651.69
429.507	671.8
429.883	685.36
430.259	697.79
430.635	706.61
431.011	696.66
431.387	702.31
431.763	733.5
432.138	729.88
432.514	717.23
432.89	704.57
433.265	721.29
433.641	723.55
434.016	735.08
434.392	747.06
434.767	759.94
435.143	759.71
435.518	768.3
435.894	791.8
436.269	768.52
436.644	794.51
437.02	787.73
437.395	783.21
437.77	792.48
438.145	795.64
438.52	804.91
438.895	804.91
439.271	820.73
439.646	851.91
440.021	839.94
440.395	858.01
440.77	848.75
441.145	842.87
441.52	832.48
441.895	827.05
442.27	824.57
442.645	843.78
443.019	839.03
443.394	858.01
443.769	870.9
444.143	864.79
444.518	891.01
444.892	892.59
445.267	922.42
445.641	895.08
446.016	900.05
446.39	918.13
446.764	898.01
447.139	905.47
447.513	866.6
447.887	868.64
448.262	901.85
448.636	905.47
449.01	933.72
449.384	957.45
449.758	934.85
450.132	944.11
450.506	971.01
450.88	957.22
451.254	945.7
451.628	953.6
452.002	954.06
452.376	970.78
452.75	916.54
453.123	950.89
453.497	966.94
453.871	977.11
454.244	1013.04
454.618	1035.18
454.992	1016.2
455.365	1030.44
455.739	1031.34
456.112	1001.97
456.486	1026.37
456.859	1010.1
457.232	1040.83
457.606	1016.43
457.979	1003.77
458.352	1039.93
458.725	1041.74
459.099	1063.21
459.472	1103.43
459.845	1111.11
460.218	1114.05
460.591	1119.25
460.964	1133.49
461.337	1116.76
461.71	1106.6
462.083	1081.96
462.456	1116.54
462.829	1106.82
463.201	1086.26
463.574	1120.15
463.947	1118.8
464.32	1160.38
464.692	1170.55
465.065	1199.93
465.438	1224.33
465.81	1251
466.183	1243.77
466.555	1262.3
466.928	1204.45
467.3	1228.63
467.672	1220.04
468.045	1226.82
468.417	1228.17
468.789	1221.62
469.161	1234.05
469.534	1271.34
469.906	1313.82
470.278	1355.85
470.65	1390.43
471.022	1384.55
471.394	1413.03
471.766	1392.92
472.138	1408.51
472.51	1387.94
472.882	1416.64
473.253	1388.62
473.625	1382.29
473.997	1430.88
474.369	1426.81
474.74	1436.76
475.112	1465.68
475.484	1529.63
475.855	1574.38
476.227	1601.5
476.598	1638.78
476.97	1626.81
477.341	1666.81
477.713	1676.07
478.084	1651.44
478.455	1643.53
478.827	1635.85
479.198	1647.15
479.569	1661.16
479.94	1686.01
480.311	1720.14
480.682	1775.96
481.053	1813.47
481.424	1858.44
481.795	1911.09
482.166	1970.75
482.537	1981.6
482.908	2029.96
483.279	2021.6
483.65	2044.42
484.021	2036.29
484.391	2020.02
484.762	2000.58
485.133	1966.01
485.503	2014.59
485.874	2092.33
486.244	2092.33
486.615	2137.98
486.985	2197.87
487.356	2295.72
487.726	2338.88
488.097	2387.69
488.467	2424.07
488.837	2445.09
489.207	2445.54
489.578	2471.76
489.948	2464.53
490.318	2448.71
490.688	2413.23
491.058	2442.38
491.428	2435.83
491.798	2479.89
492.168	2512.43
492.538	2576.84
492.908	2637.18
493.278	2716.5
493.648	2765.53
494.017	2823.39
494.387	2800.56
494.757	2864.52
495.126	2906.77
495.496	2872.2
495.866	2902.71
496.235	2846.89
496.605	2809.38
496.974	2805.31
497.344	2793.56
497.713	2802.82
498.082	2816.15
498.452	2871.75
498.821	2885.53
499.19	2967.56
499.559	3034.23
499.928	3092.98
500.298	3172.76
500.667	3183.6
501.036	3202.59
501.405	3229.93
501.774	3206.88
502.143	3171.85
502.512	3110.38
502.88	3133.43
503.249	3057.28
503.618	3087.56
503.987	3001.23
504.356	3056.37
504.724	3099.09
505.093	3102.93
505.462	3140.21
505.83	3237.16
506.199	3295.69
506.567	3376.59
506.936	3380.66
507.304	3442.13
507.672	3460.43
508.041	3483.26
508.409	3415.91
508.777	3385.41
509.145	3332.53
509.514	3285.52
509.882	3242.13
510.25	3242.36
510.618	3206.88
510.986	3205.52
511.354	3277.39
511.722	3356.03
512.09	3424.73
512.458	3463.37
512.826	3534.55
513.193	3596.7
513.561	3648
513.929	3640.31
514.297	3676.92
514.664	3678.05
515.032	3588.79
515.4	3633.31
515.767	3528.68
516.135	3464.73
516.502	3372.07
516.869	3438.51
517.237	3424.27
517.604	3402.58
517.972	3471.5
518.339	3536.81
518.706	3562.35
519.073	3658.17
519.44	3722.12
519.808	3823.13
520.175	3867.88
520.542	3887.09
520.909	3879.63
521.276	3872.62
521.643	3859.07
522.009	3866.07
522.376	3785.39
522.743	3732.06
523.11	3669.47
523.477	3681.89
523.843	3648.45
524.21	3676.02
524.577	3693.87
524.943	3700.43
525.31	3771.84
525.676	3863.58
526.043	4033.3
526.409	4105.16
526.776	4178.15
527.142	4271.03
527.508	4316.23
527.874	4357.81
528.241	4318.04
528.607	4302.67
528.973	4276.91
529.339	4211.6
529.705	4180.64
530.071	4166.63
530.437	4060.42
530.803	4050.92
531.169	4024.71
531.535	4084.37
531.901	4159.4
532.267	4219.73
532.632	4347.64
532.998	4421.08
533.364	4516
533.73	4549.67
534.095	4725.94
534.461	4811.81
534.826	4845.93
535.192	4826.05
535.557	4840.06
535.923	4803.67
536.288	4761.41
536.653	4705.37
537.019	4638.48
537.384	4549.67
537.749	4566.62
538.114	4535.88
538.479	4524.36
538.845	4575.2
539.21	4567.52
539.575	4662.43
539.94	4741.98
540.305	4861.98
540.67	4975.87
541.034	5051.58
541.399	5201.85
541.764	5284.34
542.129	5325.24
542.494	5327.5
542.858	5368.18
543.223	5312.59
543.587	5302.19
543.952	5155.75
544.316	5103.55
544.681	5030.79
545.045	5009.32
545.41	4987.62
545.774	4944.01
546.138	4939.94
546.503	4951.69
546.867	4998.24
547.231	5135.19
547.595	5207.73
547.959	5288.41
548.324	5445.01
548.688	5538.12
549.052	5616.53
549.416	5664.44
549.779	5733.82
550.143	5726.59
550.507	5739.92
550.871	5654.27
551.235	5588.96
551.599	5593.48
551.962	5482.75
552.326	5374.05
552.689	5345.58
553.053	5190.78
553.417	5180.61
553.78	5208.86
554.143	5219.48
554.507	5245.24
554.87	5329.08
555.234	5456.54
555.597	5512.36
555.96	5610.21
556.323	5756.42
556.686	5832.57
557.05	5959.12
557.413	5985.56
557.776	6078.44
558.139	6024.43
558.502	6045.9
558.865	6012.91
559.228	5946.24
559.59	5807.71
559.953	5712.58
560.316	5751.44
560.679	5581.05
561.041	5487.72
561.404	5509.42
561.767	5508.74
562.129	5534.5
562.492	5607.95
562.854	5635.97
563.217	5744.21
563.579	5896.75
563.941	5987.6
564.304	6212
564.666	6282.96
565.028	6310.3
565.39	6411.99
565.753	6504.65
566.115	6503.52
566.477	6483.63
566.839	6454.48
567.201	6379.45
567.563	6315.27
567.925	6198.44
568.287	6162.51
568.648	6005.9
569.01	5942.63
569.372	5958.45
569.734	5892.23
570.095	5922.74
570.457	5962.74
570.819	6034.83
571.18	6144.43
571.542	6269.17
571.903	6355.5
572.265	6554.81
572.626	6621.48
572.987	6812.89
573.349	6926.1
573.71	7076.16
574.071	7145.76
574.432	7219.88
574.794	7229.15
575.155	7226.66
575.516	7149.37
575.877	7111.86
576.238	7082.71
576.599	7021.92
576.96	6957.06
577.32	6866.44
577.681	6894.01
578.042	6960.68
578.403	7005.2
578.763	7080.22
579.124	7198.19
579.485	7425.3
579.845	7644.28
580.206	7912.97
580.566	8088.11
580.927	8455.78
581.287	8774.64
581.648	8972.38
582.008	9337.79
582.368	9484.45
582.728	9672.7
583.089	9863.2
583.449	10131.22
583.809	10287.37
584.169	10550.41
584.529	10592.67
584.889	10847.81
585.249	10905.21
585.609	11109.27
585.969	11306.33
586.329	11558.52
586.688	11826.54
587.048	12156.25
587.408	12489.8
587.768	12865.16
588.127	13210.23
588.487	13679.82
588.846	14260.15
589.206	14605.9
589.565	15216.05
589.925	15799.54
590.284	16284.5
590.643	16757.71
591.003	17310.91
591.362	17772.15
591.721	18252.59
592.08	18578.23
592.44	19084.2
592.799	19514.02
593.158	19801.92
593.517	20061.35
593.876	20429.02
594.235	20750.82
594.593	20985.17
594.952	21351.03
595.311	21655.66
595.67	22033.73
596.029	22544
596.387	23088.16
596.746	23637.98
597.104	23895.83
597.463	24357.74
597.822	24891.05
598.18	25391.83
598.538	25899.84
598.897	26588.19
599.255	26918.8
599.613	27869.28
599.972	28183.62
600.33	28680.33
600.688	29007.56
601.046	29502.68
601.404	29960.3
601.762	30113.29
602.12	30741.52
602.478	30897.22
602.836	31087.5
603.194	31238.46
603.552	31503.31
603.91	31637.77
604.268	31922.51
604.625	32195.95
604.983	32453.34
605.341	32649.04
605.698	33082.7
606.056	33517.72
606.413	33731.95
606.771	34243.58
607.128	34598.6
607.485	34850.79
607.843	35239.26
608.2	35775.97
608.557	36359.91
608.914	36533.46
609.272	37058.42
609.629	37361.91
609.986	37662.7
610.343	37830.83
610.7	38284.83
611.057	38409.12
611.414	38657.47
611.771	38672.16
612.127	38929.78
612.484	38852.04
612.841	39044.13
613.198	38964.13
613.554	39143.79
613.911	39307.85
614.267	39432.14
614.624	39473.04
614.98	39552.59
615.337	39889.3
615.693	39959.58
616.05	40164.33
616.406	40457.2
616.762	40605.67
617.118	40788.26
617.475	41047.92
617.831	41440.45
618.187	41786.43
618.543	41944.17
618.899	42288.34
619.255	42413.76
619.611	42495.11
619.967	42770.36
620.323	42938.72
620.678	42861.2
621.034	42946.63
621.39	42867.31
621.746	42830.7
622.101	43255.09
622.457	42790.47
622.812	42756.12
623.168	42846.97
623.523	42876.34
623.879	42950.47
624.234	42556.35
624.589	42739.4
624.945	42962.67
625.3	42989.56
625.655	42924.48
626.01	43082.89
626.365	43178.48
626.72	43371.92
627.075	43421.19
627.43	43547.74
627.785	43637.91
628.14	43797.9
628.495	44092.36
628.85	44089.19
629.205	44152.47
629.559	44491.67
629.914	44325.35
630.269	44465.68
630.623	44364.89
630.978	44352.24
631.332	44366.7
631.687	44336.87
632.041	44141.62
632.396	44096.43
632.75	43851.01
633.104	43805.59
633.459	43537.12
633.813	43525.59
634.167	43319.95
634.521	43258.93
634.875	43271.81
635.229	43262.1
635.583	43270.91
635.937	43190.91
636.291	43342.09
636.645	43388.87
636.999	43335.99
637.352	43560.17
637.706	43395.65
638.06	43730.33
638.413	43679.94
638.767	43704.8
639.121	43909.31
639.474	43733.05
639.828	43831.57
640.181	43933.72
640.534	44018.24
640.888	43893.72
641.241	43659.6
641.594	43710.9
641.947	43713.38
642.301	43460.28
642.654	43465.71
643.007	43287.41
643.36	43312.49
643.713	43003.57
644.066	43175.77
644.419	42710.25
644.771	42395.68
645.124	41900.1
645.477	41728.13
645.83	41462.6
646.182	41410.85
646.535	41330.85
646.888	41494.01
647.24	41444.97
647.593	41616.26
647.945	41701.91
648.298	41650.84
648.65	41711.18
649.002	41638.86
649.355	41898.97
649.707	41918.4
650.059	42151.17
650.411	42580.31
650.763	42713.64
651.115	43154.98
651.467	43008.77
651.819	42933.07
652.171	42661.21
652.523	42739.17
652.875	42553.64
653.227	42272.74
653.578	42442.46
653.93	42368.79
654.282	41988.01
654.633	41959.76
654.985	41842.7
655.337	41783.49
655.688	41649.48
656.039	41806.54
656.391	41306.44
656.742	41360
657.094	41459.21
657.445	41539.43
657.796	41578.3
658.147	41450.39
658.498	41626.21
658.849	41879.99
659.2	41806.77
659.551	41794.34
659.902	41893.77
660.253	42051.51
660.604	42218.28
660.955	41995.46
661.306	42448.78
661.656	42246.98
662.007	42430.03
662.358	42228.45
662.708	42205.85
663.059	42358.84
663.409	41909.14
663.76	42224.38
664.11	42041.11
664.461	41990.49
664.811	41890.61
665.161	41764.06
665.511	41535.14
665.862	41407.46
666.212	41537.4
666.562	41313
666.912	41137.18
667.262	41080.46
667.612	40915.27
667.962	41019.67
668.312	40908.26
668.662	41138.31
669.011	40967.47
669.361	41062.61
669.711	40968.6
670.06	40990.74
670.41	41087.24
670.76	41078.88
671.109	41302.15
671.459	41381.92
671.808	41366.1
672.157	41489.04
672.507	41437.29
672.856	41543.27
673.205	41548.47
673.554	41726.32
673.904	41489.71
674.253	41816.03
674.602	41622.37
674.951	40986
675.3	40823.74
675.649	41391.86
675.998	41310.51
676.346	41037.3
676.695	41151.64
677.044	40825.32
677.393	40748.04
677.741	40679.79
678.09	40503.53
678.438	40284.55
678.787	40364.09
679.135	40358.22
679.484	39932.69
679.832	39967.49
680.181	39843.2
680.529	39939.7
680.877	39835.52
681.225	39868.97
681.573	40216.08
681.922	39905.8
682.27	39935.63
682.618	40118.9
682.966	40057.89
683.314	40211.33
683.661	40195.51
684.009	39960.71
684.357	40066.47
684.705	40216.53
685.053	40263.31
685.4	40213.59
685.748	40037.77
686.095	40032.13
686.443	39958.45
686.79	39853.6
687.138	39708.07
687.485	39627.62
687.832	39440.95
688.18	39453.16
688.527	39141.98
688.874	39153.73
689.221	38811.82
689.568	38734.98
689.915	38546.51
690.262	38574.31
690.609	38197.6
690.956	38102.01
691.303	38093.65
691.65	37857.49
691.997	37834.22
692.344	37554.9
692.69	37539.54
693.037	37577.5
693.383	37477.16
693.73	37611.4
694.077	37306.77
694.423	37530.04
694.769	37329.15
695.116	37441.69
695.462	37514.45
695.808	37458.41
696.155	37690.49
696.501	37433.32
696.847	37456.6
697.193	37169.83
697.539	37445.98
697.885	37215.02
698.231	37128.92
698.577	36970.06
698.923	36900.91
699.269	36769.39
699.614	36618.43
699.96	36365.1
700.306	36435.84
700.651	36083.98
700.997	36026.58
701.342	35851.67
701.688	35799.24
702.033	35503.2
702.379	35462.75
702.724	35172.59
703.069	35291.91
703.415	34710.46
703.76	34798.82
704.105	34789.78
704.45	34610.12
704.795	34319.06
705.14	34307.3
705.485	34372.61
705.83	34326.06
706.175	34318.6
706.52	34263.46
706.865	34227.53
707.209	34168.1
707.554	34190.47
707.899	34344.82
708.243	34056.69
708.588	34265.72
708.932	34000.19
709.277	34249.45
709.621	34096.69
709.966	34060.76
710.31	34274.08
710.654	33870.03
710.998	33929.23
711.342	33991.83
711.687	33818.28
712.031	33646.53
712.375	33553.65
712.719	33552.75
713.063	33348.01
713.407	33536.48
713.75	33237.95
714.094	33127.9
714.438	32982.59
714.782	32851.52
715.125	32609.04
715.469	32545.77
715.812	32306.68
716.156	32142.16
716.499	32110.53
716.843	32100.13
717.186	31821.04
717.53	31974.71
717.873	31869.63
718.216	31977.2
718.559	31727.03
718.902	31618.79
719.246	31661.72
719.589	31684.77
719.932	31595.74
720.275	31523.42
720.617	31624.66
720.96	31651.1
721.303	31680.25
721.646	31762.29
721.989	31557.77
722.331	31792.12
722.674	31686.81
723.016	31725
723.359	31737.2
723.701	31745.56
724.044	31545.34
724.386	31526.81
724.729	31507.15
725.071	31314.16
725.413	31379.47
725.755	31286.14
726.097	31307.16
726.439	30969.99
726.782	31089.31
727.124	31150.1
727.465	30824.01
727.807	30746.72
728.149	30475.09
728.491	30374.98
728.833	30374.3
729.175	30183.34
729.516	30133.63
729.858	30063.57
730.199	29952.16
730.541	29848.21
730.882	29871.49
731.224	29908.32
731.565	29671.27
731.906	29593.98
732.248	29645.05
732.589	29592.17
732.93	29427.43
733.271	29676.47
733.612	29688.89
733.953	29795.33
734.294	29495.91
734.635	29626.98
734.976	29780.42
735.317	29654.77
735.658	29670.82
735.999	29687.99
736.339	29748.78
736.68	29816.35
737.021	29827.42
737.361	29664.94
737.702	29818.61
738.042	29718.27
738.383	29672.85
738.723	29735.67
739.063	29625.17
739.404	29591.04
739.744	29527.54
740.084	29459.52
740.424	29448.45
740.764	29249.58
741.104	29226.76
741.444	29031.51
741.784	28911.06
742.124	28822.7
742.464	28877.39
742.804	28652.54
743.143	28498.64
743.483	28488.02
743.823	28257.75
744.162	28172.78
744.502	28268.82
744.841	28022.05
745.181	28123.96
745.52	27954.25
745.86	28017.07
746.199	27883.29
746.538	27942.73
746.877	27993.35
747.216	28000.35
747.556	27942.95
747.895	27948.83
748.234	27822.5
748.573	27956.28
748.911	27808.27
749.25	27984.31
749.589	27987.92
749.928	28008.71
750.267	28020.01
750.605	28118.54
750.944	27932.1
751.283	27888.72
751.621	28042.61
751.96	27814.82
752.298	27831.77
752.636	27875.38
752.975	27649.4
753.313	27685.56
753.651	27639.23
753.989	27464.77
754.327	27528.5
754.666	27206.93
755.004	27255.06
755.342	27262.29
755.679	27151.56
756.017	26879.48
756.355	26879.7
756.693	26688.07
757.031	26623.89
757.368	26409.88
757.706	26459.83
758.044	26225.71
758.381	26206.05
758.719	26104.36
759.056	25961.31
759.394	25918.15
759.731	25619.62
760.068	25562.22
760.405	25495.78
760.743	25560.64
