Data from red_shiny_book_FLMS001491_00023.txt Node
Date: Wed Feb 08 15:24:37 GMT 2017
User: dcchb
Spectrometer: FLMS00149
Trigger mode: 0
Integration Time (sec): 2.000000E-2
Scans to average: 10
Electric dark correction enabled: true
Nonlinearity correction enabled: false
Boxcar width: 0
XAxis mode: Wavelengths
Number of Pixels in Spectrum: 2048
>>>>>Begin Spectral Data<<<<<
341.393	-3.22
341.776	-3.22
342.16	-3.22
342.543	-57.23
342.927	-74.86
343.31	-81.41
343.693	-79.15
344.077	-74.18
344.46	-36.67
344.843	-44.35
345.226	-45.48
345.61	-32.82
345.993	-8.87
346.376	7.4
346.759	15.54
347.142	7.63
347.525	20.96
347.908	65.03
348.291	82.2
348.674	100.05
349.057	104.12
349.44	131.01
349.823	152.48
350.206	197.68
350.588	198.13
350.971	206.27
351.354	230.45
351.737	240.84
352.119	249.65
352.502	265.47
352.884	281.52
353.267	294.17
353.65	284.46
354.032	321.97
354.414	328.75
354.797	325.36
355.179	324
355.562	340.95
355.944	356.09
356.326	345.47
356.709	347.05
357.091	356.54
357.473	365.81
357.855	362.87
358.238	325.81
358.62	361.97
359.002	353.61
359.384	340.27
359.766	350.89
360.148	350.89
360.53	360.61
360.912	352.7
361.294	346.6
361.676	350.44
362.057	344.34
362.439	351.35
362.821	322.87
363.203	347.28
363.584	331.91
363.966	356.54
364.348	346.6
364.729	326.94
365.111	322.87
365.493	329.43
365.874	344.34
366.256	320.39
366.637	339.37
367.019	320.61
367.4	318.81
367.781	333.49
368.163	342.76
368.544	344.34
368.925	344.79
369.306	343.44
369.688	344.57
370.069	323.78
370.45	335.98
370.831	313.83
371.212	315.87
371.593	334.62
371.974	321.29
372.355	319.26
372.736	324.23
373.117	336.66
373.498	335.08
373.879	321.74
374.26	332.36
374.641	325.58
375.021	335.3
375.402	345.02
375.783	317.9
376.163	342.53
376.544	350.67
376.925	353.61
377.305	330.33
377.686	337.79
378.066	372.14
378.447	351.35
378.827	340.05
379.208	338.92
379.588	345.47
379.968	344.34
380.349	342.76
380.729	335.98
381.109	345.25
381.489	342.53
381.87	352.93
382.25	359.93
382.63	357.67
383.01	357.45
383.39	368.3
383.77	367.84
384.15	370.1
384.53	366.94
384.91	367.62
385.29	359.71
385.67	372.82
386.049	374.4
386.429	375.98
386.809	373.04
387.189	372.36
387.568	369.43
387.948	361.52
388.328	383.89
388.707	390.22
389.087	373.72
389.466	374.17
389.846	397.45
390.225	389.76
390.605	374.85
390.984	401.06
391.363	390.44
391.743	403.32
392.122	408.29
392.501	411.23
392.881	410.33
393.26	411.91
393.639	409.42
394.018	396.77
394.397	394.06
394.776	411.68
395.155	395.19
395.534	428.18
395.913	428.63
396.292	423.21
396.671	419.59
397.05	414.4
397.429	436.54
397.808	419.14
398.186	419.37
398.565	428.18
398.944	429.54
399.323	427.05
399.701	435.41
400.08	449.65
400.458	447.39
400.837	433.38
401.215	449.42
401.594	451.01
401.972	471.8
402.351	433.83
402.729	446.71
403.107	449.2
403.486	487.39
403.864	450.33
404.242	465.69
404.62	473.6
404.999	458.69
405.377	465.69
405.755	470.67
406.133	461.4
406.511	479.03
406.889	472.02
407.267	491.68
407.645	486.26
408.023	514.28
408.401	509.08
408.779	507.95
409.156	522.64
409.534	526.26
409.912	489.42
410.29	497.11
410.667	520.38
411.045	528.52
411.422	540.95
411.8	530.33
412.178	565.35
412.555	562.87
412.933	549.31
413.31	557.89
413.687	549.99
414.065	591.34
414.442	572.58
414.819	569.19
415.197	578.01
415.574	576.2
415.951	613.71
416.328	637.44
416.705	618.46
417.082	587.5
417.46	613.94
417.837	608.29
418.214	594.73
418.591	599.02
418.967	600.15
419.344	624.33
419.721	660.72
420.098	647.16
420.475	669.98
420.852	647.84
421.228	647.61
421.605	640.15
421.982	663.65
422.358	684.67
422.735	673.6
423.111	678.12
423.488	677.21
423.864	695.07
424.241	709.3
424.617	718.34
424.994	728.74
425.37	710.43
425.746	728.96
426.123	708.85
426.499	719.92
426.875	733.03
427.251	724.9
427.627	749.98
428.003	760.38
428.379	770.54
428.756	779.58
429.132	778.91
429.507	789.98
429.883	786.82
430.259	819.36
430.635	782.3
431.011	785.46
431.387	796.31
431.763	828.62
432.138	828.62
432.514	847.38
432.89	872.24
433.265	917.21
433.641	895.51
434.016	885.57
434.392	905.68
434.767	888.51
435.143	870.43
435.518	893.25
435.894	892.35
436.269	915.4
436.644	925.12
437.02	934.38
437.395	958.56
437.77	971.22
438.145	997.43
438.52	975.06
438.895	965.79
439.271	957.66
439.646	977.09
440.021	971.44
440.395	961.05
440.77	984.78
441.145	1017.09
441.52	1018.22
441.895	1050.99
442.27	1070.88
442.645	1047.83
443.019	1083.08
443.394	1046.02
443.769	1045.11
444.143	1018
444.518	1024.32
444.892	1032.01
445.267	1046.24
445.641	1066.36
446.016	1077.88
446.39	1101.16
446.764	1117.43
447.139	1120.37
447.513	1161.04
447.887	1139.57
448.262	1126.92
448.636	1102.06
449.01	1121.27
449.384	1105.45
449.758	1100.25
450.132	1114.72
450.506	1142.96
450.88	1185.22
451.254	1197.2
451.628	1199.91
452.002	1218.89
452.376	1215.73
452.75	1220.25
453.123	1206.24
453.497	1205.56
453.871	1193.58
454.244	1193.81
454.618	1199.23
454.992	1209.86
455.365	1266.8
455.739	1286.92
456.112	1314.71
456.486	1351.55
456.859	1361.94
457.232	1353.35
457.606	1355.61
457.979	1354.48
458.352	1331.66
458.725	1326.01
459.099	1309.74
459.472	1361.49
459.845	1365.78
460.218	1388.61
460.591	1399.23
460.964	1460.24
461.337	1469.28
461.71	1514.71
462.083	1549.73
462.456	1490.75
462.829	1475.16
463.201	1509.96
463.574	1487.59
463.947	1450.3
464.32	1497.76
464.692	1477.19
465.065	1514.03
465.438	1561.26
465.81	1628.38
466.183	1648.49
466.555	1697.53
466.928	1701.82
467.3	1689.39
467.672	1711.54
468.045	1744.08
468.417	1682.39
468.789	1675.61
469.161	1668.6
469.534	1665.21
469.906	1696.4
470.278	1740.91
470.65	1775.94
471.022	1854.13
471.394	1899.1
471.766	1968.71
472.138	1963.28
472.51	2027.91
472.882	2034.24
473.253	2000.79
473.625	1978.87
473.997	1973
474.369	1968.48
474.74	1960.34
475.112	1986.56
475.484	2038.08
475.855	2111.98
476.227	2160.56
476.598	2250.96
476.97	2277.62
477.341	2392.2
477.713	2389.49
478.084	2419.31
478.455	2437.39
478.827	2404.4
479.198	2417.51
479.569	2376.83
479.94	2380.67
480.311	2383.38
480.682	2455.47
481.053	2515.58
481.424	2598.75
481.795	2687.1
482.166	2754.9
482.537	2848
482.908	2944.05
483.279	2984.72
483.65	2999.19
484.021	3037.38
484.391	3017.27
484.762	2947.66
485.133	2958.74
485.503	2903.6
485.874	2942.01
486.244	3020.2
486.615	3087.32
486.985	3202.12
487.356	3316.01
487.726	3409.12
488.097	3567.99
488.467	3593.3
488.837	3640.98
489.207	3703.12
489.578	3677.81
489.948	3667.42
490.318	3589.68
490.688	3575.67
491.058	3543.58
491.428	3601.88
491.798	3588.32
492.168	3698.6
492.538	3788.32
492.908	3941.08
493.278	4002.55
493.648	4137.46
494.017	4218.82
494.387	4290.45
494.757	4344.46
495.126	4393.27
495.496	4320.06
495.866	4301.75
496.235	4245.93
496.605	4161.42
496.974	4143.56
497.344	4102.89
497.713	4172.04
498.082	4166.39
498.452	4332.48
498.821	4457.23
499.19	4563.44
499.559	4743.32
499.928	4798.01
500.298	4898.8
500.667	4933.83
501.036	4909.87
501.405	4851.12
501.774	4737.67
502.143	4710.1
502.512	4660.16
502.88	4599.14
503.249	4521.86
503.618	4547.39
503.987	4634.17
504.356	4696.32
504.724	4784.45
505.093	4901.06
505.462	5050.88
505.83	5158.9
506.199	5274.16
506.567	5339.01
506.936	5314.61
507.304	5369.97
507.672	5282.52
508.041	5199.81
508.409	5113.03
508.777	5016.53
509.145	4938.34
509.514	4884.11
509.882	4906.93
510.25	4981.96
510.618	5058.12
510.986	5205
511.354	5380.82
511.722	5494.71
512.09	5663.75
512.458	5734.93
512.826	5809.73
513.193	5780.81
513.561	5722.5
513.929	5679.57
514.297	5630.3
514.664	5472.12
515.032	5364.1
515.4	5321.84
515.767	5290.65
516.135	5301.5
516.502	5313.93
516.869	5429.18
517.237	5591.89
517.604	5717.08
517.972	5930.86
518.339	6063.29
518.706	6158.88
519.073	6254.92
519.44	6268.93
519.808	6294.92
520.175	6220.34
520.542	6170.4
520.909	6050.86
521.276	5853.8
521.643	5732
522.009	5704.2
522.376	5757.53
522.743	5743.97
523.11	5812.22
523.477	5981.48
523.843	6135.15
524.21	6282.04
524.577	6529.72
524.943	6637.28
525.31	6816.26
525.676	6994.56
526.043	7090.83
526.409	6977.84
526.776	6940.55
527.142	6820.1
527.508	6707.56
527.874	6589.15
528.241	6463.73
528.607	6390.74
528.973	6334.69
529.339	6405.2
529.705	6488.36
530.071	6666.43
530.437	6791.18
530.803	6978.97
531.169	7168.57
531.535	7395.68
531.901	7550.71
532.267	7695.79
532.632	7797.25
532.998	7810.36
533.364	7761.1
533.73	7746.86
534.095	7636.58
534.461	7422.35
534.826	7279.53
535.192	7169.92
535.557	7141.45
535.923	7102.36
536.288	7146.65
536.653	7180.77
537.019	7313.65
537.384	7438.17
537.749	7718.61
538.114	7967.64
538.479	8159.28
538.845	8339.84
539.21	8401.98
539.575	8537.35
539.94	8608.98
540.305	8555.42
540.67	8389.55
541.034	8267.52
541.399	8152.27
541.764	7899.62
542.129	7812.39
542.494	7799.29
542.858	7745.73
543.223	7677.26
543.587	7698.95
543.952	7881.77
544.316	7990.47
544.681	8295.77
545.045	8483.11
545.41	8707.96
545.774	8895.53
546.138	9008.52
546.503	9196.31
546.867	9190.44
547.231	9265.24
547.595	9107.73
547.959	9060.27
548.324	8845.13
548.688	8658.7
549.052	8504.8
549.416	8325.15
549.779	8199.95
550.143	8167.41
550.507	8193.17
550.871	8211.93
551.235	8259.61
551.599	8504.13
551.962	8623.45
552.326	8895.98
552.689	9110.89
553.053	9236.99
553.417	9422.29
553.78	9669.29
554.143	9697.09
554.507	9670.88
554.87	9541.16
555.234	9556.75
555.597	9416.19
555.96	9144.11
556.323	9070.21
556.686	8820.73
557.05	8702.09
557.413	8586.61
557.776	8525.37
558.139	8683.33
558.502	8749.54
558.865	8798.58
559.228	8998.12
559.59	9225.01
559.953	9464.78
560.316	9813.47
560.679	9941.15
561.041	10094.82
561.404	10248.94
561.767	10284.64
562.129	10202.61
562.492	10184.99
562.854	10076.29
563.217	9919
563.579	9717.43
563.941	9535.29
564.304	9363.99
564.666	9183.66
565.028	9104.79
565.39	9158.12
565.753	9141.17
566.115	9253.26
566.477	9392.01
566.839	9602.18
567.201	9849.85
567.563	10039.91
567.925	10333.23
568.287	10567.8
568.648	10665.65
569.01	10872.88
569.372	11001.91
569.734	10968.69
570.095	10934.57
570.457	10845.08
570.819	10719.21
571.18	10517.41
571.542	10400.35
571.903	10206.23
572.265	10149.28
572.626	9919.23
572.987	9804.21
573.349	9843.07
573.71	9869.97
574.071	10039.68
574.432	10225.44
574.794	10517.18
575.155	10700.23
575.516	10900.22
575.877	11439.87
576.238	11602.12
576.599	11907.2
576.96	12041.21
577.32	12241.66
577.681	12269.68
578.042	12341.99
578.403	12282.11
578.763	12319.62
579.124	12142.9
579.485	12123.01
579.845	12028.1
580.206	11816.81
580.566	11870.59
580.927	11896.81
581.287	11954.21
581.648	12028.55
582.008	12461.99
582.368	12814.07
582.728	13124.57
583.089	13517.55
583.449	14023.53
583.809	14633.01
584.169	15141.92
584.529	15578.29
584.889	16166.07
585.249	16536.91
585.609	16888.54
585.969	17415.76
586.329	17606.49
586.688	18005.57
587.048	18185
587.408	18382.29
587.768	18605.1
588.127	18842.16
588.487	18987.24
588.846	19349.27
589.206	19518.53
589.565	19933.2
589.925	20378.84
590.284	20855.67
590.643	21374.3
591.003	22110.77
591.362	22840.92
591.721	23503.28
592.08	24221.23
592.44	24912.28
592.799	25858.25
593.158	26433.37
593.517	27057.76
593.876	27634.02
594.235	28302.25
594.593	28839.64
594.952	29192.4
595.311	29619.73
595.67	30008.87
596.029	30388.3
596.387	30609.08
596.746	30875.74
597.104	31085.91
597.463	31501.04
597.822	31840.91
598.18	32065.77
598.538	32623.49
598.897	33270.48
599.255	33662.11
599.613	34677.68
599.972	35074.05
600.33	35836.74
600.688	36344.52
601.046	37247.55
601.404	37886.86
601.762	38439.16
602.12	39165.02
602.478	39731.1
602.836	40358.2
603.194	40547.13
603.552	40983.27
603.91	41063.27
604.268	41445.18
604.625	41493.99
604.983	41944.83
605.341	41849.92
605.698	42226.86
606.056	42280.87
606.413	42343.01
606.771	42764.02
607.128	43005.82
607.485	43179.83
607.843	43540.72
608.2	44054.6
608.557	44567.81
608.914	44868.82
609.272	45520.55
609.629	45887.78
609.986	46576.57
610.343	46614.54
610.7	47393.05
611.057	47514.63
611.414	47898.12
611.771	48224.21
612.127	48595.28
612.484	48601.15
612.841	48854.93
613.198	48712.11
613.554	48720.7
613.911	49039.78
614.267	48843.4
614.624	48760.02
614.98	48957.3
615.337	49056.96
615.693	49025.77
616.05	48989.62
616.406	49237.07
616.762	49160.01
617.118	49437.51
617.475	49575.36
617.831	49890.84
618.187	49974
618.543	50288.56
618.899	50712.06
619.255	50837.93
619.611	51000.64
619.967	51335.99
620.323	51598.81
620.678	51652.6
621.034	51630.9
621.39	51676.55
621.746	51810.56
622.101	52191.79
622.457	51881.07
622.812	51863.66
623.168	51954.96
623.523	51906.83
623.879	51781.41
624.234	51539.61
624.589	51554.75
624.945	51568.76
625.3	51557.23
625.655	51645.14
626.01	51487.86
626.365	51598.13
626.72	51522.2
627.075	51622.77
627.43	51746.61
627.785	51770.56
628.14	52115.86
628.495	52162.87
628.85	52301.62
629.205	52409.41
629.559	52735.96
629.914	52669.29
630.269	52824.09
630.623	52810.08
630.978	52802.17
631.332	52940.47
631.687	52908.38
632.041	52761.95
632.396	52670.65
632.75	52484.21
633.104	52376.42
633.459	52090.78
633.813	52073.15
634.167	51989.31
634.521	51909.09
634.875	51921.97
635.229	51712.26
635.583	51521.53
635.937	51592.71
636.291	51576.89
636.645	51656.44
636.999	51675.65
637.352	51852.14
637.706	51852.37
638.06	52050.33
638.413	52050.55
638.767	52188.85
639.121	52333.26
639.474	52225.69
639.828	52311.79
640.181	52502.07
640.534	52529.41
640.888	52488.96
641.241	52289.19
641.594	52359.92
641.947	52327.83
642.301	52138.23
642.654	51969.42
643.007	51977.79
643.36	51696.89
643.713	51614.63
644.066	51514.75
644.419	51165.83
644.771	50956.12
645.124	50509.35
645.477	50364.49
645.83	50170.38
646.182	49970.16
646.535	49895.35
646.888	50100.32
647.24	50030.04
647.593	50268
647.945	50412.4
648.298	50224.61
648.65	50355.23
649.002	50362.01
649.355	50666.63
649.707	50734.2
650.059	50923.8
650.411	51411.02
650.763	51450.12
651.115	51786.38
651.467	51625.7
651.819	51511.58
652.171	51378.93
652.523	51317.92
652.875	51198.82
653.227	50992.5
653.578	51127.41
653.93	50854.2
654.282	50600.19
654.633	50399.97
654.985	50369.47
655.337	50256.48
655.688	50231.17
656.039	50348.22
656.391	49948.01
656.742	50113.65
657.094	50158.62
657.445	50203.6
657.796	50301.45
658.147	50306.87
658.498	50333.08
658.849	50546.64
659.2	50538.28
659.551	50553.64
659.902	50913.18
660.253	50985.27
660.604	51086.96
660.955	50963.12
661.306	51066.85
661.656	51002.67
662.007	51083.35
662.358	51004.48
662.708	50969.68
663.059	50732.85
663.409	50549.8
663.76	50650.82
664.11	50504.15
664.461	50423.48
664.811	50181.45
665.161	49982.13
665.511	49809.03
665.862	49762.25
666.212	49722.7
666.562	49784.62
666.912	49660.56
667.262	49571.97
667.612	49655.59
667.962	49699.43
668.312	49696.26
668.662	49884.06
669.011	49985.75
669.361	50108.68
669.711	50101.68
670.06	50112.98
670.41	50165.4
670.76	50351.39
671.109	50589.8
671.459	50596.35
671.808	50529.69
672.157	50644.71
672.507	50495.11
672.856	50419.86
673.205	50464.83
673.554	50465.28
673.904	50297.83
674.253	50411.27
674.602	50238.62
674.951	49586.66
675.3	49178.09
675.649	49671.86
675.998	49541.69
676.346	49403.16
676.695	49393.67
677.044	49057.41
677.393	49069.61
677.741	49033.46
678.09	48875.27
678.438	48802.05
678.787	48897.19
679.135	48932.67
679.484	48806.57
679.832	49010.41
680.181	48829.39
680.529	48984.87
680.877	49025.55
681.225	49101.48
681.573	49482.94
681.922	49291.08
682.27	49341.25
682.618	49451.98
682.966	49485.42
683.314	49462.6
683.661	49452.43
684.009	49270.06
684.357	49271.64
684.705	49142.83
685.053	49199.55
685.4	49129.5
685.748	48721.83
686.095	48543.3
686.443	48184.67
686.79	48144.21
687.138	48136.53
687.485	47972.24
687.832	47729.08
688.18	47623.78
688.527	47310.56
688.874	47184.69
689.221	47188.76
689.568	46829.67
689.915	46811.59
690.262	46891.14
690.609	46776.57
690.956	46716.68
691.303	46829.45
691.65	46662.9
691.997	46698.6
692.344	46687.53
692.69	46746.28
693.037	46916.9
693.383	46732.05
693.73	46979.95
694.077	46898.37
694.423	46913.06
694.769	46878.71
695.116	46835.32
695.462	46774.08
695.808	46698.6
696.155	46693.86
696.501	46389.91
696.847	46106.98
697.193	45894.78
697.539	45943.82
697.885	45526.2
698.231	45221.58
698.577	45170.28
698.923	44935.94
699.269	44630.86
699.614	44354.48
699.96	44202.17
700.306	44115.17
700.651	43812.12
700.997	43624.33
701.342	43579.81
701.688	43426.15
702.033	43423.66
702.379	43358.35
702.724	43284.91
703.069	43396.54
703.415	43005.59
703.76	43225.93
704.105	43319.93
704.45	43387.28
704.795	43289.65
705.14	43272.48
705.485	43264.34
705.83	43206.27
706.175	43368.52
706.52	43364.23
706.865	43337.11
707.209	43309.54
707.554	43174.63
707.899	43337.56
708.243	42948.42
708.588	42989.77
708.932	42564.93
709.277	42575.55
709.621	42412.84
709.966	41939.63
710.31	41985.96
710.654	41426.2
710.998	41516.82
711.342	41392.08
711.687	41248.8
712.031	40867.8
712.375	40752.32
712.719	40725.65
713.063	40467.13
713.407	40470.07
713.75	40219.22
714.094	40316.62
714.438	40173.58
714.782	40293.35
715.125	40064.2
715.469	40248.83
715.812	40005.67
716.156	39898.56
716.499	40177.19
716.843	40355.04
717.186	40126.57
717.53	40320.47
717.873	40488.6
718.216	40420.12
718.559	40308.71
718.902	40168.83
719.246	40447.47
719.589	40348.71
719.932	40225.55
720.275	40285.21
720.617	40205.21
720.96	40097.65
721.303	40047.48
721.646	39878.67
721.989	39580.82
722.331	39694.72
722.674	39269.19
723.016	39227.61
723.359	39149.42
723.701	38969.54
724.044	38592.6
724.386	38374.98
724.729	38439.38
725.071	37974.54
725.413	38039.85
725.755	37850.02
726.097	37611.16
726.439	37551.27
726.782	37467.66
727.124	37631.27
727.465	37563.48
727.807	37473.31
728.149	37415.23
728.491	37515.79
728.833	37476.02
729.175	37370.49
729.516	37546.75
729.858	37581.55
730.199	37835.56
730.541	37798.95
730.882	37834.2
731.224	37952.84
731.565	37852.06
731.906	37945.84
732.248	38152.61
732.589	37833.3
732.93	37662.91
733.271	37748.56
733.612	37780.65
733.953	37713.75
734.294	37456.13
734.635	37382.69
734.976	37375.23
735.317	37125.07
735.658	37046.2
735.999	36951.51
736.339	36826.09
736.68	36699.54
737.021	36462.49
737.361	36158.77
737.702	36417.52
738.042	36076.28
738.383	35909.51
738.723	35837.42
739.063	35593.36
739.404	35740.02
739.744	35646.92
740.084	35395.4
740.424	35518.11
740.764	35434.04
741.104	35655.28
741.444	35399.01
741.784	35479.24
742.124	35671.1
742.464	35467.49
742.804	35592
743.143	35592.45
743.483	35656.18
743.823	35683.3
744.162	35610.31
744.502	35881.49
744.841	35831.09
745.181	35920.35
745.52	35966.23
745.86	35902.05
746.199	35907.93
746.538	35700.47
746.877	35917.64
747.216	35737.53
747.556	35624.32
747.895	35679.01
748.234	35427.71
748.573	35309.75
748.911	35272.01
749.25	35036.31
749.589	34821.17
749.928	34651.46
750.267	34782.98
750.605	34653.5
750.944	34385.25
751.283	34143.68
751.621	34177.35
751.96	33654.88
752.298	33693.52
752.636	33548.44
752.975	33380.53
753.313	33274.55
753.651	33287.43
753.989	33011.05
754.327	33041.56
754.666	32864.62
755.004	33075.46
755.342	32977.16
755.679	33060.54
756.017	32905.74
756.355	33120.65
756.693	32890.83
757.031	33156.59
757.368	32995.23
757.706	33124.27
758.044	33003.82
758.381	32991.62
758.719	33069.58
759.056	33113.42
