Data from red_shiny_book_FLMS001491_00002.txt Node
Date: Wed Feb 08 15:23:33 GMT 2017
User: dcchb
Spectrometer: FLMS00149
Trigger mode: 0
Integration Time (sec): 2.000000E-2
Scans to average: 10
Electric dark correction enabled: true
Nonlinearity correction enabled: false
Boxcar width: 0
XAxis mode: Wavelengths
Number of Pixels in Spectrum: 2048
>>>>>Begin Spectral Data<<<<<
341.393	-11.3
341.776	-11.3
342.16	-11.3
342.543	-55.37
342.927	-43.84
343.31	-65.08
343.693	-80.68
344.077	-65.31
344.46	-58.08
344.843	-61.69
345.226	-40.9
345.61	-26.89
345.993	-14.24
346.376	-13.11
346.759	27.57
347.142	14.69
347.525	35.71
347.908	53.56
348.291	80.68
348.674	94.91
349.057	118.87
349.44	134.46
349.823	162.26
350.206	158.87
350.588	206.1
350.971	218.07
351.354	232.08
351.737	237.51
352.119	254.46
352.502	287.68
352.884	254.23
353.267	291.52
353.65	296.94
354.032	297.39
354.414	320.44
354.797	328.35
355.179	320.22
355.562	332.65
355.944	351.63
356.326	341.91
356.709	348.47
357.091	360.22
357.473	350.5
357.855	348.47
358.238	337.17
358.62	343.27
359.002	361.8
359.384	364.06
359.766	374.23
360.148	368.13
360.53	344.17
360.912	352.53
361.294	348.92
361.676	364.28
362.057	354.11
362.439	362.7
362.821	337.62
363.203	369.93
363.584	341.01
363.966	356.6
364.348	363.15
364.729	323.61
365.111	339.43
365.493	335.36
365.874	341.69
366.256	336.71
366.637	324.51
367.019	339.88
367.4	354.11
367.781	332.87
368.163	326.55
368.544	319.09
368.925	321.35
369.306	341.23
369.688	339.2
370.069	331.97
370.45	324.29
370.831	310.73
371.212	343.04
371.593	340.78
371.974	345.3
372.355	323.16
372.736	335.36
373.117	343.72
373.498	338.07
373.879	326.09
374.26	339.88
374.641	349.37
375.021	333.1
375.402	348.01
375.783	342.36
376.163	365.87
376.544	375.36
376.925	343.72
377.305	367.67
377.686	356.83
378.066	363.15
378.447	359.09
378.827	349.6
379.208	356.6
379.588	362.7
379.968	346.43
380.349	360.89
380.729	367
381.109	367.45
381.489	364.51
381.87	358.41
382.25	374.45
382.63	364.06
383.01	351.63
383.39	405.19
383.77	382.36
384.15	380.78
384.53	375.81
384.91	376.71
385.29	367.9
385.67	376.49
386.049	376.49
386.429	396.37
386.809	381.91
387.189	366.09
387.568	374.45
387.948	401.35
388.328	394.57
388.707	378.52
389.087	375.36
389.466	392.08
389.846	374.23
390.225	414.45
390.605	381.23
390.984	382.81
391.363	390.5
391.743	404.06
392.122	405.64
392.501	401.57
392.881	408.12
393.26	413.77
393.639	395.24
394.018	423.72
394.397	406.54
394.776	419.88
395.155	407.22
395.534	417.16
395.913	436.37
396.292	429.82
396.671	432.08
397.05	403.61
397.429	426.88
397.808	420.55
398.186	427.79
398.565	421.46
398.944	432.53
399.323	444.73
399.701	422.14
400.08	440.89
400.458	427.33
400.837	428.24
401.215	451.06
401.594	451.06
401.972	457.84
402.351	437.73
402.729	454.23
403.107	453.1
403.486	461.68
403.864	459.87
404.242	440.44
404.62	444.73
404.999	451.51
405.377	470.27
405.755	465.3
406.133	488.35
406.511	481.12
406.889	493.09
407.267	482.02
407.645	487.44
408.023	462.13
408.401	480.21
408.779	501.46
409.156	511.85
409.534	518.63
409.912	503.72
410.29	514.11
410.667	527.22
411.045	525.18
411.422	508.24
411.8	503.94
412.178	527.67
412.555	544.17
412.933	534
413.31	539.87
413.687	569.48
414.065	571.06
414.442	578.74
414.819	550.95
415.197	572.41
415.574	558.18
415.951	570.38
416.328	588.69
416.705	581.68
417.082	581.23
417.46	591.62
417.837	611.96
418.214	609.7
418.591	606.99
418.967	640.44
419.344	622.13
419.721	622.81
420.098	627.55
420.475	617.16
420.852	623.94
421.228	634.79
421.605	628.23
421.982	631.4
422.358	648.57
422.735	663.94
423.111	659.42
423.488	703.26
423.864	677.27
424.241	676.14
424.617	686.99
424.994	690.15
425.37	661.23
425.746	673.2
426.123	691.51
426.499	709.59
426.875	715.91
427.251	725.4
427.627	708.91
428.003	738.96
428.379	719.76
428.756	717.27
429.132	725.18
429.507	717.27
429.883	734.67
430.259	734.67
430.635	765.86
431.011	764.27
431.387	796.82
431.763	790.49
432.138	809.7
432.514	810.37
432.89	777.83
433.265	775.35
433.641	814.89
434.016	778.96
434.392	821.67
434.767	814.44
435.143	841.79
435.518	865.97
435.894	844.05
436.269	867.77
436.644	851.73
437.02	897.83
437.395	886.53
437.77	861.67
438.145	865.29
438.52	858.28
438.895	873.42
439.271	895.57
439.646	925.85
440.021	923.14
440.395	941.22
440.77	950.48
441.145	932.86
441.52	945.06
441.895	934.66
442.27	938.96
442.645	923.59
443.019	921.56
443.394	943.7
443.769	951.84
444.143	986.41
444.518	967.43
444.892	980.54
445.267	1006.98
445.641	1014.44
446.016	1014.66
446.39	984.38
446.764	997.26
447.139	1026.41
447.513	979.86
447.887	963.36
448.262	1005.62
448.636	1004.27
449.01	1037.94
449.384	1040.2
449.758	1066.86
450.132	1064.38
450.506	1050.14
450.88	1048.33
451.254	1022.8
451.628	1075.45
452.002	1044.72
452.376	1037.94
452.75	1063.7
453.123	1069.12
453.497	1075.45
453.871	1104.6
454.244	1131.95
454.618	1146.18
454.992	1143.92
455.365	1143.02
455.739	1155.22
456.112	1139.86
456.486	1133.53
456.859	1130.82
457.232	1160.65
457.606	1139.63
457.979	1128.78
458.352	1181.21
458.725	1194.09
459.099	1205.39
459.472	1219.85
459.845	1236.13
460.218	1246.07
460.591	1240.87
460.964	1227.99
461.337	1251.04
461.71	1234.77
462.083	1219.18
462.456	1202.23
462.829	1235.45
463.201	1278.61
463.574	1273.86
463.947	1318.84
464.32	1350.47
464.692	1394.77
465.065	1373.98
465.438	1389.34
465.81	1391.38
466.183	1355.67
466.555	1390.47
466.928	1371.04
467.3	1376.91
467.672	1366.52
468.045	1378.95
468.417	1382.56
468.789	1409.91
469.161	1439.06
469.534	1475.67
469.906	1509.34
470.278	1550.02
470.65	1569.68
471.022	1562.22
471.394	1566.29
471.766	1563.57
472.138	1560.86
472.51	1521.77
472.882	1561.31
473.253	1561.09
473.625	1586.85
473.997	1638.15
474.369	1676.11
474.74	1716.34
475.112	1734.64
475.484	1778.94
475.855	1809.67
476.227	1820.29
476.598	1856
476.97	1816.45
477.341	1840.4
477.713	1835.43
478.084	1803.79
478.455	1844.7
478.827	1851.7
479.198	1895.54
479.569	1943.45
479.94	2033.62
480.311	2066.39
480.682	2154.75
481.053	2183.45
481.424	2193.16
481.795	2218.25
482.166	2258.47
482.537	2186.84
482.908	2223.9
483.279	2214.41
483.65	2233.39
484.021	2240.17
484.391	2308.41
484.762	2316.55
485.133	2367.4
485.503	2453.04
485.874	2520.39
486.244	2606.03
486.615	2688.52
486.985	2700.04
487.356	2717.67
487.726	2674.96
488.097	2711.57
488.467	2686.48
488.837	2673.6
489.207	2694.39
489.578	2717.89
489.948	2707.5
490.318	2752.02
490.688	2836.99
491.058	2918.57
491.428	2997.21
491.798	3072.01
492.168	3163.31
492.538	3202.63
492.908	3242.85
493.278	3248.05
493.648	3241.95
494.017	3202.63
494.387	3134.38
494.757	3138.9
495.126	3136.87
495.496	3115.85
495.866	3167.37
496.235	3214.15
496.605	3313.36
496.974	3352.23
497.344	3453.92
497.713	3515.16
498.082	3549.74
498.452	3622.73
498.821	3650.3
499.19	3600.36
499.559	3628.15
499.928	3606.23
500.298	3565.78
500.667	3499.79
501.036	3467.48
501.405	3469.51
501.774	3455.73
502.143	3536.63
502.512	3557.65
502.88	3663.18
503.249	3720.35
503.618	3808.71
503.987	3866.11
504.356	3913.12
504.724	3916.28
505.093	3936.62
505.462	3921.93
505.83	3874.93
506.199	3852.1
506.567	3823.4
506.936	3731.88
507.304	3733.24
507.672	3724.2
508.041	3723.52
508.409	3803.06
508.777	3809.17
509.145	3922.16
509.514	3988.14
509.882	4075.15
510.25	4151.76
510.618	4206.9
510.986	4212.32
511.354	4216.61
511.722	4218.87
512.09	4112.43
512.458	4032.66
512.826	3999.89
513.193	3958.77
513.561	3910.63
513.929	3869.05
514.297	3934.81
514.664	4023.85
515.032	4040.8
515.4	4125.99
515.767	4234.69
516.135	4333.67
516.502	4357.63
516.869	4487.57
517.237	4436.72
517.604	4448.92
517.972	4453.89
518.339	4364.63
518.706	4355.59
519.073	4268.59
519.44	4183.62
519.808	4164.18
520.175	4115.15
520.542	4139.1
520.909	4158.31
521.276	4181.13
521.643	4309.94
522.009	4382.48
522.376	4525.98
522.743	4593.1
523.11	4693.66
523.477	4762.36
523.843	4754.45
524.21	4831.51
524.577	4794.22
524.943	4730.05
525.31	4721.23
525.676	4636.26
526.043	4558.3
526.409	4537.06
526.776	4554.68
527.142	4512.88
527.508	4550.61
527.874	4654.57
528.241	4739.54
528.607	4859.31
528.973	4960.32
529.339	5098.17
529.705	5219.75
530.071	5288.9
530.437	5384.27
530.803	5427.88
531.169	5368.67
531.535	5321.44
531.901	5233.31
532.267	5185.4
532.632	5169.81
532.998	5071.05
533.364	5041.22
533.73	5002.13
534.095	5026.76
534.461	5090.71
534.826	5211.39
535.192	5281.9
535.557	5386.98
535.923	5568.22
536.288	5696.8
536.653	5823.58
537.019	5864.03
537.384	5933.63
537.749	6000.97
538.114	5924.36
538.479	5902.67
538.845	5846.4
539.21	5751.49
539.575	5653.18
539.94	5566.18
540.305	5572.96
540.67	5514.66
541.034	5546.07
541.399	5605.28
541.764	5652.28
542.129	5730.02
542.494	5867.19
542.858	6048.2
543.223	6172.27
543.587	6293.85
543.952	6401.41
544.316	6477.12
544.681	6520.05
545.045	6476.44
545.41	6503.33
545.774	6461.07
546.138	6386.95
546.503	6261.3
546.867	6146.73
547.231	6057.02
547.595	6015.66
547.959	5937.02
548.324	5998.94
548.688	6020.41
549.052	6013.63
549.416	6139.27
549.779	6278.03
550.143	6398.02
550.507	6611.58
550.871	6671.91
551.235	6758.47
551.599	6857.67
551.962	6893.6
552.326	6886.37
552.689	6829.42
553.053	6747.39
553.417	6733.38
553.78	6643.67
554.143	6498.81
554.507	6431.7
554.87	6312.38
555.234	6354.18
555.597	6200.29
555.96	6252.04
556.323	6330
556.686	6424.46
557.05	6535.65
557.413	6694.74
557.776	6784
558.139	6945.13
558.502	7069.19
558.865	7206.36
559.228	7285.46
559.59	7313.03
559.953	7300.37
560.316	7327.72
560.679	7248.85
561.041	7159.81
561.404	7062.64
561.767	6931.8
562.129	6801.18
562.492	6783.32
562.854	6638.47
563.217	6608.19
563.579	6680.5
563.941	6725.47
564.304	6776.09
564.666	6906.94
565.028	7026.03
565.39	7234.16
565.753	7455.4
566.115	7570.87
566.477	7677.31
566.839	7754.15
567.201	7852.45
567.563	7839.57
567.925	7830.75
568.287	7805.67
568.648	7691.55
569.01	7616.52
569.372	7518.67
569.734	7417.43
570.095	7278.23
570.457	7256.31
570.819	7179.02
571.18	7179.47
571.542	7153.03
571.903	7275.51
572.265	7374.5
572.626	7516.19
572.987	7717.76
573.349	7915.95
573.71	8141.93
574.071	8321.36
574.432	8408.14
574.794	8587.8
575.155	8764.06
575.516	8671.41
575.877	8761.58
576.238	8761.13
576.599	8768.36
576.96	8742.82
577.32	8634.8
577.681	8588.02
578.042	8543.28
578.403	8514.35
578.763	8520.68
579.124	8594.8
579.485	8766.55
579.845	8898.98
580.206	9038.18
580.566	9296.25
580.927	9642.91
581.287	9999.29
581.648	10192.05
582.008	10641.75
582.368	10982.31
582.728	11295.75
583.089	11714.72
583.449	12029.29
583.809	12244.42
584.169	12527.81
584.529	12731.19
584.889	13005.53
585.249	13161.91
585.609	13346.99
585.969	13630.15
586.329	13855.68
586.688	14152.4
587.048	14381.09
587.408	14720.06
587.768	15167.06
588.127	15624.45
588.487	16118.45
588.846	16689.73
589.206	17194.35
589.565	17790.72
589.925	18464.6
590.284	19013.29
590.643	19729.2
591.003	20287.83
591.362	20987.24
591.721	21509.04
592.08	22050.49
592.44	22536.36
592.799	23043.46
593.158	23336.79
593.517	23735.2
593.876	24241.17
594.235	24499.69
594.593	25010.42
594.952	25346.45
595.311	25703.5
595.67	26152.98
596.029	26746.87
596.387	27269.79
596.746	27850.57
597.104	28197.9
597.463	28896.42
597.822	29622.27
598.18	30098.42
598.538	30755.35
598.897	31490.25
599.255	31944.24
599.613	33023.31
599.972	33337.43
600.33	33961.82
600.688	34309.15
601.046	34907.1
601.404	35413.98
601.762	35659.18
602.12	36261.65
602.478	36503.22
602.836	36879.26
603.194	36898.69
603.552	37226.59
603.91	37400.82
604.268	37850.08
604.625	38055.04
604.983	38495.94
605.341	38709.49
605.698	39253.66
606.056	39710.14
606.413	40087.08
606.771	40646.16
607.128	40944.91
607.485	41463.77
607.843	41951.44
608.2	42587.35
608.557	43112.09
608.914	43326.32
609.272	43869.58
609.629	44267.76
609.986	44613.52
610.343	44612.61
610.7	45098.25
611.057	45312.03
611.414	45152.94
611.771	45423.44
612.127	45530.1
612.484	45645.81
612.841	45714.05
613.198	45685.8
613.554	45874.95
613.911	46140.93
614.267	46230.2
614.624	46335.05
614.98	46603.52
615.337	47019.33
615.693	47160.79
616.05	47222.26
616.406	47782.25
616.762	47742.02
617.118	48029.47
617.475	48311.05
617.831	48739.06
618.187	48791.49
618.543	48945.83
618.899	49457.46
619.255	49363.9
619.611	49432.15
619.967	49670.78
620.323	49789.65
620.678	49534.97
621.034	49518.47
621.39	49440.51
621.746	49404.12
622.101	49640.95
622.457	49430.11
622.812	49348.98
623.168	49490.22
623.523	49505.59
623.879	49657.9
624.234	49459.49
624.589	49699.03
624.945	49755.98
625.3	49959.82
625.655	50104.9
626.01	50267.15
626.365	50371.78
626.72	50418.79
627.075	50614.94
627.43	50772
627.785	50855.16
628.14	50958.66
628.495	51033.01
628.85	51062.16
629.205	50954.82
629.559	51176.28
629.914	50940.58
630.269	51053.12
630.623	50838.44
630.978	50715.28
631.332	50659.46
631.687	50739.68
632.041	50541.95
632.396	50527.94
632.75	50232.35
633.104	50315.51
633.459	50238.68
633.813	50278.45
634.167	50216.31
634.521	50307.6
634.875	50332.01
635.229	50381.27
635.583	50322.97
635.937	50462.63
636.291	50533.13
636.645	50666.24
636.999	50624.88
637.352	50813.58
637.706	50628.27
638.06	50854.03
638.413	50826.91
638.767	50742.85
639.121	50781.04
639.474	50584.21
639.828	50603.19
640.181	50618.33
640.534	50352.35
640.888	50214.27
641.241	50038.46
641.594	49991
641.947	50042.75
642.301	49753.49
642.654	49843.89
643.007	49756.88
643.36	49638.47
643.713	49588.75
644.066	49731.57
644.419	49518.02
644.771	49356.89
645.124	49016.34
645.477	49159.39
645.83	48905.38
646.182	48929.11
646.535	49007.3
646.888	49125.26
647.24	49021.08
647.593	49300.85
647.945	49343.34
648.298	49197.8
648.65	49085.94
649.002	49143.57
649.355	49179.5
649.707	48998.71
650.059	49043.91
650.411	49505.36
650.763	49456.55
651.115	49603.44
651.467	49473.28
651.819	49338.82
652.171	48973.85
652.523	48881.43
652.875	48886.62
653.227	48591.04
653.578	48868.32
653.93	48796.46
654.282	48673.3
654.633	48614.09
654.985	48635.78
655.337	48685.95
655.688	48860.86
656.039	48922.56
656.391	48831.48
656.742	49017.47
657.094	49163.68
657.445	49328.87
657.796	49293.85
658.147	49366.39
658.498	49298.14
658.849	49446.38
659.2	49366.84
659.551	49254.52
659.902	49444.12
660.253	49256.33
660.604	49360.28
660.955	49016.11
661.306	49097.01
661.656	48946.28
662.007	48834.42
662.358	48759.17
662.708	48689.12
663.059	48472.85
663.409	48181.33
663.76	48468.56
664.11	48419.07
664.461	48267.43
664.811	48440.99
665.161	48217.26
665.511	48172.52
665.862	48264.72
666.212	48349.01
666.562	48501.55
666.912	48446.64
667.262	48412.06
667.612	48540.64
667.962	48580.64
668.312	48594.88
668.662	48945.15
669.011	48821.99
669.361	48846.63
669.711	48781.99
670.06	48887.53
670.41	48798.72
670.76	48734.54
671.109	48746.51
671.459	48734.09
671.808	48535.22
672.157	48601.89
672.507	48231.05
672.856	48119.19
673.205	48062.92
673.554	48003.71
673.904	47901.34
674.253	47943.15
674.602	47793.77
674.951	47118.08
675.3	47052.1
675.649	47476.04
675.998	47517.17
676.346	47538.19
676.695	47710.84
677.044	47435.14
677.393	47514.68
677.741	47716.71
678.09	47659.31
678.438	47581.57
678.787	47831.96
679.135	47874.9
679.484	47633.55
679.832	47941.79
680.181	47656.6
680.529	47922.13
680.877	47874.67
681.225	47861.79
681.573	48011.84
681.922	47848.23
682.27	47573.21
682.618	47624.06
682.966	47392.43
683.314	47581.57
683.661	47232.2
684.009	46937.75
684.357	46869.5
684.705	46740.24
685.053	46678.09
685.4	46594.48
685.748	46237.43
686.095	46236.07
686.443	46021.84
686.79	45825.24
687.138	45957.21
687.485	45926.02
687.832	45827.04
688.18	45851.68
688.527	45506.37
688.874	45753.37
689.221	45688.52
689.568	45705.69
689.915	45637.9
690.262	45791.34
690.609	45797.89
690.956	45667.73
691.303	45842.41
691.65	45583.89
691.997	45671.79
692.344	45445.81
692.69	45470.67
693.037	45509.09
693.383	45230.22
693.73	45339.82
694.077	45061.87
694.423	45131.02
694.769	44811.93
695.116	44637.47
695.462	44443.58
695.808	44175.34
696.155	44285.16
696.501	43799.98
696.847	43755.69
697.193	43184.4
697.539	43417.39
697.885	43065.31
698.231	42880.23
698.577	42777.63
698.923	42752.32
699.269	42588.94
699.614	42505.55
699.96	42389.17
700.306	42393.69
700.651	42288.61
700.997	42097.42
701.342	42293.35
701.688	42244.09
702.033	42209.29
702.379	42280.47
702.724	42165.67
703.069	42383.52
703.415	41968.84
703.76	42177.2
704.105	42183.3
704.45	41999.57
704.795	41982.4
705.14	41883.87
705.485	41863.08
705.83	41738.56
706.175	41652.92
706.52	41457.67
706.865	41278.69
707.209	41054.29
707.554	41064.91
707.899	40897.46
708.243	40655.65
708.588	40438.48
708.932	40168.89
709.277	39960.76
709.621	39989.23
709.966	39664.72
710.31	39626.3
710.654	39282.81
710.998	39357.84
711.342	39265.63
711.687	39193.09
712.031	38941.8
712.375	39041.69
712.719	39014.34
713.063	39026.32
713.407	39271.06
713.75	39043.49
714.094	39042.14
714.438	39070.39
714.782	39195.13
715.125	38991.07
715.469	39146.77
715.812	39137.5
716.156	39028.13
716.499	38918.75
716.843	39119.65
717.186	38754.69
717.53	39035.58
717.873	39187.22
718.216	38799.88
718.559	38761.01
718.902	38396.73
719.246	38546.56
719.589	38293.46
719.932	38194.02
720.275	38062.5
720.617	37984.99
720.96	37835.62
721.303	37654.83
721.646	37626.58
721.989	37318.34
722.331	37245.8
722.674	37167.84
723.016	37090.1
723.359	36848.07
723.701	36966.26
724.044	36612.6
724.386	36521.75
724.729	36707.28
725.071	36557
725.413	36555.65
725.755	36655.76
726.097	36386.61
726.439	36341.64
726.782	36462.54
727.124	36508.19
727.465	36553.39
727.807	36514.75
728.149	36500.96
728.491	36573.5
728.833	36515.2
729.175	36565.37
729.516	36551.13
729.858	36557.23
730.199	36487.63
730.541	36406.27
730.882	36455.09
731.224	36476.78
731.565	36164.7
731.906	36276.11
732.248	36112.5
732.589	36089.45
732.93	35710.25
733.271	35815.1
733.612	35665.05
733.953	35616.92
734.294	35361.56
734.635	35125.4
734.976	35108
735.317	34951.62
735.658	34912.53
735.999	34821.01
736.339	34679.77
736.68	34764.06
737.021	34572.88
737.361	34412.2
737.702	34649.03
738.042	34450.39
738.383	34350.28
738.723	34517.51
739.063	34407.91
739.404	34517.51
739.744	34499.88
740.084	34388.02
740.424	34448.36
740.764	34463.73
741.104	34724.51
741.444	34465.76
741.784	34406.55
742.124	34594.8
742.464	34607.45
742.804	34583.95
743.143	34595.25
743.483	34619.65
743.823	34425.08
744.162	34451.3
744.502	34453.78
744.841	34361.13
745.181	34462.6
745.52	34188.03
745.86	34208.82
746.199	34031.2
746.538	33934.02
746.877	34021.7
747.216	33815.61
747.556	33628.49
747.895	33603.64
748.234	33288.62
748.573	33305.56
748.911	33239.58
749.25	33068.74
749.589	32870.55
749.928	32855.86
750.267	32848.18
750.605	32687.95
750.944	32527.96
751.283	32376.32
751.621	32410.67
751.96	32234.18
752.298	32282.77
752.636	32264.91
752.975	32159.61
753.313	32081.87
753.651	32233.05
753.989	31994.19
754.327	32239.15
754.666	32118.48
755.004	32120.74
755.342	32190.79
755.679	32241.86
756.017	31991.7
756.355	32202.32
756.693	32137.23
757.031	32189.66
757.368	32037.12
757.706	31907.41
758.044	31943.11
758.381	31913.96
758.719	31699.05
759.056	31883.68
759.394	31594.2
759.731	31490.25
760.068	31379.74
