Data from red_shiny_book_FLMS001491_00051.txt Node
Date: Wed Feb 08 15:25:02 GMT 2017
User: dcchb
Spectrometer: FLMS00149
Trigger mode: 0
Integration Time (sec): 2.000000E-2
Scans to average: 10
Electric dark correction enabled: true
Nonlinearity correction enabled: false
Boxcar width: 0
XAxis mode: Wavelengths
Number of Pixels in Spectrum: 2048
>>>>>Begin Spectral Data<<<<<
341.393	9.43
341.776	9.43
342.16	9.43
342.543	-51.13
342.927	-57.23
343.31	-55.65
343.693	-75.76
344.077	-66.95
344.46	-64.01
344.843	-43.45
345.226	-43.45
345.61	-36.89
345.993	-36.44
346.376	-19.49
346.759	9.66
347.142	39.26
347.525	46.95
347.908	65.93
348.291	54.18
348.674	95.99
349.057	130.11
349.44	127.62
349.823	121.07
350.206	182.76
350.588	199.71
350.971	230.22
351.354	242.2
351.737	240.84
352.119	264.34
352.502	289.2
352.884	298.24
353.267	305.02
353.65	312.48
354.032	307.51
354.414	332.14
354.797	326.04
355.179	320.16
355.562	341.18
355.944	335.98
356.326	354.74
356.709	349.54
357.091	357
357.473	356.77
357.855	358.35
358.238	356.09
358.62	342.99
359.002	368.75
359.384	369.2
359.766	366.49
360.148	359.93
360.53	356.54
360.912	354.96
361.294	342.76
361.676	329.65
362.057	333.95
362.439	355.64
362.821	340.95
363.203	340.5
363.584	340.95
363.966	349.99
364.348	339.6
364.729	332.14
365.111	330.33
365.493	342.08
365.874	335.75
366.256	341.18
366.637	342.31
367.019	327.17
367.4	338.24
367.781	335.08
368.163	342.31
368.544	330.33
368.925	333.27
369.306	342.99
369.688	342.31
370.069	338.92
370.45	336.66
370.831	325.81
371.212	343.66
371.593	327.17
371.974	335.3
372.355	329.2
372.736	356.32
373.117	338.47
373.498	351.12
373.879	350.22
374.26	357.22
374.641	330.56
375.021	343.44
375.402	334.62
375.783	367.84
376.163	343.21
376.544	344.79
376.925	348.86
377.305	358.13
377.686	356.54
378.066	351.57
378.447	365.13
378.827	354.51
379.208	369.2
379.588	352.93
379.968	358.13
380.349	360.39
380.729	359.93
381.109	353.83
381.489	364.45
381.87	376.88
382.25	356.54
382.63	371.46
383.01	372.82
383.39	378.92
383.77	387.96
384.15	371.91
384.53	370.1
384.91	389.09
385.29	375.3
385.67	371.23
386.049	388.41
386.429	377.56
386.809	384.11
387.189	393.61
387.568	380.72
387.948	390.22
388.328	403.77
388.707	394.96
389.087	412.59
389.466	408.52
389.846	401.51
390.225	413.94
390.605	392.93
390.984	415.3
391.363	419.14
391.743	384.57
392.122	404
392.501	413.27
392.881	408.97
393.26	440.16
393.639	432.93
394.018	421.63
394.397	425.7
394.776	424.11
395.155	412.59
395.534	425.24
395.913	428.18
396.292	450.1
396.671	442.42
397.05	439.71
397.429	445.13
397.808	453.72
398.186	428.86
398.565	463.43
398.944	442.42
399.323	441.97
399.701	441.06
400.08	435.64
400.458	492.36
400.837	476.99
401.215	512.25
401.594	466.15
401.972	461.85
402.351	464.79
402.729	471.12
403.107	488.52
403.486	475.19
403.864	494.17
404.242	496.43
404.62	502.76
404.999	490.1
405.377	469.08
405.755	498.69
406.133	495.52
406.511	493.26
406.889	514.28
407.267	501.4
407.645	530.33
408.023	511.12
408.401	538.46
408.779	545.92
409.156	532.81
409.534	530.55
409.912	525.81
410.29	552.25
410.667	543.43
411.045	547.95
411.422	557.89
411.8	573.26
412.178	561.96
412.555	580.27
412.933	587.27
413.31	591.34
413.687	578.91
414.065	609.87
414.442	613.49
414.819	600.61
415.197	600.61
415.574	618.01
415.951	633.37
416.328	636.54
416.705	643.77
417.082	650.77
417.46	649.19
417.837	656.2
418.214	628.18
418.591	659.14
418.967	647.16
419.344	660.49
419.721	678.34
420.098	701.17
420.475	723.77
420.852	727.61
421.228	671.34
421.605	691.68
421.982	702.07
422.358	711.11
422.735	676.76
423.111	703.43
423.488	747.95
423.864	726.48
424.241	748.85
424.617	757.89
424.994	755.86
425.37	764.67
425.746	751.79
426.123	775.06
426.499	755.4
426.875	745.46
427.251	777.55
427.627	769.64
428.003	780.94
428.379	814.84
428.756	817.78
429.132	853.48
429.507	842.18
429.883	850.32
430.259	832.01
430.635	847.6
431.011	837.21
431.387	804.67
431.763	845.57
432.138	884.21
432.514	879.92
432.89	880.6
433.265	938.9
433.641	940.26
434.016	961.27
434.392	921.5
434.767	923.31
435.143	941.61
435.518	915.63
435.894	925.12
436.269	930.99
436.644	980.26
437.02	991.56
437.395	1002.4
437.77	1021.84
438.145	1050.09
438.52	1011.89
438.895	1013.48
439.271	998.11
439.646	1016.87
440.021	1027.71
440.395	992.23
440.77	1011.44
441.145	1044.89
441.52	1099.35
441.895	1091.89
442.27	1113.13
442.645	1123.53
443.019	1093.7
443.394	1097.32
443.769	1074.49
444.143	1083.98
444.518	1097.32
444.892	1064.55
445.267	1079.01
445.641	1089.86
446.016	1117.43
446.39	1141.16
446.764	1168.05
447.139	1177.77
447.513	1201.04
447.887	1181.61
448.262	1179.57
448.636	1160.36
449.01	1151.33
449.384	1134.15
449.758	1147.26
450.132	1144.55
450.506	1169.4
450.88	1181.83
451.254	1196.97
451.628	1273.81
452.002	1274.03
452.376	1264.99
452.75	1278.78
453.123	1266.12
453.497	1258.44
453.871	1236.52
454.244	1236.3
454.618	1228.84
454.992	1252.57
455.365	1264.54
455.739	1249.18
456.112	1366.91
456.486	1370.98
456.859	1388.61
457.232	1408.95
457.606	1376.63
457.979	1381.83
458.352	1371.88
458.725	1358.78
459.099	1359
459.472	1366.01
459.845	1349.29
460.218	1364.65
460.591	1425.44
460.964	1451.88
461.337	1517.19
461.71	1533.91
462.083	1555.16
462.456	1551.32
462.829	1513.58
463.201	1531.65
463.574	1511.32
463.947	1490.75
464.32	1519.23
464.692	1469.74
465.065	1483.75
465.438	1528.72
465.81	1575.95
466.183	1634.02
466.555	1713.12
466.928	1724.19
467.3	1720.58
467.672	1742.95
468.045	1751.08
468.417	1742.72
468.789	1702.5
469.161	1672.44
469.534	1672.67
469.906	1694.14
470.278	1702.95
470.65	1761.71
471.022	1789.95
471.394	1869.05
471.766	1898.65
472.138	1941.59
472.51	1990.4
472.882	2055.26
473.253	2025.2
473.625	2033.11
473.997	2017.74
474.369	1996.28
474.74	1981.59
475.112	1963.51
475.484	2003.51
475.855	2045.77
476.227	2074.01
476.598	2141.13
476.97	2239.43
477.341	2311.52
477.713	2380.22
478.084	2393.55
478.455	2461.35
478.827	2461.12
479.198	2449.37
479.569	2399.43
479.94	2411.86
480.311	2430.16
480.682	2400.78
481.053	2418.86
481.424	2486.43
481.795	2531.85
482.166	2655.92
482.537	2748.57
482.908	2866.53
483.279	2951.05
483.65	3003.48
484.021	3027.89
484.391	3048
484.762	3030.82
485.133	2957.61
485.503	2958.96
485.874	2970.03
486.244	2932.07
486.615	2973.88
486.985	2994.89
487.356	3101.33
487.726	3164.38
488.097	3313.98
488.467	3373.87
488.837	3607.76
489.207	3596.23
489.578	3711.48
489.948	3713.97
490.318	3699.73
490.688	3634.88
491.058	3609.34
491.428	3572.96
491.798	3563.01
492.168	3561.66
492.538	3586.29
492.908	3654.99
493.278	3760.3
493.648	3887.07
494.017	4006.17
494.387	4117.35
494.757	4212.04
495.126	4264.92
495.496	4274.63
495.866	4299.94
496.235	4308.3
496.605	4214.3
496.974	4226.95
497.344	4101.53
497.713	4016.34
498.082	4054.3
498.452	4070.12
498.821	4083.9
499.19	4196.9
499.559	4337
499.928	4449.32
500.298	4556.66
500.667	4730.67
501.036	4739.71
501.405	4748.75
501.774	4788.97
502.143	4776.09
502.512	4673.49
502.88	4619.26
503.249	4518.69
503.618	4457.45
503.987	4454.97
504.356	4378.36
504.724	4468.98
505.093	4507.85
505.462	4600.95
505.83	4703.77
506.199	4880.04
506.567	5019.47
506.936	5098.57
507.304	5216.53
507.672	5214.72
508.041	5228.73
508.409	5168.85
508.777	5072.13
509.145	4972.02
509.514	4840.27
509.882	4823.55
510.25	4739.25
510.618	4726.15
510.986	4798.01
511.354	4863.09
511.722	4967.27
512.09	5068.28
512.458	5198.45
512.826	5362.06
513.193	5437.31
513.561	5553.24
513.929	5568.16
514.297	5653.13
514.664	5590.98
515.032	5475.51
515.4	5420.37
515.767	5287.26
516.135	5152.58
516.502	5093.14
516.869	5096.31
517.237	5062.18
517.604	5145.34
517.972	5216.76
518.339	5305.79
518.706	5494.94
519.073	5592.11
519.44	5786.23
519.808	5933.35
520.175	6008.15
520.542	6084.08
520.909	6060.8
521.276	5964.53
521.643	5894.25
522.009	5794.82
522.376	5672.11
522.743	5558.67
523.11	5490.65
523.477	5456.3
523.843	5517.31
524.21	5524.77
524.577	5733.8
524.943	5881.37
525.31	6051.08
525.676	6251.98
526.043	6458.08
526.409	6561.8
526.776	6699.43
527.142	6758.18
527.508	6700.56
527.874	6741.69
528.241	6634.35
528.607	6530.62
528.973	6403.62
529.339	6245.65
529.705	6167.24
530.071	6136.73
530.437	6147.35
530.803	6123.62
531.169	6235.94
531.535	6361.36
531.901	6587.34
532.267	6791.63
532.632	6999.76
532.998	7184.84
533.364	7349.35
533.73	7485.4
534.095	7576.47
534.461	7596.35
534.826	7501.44
535.192	7435.45
535.557	7290.83
535.923	7129.25
536.288	7017.84
536.653	6880.89
537.019	6777.84
537.384	6767
537.749	6818.07
538.114	6901
538.479	7031.62
538.845	7289.24
539.21	7408.11
539.575	7620.99
539.94	7923.13
540.305	8071.6
540.67	8219.84
541.034	8241.31
541.399	8283.79
541.764	8334.19
542.129	8301.65
542.494	8153.85
542.858	7954.54
543.223	7773.07
543.587	7554.77
543.952	7494.44
544.316	7406.53
544.681	7345.97
545.045	7526.07
545.41	7626.18
545.774	7752.28
546.138	7928.32
546.503	8213.51
546.867	8396.56
547.231	8632.26
547.595	8738.92
547.959	8970.56
548.324	8987.05
548.688	8974.4
549.052	8907.05
549.416	8901.86
549.779	8685.59
550.143	8540.74
550.507	8359.5
550.871	8219.16
551.235	8060.75
551.599	7931.03
551.962	7903.24
552.326	7831.38
552.689	8003.57
553.053	8083.12
553.417	8253.96
553.78	8519.72
554.143	8793.16
554.507	9019.82
554.87	9137.78
555.234	9361.05
555.597	9375.52
555.96	9476.98
556.323	9473.37
556.686	9410.54
557.05	9274.28
557.413	9132.36
557.776	8941.86
558.139	8849.88
558.502	8588.87
558.865	8485.82
559.228	8405.82
559.59	8352.94
559.953	8365.6
560.316	8538.48
560.679	8567.4
561.041	8864.12
561.404	9110.89
561.767	9341.84
562.129	9482.86
562.492	9816.18
562.854	9927.37
563.217	9957.2
563.579	10076.74
563.941	10109.96
564.304	10133.91
564.666	10045.33
565.028	9909.74
565.39	9724.43
565.753	9581.39
566.115	9300.26
566.477	9214.62
566.839	9070.21
567.201	8964.68
567.563	9061.17
567.925	9054.85
568.287	9187.05
568.648	9330.77
569.01	9634.72
569.372	9864.09
569.734	10037.65
570.095	10297.75
570.457	10550.17
570.819	10805.54
571.18	10913.55
571.542	11008.02
571.903	10987.9
572.265	11018.18
572.626	10854.35
572.987	10787.23
573.349	10600.12
573.71	10362.16
574.071	10239.22
574.432	10000.81
574.794	10078.55
575.155	9880.36
575.516	9872.23
575.877	10036.97
576.238	10199.22
576.599	10405.09
576.96	10624.97
577.32	10989.26
577.681	11277.16
578.042	11666.76
578.403	11975
578.763	12287.3
579.124	12633.74
579.485	12901.98
579.845	13039.6
580.206	13054.52
580.566	13180.39
580.927	13130.67
581.287	13157.79
581.648	13167.28
582.008	13191.01
582.368	13117.56
582.728	13222.19
583.089	13346.71
583.449	13502.41
583.809	13717.32
584.169	14065.56
584.529	14355.95
584.889	14976.05
585.249	15431.63
585.609	15932.18
585.969	16753.18
586.329	17473.16
586.688	18092.35
587.048	18728.49
587.408	19260.23
587.768	19744.96
588.127	20311.95
588.487	20710.59
588.846	21297.91
589.206	21424.92
589.565	21824.23
589.925	22115.97
590.284	22287.95
590.643	22651.55
591.003	22849.51
591.362	23358.43
591.721	23577.63
592.08	23953.66
592.44	24544.38
592.799	25190.02
593.158	25802.65
593.517	26567.83
593.876	27241.04
594.235	27997.17
594.593	28739.07
594.952	29645.27
595.311	30250.67
595.67	31078.9
596.029	31895.6
596.387	32596.83
596.746	33112.97
597.104	33594.09
597.463	34009.67
597.822	34657.79
598.18	34709.09
598.538	35098.23
598.897	35571.21
599.255	35544.77
599.613	36276.73
599.972	36301.14
600.33	36674.91
600.688	36909.26
601.046	37537.71
601.404	38080.52
601.762	38493.17
602.12	39207.95
602.478	39893.36
602.836	40401.14
603.194	40884.07
603.552	41468.46
603.91	41973.76
604.268	42753.85
604.625	43371.91
604.983	43949.3
605.341	44187.93
605.698	44745.21
606.056	45150.62
606.413	45285.53
606.771	45636.48
607.128	45902.24
607.485	45862.69
607.843	45871.96
608.2	46116.25
608.557	46405.5
608.914	46374.09
609.272	46571.15
609.629	46778.83
609.986	47094.3
610.343	47080.06
610.7	47580.16
611.057	47868.97
611.414	48124.55
611.771	48520.25
612.127	48821.03
612.484	49278.2
612.841	49580.33
613.198	49835.7
613.554	50143.26
613.911	50592.29
614.267	50751.6
614.624	50896.01
614.98	51091.26
615.337	51341.19
615.693	51432.04
616.05	51350.01
616.406	51544.12
616.762	51399.95
617.118	51430.91
617.475	51426.61
617.831	51393.85
618.187	51406.28
618.543	51358.82
618.899	51542.32
619.255	51511.58
619.611	51489.44
619.967	51675.42
620.323	51891.91
620.678	51805.14
621.034	51931.46
621.39	52159.25
621.746	52317.44
622.101	52845.56
622.457	52751.55
622.812	52992.22
623.168	53166
623.523	53271.09
623.879	53501.36
624.234	53333.91
624.589	53595.6
624.945	53478.99
625.3	53490.29
625.655	53669.04
626.01	53446.67
626.365	53405.77
626.72	53304.76
627.075	53288.71
627.43	53165.33
627.785	52969.4
628.14	52929.63
628.495	52909.29
628.85	52809.85
629.205	52842.4
629.559	52990.64
629.914	52928.27
630.269	53050.3
630.623	53087.59
630.978	53141.82
631.332	53319.67
631.687	53438.09
632.041	53471.98
632.396	53667.01
632.75	53676.27
633.104	53886.66
633.459	53778.42
633.813	53916.72
634.167	53896.61
634.521	53868.13
634.875	53970.5
635.229	53811.18
635.583	53656.16
635.937	53537.07
636.291	53360.35
636.645	53352.44
636.999	53099.79
637.352	53136.4
637.706	52730.08
638.06	52880.14
638.413	52716.3
638.767	52584.32
639.121	52556.08
639.474	52559.92
639.828	52510.2
640.181	52643.98
640.534	52739.57
640.888	52666.13
641.241	52716.3
641.594	52893.69
641.947	53164.42
642.301	53116.29
642.654	53229.96
643.007	53371.87
643.36	53271.99
643.713	53385.43
644.066	53542.94
644.419	53361.93
644.771	53193.57
645.124	52835.62
645.477	52594.94
645.83	52512.69
646.182	52235.86
646.535	52027.05
646.888	52039.03
647.24	51633.61
647.593	51835.19
647.945	51591.36
648.298	51350.01
648.65	51262.55
649.002	50941.65
649.355	51190.69
649.707	51014.2
650.059	51066.4
650.411	51659.38
650.763	51655.31
651.115	52003.55
651.467	52053.04
651.819	52162.64
652.171	52233.82
652.523	52137.78
652.875	52300.72
653.227	52273.6
653.578	52583.87
653.93	52653.7
654.282	52559.92
654.633	52437.21
654.985	52524.66
655.337	52528.73
655.688	52474.5
656.039	52579.8
656.391	52256.87
656.742	52110.66
657.094	52046.94
657.445	52049.65
657.796	51784.12
658.147	51610.56
658.498	51568.31
658.849	51586.38
659.2	51376.9
659.551	51322.44
659.902	51373.06
660.253	51360.4
660.604	51314.3
660.955	51086.28
661.306	51356.11
661.656	51448.76
662.007	51355.43
662.358	51528.98
662.708	51643.33
663.059	51744.8
663.409	51678.58
663.76	52000.16
664.11	52069.08
664.461	52142.53
664.811	52265.01
665.161	52274.73
665.511	52255.29
665.862	52186.14
666.212	52227.95
666.562	52123.32
666.912	52044
667.262	51902.53
667.612	51733.5
667.962	51725.14
668.312	51598.36
668.662	51567.4
669.011	51354.53
669.361	51192.27
669.711	51138.49
670.06	50974.87
670.41	50752.06
670.76	50650.82
671.109	50777.59
671.459	50717.71
671.808	50615.56
672.157	50818.04
672.507	50665.5
672.856	50728.78
673.205	50884.48
673.554	51051.71
673.904	51063.01
674.253	51317.24
674.602	51331.02
674.951	50950.24
675.3	51031.37
675.649	51397.91
675.998	51533.73
676.346	51521.3
676.695	51652.6
677.044	51441.3
677.393	51484.92
677.741	51454.64
678.09	51230.91
678.438	51221.42
678.787	51087.87
679.135	50915.89
679.484	50676.35
679.832	50705.5
680.181	50313.65
680.529	50270.71
680.877	50159.3
681.225	49978.74
681.573	50203.37
681.922	49727.9
682.27	49670.73
682.618	49720.22
682.966	49589.6
683.314	49662.14
683.661	49675.25
684.009	49481.81
684.357	49662.82
684.705	49562.03
685.053	49779.43
685.4	49822.14
685.748	49766.32
686.095	49922.47
686.443	49709.37
686.79	49923.38
687.138	50074.79
687.485	50199.08
687.832	50051.51
688.18	50205.18
688.527	49901.46
688.874	49857.84
689.221	49749.37
689.568	49606.77
689.915	49516.38
690.262	49456.5
690.609	49098.09
690.956	48964.76
691.303	48823.07
691.65	48451.55
691.997	48466.01
692.344	47977.44
692.69	47891.11
693.037	47766.82
693.383	47414.06
693.73	47439.6
694.077	47116.44
694.423	47223.11
694.769	47024.02
695.116	46996.22
695.462	46984.92
695.808	46990.35
696.155	47091.59
696.501	46846.17
696.847	47045.03
697.193	46886.62
697.539	46970.01
697.885	46915.09
698.231	46946.51
698.577	47136.78
698.923	47029.67
699.269	46960.97
699.614	46887.75
699.96	46854.08
700.306	46862.21
700.651	46649.79
700.997	46504.94
701.342	46414.77
701.688	46359.63
702.033	46105.4
702.379	45980.2
702.724	45631.06
703.069	45734.56
703.415	45191.52
703.76	45027.69
704.105	45100
704.45	44559.9
704.795	44355.84
705.14	44156.3
705.485	44076.07
705.83	43836.53
706.175	43812.35
706.52	43578.91
706.865	43481.96
707.209	43584.56
707.554	43374.17
707.899	43542.3
708.243	43277.9
708.588	43414.4
708.932	43230.22
709.277	43416.43
709.621	43387.96
709.966	43445.13
710.31	43627.95
710.654	43291.91
710.998	43575.52
711.342	43606.71
711.687	43651.9
712.031	43379.14
712.375	43327.62
712.719	43449.87
713.063	43451.46
713.407	43379.82
713.75	43081.52
714.094	43087.4
714.438	42873.84
714.782	42901.64
715.125	42558.15
715.469	42399.73
715.812	42157.03
716.156	41881.55
716.499	41711.39
716.843	41680.66
717.186	41291.97
717.53	41372.87
717.873	41324.28
718.216	40948.92
718.559	40783.96
718.902	40456.96
719.246	40528.14
719.589	40382.61
719.932	40331.54
720.275	40450.18
720.617	40407.69
720.96	40366.34
721.303	40519.78
721.646	40608.59
721.989	40341.93
722.331	40648.14
722.674	40636.84
723.016	40729.04
723.359	40741.47
723.701	40866.89
724.044	40810.85
724.386	40571.31
724.729	40819.21
725.071	40768.82
725.413	40637.97
725.755	40716.84
726.097	40508.03
726.439	40377.41
726.782	40357.53
727.124	40371.99
727.465	40071.66
727.807	39955.96
728.149	39807.26
728.491	39567.04
728.833	39448.62
729.175	39138.35
729.516	39181.51
729.858	38884.57
730.199	38888.86
730.541	38557.57
730.882	38527.29
731.224	38609.78
731.565	38148.77
731.906	38314.42
732.248	38221.31
732.589	38024.03
732.93	37866.07
733.271	37899.06
733.612	37969.34
733.953	38076.23
734.294	38047.08
734.635	37976.12
734.976	38138.6
735.317	38060.86
735.658	38227.19
735.999	38190.58
736.339	38219.05
736.68	38437.12
737.021	38292.04
737.361	38271.25
737.702	38559.61
738.042	38463.56
738.383	38433.28
738.723	38539.95
739.063	38501.53
739.404	38552.83
739.744	38312.61
740.084	38183.57
740.424	38114.87
740.764	38080.52
741.104	38144.7
741.444	37695
741.784	37480.54
742.124	37572.97
742.464	37366.42
742.804	37008.69
743.143	36895.7
743.483	36791.52
743.823	36543.84
744.162	36416.16
744.502	36475.82
744.841	36269.27
745.181	36217.52
745.52	35920.81
745.86	36120.12
746.199	35956.51
746.538	35951.31
746.877	36015.27
747.216	36120.8
747.556	35900.92
747.895	36024.08
748.234	35968.26
748.573	35973.46
748.911	35922.84
749.25	36063.63
749.589	35952.67
749.928	36144.76
750.267	36286.67
750.605	36171.2
750.944	36136.62
751.283	36095.72
751.621	36249.16
751.96	36103.85
752.298	35970.52
752.636	36070.86
752.975	35997.42
753.313	35780.02
753.651	36091.2
753.989	35659.57
754.327	35712.68
754.666	35427.26
755.004	35426.36
755.342	35351.33
755.679	35105.91
756.017	34799.93
756.355	34724.23
756.693	34486.95
757.031	34446.27
757.368	34217.12
757.706	34056
758.044	33805.61
758.381	33717.7
758.719	33486.52
759.056	33422.34
