Data from red_cardboard_box_FLMS001491_00091.txt Node
Date: Wed Feb 08 11:33:24 GMT 2017
User: dcchb
Spectrometer: FLMS00149
Trigger mode: 0
Integration Time (sec): 2.000000E-2
Scans to average: 10
Electric dark correction enabled: true
Nonlinearity correction enabled: false
Boxcar width: 0
XAxis mode: Wavelengths
Number of Pixels in Spectrum: 2048
>>>>>Begin Spectral Data<<<<<
341.393	-13.23
341.776	-13.23
342.16	-13.23
342.543	-50.52
342.927	-62.95
343.31	-75.61
343.693	-64.08
344.077	-43.74
344.46	-48.71
344.843	-44.42
345.226	-36.06
345.61	-36.28
345.993	-8.26
346.376	-26.12
346.759	15.47
347.142	22.25
347.525	32.64
347.908	50.49
348.291	76.03
348.674	83.49
349.057	102.92
349.44	118.29
349.823	156.7
350.206	165.52
350.588	197.16
350.971	231.28
351.354	241.22
351.737	250.04
352.119	276.25
352.502	299.98
352.884	302.69
353.267	283.26
353.65	288.45
354.032	310.37
354.414	316.02
354.797	324.61
355.179	330.26
355.562	340.65
355.944	324.61
356.326	343.82
356.709	353.54
357.091	344.27
357.473	358.06
357.855	350.15
358.238	349.92
358.62	349.69
359.002	349.24
359.384	372.52
359.766	351.95
360.148	350.82
360.53	360.99
360.912	325.51
361.294	335.68
361.676	334.33
362.057	356.93
362.439	349.02
362.821	338.85
363.203	339.07
363.584	344.04
363.966	322.58
364.348	348.56
364.729	348.56
365.111	326.64
365.493	331.16
365.874	323.03
366.256	346.53
366.637	326.64
367.019	322.58
367.4	312.41
367.781	324.16
368.163	320.99
368.544	310.83
368.925	308.11
369.306	332.97
369.688	301.33
370.069	316.47
370.45	311.73
370.831	312.18
371.212	304.27
371.593	324.84
371.974	324.61
372.355	333.2
372.736	316.47
373.117	318.73
373.498	324.16
373.879	301.33
374.26	339.75
374.641	331.84
375.021	330.94
375.402	333.65
375.783	325.74
376.163	325.29
376.544	338.85
376.925	331.16
377.305	331.16
377.686	316.7
378.066	338.17
378.447	326.19
378.827	365.74
379.208	322.35
379.588	352.63
379.968	338.62
380.349	336.59
380.729	332.75
381.109	342.01
381.489	331.39
381.87	336.81
382.25	332.52
382.63	337.04
383.01	330.03
383.39	370.03
383.77	346.53
384.15	342.01
384.53	352.86
384.91	354.67
385.29	342.69
385.67	349.02
386.049	374.78
386.429	357.38
386.809	367.55
387.189	360.54
387.568	373.42
387.948	357.38
388.328	342.69
388.707	358.28
389.087	351.73
389.466	334.78
389.846	368.68
390.225	341.78
390.605	382.46
390.984	353.76
391.363	369.81
391.743	382.91
392.122	374.33
392.501	356.93
392.881	374.33
393.26	379.75
393.639	369.13
394.018	389.47
394.397	374.1
394.776	375
395.155	375.68
395.534	361.45
395.913	388.56
396.292	370.03
396.671	389.47
397.05	393.99
397.429	389.02
397.808	408
398.186	391.5
398.565	398.73
398.944	394.89
399.323	380.2
399.701	403.25
400.08	405.96
400.458	406.64
400.837	408.9
401.215	377.49
401.594	396.02
401.972	403.25
402.351	403.93
402.729	403.93
403.107	418.17
403.486	403.93
403.864	403.7
404.242	406.87
404.62	425.62
404.999	413.65
405.377	427.66
405.755	408.22
406.133	402.35
406.511	427.43
406.889	420.2
407.267	416.81
407.645	426.3
408.023	421.33
408.401	426.53
408.779	424.72
409.156	460.43
409.534	422.23
409.912	455.45
410.29	433.31
410.667	449.13
411.045	441.9
411.422	448.45
411.8	438.51
412.178	444.61
412.555	447.09
412.933	452.97
413.31	472.85
413.687	455.68
414.065	480.76
414.442	492.74
414.819	473.08
415.197	482.57
415.574	453.42
415.951	498.84
416.328	502.46
416.705	476.24
417.082	490.26
417.46	467.21
417.837	503.36
418.214	482.35
418.591	501.78
418.967	505.17
419.344	499.52
419.721	498.39
420.098	506.53
420.475	514.89
420.852	484.61
421.228	514.89
421.605	497.03
421.982	518.5
422.358	519.18
422.735	541.55
423.111	508.33
423.488	535.23
423.864	528.9
424.241	521.22
424.617	539.75
424.994	537.71
425.37	527.99
425.746	551.95
426.123	584.49
426.499	567.09
426.875	558.5
427.251	581.33
427.627	575.9
428.003	577.48
428.379	564.6
428.756	575.9
429.132	572.06
429.507	583.81
429.883	589.24
430.259	585.85
430.635	583.81
431.011	595.11
431.387	615.45
431.763	584.26
432.138	623.81
432.514	597.37
432.89	631.04
433.265	629.01
433.641	611.61
434.016	622.91
434.392	637.6
434.767	637.6
435.143	634.43
435.518	651.38
435.894	660.65
436.269	662.23
436.644	644.6
437.02	666.3
437.395	672.17
437.77	681.89
438.145	676.01
438.52	667.43
438.895	683.92
439.271	669.91
439.646	704.04
440.021	693.87
440.395	687.31
440.77	699.29
441.145	723.92
441.52	713.07
441.895	695.45
442.27	684.83
442.645	742.68
443.019	734.77
443.394	718.95
443.769	710.81
444.143	727.76
444.518	737.03
444.892	730.02
445.267	722.57
445.641	769.8
446.016	735.67
446.39	759.17
446.764	742.9
447.139	761.43
447.513	754.2
447.887	777.03
448.262	767.99
448.636	764.6
449.01	770.47
449.384	767.76
449.758	767.54
450.132	785.39
450.506	795.33
450.88	784.49
451.254	762.11
451.628	804.82
452.002	778.16
452.376	798.5
452.75	813.64
453.123	800.76
453.497	813.86
453.871	837.36
454.244	843.24
454.618	833.07
454.992	848.66
455.365	836.24
455.739	855.67
456.112	894.76
456.486	878.04
456.859	886.86
457.232	885.27
457.606	896.57
457.979	907.42
458.352	892.28
458.725	929.79
459.099	898.83
459.472	938.15
459.845	948.32
460.218	920.3
460.591	978.83
460.964	954.42
461.337	959.17
461.71	953.29
462.083	980.19
462.456	999.85
462.829	986.06
463.201	1010.24
463.574	1023.12
463.947	993.97
464.32	1025.16
464.692	1035.33
465.065	1026.06
465.438	1045.95
465.81	1072.16
466.183	1071.94
466.555	1065.61
466.928	1076.91
467.3	1083.91
467.672	1094.08
468.045	1104.25
468.417	1109.45
468.789	1116.45
469.161	1129.79
469.534	1165.72
469.906	1166.4
470.278	1159.84
470.65	1208.2
471.022	1230.57
471.394	1193.06
471.766	1222.89
472.138	1245.94
472.51	1266.05
472.882	1273.74
473.253	1281.42
473.625	1293.62
473.997	1328.65
474.369	1322.78
474.74	1330.46
475.112	1324.13
475.484	1354.87
475.855	1385.83
476.227	1379.27
476.598	1427.18
476.97	1425.82
477.341	1442.55
477.713	1485.94
478.084	1483.68
478.455	1535.2
478.827	1524.58
479.198	1581.07
479.569	1558.25
479.94	1592.15
480.311	1594.18
480.682	1634.18
481.053	1669.89
481.424	1725.03
481.795	1718.47
482.166	1748.98
482.537	1760.28
482.908	1795.98
483.279	1784.01
483.65	1823.78
484.021	1857.9
484.391	1872.59
484.762	1874.85
485.133	1887.28
485.503	1899.71
485.874	1978.35
486.244	1974.74
486.615	1981.06
486.985	2006.6
487.356	2037.79
487.726	2042.08
488.097	2076.2
488.467	2071.91
488.837	2157.78
489.207	2174.05
489.578	2197.33
489.948	2197.33
490.318	2273.94
490.688	2262.64
491.058	2298.57
491.428	2296.31
491.798	2339.7
492.168	2395.52
492.538	2398.23
492.908	2397.78
493.278	2426.7
493.648	2457.44
494.017	2439.36
494.387	2512.35
494.757	2504.44
495.126	2572.46
495.496	2544.89
495.866	2556.42
496.235	2611.56
496.605	2594.61
496.974	2632.35
497.344	2647.94
497.713	2685.9
498.082	2696.3
498.452	2671.22
498.821	2708.95
499.19	2725.45
499.559	2792.12
499.928	2796.18
500.298	2775.39
500.667	2853.58
501.036	2816.07
501.405	2873.7
501.774	2872.34
502.143	2890.42
502.512	2897.88
502.88	2948.27
503.249	2939
503.618	2946.46
503.987	3012.45
504.356	2994.6
504.724	3012
505.093	3063.07
505.462	3049.74
505.83	3054.03
506.199	3086.35
506.567	3108.49
506.936	3144.42
507.304	3169.06
507.672	3145.55
508.041	3188.72
508.409	3222.39
508.777	3248.83
509.145	3286.79
509.514	3256.28
509.882	3293.35
510.25	3276.17
510.618	3366.56
510.986	3354.13
511.354	3378.77
511.722	3379.22
512.09	3434.13
512.458	3463.96
512.826	3491.98
513.193	3452.21
513.561	3513.23
513.929	3528.14
514.297	3563.17
514.664	3614.02
515.032	3623.51
515.4	3630.29
515.767	3678.19
516.135	3724.29
516.502	3704.41
516.869	3744.86
517.237	3792.99
517.604	3770.4
517.972	3803.61
518.339	3835.7
518.706	3841.81
519.073	3865.99
519.44	3943.5
519.808	3955.7
520.175	3948.92
520.542	4027.79
520.909	4058.98
521.276	4059.65
521.643	4074.12
522.009	4071.4
522.376	4152.53
522.743	4185.75
523.11	4196.15
523.477	4267.33
523.843	4262.13
524.21	4327.67
524.577	4345.75
524.943	4340.55
525.31	4366.54
525.676	4464.16
526.043	4470.04
526.409	4486.99
526.776	4548.68
527.142	4577.61
527.508	4569.24
527.874	4659.86
528.241	4687.21
528.607	4677.72
528.973	4751.84
529.339	4748
529.705	4776.7
530.071	4804.72
530.437	4806.53
530.803	4845.17
531.169	4908.9
531.535	4928.33
531.901	4936.47
532.267	4964.94
532.632	4957.93
532.998	5010.81
533.364	5083.36
533.73	5071.6
534.095	5128.33
534.461	5131.94
534.826	5176.01
535.192	5217.14
535.557	5244.71
535.923	5276.34
536.288	5302.78
536.653	5355.89
537.019	5294.65
537.384	5341.65
537.749	5378.04
538.114	5378.49
538.479	5409.45
538.845	5426.62
539.21	5432.5
539.575	5494.87
539.94	5480.63
540.305	5492.84
540.67	5540.07
541.034	5582.55
541.399	5623.91
541.764	5648.09
542.129	5629.78
542.494	5686.95
542.858	5781.19
543.223	5714.07
543.587	5769.66
543.952	5765.37
544.316	5785.03
544.681	5820.96
545.045	5917.46
545.41	5902.77
545.774	5948.42
546.138	5956.78
546.503	6004.91
546.867	5935.54
547.231	6004.69
547.595	6052.82
547.959	6065.7
548.324	6085.14
548.688	6060.5
549.052	6208.07
549.416	6220.95
549.779	6211.46
550.143	6280.39
550.507	6257.79
550.871	6384.34
551.235	6416.88
551.599	6411.23
551.962	6422.98
552.326	6514.28
552.689	6547.5
553.053	6538.01
553.417	6538.91
553.78	6650.77
554.143	6598.34
554.507	6693.26
554.87	6730.54
555.234	6819.81
555.597	6758.34
555.96	6821.61
556.323	6899.35
556.686	6937.32
557.05	6998.78
557.413	7012.12
557.776	7004.66
558.139	7112.68
558.502	7170.31
558.865	7157.65
559.228	7239.68
559.59	7293.69
559.953	7302.73
560.316	7460.02
560.679	7473.57
561.041	7565.78
561.404	7635.38
561.767	7715.38
562.129	7697.3
562.492	7826.11
562.854	7822.94
563.217	7895.03
563.579	7892.77
563.941	8052.54
564.304	8148.59
564.666	8191.97
565.028	8161.24
565.39	8291.63
565.753	8334.79
566.115	8455.47
566.477	8492.98
566.839	8551.96
567.201	8661.57
567.563	8742.02
567.925	8824.27
568.287	8877.83
568.648	8940.43
569.01	8996.92
569.372	9152.4
569.734	9123.02
570.095	9354.43
570.457	9378.38
570.819	9412.73
571.18	9528.66
571.542	9647.98
571.903	9647.3
572.265	9762.55
572.626	9791.93
572.987	9906.96
573.349	10046.16
573.71	10078.93
574.071	10291.81
574.432	10263.56
574.794	10438.02
575.155	10487.51
575.516	10500.61
575.877	10786.03
576.238	10791.91
576.599	10954.84
576.96	11056.53
577.32	11207.71
577.681	11219.69
578.042	11432.11
578.403	11534.26
578.763	11652.22
579.124	11765.44
579.485	11941.25
579.845	12053.12
580.206	12178.99
580.566	12380.11
580.927	12491.75
581.287	12688.8
581.648	12734.23
582.008	12908.46
582.368	13192.07
582.728	13361.33
583.089	13479.52
583.449	13710.7
583.809	13859.62
584.169	14051.93
584.529	14222.1
584.889	14539.6
585.249	14611.69
585.609	14746.83
585.969	15112.92
586.329	15304.33
586.688	15648.05
587.048	15746.35
587.408	16016.17
587.768	16322.38
588.127	16537.52
588.487	16855.7
588.846	17246.88
589.206	17411.17
589.565	17617.04
589.925	18032.62
590.284	18237.13
590.643	18560.74
591.003	18929.54
591.362	19292.47
591.721	19592.58
592.08	19849.29
592.44	20285.89
592.799	20602.72
593.158	21026.21
593.517	21421
593.876	21761.11
594.235	22113.64
594.593	22459.62
594.952	22891.02
595.311	23270.45
595.67	23663.66
596.029	24054.83
596.387	24640.58
596.746	24853.46
597.104	25236.05
597.463	25595.13
597.822	26152.41
598.18	26516.69
598.538	26872.61
598.897	27379.04
599.255	27651.8
599.613	28419.24
599.972	28583.75
600.33	28998.66
600.688	29360.23
601.046	29964.06
601.404	30470.94
601.762	30656.02
602.12	31259.84
602.478	31773.27
602.836	32073.83
603.194	32305.46
603.552	32756.75
603.91	32968.72
604.268	33530.29
604.625	33923.05
604.983	34473.09
605.341	34740.88
605.698	35153.98
606.056	35760.74
606.413	35871.02
606.771	36453.38
607.128	36784.89
607.485	36995.28
607.843	37353.02
608.2	37840.91
608.557	38065.54
608.914	38413.55
609.272	38877.49
609.629	39223.02
609.986	39504.14
610.343	39767.87
610.7	40390.45
611.057	40498.7
611.414	40687.39
611.771	40976.2
612.127	41408.73
612.484	41681.94
612.841	41951.76
613.198	42171.87
613.554	42251.87
613.911	42620.9
614.267	42783.83
614.624	43011.4
614.98	43255.46
615.337	43670.14
615.693	43699.06
616.05	43941.32
616.406	44422.43
616.762	44301.53
617.118	44498.14
617.475	44805.7
617.831	45049.76
618.187	45182.19
618.543	45372.01
618.899	45670.54
619.255	45768.16
619.611	45932.45
619.967	46126.57
620.323	46396.39
620.678	46291.09
621.034	46464.19
621.39	46592.77
621.746	46580.34
622.101	47163.6
622.457	46907.11
622.812	47030.73
623.168	47259.87
623.523	47359.08
623.879	47586.42
624.234	47413.77
624.589	47686.53
624.945	47698.28
625.3	47941.44
625.655	47755.45
626.01	47951.15
626.365	48114.09
626.72	48153.63
627.075	48258.94
627.43	48268.66
627.785	48171.04
628.14	48452.61
628.495	48460.07
628.85	48592.27
629.205	48436.57
629.559	48871.13
629.914	48619.16
630.269	48855.54
630.623	48701.42
630.978	48750
631.332	48938.02
631.687	49030.45
632.041	48878.59
632.396	49086.49
632.75	48835.2
633.104	48915.65
633.459	48889.43
633.813	48980.28
634.167	49054.63
634.521	49008.53
634.875	49020.73
635.229	49038.36
635.583	48999.26
635.937	48950
636.291	48971.24
636.645	49097.56
636.999	48927.85
637.352	49124.46
637.706	48804.01
638.06	49100.73
638.413	48971.69
638.767	48993.39
639.121	49070.22
639.474	48946.16
639.828	48789.55
640.181	49044.91
640.534	48959.72
640.888	48971.92
641.241	48903.22
641.594	48955.65
641.947	49130.78
642.301	48926.04
642.654	49025.93
643.007	49107.51
643.36	48909.32
643.713	48926.95
644.066	48954.97
644.419	48804.01
644.771	48708.42
645.124	48213.52
645.477	48275.21
645.83	48095.78
646.182	48006.97
646.535	47766.53
646.888	47910.93
647.24	47810.14
647.593	47858.73
647.945	47856.02
648.298	47719.97
648.65	47682.23
649.002	47607.66
649.355	47826.64
649.707	47731.95
650.059	48075.44
650.411	48362.44
650.763	48428.43
651.115	48792.04
651.467	48871.58
651.819	48686.5
652.171	48664.13
652.523	48612.83
652.875	48697.35
653.227	48461.65
653.578	48767.86
653.93	48677.24
654.282	48576.67
654.633	48603.11
654.985	48592.04
655.337	48597.69
655.688	48580.29
656.039	48689.67
656.391	48410.35
656.742	48467.75
657.094	48436.34
657.445	48618.48
657.796	48543
658.147	48393.63
658.498	48458.94
658.849	48426.17
659.2	48362.9
659.551	48299.39
659.902	48444.47
660.253	48427.53
660.604	48397.92
660.955	48237.02
661.306	48460.75
661.656	48333.07
662.007	48494.87
662.358	48423.01
662.708	48286.06
663.059	48320.41
663.409	48230.47
663.76	48454.87
664.11	48479.95
664.461	48367.64
664.811	48493.06
665.161	48551.36
665.511	48342.1
665.862	48481.31
666.212	48352.27
666.562	48367.87
666.912	48298.04
667.262	48325.61
667.612	48377.81
667.962	48383.91
668.312	48286.74
668.662	48416.9
669.011	48387.75
669.361	48464.59
669.711	48254.42
670.06	48341.65
670.41	48255.1
670.76	48186.85
671.109	48263.24
671.459	48158.61
671.808	48217.14
672.157	48304.59
672.507	48010.36
672.856	48134.88
673.205	48186.63
673.554	48149.79
673.904	48153.18
674.253	48265.95
674.602	48134.65
674.951	47578.96
675.3	47557.27
675.649	48020.53
675.998	48025.05
676.346	48099.85
676.695	48097.14
677.044	47868.44
677.393	47915.9
677.741	47978.05
678.09	47796.58
678.438	47660.54
678.787	47913.64
679.135	47759.97
679.484	47630.03
679.832	47696.7
680.181	47562.69
680.529	47827.54
680.877	47558.17
681.225	47589.58
681.573	47684.04
681.922	47360.44
682.27	47376.25
682.618	47342.81
682.966	47262.58
683.314	47387.1
683.661	47188.46
684.009	47030.5
684.357	47082.48
684.705	46870.96
685.053	46900.11
685.4	46905.31
685.748	46676.84
686.095	46675.03
686.443	46593
686.79	46591.42
687.138	46621.47
687.485	46490.63
687.832	46451.53
688.18	46454.02
688.527	46385.55
688.874	46196.62
689.221	46104.88
689.568	45947.14
689.915	45990.3
690.262	45951.88
690.609	45913.24
690.956	45840.25
691.303	45628.96
691.65	45398
691.997	45516.64
692.344	45368.17
692.69	45304.9
693.037	45287.95
693.383	44856.09
693.73	44994.62
694.077	44896.09
694.423	44876.21
694.769	44746.72
695.116	44686.61
695.462	44714.18
695.808	44465.14
696.155	44565.93
696.501	44177.02
696.847	44268.99
697.193	43960.07
697.539	44134.31
697.885	43837.82
698.231	43731.38
698.577	43802.34
698.923	43684.15
699.269	43353.99
699.614	43350.82
699.96	43174.56
700.306	43269.02
700.651	43109.93
700.997	42973.88
701.342	42924.85
701.688	42708.58
702.033	42658.19
702.379	42663.16
702.724	42445.76
703.069	42604.4
703.415	42108.37
703.76	42202.38
704.105	42196.28
704.45	42073.57
704.795	41935.95
705.14	41841.03
705.485	41634.71
705.83	41555.16
706.175	41677.42
706.52	41480.59
706.865	41491.89
707.209	41283.53
707.554	41225
707.899	41282.63
708.243	41016.87
708.588	41070.21
708.932	40714.28
709.277	40699.14
709.621	40747.28
709.966	40512.03
710.31	40567.85
710.654	40237.23
710.998	40308.42
711.342	40492.82
711.687	40169.44
712.031	40005.37
712.375	39918.82
712.719	40057.8
713.063	39884.25
713.407	39997.47
713.75	39820.52
714.094	39862.1
714.438	39618.49
714.782	39601.09
715.125	39455.11
715.469	39498.27
715.812	39260.99
716.156	39130.14
716.499	39183.02
716.843	39095.12
717.186	38872.98
717.53	39246.75
717.873	39095.34
718.216	38875.69
718.559	38801.56
718.902	38463.72
719.246	38523.38
719.589	38487.9
719.932	38401.35
720.275	38425.3
720.617	38287
720.96	38345.76
721.303	38320
721.646	38236.83
721.989	38012.43
722.331	38162.03
722.674	38074.8
723.016	38056.05
723.359	37995.71
723.701	38035.26
724.044	37830.29
724.386	37723.4
724.729	37704.42
725.071	37583.29
725.413	37592.1
725.755	37538.09
726.097	37436.85
726.439	37277.08
726.782	37404.09
727.124	37482.5
727.465	37143.08
727.807	37119.57
728.149	37127.03
728.491	37093.36
728.833	37072.57
729.175	36993.48
729.516	36846.81
729.858	36993.7
730.199	36930.88
730.541	36789.41
730.882	36705.12
731.224	36797.55
731.565	36487.95
731.906	36718.46
732.248	36615.63
732.589	36410.21
732.93	36435.07
733.271	36336.32
733.612	36344.45
733.953	36350.78
734.294	36158.47
734.635	36130.67
734.976	36319.82
735.317	35942.88
735.658	35979.04
735.999	36001.86
736.339	35982.88
736.68	36020.17
737.021	36012.49
737.361	35819.04
737.702	35913.96
738.042	35746.96
738.383	35697.47
738.723	35721.19
739.063	35724.36
739.404	35634.64
739.744	35574.98
740.084	35488.88
740.424	35398.49
740.764	35510.13
741.104	35573.63
741.444	35358.49
741.784	35195.33
742.124	35395.33
742.464	35393.74
742.804	35173.41
743.143	35132.51
743.483	35076.92
743.823	34903.36
744.162	34839.41
744.502	35016.81
744.841	34837.37
745.181	35004.38
745.52	34852.74
745.86	34867.43
746.199	34724.38
746.538	34706.98
746.877	34656.81
747.216	34645.74
747.556	34556.48
747.895	34482.58
748.234	34435.58
748.573	34437.84
748.911	34375.92
749.25	34322.59
749.589	34314.45
749.928	34258.18
750.267	34215.47
750.605	34074.91
750.944	34093.67
751.283	33989.94
751.621	34011.18
751.96	33728.48
752.298	33771.41
752.636	33810.28
752.975	33599.22
753.313	33526.67
753.651	33733.68
753.989	33444.87
754.327	33468.15
754.666	33286.46
755.004	33265.66
755.342	33239.22
755.679	33210.98
756.017	33087.82
756.355	33181.6
756.693	32947.48
757.031	33051.89
757.368	32694.61
757.706	32821.83
758.044	32467.49
758.381	32645.12
758.719	32556.08
759.056	32597.66
759.394	32437.66
759.731	32281.96
760.068	32210.55
760.405	32126.26
