Data from red_shiny_book_FLMS001491_00024.txt Node
Date: Wed Feb 08 15:24:37 GMT 2017
User: dcchb
Spectrometer: FLMS00149
Trigger mode: 0
Integration Time (sec): 2.000000E-2
Scans to average: 10
Electric dark correction enabled: true
Nonlinearity correction enabled: false
Boxcar width: 0
XAxis mode: Wavelengths
Number of Pixels in Spectrum: 2048
>>>>>Begin Spectral Data<<<<<
341.393	-21.57
341.776	-21.57
342.16	-21.57
342.543	-67.67
342.927	-89.14
343.31	-70.83
343.693	-61.34
344.077	-49.36
344.46	-58.63
344.843	-52.53
345.226	-56.82
345.61	-17.05
345.993	-31.96
346.376	-15.24
346.759	21.37
347.142	29.5
347.525	39.9
347.908	49.84
348.291	68.15
348.674	95.94
349.057	109.05
349.44	112.89
349.823	136.39
350.206	187.24
350.588	194.47
350.971	228.82
351.354	233.12
351.737	265.66
352.119	264.53
352.502	276.73
352.884	291.19
353.267	294.13
353.65	292.77
354.032	295.26
354.414	306.33
354.797	336.84
355.179	324.64
355.562	336.84
355.944	340.46
356.326	351.3
356.709	339.33
357.091	355.37
357.473	347.24
357.855	354.47
358.238	351.08
358.62	352.21
359.002	358.76
359.384	365.54
359.766	343.39
360.148	332.1
360.53	340.91
360.912	318.54
361.294	349.27
361.676	344.75
362.057	333.9
362.439	354.92
362.821	340.46
363.203	330.74
363.584	342.72
363.966	342.49
364.348	325.54
364.729	338.65
365.111	325.77
365.493	328.25
365.874	344.07
366.256	332.55
366.637	327.12
367.019	298.88
367.4	314.02
367.781	335.49
368.163	343.39
368.544	316.5
368.925	312.66
369.306	335.49
369.688	330.06
370.069	324.41
370.45	338.65
370.831	325.32
371.212	327.58
371.593	316.95
371.974	319.21
372.355	342.49
372.736	349.72
373.117	335.94
373.498	347.69
373.879	330.51
374.26	329.61
374.641	306.11
375.021	328.03
375.402	347.24
375.783	332.32
376.163	369.16
376.544	344.75
376.925	315.83
377.305	343.85
377.686	334.36
378.066	337.75
378.447	361.7
378.827	307.46
379.208	337.07
379.588	347.69
379.968	356.73
380.349	336.16
380.729	351.3
381.109	355.6
381.489	327.35
381.87	339.78
382.25	393.11
382.63	357.18
383.01	382.04
383.39	370.96
383.77	362.15
384.15	372.09
384.53	357.63
384.91	364.19
385.29	357.86
385.67	372.55
386.049	361.7
386.429	380.46
386.809	371.87
387.189	360.57
387.568	375.03
387.948	372.55
388.328	397.4
388.707	391.98
389.087	398.31
389.466	380.46
389.846	388.14
390.225	407.57
390.605	390.17
390.984	397.86
391.363	391.3
391.743	391.53
392.122	423.62
392.501	388.37
392.881	397.18
393.26	391.76
393.639	408.48
394.018	413.22
394.397	423.84
394.776	396.5
395.155	410.74
395.534	405.31
395.913	420
396.292	403.51
396.671	443.73
397.05	425.65
397.429	418.2
397.808	417.97
398.186	422.94
398.565	428.82
398.944	408.48
399.323	407.12
399.701	414.58
400.08	409.61
400.458	436.27
400.837	454.13
401.215	433.34
401.594	434.24
401.972	439.21
402.351	440.12
402.729	462.49
403.107	424.75
403.486	457.74
403.864	470.62
404.242	467.01
404.62	455.71
404.999	456.16
405.377	464.07
405.755	464.97
406.133	476.5
406.511	459.32
406.889	458.19
407.267	463.39
407.645	486.89
408.023	492.54
408.401	496.16
408.779	503.84
409.156	521.92
409.534	522.37
409.912	503.39
410.29	500.45
410.667	536.61
411.045	512.43
411.422	532.09
411.8	542.03
412.178	562.82
412.555	538.19
412.933	540.45
413.31	539.32
413.687	558.98
414.065	552.65
414.442	561.92
414.819	574.35
415.197	578.19
415.574	599.43
415.951	581.81
416.328	597.63
416.705	610.51
417.082	589.26
417.46	591.75
417.837	618.42
418.214	606.21
418.591	618.19
418.967	616.83
419.344	603.05
419.721	651.41
420.098	654.12
420.475	652.54
420.852	661.58
421.228	659.32
421.605	672.65
421.982	650.96
422.358	664.97
422.735	688.02
423.111	641.47
423.488	670.62
423.864	688.47
424.241	728.02
424.617	735.02
424.994	694.12
425.37	744.74
425.746	710.62
426.123	707.68
426.499	733.89
426.875	703.16
427.251	727.57
427.627	765.3
428.003	753.78
428.379	763.27
428.756	766.89
429.132	766.43
429.507	803.95
429.883	774.57
430.259	784.06
430.635	784.06
431.011	795.13
431.387	806.43
431.763	844.62
432.138	844.4
432.514	845.08
432.89	859.99
433.265	855.92
433.641	895.47
434.016	897.73
434.392	874.68
434.767	877.84
435.143	881.69
435.518	868.8
435.894	879.88
436.269	883.72
436.644	899.09
437.02	936.37
437.395	974.11
437.77	968.69
438.145	1005.75
438.52	973.66
438.895	992.19
439.271	959.88
439.646	975.69
440.021	972.76
440.395	967.33
440.77	977.5
441.145	972.76
441.52	1040.33
441.895	1037.61
442.27	1052.98
442.645	1058.4
443.019	1076.71
443.394	1039.42
443.769	1023.83
444.143	1031.74
444.518	1006.88
444.892	1006.65
445.267	1034.68
445.641	1047.78
446.016	1092.08
446.39	1139.31
446.764	1148.57
447.139	1129.59
447.513	1149.7
447.887	1137.95
448.262	1122.81
448.636	1074.22
449.01	1096.6
449.384	1095.69
449.758	1124.84
450.132	1144.96
450.506	1133.43
450.88	1155.8
451.254	1184.5
451.628	1209.59
452.002	1210.26
452.376	1232.86
452.75	1244.84
453.123	1244.39
453.497	1198.06
453.871	1195.8
454.244	1198.74
454.618	1219.76
454.992	1233.09
455.365	1274.22
455.739	1296.82
456.112	1314.22
456.486	1350.15
456.859	1370.03
457.232	1363.03
457.606	1349.24
457.979	1334.33
458.352	1359.19
458.725	1334.1
459.099	1285.29
459.472	1339.98
459.845	1330.94
460.218	1399.64
460.591	1420.2
460.964	1454.1
461.337	1481.9
461.71	1499.75
462.083	1531.16
462.456	1532.29
462.829	1495.68
463.201	1491.84
463.574	1477.6
463.947	1461.56
464.32	1463.82
464.692	1461.33
465.065	1510.14
465.438	1565.74
465.81	1596.92
466.183	1669.69
466.555	1680.76
466.928	1704.72
467.3	1728.67
467.672	1737.26
468.045	1712.17
468.417	1699.07
468.789	1673.08
469.161	1684.38
469.534	1658.39
469.906	1708.56
470.278	1761.21
470.65	1774.32
471.022	1855.9
471.394	1904.26
471.766	1964.37
472.138	1948.32
472.51	1989.68
472.882	1998.27
473.253	1978.15
473.625	2001.2
473.997	1963.92
474.369	1966.63
474.74	1947.87
475.112	1974.09
475.484	2055.44
475.855	2128.43
476.227	2159.39
476.598	2255.66
476.97	2289.78
477.341	2342.89
477.713	2423.11
478.084	2395.77
478.455	2433.51
478.827	2417.01
479.198	2405.04
479.569	2369.56
479.94	2406.17
480.311	2374.98
480.682	2445.71
481.053	2520.29
481.424	2598.93
481.795	2728.87
482.166	2763.44
482.537	2861.75
482.908	2926.6
483.279	2969.77
483.65	2992.36
484.021	3012.7
484.391	2999.82
484.762	2965.47
485.133	2963.21
485.503	2919.37
485.874	2942.2
486.244	2981.97
486.615	3082.76
486.985	3201.62
487.356	3323.2
487.726	3383.77
488.097	3486.59
488.467	3580.82
488.837	3678.45
489.207	3668.96
489.578	3696.08
489.948	3610.65
490.318	3642.97
490.688	3545.57
491.058	3588.51
491.428	3599.35
491.798	3643.87
492.168	3701.5
492.538	3800.03
492.908	3909.4
493.278	4035.5
493.648	4173.58
494.017	4256.06
494.387	4292.67
494.757	4363.18
495.126	4377.87
495.496	4314.14
495.866	4255.83
496.235	4209.06
496.605	4174.03
496.974	4161.83
497.344	4099.23
497.713	4155.05
498.082	4259.9
498.452	4332.89
498.821	4444.3
499.19	4588.48
499.559	4717.97
499.928	4786.67
500.298	4899.43
500.667	4924.74
501.036	4866.21
501.405	4851.07
501.774	4739.21
502.143	4711.87
502.512	4604.75
502.88	4567.46
503.249	4529.05
503.618	4525.43
503.987	4599.1
504.356	4688.14
504.724	4781.47
505.093	4906.21
505.462	5000.22
505.83	5153.89
506.199	5279.08
506.567	5305.75
506.936	5296.26
507.304	5361.79
507.672	5298.07
508.041	5196.6
508.409	5096.49
508.777	5020.33
509.145	4929.26
509.514	4907.57
509.882	4895.59
510.25	5013.55
510.618	5066.21
510.986	5194.57
511.354	5333.55
511.722	5560.43
512.09	5691.28
512.458	5732.86
512.826	5800.43
513.193	5797.71
513.561	5750.71
513.929	5706.64
514.297	5649.24
514.664	5516.82
515.032	5384.84
515.4	5337.84
515.767	5287.22
516.135	5319.99
516.502	5294.45
516.869	5435.69
517.237	5603.82
517.604	5722.46
517.972	5922.68
518.339	6083.36
518.706	6185.28
519.073	6190.47
519.44	6297.36
519.808	6313.86
520.175	6240.42
520.542	6125.39
520.909	6023.02
521.276	5825.28
521.643	5771.05
522.009	5733.54
522.376	5701.45
522.743	5727.21
523.11	5799.3
523.477	5952.96
523.843	6058.72
524.21	6318.83
524.577	6489
524.943	6648.77
525.31	6818.03
525.676	6902.09
526.043	7048.3
526.409	6946.39
526.776	6966.27
527.142	6817.8
527.508	6712.49
527.874	6605.38
528.241	6477.92
528.607	6434.08
528.973	6378.49
529.339	6378.49
529.705	6489
530.071	6570.58
530.437	6758.82
530.803	6981.19
531.169	7178.02
531.535	7412.59
531.901	7488.97
532.267	7669.76
532.632	7773.03
532.998	7850.99
533.364	7812.13
533.73	7745.91
534.095	7592.24
534.461	7425.02
534.826	7289.43
535.192	7114.52
535.557	7070.45
535.923	7080.84
536.288	7103.67
536.653	7166.49
537.019	7311.57
537.384	7481.06
537.749	7743.43
538.114	7939.35
538.479	8183.64
538.845	8375.5
539.21	8444.65
539.575	8522.16
539.94	8568.26
540.305	8519.23
540.67	8413.69
541.034	8253.92
541.399	8122.85
541.764	7928.96
542.129	7808.51
542.494	7787.27
542.858	7685.8
543.223	7688.51
543.587	7775.52
543.952	7859.58
544.316	8026.58
544.681	8262.28
545.045	8474.25
545.41	8742.95
545.774	8895.94
546.138	9056.61
546.503	9208.7
546.867	9167.57
547.231	9267.23
547.595	9147.46
547.959	9018.42
548.324	8856.84
548.688	8657.07
549.052	8475.16
549.416	8364.2
549.779	8233.81
550.143	8173.25
550.507	8177.77
550.871	8238.55
551.235	8272.23
551.599	8541.37
551.962	8639.67
552.326	8817.52
552.689	9100.45
553.053	9245.99
553.417	9448.47
553.78	9645.98
554.143	9606.43
554.507	9658.86
554.87	9625.18
555.234	9532.98
555.597	9377.28
555.96	9209.83
556.323	8987.91
556.686	8807.58
557.05	8664.31
557.413	8589.28
557.776	8528.94
558.139	8642.61
558.502	8666.34
558.865	8820.01
559.228	8985.65
559.59	9261.58
559.953	9423.83
560.316	9779.98
560.679	9860.66
561.041	10107.21
561.404	10276.47
561.767	10274.21
562.129	10155.11
562.492	10251.83
562.854	10059.98
563.217	9877.61
563.579	9653.66
563.941	9578.63
564.304	9371.63
564.666	9193.33
565.028	9073.33
565.39	9192.65
565.753	9210.51
566.115	9192.65
566.477	9431.97
566.839	9590.38
567.201	9817.72
567.563	10057.26
567.925	10380.87
568.287	10615.22
568.648	10682.11
569.01	10866.28
569.372	11021.08
569.734	10869.45
570.095	10916.9
570.457	10933.4
570.819	10781.76
571.18	10591.94
571.542	10455.22
571.903	10280.08
572.265	10084.16
572.626	9892.52
572.987	9805.52
573.349	9840.32
573.71	9971.84
574.071	9979.53
574.432	10188.11
574.794	10445.73
575.155	10696.34
575.516	10927.52
575.877	11329.09
576.238	11643.44
576.599	11887.05
576.96	12058.57
577.32	12290.88
577.681	12275.28
578.042	12380.82
578.403	12325.23
578.763	12238.45
579.124	12167.49
579.485	12143.08
579.845	11945.12
580.206	11813.38
580.566	11845.69
580.927	11871.91
581.287	11983.31
581.648	12159.13
582.008	12499.69
582.368	12743.07
582.728	13181.02
583.089	13473.67
583.449	14044.05
583.809	14516.13
584.169	15052.16
584.529	15525.14
584.889	16123.54
585.249	16565.79
585.609	16879.23
585.969	17351.08
586.329	17603.28
586.688	17932.99
587.048	18170.5
587.408	18359.42
587.768	18613.42
588.127	18740.2
588.487	18963.24
588.846	19321.2
589.206	19576.11
589.565	19978.13
589.925	20393.26
590.284	20921.61
590.643	21404.76
591.003	22111.18
591.362	22935.34
591.721	23383.92
592.08	24222.99
592.44	24984.33
592.799	25727.59
593.158	26405.76
593.517	27024.5
593.876	27787.42
594.235	28282.1
594.593	28715.98
594.952	29294.27
595.311	29508.05
595.67	29898.78
596.029	30376.5
596.387	30598.19
596.746	30951.18
597.104	31067.11
597.463	31423.26
597.822	31948.67
598.18	32187.76
598.538	32595.2
598.897	33261.63
599.255	33590.88
599.613	34740.46
599.972	35206.21
600.33	35866.53
600.688	36528.21
601.046	37224.23
601.404	37971.11
601.762	38601.37
602.12	39315.93
602.478	39839.76
602.836	40450.14
603.194	40510.02
603.552	40919.28
603.91	41071.82
604.268	41317.46
604.625	41560.84
604.983	41883.32
605.341	41853.72
605.698	42210.09
606.056	42212.58
606.413	42328.05
606.771	42827.02
607.128	43021.14
607.485	43118.77
607.843	43625.42
608.2	43937.5
608.557	44575.9
608.914	44763.24
609.272	45359.16
609.629	46022.42
609.986	46453.59
610.343	46763.42
610.7	47330.18
611.057	47571.31
611.414	47896.04
611.771	48224.62
612.127	48485.41
612.484	48572.64
612.841	48856.47
613.198	48688.79
613.554	48782.8
613.911	48993.87
614.267	48973.08
614.624	48901.89
614.98	48794.78
615.337	49153.41
615.693	48964.94
616.05	48945.51
616.406	49184.37
616.762	49243.8
617.118	49371.71
617.475	49423.69
617.831	49780.51
618.187	50157
618.543	50310.89
618.899	50664.11
619.255	50807.38
619.611	51097.99
619.967	51299.34
620.323	51549.96
620.678	51579.79
621.034	51679.22
621.39	51769.61
621.746	51825.66
622.101	52124.41
622.457	51829.5
622.812	51843.51
623.168	51907.46
623.523	51822.27
623.879	51840.35
624.234	51455.27
624.589	51541.37
624.945	51605.55
625.3	51515.83
625.655	51573.23
626.01	51507.25
626.365	51631.76
626.72	51526
627.075	51576.17
627.43	51816.39
627.785	51923.96
628.14	52067.01
628.495	52189.49
628.85	52308.58
629.205	52441.69
629.559	52699.76
629.914	52637.39
630.269	52748.8
630.623	52798.96
630.978	52798.74
631.332	52935.68
631.687	52942.46
632.041	52749.7
632.396	52724.39
632.75	52466.77
633.104	52394.23
633.459	52229.94
633.813	52126.44
634.167	52004.41
634.521	51899.55
634.875	51893.23
635.229	51686.68
635.583	51488.26
635.937	51466.8
636.291	51604.42
636.645	51663.85
636.999	51587.02
637.352	51857.29
637.706	51760.35
638.06	51984.07
638.413	52057.74
638.767	52047.57
639.121	52236.72
639.474	52236.27
639.828	52261.13
640.181	52411.63
640.534	52561.68
640.888	52441.46
641.241	52264.06
641.594	52256.83
641.947	52314.91
642.301	52126.67
642.654	52060.68
643.007	51949.95
643.36	51807.58
643.713	51552.9
644.066	51541.37
644.419	51244.2
644.771	50975.51
645.124	50538.23
645.477	50356.09
645.83	50174.85
646.182	50088.98
646.535	49903.67
646.888	50080.17
647.24	49961.75
647.593	50331.69
647.945	50274.51
648.298	50311.12
648.65	50283.55
649.002	50453.72
649.355	50683.31
649.707	50726.02
650.059	50961.95
650.411	51530.52
650.763	51482.84
651.115	51730.29
651.467	51572.78
651.819	51560.35
652.171	51422.73
652.523	51280.81
652.875	51301.6
653.227	50960.6
653.578	51060.71
653.93	50796.98
654.282	50627.5
654.633	50452.36
654.985	50357
655.337	50291.69
655.688	50286.71
656.039	50407.84
656.391	49966.95
656.742	49982.77
657.094	50246.26
657.445	50283.55
657.796	50258.92
658.147	50278.35
658.498	50404.9
658.849	50690.77
659.2	50564.45
659.551	50633.15
659.902	50860.48
660.253	51022.06
660.604	51009.63
660.955	50915.62
661.306	51091.21
661.656	50991.1
662.007	50926.7
662.358	51065.9
662.708	50930.09
663.059	50693.03
663.409	50474.96
663.76	50680.6
664.11	50485.81
664.461	50416.2
664.811	50309.09
665.161	50187.96
665.511	49870.45
665.862	49827.52
666.212	49898.25
666.562	49895.09
666.912	49716.79
667.262	49536
667.612	49626.62
667.962	49583.23
668.312	49618.26
668.662	49945.93
669.011	49915.2
669.361	49953.16
669.711	50160.39
670.06	50284
670.41	50221.18
670.76	50283.1
671.109	50582.07
671.459	50557.89
671.808	50512.47
672.157	50650.09
672.507	50515.41
672.856	50518.57
673.205	50516.99
673.554	50475.86
673.904	50288.97
674.253	50468.18
674.602	50113.61
674.951	49578.26
675.3	49245.39
675.649	49669.56
675.998	49599.73
676.346	49370.35
676.695	49308.89
677.044	49104.82
677.393	49044.49
677.741	48967.43
678.09	48828.67
678.438	48776.47
678.787	48957.71
679.135	48894.66
679.484	48668.45
679.832	48854.21
680.181	48765.4
680.529	49069.35
680.877	49022.79
681.225	49176.01
681.573	49405.38
681.922	49305.05
682.27	49328.77
682.618	49452.16
682.966	49472.95
683.314	49670.46
683.661	49494.64
684.009	49313.41
684.357	49242.67
684.705	49165.39
685.053	49079.97
685.4	49057.59
685.748	48736.92
686.095	48670.49
686.443	48332.19
686.79	48113.66
687.138	48089.26
687.485	47995.25
687.832	47511.19
688.18	47604.3
688.527	47269.84
688.874	47207.7
689.221	47124.99
689.568	46950.08
689.915	46911.89
690.262	46841.61
690.609	46739.01
690.956	46648.39
691.303	46822.85
691.65	46617.21
691.997	46780.59
692.344	46664.44
692.69	46796.86
693.037	46992.11
693.383	46684.1
693.73	47014.94
694.077	46922.28
694.423	46899.68
694.769	46981.04
695.116	46775.17
695.462	46884.77
695.808	46798.44
696.155	46665.57
696.501	46354.84
696.847	46173.6
697.193	45847.74
697.539	45944.46
697.885	45429.89
698.231	45304.25
698.577	45178.6
698.923	44960.53
699.269	44605.28
699.614	44347.66
699.96	44288
700.306	44047.56
700.651	43812.31
700.997	43599.21
701.342	43589.26
701.688	43423.39
702.033	43440.34
702.379	43353.56
702.724	43314.47
703.069	43411.42
703.415	43036.74
703.76	43067.7
704.105	43299.55
704.45	43353.34
704.795	43211.42
705.14	43310.17
705.485	43348.82
705.83	43165.77
706.175	43444.18
706.52	43346.56
706.865	43271.53
707.209	43306.79
707.554	43163.74
707.899	43227.01
708.243	42830.41
708.588	42852.79
708.932	42540.93
709.277	42457.09
709.621	42442.17
709.966	41953.6
710.31	42021.62
710.654	41530.33
710.998	41524.91
711.342	41398.36
711.687	41138.71
712.031	40875.21
712.375	40686.51
712.719	40585.95
713.063	40501.66
713.407	40573.07
713.75	40317.94
714.094	40302.8
714.438	40169.92
714.782	40305.51
715.125	40045.4
715.469	40320.65
715.812	40063.25
716.156	39993.2
716.499	40089.92
716.843	40370.59
717.186	40112.74
717.53	40462.11
717.873	40455.79
718.216	40375.79
718.559	40304.38
718.902	40186.64
719.246	40387.54
719.589	40348.67
719.932	40098.06
720.275	40246.75
720.617	40119.07
720.96	39948.91
721.303	40142.35
721.646	40006.31
721.989	39669.59
722.331	39583.49
722.674	39444.29
723.016	39267.57
723.359	39081.59
723.701	39029.38
724.044	38623.07
724.386	38281.15
724.729	38313.02
725.071	38196.86
725.413	37969.07
725.755	37926.36
726.097	37581.06
726.439	37551
726.782	37466.26
727.124	37684.11
727.465	37479.82
727.807	37610.66
728.149	37447.73
728.491	37422.87
728.833	37536.32
729.175	37513.94
729.516	37607.73
729.858	37657.22
730.199	37895.4
730.541	37759.81
730.882	37871.9
731.224	37945.34
731.565	37891.11
731.906	38052.46
732.248	37968.85
732.589	38057.43
732.93	37607.95
733.271	37788.29
733.612	37846.59
733.953	37735.18
734.294	37525.92
734.635	37338.35
734.976	37289.32
735.317	37194.86
735.658	37113.73
735.999	37091.13
736.339	36817.46
736.68	36712.16
737.021	36414.99
737.361	36057.26
737.702	36219.29
738.042	36066.3
738.383	35965.74
738.723	35868.79
739.063	35732.29
739.404	35730.49
739.744	35576.59
740.084	35394.9
740.424	35481.91
740.764	35454.79
741.104	35625.63
741.444	35448.01
741.784	35469.25
742.124	35523.03
742.464	35546.09
742.804	35538.85
743.143	35448.23
743.483	35764.84
743.823	35543.6
744.162	35694.33
744.502	35880.77
744.841	35844.16
745.181	36058.61
745.52	35808.23
745.86	35848
746.199	35821.33
746.538	35891.61
746.877	35927.54
747.216	35662.24
747.556	35645.07
747.895	35658.4
748.234	35547.44
748.573	35341.34
748.911	35223.61
749.25	35118.75
749.589	34866.55
749.928	34771.64
750.267	34777.07
750.605	34442.84
750.944	34356.29
751.283	34107.93
751.621	34047.82
751.96	33755.85
752.298	33618.68
752.636	33559.02
752.975	33472.47
753.313	33260.04
753.651	33290.55
753.989	33129.88
754.327	33090.78
754.666	32815.08
755.004	32983.44
755.342	33097.79
755.679	33152.25
756.017	32963.33
756.355	33051.46
756.693	32904.35
757.031	33147.5
757.368	32939.83
757.706	33116.54
758.044	32982.08
758.381	33116.09
758.719	32888.08
