Data from red_shiny_book_FLMS001491_00009.txt Node
Date: Wed Feb 08 15:23:34 GMT 2017
User: dcchb
Spectrometer: FLMS00149
Trigger mode: 0
Integration Time (sec): 2.000000E-2
Scans to average: 10
Electric dark correction enabled: true
Nonlinearity correction enabled: false
Boxcar width: 0
XAxis mode: Wavelengths
Number of Pixels in Spectrum: 2048
>>>>>Begin Spectral Data<<<<<
341.393	-29.91
341.776	-29.91
342.16	-29.91
342.543	-55.45
342.927	-56.13
343.31	-76.92
343.693	-60.42
344.077	-70.82
344.46	-62.91
344.843	-34.21
345.226	-57.48
345.61	-17.49
345.993	-9.35
346.376	-8.22
346.759	15.28
347.142	9.86
347.525	30.42
347.908	60.93
348.291	74.72
348.674	102.06
349.057	104.55
349.44	112
349.823	139.57
350.206	174.15
350.588	181.38
350.971	211.66
351.354	225.45
351.737	267.93
352.119	276.07
352.502	274.94
352.884	267.93
353.267	286.01
353.65	306.57
354.032	304.77
354.414	303.64
354.797	306.35
355.179	328.27
355.562	336.4
355.944	334.14
356.326	337.08
356.709	350.87
357.091	336.86
357.473	361.26
357.855	374.37
358.238	356.97
358.62	360.58
359.002	355.39
359.384	362.17
359.766	360.36
360.148	353.13
360.53	347.7
360.912	348.15
361.294	343.41
361.676	333.92
362.057	340.7
362.439	333.24
362.821	336.18
363.203	349.96
363.584	334.37
363.966	325.1
364.348	320.13
364.729	333.24
365.111	344.31
365.493	325.78
365.874	332.79
366.256	354.26
366.637	333.24
367.019	314.71
367.4	333.01
367.781	331.43
368.163	316.97
368.544	331.21
368.925	340.7
369.306	334.82
369.688	335.5
370.069	333.69
370.45	326.01
370.831	332.34
371.212	336.18
371.593	321.94
371.974	327.36
372.355	322.39
372.736	341.15
373.117	326.91
373.498	342.73
373.879	335.95
374.26	333.47
374.641	346.12
375.021	329.17
375.402	337.53
375.783	341.6
376.163	335.27
376.544	328.04
376.925	334.37
377.305	337.31
377.686	361.26
378.066	331.43
378.447	354.48
378.827	359
379.208	355.61
379.588	378.44
379.968	349.74
380.349	365.56
380.729	356.74
381.109	345.44
381.489	347.93
381.87	361.94
382.25	363.52
382.63	384.31
383.01	356.29
383.39	369.62
383.77	359.23
384.15	356.52
384.53	366.69
384.91	371.88
385.29	372.33
385.67	374.82
386.049	375.27
386.429	369.85
386.809	355.61
387.189	365.1
387.568	381.6
387.948	391.32
388.328	385.22
388.707	400.36
389.087	388.15
389.466	413.24
389.846	371.43
390.225	372.56
390.605	375.05
390.984	410.98
391.363	396.51
391.743	419.11
392.122	396.97
392.501	404.65
392.881	406.01
393.26	402.16
393.639	415.72
394.018	405.33
394.397	406.46
394.776	406.46
395.155	406.46
395.534	415.5
395.913	439.23
396.292	407.59
396.671	411.43
397.05	414.59
397.429	406.23
397.808	427.47
398.186	408.49
398.565	424.08
398.944	400.58
399.323	426.8
399.701	426.57
400.08	427.25
400.458	433.35
400.837	448.27
401.215	428.38
401.594	435.38
401.972	437.19
402.351	457.98
402.729	433.58
403.107	462.5
403.486	439.9
403.864	466.34
404.242	460.69
404.62	464.31
404.999	433.8
405.377	459.79
405.755	460.47
406.133	467.02
406.511	469.73
406.889	476.06
407.267	509.05
407.645	507.25
408.023	480.58
408.401	490.3
408.779	469.73
409.156	496.17
409.534	521.71
409.912	509.05
410.29	501.82
410.667	508.15
411.045	527.36
411.422	539.11
411.8	525.55
412.178	524.87
412.555	533.23
412.933	517.42
413.31	544.53
413.687	551.31
414.065	556.06
414.442	573.23
414.819	568.94
415.197	573.23
415.574	568.49
415.951	585.21
416.328	580.24
416.705	591.31
417.082	581.14
417.46	580.01
417.837	578.21
418.214	617.75
418.591	617.53
418.967	614.14
419.344	626.57
419.721	627.92
420.098	590.86
420.475	609.84
420.852	620.46
421.228	637.64
421.605	645.1
421.982	621.82
422.358	644.64
422.735	662.72
423.111	676.06
423.488	676.96
423.864	669.05
424.241	705.43
424.617	682.61
424.994	657.3
425.37	704.98
425.746	674.47
426.123	693.23
426.499	695.49
426.875	707.24
427.251	715.6
427.627	735.94
428.003	742.49
428.379	724.64
428.756	742.49
429.132	735.04
429.507	723.74
429.883	718.09
430.259	738.88
430.635	755.38
431.011	768.26
431.387	780.01
431.763	782.49
432.138	775.04
432.514	803.51
432.89	801.93
433.265	784.98
433.641	833.34
434.016	804.87
434.392	781.59
434.767	805.32
435.143	837.18
435.518	827.69
435.894	861.14
436.269	883.96
436.644	881.25
437.02	878.31
437.395	844.86
437.77	890.29
438.145	876.73
438.52	872.43
438.895	918.76
439.271	883.06
439.646	919.21
440.021	943.17
440.395	948.14
440.77	937.29
441.145	925.54
441.52	954.92
441.895	953.11
442.27	941.13
442.645	915.82
443.019	940
443.394	942.04
443.769	954.92
444.143	959.21
444.518	976.39
444.892	958.76
445.267	990.17
445.641	1002.6
446.016	1013.67
446.39	1020.23
446.764	997.4
447.139	972.55
447.513	1005.09
447.887	946.11
448.262	999.21
448.636	1006.89
449.01	1009.15
449.384	1040.79
449.758	1034.46
450.132	1071.53
450.506	1076.72
450.88	1045.54
451.254	1061.58
451.628	1049.83
452.002	1043.73
452.376	1036.5
452.75	1041.7
453.123	1036.5
453.497	1057.29
453.871	1123.95
454.244	1115.14
454.618	1112.43
454.992	1136.83
455.365	1129.83
455.739	1168.02
456.112	1147.23
456.486	1135.25
456.859	1109.04
457.232	1104.29
457.606	1094.12
457.979	1131.18
458.352	1144.74
458.725	1187
459.099	1201.01
459.472	1213.44
459.845	1256.61
460.218	1255.02
460.591	1245.31
460.964	1242.37
461.337	1217.96
461.71	1231.07
462.083	1247.34
462.456	1205.31
462.829	1241.46
463.201	1232.65
463.574	1280.56
463.947	1296.15
464.32	1315.13
464.692	1338.19
465.065	1394
465.438	1362.14
465.81	1383.83
466.183	1377.96
466.555	1355.13
466.928	1372.31
467.3	1359.2
467.672	1377.05
468.045	1393.32
468.417	1394.45
468.789	1416.15
469.161	1443.72
469.534	1476.03
469.906	1520.1
470.278	1554.22
470.65	1553.32
471.022	1566.43
471.394	1559.87
471.766	1549.93
472.138	1548.8
472.51	1554.9
472.882	1572.98
473.253	1567.56
473.625	1598.97
473.997	1645.52
474.369	1646.65
474.74	1688.23
475.112	1760.55
475.484	1788.12
475.855	1805.74
476.227	1855.91
476.598	1855.23
476.97	1841.45
477.341	1844.61
477.713	1815.23
478.084	1826.31
478.455	1840.09
478.827	1852.52
479.198	1882.58
479.569	1911.96
479.94	2034.44
480.311	2082.12
480.682	2139.52
481.053	2165.28
481.424	2210.7
481.795	2205.73
482.166	2221.1
482.537	2239.4
482.908	2219.29
483.279	2212.96
483.65	2218.16
484.021	2235.34
484.391	2278.73
484.762	2308.33
485.133	2370.47
485.503	2449.12
485.874	2487.76
486.244	2575.89
486.615	2646.17
486.985	2659.51
487.356	2718.71
487.726	2728.88
488.097	2697.02
488.467	2654.08
488.837	2670.81
489.207	2696.57
489.578	2680.3
489.948	2707.87
490.318	2754.87
490.688	2845.72
491.058	2920.06
491.428	3010.91
491.798	3051.59
492.168	3163.9
492.538	3206.38
492.908	3227.18
493.278	3220.62
493.648	3177.23
494.017	3196.22
494.387	3186.5
494.757	3155.99
495.126	3137.01
495.496	3104.47
495.866	3161.87
496.235	3192.6
496.605	3281.18
496.974	3355.53
497.344	3405.48
497.713	3506.72
498.082	3553.27
498.452	3623.32
498.821	3615.19
499.19	3623.55
499.559	3615.41
499.928	3595.98
500.298	3511.46
500.667	3497
501.036	3484.34
501.405	3455.42
501.774	3471.24
502.143	3481.63
502.512	3553.49
502.88	3636.43
503.249	3698.8
503.618	3804.33
503.987	3825.8
504.356	3944.67
504.724	3932.47
505.093	3926.82
505.462	3888.63
505.83	3896.31
506.199	3812.92
506.567	3776.99
506.936	3706.94
507.304	3727.05
507.672	3677.78
508.041	3722.08
508.409	3770.66
508.777	3855.18
509.145	3921.17
509.514	3990.77
509.882	4052.24
510.25	4144.44
510.618	4183.31
510.986	4190.31
511.354	4237.32
511.722	4190.54
512.09	4138.11
512.458	4056.76
512.826	4042.07
513.193	3933.15
513.561	3881.85
513.929	3920.72
514.297	3957.33
514.664	3988.51
515.032	4066.25
515.4	4156.19
515.767	4258.11
516.135	4327.71
516.502	4330.87
516.869	4475.5
517.237	4489.51
517.604	4416.52
517.972	4429.63
518.339	4386.24
518.706	4324.77
519.073	4241.84
519.44	4185.79
519.808	4181.05
520.175	4109.41
520.542	4133.82
520.909	4124.78
521.276	4223.31
521.643	4298.56
522.009	4407.71
522.376	4473.24
522.743	4583.75
523.11	4662.39
523.477	4793.01
523.843	4767.47
524.21	4823.52
524.577	4773.35
524.943	4698.55
525.31	4705.33
525.676	4602.96
526.043	4547.37
526.409	4508.95
526.776	4543.52
527.142	4504.43
527.508	4549.63
527.874	4615.39
528.241	4709.4
528.607	4887.92
528.973	4940.58
529.339	5113.45
529.705	5208.14
530.071	5322.26
530.437	5364.29
530.803	5390.51
531.169	5396.16
531.535	5332.43
531.901	5254.69
532.267	5211.3
532.632	5098.31
532.998	5081.14
533.364	5065.77
533.73	5040.23
534.095	5023.74
534.461	5118.65
534.826	5183.73
535.192	5269.38
535.557	5426.67
535.923	5543.27
536.288	5639.77
536.653	5773.55
537.019	5839.08
537.384	5969.93
537.749	5941.23
538.114	5963.83
538.479	5946.43
538.845	5829.59
539.21	5733.78
539.575	5670.95
539.94	5583.27
540.305	5551.41
540.67	5451.52
541.034	5524.74
541.399	5595.7
541.764	5624.4
542.129	5757.5
542.494	5906.2
542.858	6013.99
543.223	6156.36
543.587	6276.59
543.952	6388.67
544.316	6452.4
544.681	6466.86
545.045	6526.07
545.41	6462.8
545.774	6451.72
546.138	6360.43
546.503	6273.2
546.867	6178.74
547.231	6086.99
547.595	6035.69
547.959	5975.8
548.324	6007.21
548.688	6024.84
549.052	6077.72
549.416	6208.11
549.779	6228.23
550.143	6393.87
550.507	6610.81
550.871	6664.15
551.235	6779.62
551.599	6884.03
551.962	6851.26
552.326	6859.85
552.689	6855.33
553.053	6770.36
553.417	6742.34
553.78	6642.68
554.143	6531.95
554.507	6444.27
554.87	6342.8
555.234	6291.28
555.597	6227.32
555.96	6248.79
556.323	6302.8
556.686	6393.87
557.05	6580.31
557.413	6670.25
557.776	6814.65
558.139	6985.72
558.502	7111.14
558.865	7148.43
559.228	7253.74
559.59	7307.97
559.953	7409.89
560.316	7348.65
560.679	7209.9
561.041	7216.45
561.404	7029.33
561.767	6902.11
562.129	6808.55
562.492	6761.09
562.854	6666.18
563.217	6604.71
563.579	6686.75
563.941	6721.55
564.304	6787.31
564.666	6919.73
565.028	7073.4
565.39	7319.04
565.753	7409.89
566.115	7584.35
566.477	7678.13
566.839	7758.58
567.201	7823.89
567.563	7851.23
567.925	7861.18
568.287	7785.93
568.648	7672.93
569.01	7600.62
569.372	7524.92
569.734	7385.48
570.095	7258.26
570.457	7180.97
570.819	7226.84
571.18	7155.43
571.542	7229.33
571.903	7268.2
572.265	7399.95
572.626	7541.19
572.987	7698.02
573.349	7875.64
573.71	8114.28
574.071	8271.11
574.432	8422.97
574.794	8611.89
575.155	8678.56
575.516	8778.44
575.877	8797.42
576.238	8742.74
576.599	8769.18
576.96	8658.9
577.32	8654.83
577.681	8631.55
578.042	8527.83
578.403	8503.65
578.763	8552.46
579.124	8612.8
579.485	8764.43
579.845	8882.17
580.206	9076.74
580.566	9348.37
580.927	9605.54
581.287	9966.43
581.648	10266.31
582.008	10640.09
582.368	11024.71
582.728	11309.9
583.089	11681.64
583.449	11960.5
583.809	12272.36
584.169	12514.39
584.529	12773.14
584.889	13092.23
585.249	13113.02
585.609	13327.25
585.969	13629.84
586.329	13897.63
586.688	14158.64
587.048	14441.57
587.408	14691.05
587.768	15195.67
588.127	15597.02
588.487	16006.27
588.846	16737.33
589.206	17212.8
589.565	17807.81
589.925	18541.8
590.284	19034.22
590.643	19717.81
591.003	20321.41
591.362	21035.07
591.721	21398.9
592.08	21963.86
592.44	22650.17
592.799	23028.46
593.158	23487.43
593.517	23900.3
593.876	24107.98
594.235	24570.12
594.593	25022.76
594.952	25449.64
595.311	25616.64
595.67	26225.89
596.029	26865.88
596.387	27170.73
596.746	27850.93
597.104	28328.21
597.463	28802.77
597.822	29501.29
598.18	30106.24
598.538	30673.91
598.897	31506.66
599.255	31850.38
599.613	32990.46
599.972	33373.05
600.33	33901.62
600.688	34319.24
601.046	34944.99
601.404	35343.62
601.762	35830.16
602.12	36335.01
602.478	36608.44
602.836	36762.56
603.194	36969.56
603.552	37149.22
603.91	37430.57
604.268	37926.83
604.625	38113.49
604.983	38516.64
605.341	38624.89
605.698	39261.48
606.056	39762.49
606.413	40113.21
606.771	40637.04
607.128	41084.48
607.485	41349.56
607.843	41853.5
608.2	42586.59
608.557	43166.69
608.914	43354.71
609.272	43847.12
609.629	44124.86
609.986	44709.93
610.343	44742.92
610.7	45288.67
611.057	45115.11
611.414	45316.92
611.771	45515.1
612.127	45597.81
612.484	45621.54
612.841	45787.64
613.198	45844.81
613.554	45831.48
613.911	46068.53
614.267	46307.4
614.624	46332.93
614.98	46701.51
615.337	46976.08
615.693	47117.09
616.05	47356.64
616.406	47715.5
616.762	47818.09
617.118	48017.18
617.475	48498.08
617.831	48672.76
618.187	48932.41
618.543	49088.34
618.899	49410.82
619.255	49475.68
619.611	49369.01
619.967	49641.1
620.323	49727.42
620.678	49463.02
621.034	49469.12
621.39	49519.74
621.746	49411.27
622.101	49735.78
622.457	49435.23
622.812	49433.87
623.168	49583.02
623.523	49537.6
623.879	49616.01
624.234	49359.52
624.589	49705.73
624.945	49768.78
625.3	49997.02
625.655	50045.15
626.01	50276.56
626.365	50435.2
626.72	50584.35
627.075	50633.16
627.43	50731.24
627.785	50841.29
628.14	51029.53
628.495	51047.61
628.85	51044.67
629.205	50863.44
629.559	51191.11
629.914	50999.7
630.269	51039.48
630.623	50883.1
630.978	50658.47
631.332	50787.96
631.687	50682.42
632.041	50479.27
632.396	50445.59
632.75	50347.52
633.104	50164.7
633.459	50172.16
633.813	50201.31
634.167	50256.45
634.521	50267.97
634.875	50385.94
635.229	50362.43
635.583	50442.66
635.937	50447.4
636.291	50527.4
636.645	50706.38
636.999	50812.82
637.352	50828.64
637.706	50732.37
638.06	50929.88
638.413	50755.42
638.767	50686.04
639.121	50693.95
639.474	50540.96
639.828	50576.89
640.181	50562.88
640.534	50440.62
640.888	50385.48
641.241	49997.7
641.594	50042.22
641.947	50000.41
642.301	49817.36
642.654	49809
643.007	49738.04
643.36	49679.29
643.713	49704.37
644.066	49787.98
644.419	49607.42
644.771	49328.56
645.124	49034.33
645.477	49197.94
645.83	48922.92
646.182	48951.4
646.535	48944.39
646.888	49041.34
647.24	49125.18
647.593	49302.35
647.945	49344.15
648.298	49157.49
648.65	49141.9
649.002	48998.17
649.355	49255.8
649.707	49052.64
650.059	49143.48
650.411	49449.46
650.763	49371.05
651.115	49577.59
651.467	49425.28
651.819	49281.11
652.171	49201.79
652.523	49000.43
652.875	48897.84
653.227	48579.43
653.578	48955.24
653.93	48774.45
654.282	48689.26
654.633	48648.58
654.985	48651.07
655.337	48775.58
655.688	48726.32
656.039	49100.77
656.391	48776.03
656.742	48924.5
657.094	48987.78
657.445	49416.69
657.796	49367.88
658.147	49263.03
658.498	49324.95
658.849	49477.26
659.2	49384.15
659.551	49279.07
659.902	49522
660.253	49281.33
660.604	49368.56
660.955	49147.55
661.306	49157.04
661.656	48984.84
662.007	48814.45
662.358	48802.47
662.708	48586.66
663.059	48559.09
663.409	48196.16
663.76	48398.64
664.11	48367.91
664.461	48443.61
664.811	48344.41
665.161	48270.51
665.511	48204.3
665.862	48310.96
666.212	48423.05
666.562	48403.16
666.912	48444.29
667.262	48449.49
667.612	48508.92
667.962	48677.28
668.312	48586.66
668.662	48929.93
669.011	48915.24
669.361	48843.38
669.711	48940.55
670.06	48825.07
670.41	48785.98
670.76	48736.26
671.109	48783.04
671.459	48657.62
671.808	48569.94
672.157	48581.46
672.507	48240.91
672.856	48096.5
673.205	48104.19
673.554	48094.47
673.904	47929.73
674.253	47924.98
674.602	47792.56
674.951	47201.61
675.3	46902.18
675.649	47573.58
675.998	47448.39
676.346	47489.51
676.695	47602.96
677.044	47396.18
677.393	47584.43
677.741	47657.19
678.09	47676.85
678.438	47713.01
678.787	47794.36
679.135	47962.04
679.484	47773.57
679.832	47938.09
680.181	47691.32
680.529	47930.18
680.877	47810.18
681.225	47870.29
681.573	48087.69
681.922	47717.76
682.27	47673.24
682.618	47683.18
682.966	47494.71
683.314	47420.82
683.661	47247.94
684.009	46920.04
684.357	46894.95
684.705	46740.16
685.053	46663.55
685.4	46545.58
685.748	46094.52
686.095	46151.7
686.443	46046.39
686.79	46003.23
687.138	46013.17
687.485	45954.41
687.832	45661.09
688.18	45818.15
688.527	45695.44
688.874	45655.66
689.221	45612.95
689.568	45684.36
689.915	45692.73
690.262	45804.36
690.609	45820.41
690.956	45821.31
691.303	45774.08
691.65	45701.54
691.997	45669.45
692.344	45518.04
692.69	45476.01
693.037	45523.69
693.383	45226.97
693.73	45276.24
694.077	45072.4
694.423	45022.46
694.769	44640.78
695.116	44576.14
695.462	44490.5
695.808	44277.4
696.155	44178.19
696.501	43838.76
696.847	43719.9
697.193	43396.97
697.539	43359.23
697.885	42953.59
698.231	42754.5
698.577	42842.4
698.923	42663.65
699.269	42633.82
699.614	42444
699.96	42377.33
700.306	42365.35
700.651	42299.59
700.997	42208.07
701.342	42244.68
701.688	42272.48
702.033	42229.54
702.379	42211.23
702.724	42379.37
703.069	42336.88
703.415	42067.51
703.76	42136.89
704.105	42031.8
704.45	42139.15
704.795	41792.94
705.14	41765.14
705.485	41868.87
705.83	41626.62
706.175	41667.29
706.52	41434.08
706.865	41293.29
707.209	41081.09
707.554	40978.05
707.899	40985.96
708.243	40639.07
708.588	40449.25
708.932	40227.11
709.277	40158.86
709.621	40028.02
709.966	39635.48
710.31	39633
710.654	39316.17
710.998	39413.57
711.342	39237.08
711.687	39394.59
712.031	39161.6
712.375	39004.09
712.719	39026.23
713.063	39117.53
713.407	39270.75
713.75	39025.56
714.094	39178.55
714.438	39026.91
714.782	39156.4
715.125	39177.64
715.469	39244.53
715.812	39121.6
716.156	39004.09
716.499	39078.21
716.843	39143.07
717.186	38967.03
717.53	39141.03
717.873	39126.34
718.216	38964.31
718.559	38748.73
718.902	38481.16
719.246	38547.38
719.589	38353.03
719.932	38101.74
720.275	38165.69
720.617	37903.33
720.96	37765.7
721.303	37685.48
721.646	37560.51
721.989	37287.75
722.331	37247.52
722.674	37174.53
723.016	37110.58
723.359	36973.86
723.701	36938.61
724.044	36606.41
724.386	36566.41
724.729	36695.9
725.071	36641.66
725.413	36597.82
725.755	36563.93
726.097	36520.54
726.439	36312.86
726.782	36509.01
727.124	36720.08
727.465	36483.25
727.807	36506.3
728.149	36434.21
728.491	36444.83
728.833	36663.58
729.175	36575
729.516	36479.18
729.858	36476.7
730.199	36592.4
730.541	36502.91
730.882	36466.53
731.224	36572.96
731.565	36262.69
731.906	36228.79
732.248	36116.03
732.589	36157.16
732.93	35938.18
733.271	35835.36
733.612	35762.59
733.953	35684.17
734.294	35317.18
734.635	35294.13
734.976	35223.4
735.317	35024.53
735.658	34919
735.999	34816.17
736.339	34672
736.68	34760.36
737.021	34507.48
737.361	34467.03
737.702	34631.1
738.042	34496.86
738.383	34468.39
738.723	34537.31
739.063	34417.32
739.404	34515.62
739.744	34432.91
740.084	34423.64
740.424	34600.14
740.764	34525.56
741.104	34704.99
741.444	34559.46
741.784	34442.17
742.124	34566.46
742.464	34598.55
742.804	34611.21
743.143	34547.26
743.483	34660.25
743.823	34414.38
744.162	34470.42
744.502	34508.84
744.841	34280.82
745.181	34447.37
745.52	34163.76
745.86	34140.03
746.199	34041.28
746.538	33888.29
746.877	33963.09
747.216	33867.05
747.556	33632.03
747.895	33398.36
748.234	33342.77
748.573	33276.1
748.911	33129.44
749.25	33072.72
749.589	32847.19
749.928	32823.68
750.267	32815.32
750.605	32596.8
750.944	32608.55
751.283	32415.11
751.621	32530.59
751.96	32315
752.298	32326.52
752.636	32269.35
752.975	32262.8
753.313	32196.36
753.651	32282.23
753.989	32091.05
754.327	32086.98
754.666	32062.58
755.004	32149.58
755.342	32213.53
755.679	32292.4
756.017	32089.24
756.355	32134.66
756.693	32182.35
757.031	32263.47
757.368	31940.54
757.706	32024.16
758.044	31915.46
758.381	31965.63
758.719	31663.04
759.056	31686.54
759.394	31720.44
759.731	31345.08
760.068	31342.37
