Data from red_cardboard_box_FLMS001491_00076.txt Node
Date: Wed Feb 08 11:33:06 GMT 2017
User: dcchb
Spectrometer: FLMS00149
Trigger mode: 0
Integration Time (sec): 2.000000E-2
Scans to average: 10
Electric dark correction enabled: true
Nonlinearity correction enabled: false
Boxcar width: 0
XAxis mode: Wavelengths
Number of Pixels in Spectrum: 2048
>>>>>Begin Spectral Data<<<<<
341.393	-34.77
341.776	-34.77
342.16	-34.77
342.543	-38.61
342.927	-76.81
343.31	-61.67
343.693	-77.26
344.077	-46.75
344.46	-80.87
344.843	-55.34
345.226	-30.71
345.61	-42
345.993	-16.92
346.376	-4.49
346.759	10.42
347.142	35.96
347.525	60.37
347.908	38.9
348.291	61.04
348.674	86.58
349.057	122.74
349.44	137.65
349.823	164.77
350.206	150.76
350.588	201.6
350.971	211.55
351.354	239.57
351.737	216.97
352.119	244.99
352.502	272.11
352.884	266.24
353.267	294.71
353.65	284.31
354.032	294.03
354.414	333.8
354.797	291.77
355.179	304.88
355.562	328.38
355.944	321.38
356.326	331.09
356.709	339.91
357.091	308.95
357.473	330.87
357.855	342.17
358.238	330.64
358.62	356.86
359.002	326.8
359.384	339.45
359.766	334.03
360.148	338.32
360.53	326.57
360.912	329.74
361.294	315.73
361.676	335.16
362.057	329.74
362.439	329.96
362.821	333.58
363.203	304.65
363.584	311.66
363.966	314.37
364.348	323.18
364.729	321.6
365.111	328.61
365.493	326.35
365.874	314.6
366.256	298.1
366.637	309.4
367.019	327.7
367.4	311.66
367.781	304.2
368.163	295.16
368.544	317.76
368.925	307.36
369.306	300.13
369.688	329.74
370.069	307.14
370.45	294.48
370.831	316.86
371.212	329.06
371.593	292.45
371.974	301.94
372.355	289.74
372.736	314.37
373.117	322.51
373.498	301.04
373.879	311.66
374.26	323.64
374.641	311.88
375.021	320.47
375.402	315.73
375.783	340.13
376.163	329.06
376.544	316.63
376.925	297.87
377.305	325.22
377.686	324.31
378.066	323.18
378.447	329.51
378.827	305.1
379.208	311.43
379.588	340.36
379.968	326.35
380.349	293.13
380.729	316.63
381.109	331.32
381.489	322.73
381.87	321.6
382.25	322.96
382.63	326.8
383.01	332
383.39	317.76
383.77	336.29
384.15	329.06
384.53	328.38
384.91	323.86
385.29	357.53
385.67	321.83
386.049	336.52
386.429	333.35
386.809	346.69
387.189	336.74
387.568	332.9
387.948	329.29
388.328	330.64
388.707	348.04
389.087	339
389.466	353.69
389.846	333.13
390.225	351.43
390.605	339.91
390.984	340.13
391.363	341.94
391.743	341.71
392.122	346.91
392.501	361.6
392.881	349.4
393.26	344.43
393.639	339.68
394.018	354.37
394.397	343.3
394.776	360.24
395.155	361.83
395.534	325.9
395.913	356.4
396.292	343.07
396.671	351.66
397.05	361.15
397.429	353.92
397.808	360.47
398.186	353.24
398.565	344.88
398.944	361.15
399.323	365.67
399.701	365.89
400.08	355.05
400.458	346.46
400.837	381.94
401.215	383.07
401.594	380.13
401.972	377.42
402.351	366.35
402.729	355.73
403.107	378.78
403.486	386.46
403.864	375.16
404.242	387.81
404.62	370.64
404.999	369.06
405.377	369.74
405.755	356.86
406.133	389.62
406.511	383.75
406.889	374.93
407.267	403.63
407.645	401.83
408.023	406.8
408.401	372.45
408.779	366.57
409.156	374.71
409.534	386.68
409.912	408.61
410.29	413.35
410.667	390.3
411.045	399.79
411.422	388.94
411.8	390.07
412.178	384.42
412.555	402.5
412.933	407.02
413.31	391.43
413.687	383.52
414.065	400.47
414.442	404.09
414.819	403.86
415.197	389.4
415.574	408.38
415.951	425.55
416.328	420.36
416.705	440.02
417.082	435.95
417.46	430.98
417.837	413.58
418.214	412.45
418.591	418.55
418.967	406.57
419.344	421.26
419.721	411.99
420.098	422.62
420.475	431.43
420.852	432.79
421.228	429.85
421.605	395.95
421.982	432.79
422.358	429.4
422.735	445.44
423.111	449.96
423.488	442.5
423.864	433.92
424.241	445.89
424.617	434.82
424.994	420.13
425.37	448.15
425.746	447.47
426.123	470.52
426.499	445.89
426.875	442.5
427.251	470.07
427.627	442.05
428.003	461.94
428.379	457.42
428.756	468.72
429.132	459.9
429.507	452.22
429.883	478.21
430.259	466.68
430.635	465.33
431.011	478.66
431.387	477.98
431.763	486.12
432.138	501.71
432.514	482.5
432.89	485.21
433.265	510.75
433.641	492.9
434.016	510.52
434.392	504.42
434.767	484.76
435.143	491.09
435.518	525.44
435.894	494.93
436.269	500.13
436.644	510.98
437.02	508.26
437.395	525.21
437.77	542.39
438.145	532.22
438.52	550.3
438.895	524.53
439.271	543.06
439.646	517.75
440.021	550.75
440.395	516.4
440.77	520.92
441.145	540.35
441.52	535.38
441.895	525.44
442.27	556.17
442.645	544.42
443.019	550.75
443.394	553.01
443.769	561.37
444.143	531.09
444.518	560.69
444.892	546.23
445.267	567.24
445.641	543.29
446.016	577.19
446.39	551.65
446.764	562.73
447.139	580.8
447.513	583.29
447.887	595.04
448.262	569.28
448.636	559.34
449.01	580.58
449.384	581.93
449.758	590.97
450.132	574.7
450.506	590.52
450.88	572.44
451.254	592.78
451.628	586.91
452.002	589.84
452.376	604.76
452.75	592.78
453.123	590.75
453.497	616.74
453.871	600.69
454.244	613.8
454.618	638.2
454.992	620.35
455.365	627.13
455.739	642.05
456.112	640.01
456.486	618.77
456.859	637.07
457.232	637.07
457.606	637.98
457.979	646.56
458.352	644.31
458.725	651.08
459.099	656.51
459.472	659.67
459.845	680.91
460.218	673.91
460.591	657.19
460.964	666.9
461.337	687.24
461.71	683.85
462.083	692.89
462.456	699.9
462.829	690.63
463.201	698.77
463.574	698.77
463.947	716.85
464.32	719.11
464.692	717.75
465.065	725.66
465.438	741.25
465.81	731.76
466.183	758.65
466.555	733.34
466.928	742.83
467.3	762.72
467.672	749.16
468.045	770.86
468.417	753.45
468.789	765.66
469.161	769.5
469.534	792.78
469.906	797.07
470.278	789.61
470.65	810.18
471.022	810.63
471.394	825.09
471.766	810.85
472.138	828.71
472.51	844.98
472.882	849.95
473.253	847.92
473.625	862.6
473.997	877.07
474.369	878.42
474.74	899.44
475.112	884.98
475.484	931.3
475.855	914.13
476.227	925.43
476.598	922.49
476.97	915.26
477.341	937.63
477.713	962.49
478.084	963.62
478.455	980.79
478.827	976.27
479.198	1006.78
479.569	998.42
479.94	1014.69
480.311	1043.84
480.682	1064.18
481.053	1056.27
481.424	1057.63
481.795	1051.98
482.166	1081.36
482.537	1105.99
482.908	1115.93
483.279	1127.23
483.65	1148.25
484.021	1154.35
484.391	1162.94
484.762	1183.27
485.133	1193.67
485.503	1216.49
485.874	1189.15
486.244	1208.36
486.615	1249.26
486.985	1232.09
487.356	1276.83
487.726	1297.85
488.097	1305.98
488.467	1286.55
488.837	1325.64
489.207	1339.88
489.578	1356.83
489.948	1360.22
490.318	1360.44
490.688	1355.7
491.058	1402.93
491.428	1421.01
491.798	1416.94
492.168	1464.62
492.538	1439.76
492.908	1457.62
493.278	1493.1
493.648	1492.42
494.017	1502.14
494.387	1496.03
494.757	1559.76
495.126	1538.29
495.496	1515.47
495.866	1562.02
496.235	1534
496.605	1590.49
496.974	1600.44
497.344	1586.2
497.713	1602.25
498.082	1605.86
498.452	1595.92
498.821	1631.62
499.19	1641.57
499.559	1640.89
499.928	1675.92
500.298	1670.49
500.667	1687.22
501.036	1704.16
501.405	1710.04
501.774	1698.97
502.143	1717.05
502.512	1722.02
502.88	1734.9
503.249	1750.72
503.618	1762.02
503.987	1749.36
504.356	1810.15
504.724	1764.73
505.093	1801.79
505.462	1806.53
505.83	1820.32
506.199	1830.26
506.567	1834.1
506.936	1864.16
507.304	1875.01
507.672	1872.52
508.041	1890.37
508.409	1911.16
508.777	1919.98
509.145	1920.88
509.514	1938.06
509.882	1938.73
510.25	1981.45
510.618	1981.9
510.986	1969.24
511.354	1995.91
511.722	2017.15
512.09	2045.4
512.458	2012.18
512.826	2018.73
513.193	2031.84
513.561	2077.04
513.929	2098.28
514.297	2105.06
514.664	2121.78
515.032	2126.3
515.4	2133.98
515.767	2117.26
516.135	2128.11
516.502	2184.6
516.869	2190.93
517.237	2164.94
517.604	2213.76
517.972	2244.94
518.339	2275.9
518.706	2213.08
519.073	2267.99
519.44	2280.42
519.808	2284.49
520.175	2297.37
520.542	2342.34
520.909	2330.36
521.276	2332.85
521.643	2364.26
522.009	2362.68
522.376	2406.52
522.743	2434.54
523.11	2411.04
523.477	2462.11
523.843	2433.18
524.21	2528.55
524.577	2522.67
524.943	2498.72
525.31	2541.43
525.676	2575.78
526.043	2569.45
526.409	2626.4
526.776	2625.04
527.142	2632.5
527.508	2666.4
527.874	2634.31
528.241	2701.65
528.607	2688.55
528.973	2687.87
529.339	2702.33
529.705	2739.39
530.071	2761.54
530.437	2798.82
530.803	2746.62
531.169	2801.08
531.535	2807.41
531.901	2820.52
532.267	2839.5
532.632	2879.73
532.998	2868.43
533.364	2886.73
533.73	2908.88
534.095	2929.67
534.461	2968.76
534.826	2937.13
535.192	2990.68
535.557	3032.72
535.923	3003.79
536.288	2993.62
536.653	2994.53
537.019	3045.37
537.384	3048.08
537.749	3081.98
538.114	3098.03
538.479	3074.3
538.845	3100.74
539.21	3085.6
539.575	3136.89
539.94	3147.52
540.305	3132.38
540.67	3147.29
541.034	3202.88
541.399	3166.05
541.764	3203.56
542.129	3199.94
542.494	3217.12
542.858	3228.87
543.223	3262.99
543.587	3309.77
543.952	3287.17
544.316	3298.02
544.681	3328.3
545.045	3329.43
545.41	3319.71
545.774	3333.27
546.138	3404.23
546.503	3363.33
546.867	3385.25
547.231	3392.93
547.595	3460.73
547.959	3458.47
548.324	3461.18
548.688	3461.41
549.052	3524.46
549.416	3504.12
549.779	3500.95
550.143	3544.79
550.507	3590.67
550.871	3613.72
551.235	3621.63
551.599	3631.8
551.962	3662.53
552.326	3672.7
552.689	3692.81
553.053	3707.05
553.417	3695.52
553.78	3761.96
554.143	3770.32
554.507	3796.99
554.87	3789.53
555.234	3893.03
555.597	3839.02
555.96	3866.37
556.323	3908.85
556.686	3948.4
557.05	3952.69
557.413	3973.94
557.776	3973.71
558.139	4002.86
558.502	4057.32
558.865	4060.03
559.228	4107.26
559.59	4157.89
559.953	4213.48
560.316	4193.59
560.679	4208.51
561.041	4244.89
561.404	4304.55
561.767	4331.89
562.129	4349.97
562.492	4414.38
562.854	4410.99
563.217	4406.69
563.579	4478.78
563.941	4513.13
564.304	4537.08
564.666	4605.33
565.028	4636.06
565.39	4684.88
565.753	4726.01
566.115	4728.72
566.477	4764.65
566.839	4808.26
567.201	4838.09
567.563	4911.54
567.925	4968.49
568.287	4961.93
568.648	5049.61
569.01	5016.85
569.372	5106.79
569.734	5149.5
570.095	5217.07
570.457	5295.93
570.819	5312.66
571.18	5265.43
571.542	5390.62
571.903	5417.96
572.265	5432.2
572.626	5514.23
572.987	5559.43
573.349	5598.75
573.71	5654.34
574.071	5706.77
574.432	5692.53
574.794	5881.23
575.155	5891.17
575.516	5885.75
575.877	5961.91
576.238	6040.77
576.599	6083.48
576.96	6086.87
577.32	6247.1
577.681	6292.52
578.042	6344.49
578.403	6453.64
578.763	6456.58
579.124	6572.74
579.485	6646.63
579.845	6739.96
580.206	6725.95
580.566	6856.8
580.927	6920.3
581.287	7008.66
581.648	7091.14
582.008	7181.08
582.368	7222.89
582.728	7361.87
583.089	7482.54
583.449	7542.43
583.809	7735.87
584.169	7842.76
584.529	7899.93
584.889	8076.65
585.249	8183.32
585.609	8186.93
585.969	8472.8
586.329	8553.25
586.688	8634.15
587.048	8848.38
587.408	8894.03
587.768	9029.62
588.127	9156.62
588.487	9346
588.846	9530.4
589.206	9636.39
589.565	9744.86
589.925	9957.05
590.284	10144.17
590.643	10310.94
591.003	10577.15
591.362	10755.68
591.721	10963.81
592.08	11145.27
592.44	11289.9
592.799	11472.04
593.158	11714.52
593.517	11930.34
593.876	12219.82
594.235	12369.42
594.593	12575.06
594.952	12821.16
595.311	13053.02
595.67	13302.96
596.029	13598.09
596.387	13853.9
596.746	14083.5
597.104	14255.92
597.463	14556.93
597.822	14842.8
598.18	14894.1
598.538	15296.35
598.897	15569.56
599.255	15702.89
599.613	16227.4
599.972	16341.52
600.33	16643.43
600.688	16835.74
601.046	17169.75
601.404	17445.67
601.762	17629.85
602.12	18009.72
602.478	18235.93
602.836	18414.01
603.194	18700.1
603.552	18936.48
603.91	19132.41
604.268	19473.19
604.625	19757.93
604.983	19972.84
605.341	20109.78
605.698	20427.74
606.056	20742.31
606.413	20871.12
606.771	21188.85
607.128	21448.05
607.485	21577.54
607.843	21785.9
608.2	22050.75
608.557	22347.24
608.914	22401.25
609.272	22806.43
609.629	23030.61
609.986	23262.24
610.343	23372.52
610.7	23643.02
611.057	23862.9
611.414	23945.84
611.771	24251.14
612.127	24436.9
612.484	24550.8
612.841	24779.04
613.198	24897
613.554	25039.6
613.911	25328.63
614.267	25513.03
614.624	25591.45
614.98	25757.54
615.337	26066.01
615.693	26026.69
616.05	26282.73
616.406	26442.95
616.762	26552.55
617.118	26679.33
617.475	26710.51
617.831	27062.14
618.187	27103.04
618.543	27321.57
618.899	27587.33
619.255	27612.41
619.611	27609.7
619.967	27784.38
620.323	27972.17
620.678	28012.17
621.034	27970.14
621.39	28090.59
621.746	28232.73
622.101	28675.21
622.457	28475.89
622.812	28580.75
623.168	28772.61
623.523	28758.82
623.879	28975.31
624.234	28868.2
624.589	28987.74
624.945	29167.17
625.3	29279.94
625.655	29335.75
626.01	29260.28
626.365	29353.15
626.72	29427.28
627.075	29450.78
627.43	29607.84
627.785	29434.96
628.14	29557.44
628.495	29689.19
628.85	29629.31
629.205	29679.93
629.559	30005.34
629.914	29850.32
630.269	29969.41
630.623	29933.48
630.978	29833.37
631.332	30168.5
631.687	30157.65
632.041	30007.37
632.396	30285.79
632.75	30111.33
633.104	30266.13
633.459	30068.16
633.813	30114.26
634.167	30098.45
634.521	30142.51
634.875	30194.49
635.229	30213.02
635.583	30110.65
635.937	30192.45
636.291	30082.18
636.645	30203.3
636.999	30115.17
637.352	30299.8
637.706	30073.59
638.06	30284.43
638.413	30164.88
638.767	30150.65
639.121	30324.2
639.474	30126.47
639.828	30181.61
640.181	30213.47
640.534	30306.12
640.888	30260.02
641.241	30039.01
641.594	30180.03
641.947	30316.75
642.301	30323.3
642.654	30338.67
643.007	30315.62
643.36	30269.51
643.713	30225.22
644.066	30460.7
644.419	30206.47
644.771	29915.85
645.124	29634.5
645.477	29539.82
645.83	29469.99
646.182	29432.02
646.535	29461.4
646.888	29616.2
647.24	29528.52
647.593	29526.94
647.945	29559.7
648.298	29387.28
648.65	29462.76
649.002	29474.73
649.355	29579.14
649.707	29508.4
650.059	29506.37
650.411	29975.06
650.763	30015.06
651.115	30319.46
651.467	30310.42
651.819	30250.31
652.171	30144.77
652.523	30144.77
652.875	30245.79
653.227	30168.95
653.578	30285.79
653.93	30173.47
654.282	30087.82
654.633	30014.15
654.985	30079.69
655.337	30150.42
655.688	30126.92
656.039	30227.48
656.391	29992.69
656.742	30016.64
657.094	30025
657.445	30126.47
657.796	30077.2
658.147	29965.57
658.498	30000.82
658.849	30050.99
659.2	30070.42
659.551	29886.7
659.902	30109.97
660.253	30144.77
660.604	30097.09
660.955	29956.75
661.306	29954.72
661.656	30077.2
662.007	29982.52
662.358	30034.72
662.708	30067.03
663.059	30043.08
663.409	29736.2
663.76	30121.95
664.11	30035.62
664.461	30049.18
664.811	29975.96
665.161	30089.86
665.511	29927.6
665.862	30096.41
666.212	30065
666.562	30145
666.912	30169.4
667.262	30104.1
667.612	30084.21
667.962	30036.75
668.312	30108.62
668.662	30056.41
669.011	30283.53
669.361	30129.18
669.711	30118.78
670.06	29991.78
670.41	30048.5
670.76	29991.78
671.109	30126.24
671.459	30046.24
671.808	29933.25
672.157	30019.58
672.507	29971.9
672.856	29803.31
673.205	29982.74
673.554	29935.51
673.904	29905.46
674.253	30018
674.602	29949.07
674.951	29589.76
675.3	29343.89
675.649	29810.32
675.998	29845.8
676.346	29833.82
676.695	29911.33
677.044	29651.23
677.393	29859.36
677.741	29733.94
678.09	29712.69
678.438	29674.05
678.787	29716.31
679.135	29728.29
679.484	29572.58
679.832	29644.22
680.181	29484
680.529	29600.61
680.877	29515.18
681.225	29421.63
681.573	29690.32
681.922	29350.44
682.27	29401.97
682.618	29467.28
682.966	29275.19
683.314	29430.44
683.661	29263.89
684.009	29201.29
684.357	29166.72
684.705	29039.72
685.053	29071.81
685.4	28958.36
685.748	28927.86
686.095	28828.87
686.443	28753.4
686.79	28828.2
687.138	28741.42
687.485	28792.94
687.832	28705.26
688.18	28668.43
688.527	28619.39
688.874	28517.47
689.221	28534.42
689.568	28495.55
689.915	28390.24
690.262	28469.34
690.609	28331.94
690.956	28201.09
691.303	28120.19
691.65	28142.57
691.997	28114.09
692.344	27926.3
692.69	27898.5
693.037	27914.1
693.383	27570.83
693.73	27787.32
694.077	27548.68
694.423	27662.58
694.769	27542.81
695.116	27501.23
695.462	27307.11
695.808	27291.51
696.155	27408.35
696.501	27129.26
696.847	27174.45
697.193	27029.15
697.539	27096.72
697.885	26991.18
698.231	26888.59
698.577	26837.29
698.923	26708.48
699.269	26698.31
699.614	26516.85
699.96	26538.31
700.306	26452.89
700.651	26384.42
700.997	26331.09
701.342	26342.16
701.688	26178.77
702.033	26121.6
702.379	26191.2
702.724	25980.14
703.069	26140.81
703.415	25838.22
703.76	25849.29
704.105	25889.52
704.45	25699.01
704.795	25661.05
705.14	25578.79
705.485	25622.86
705.83	25419.25
706.175	25538.57
706.52	25428.06
706.865	25369.08
707.209	25404.78
707.554	25127.05
707.899	25162.53
708.243	25179.25
708.588	25147.39
708.932	24945.14
709.277	25021.52
709.621	25027.62
709.966	24797.34
710.31	24827.85
710.654	24656.56
710.998	24726.84
711.342	24721.64
711.687	24708.76
712.031	24527.52
712.375	24445.04
712.719	24437.35
713.063	24416.56
713.407	24474.64
713.75	24333.63
714.094	24409.1
714.438	24208.43
714.782	24190.8
715.125	24181.31
715.469	24153.74
715.812	23999.17
716.156	23938.16
716.499	23903.35
716.843	24029
717.186	23829.23
717.53	23933.18
717.873	23878.72
718.216	23817.03
718.559	23838.72
718.902	23586.53
719.246	23775.67
719.589	23548.56
719.932	23521.9
720.275	23575.45
720.617	23552.4
720.96	23476.47
721.303	23434.89
721.646	23474.21
721.989	23285.52
722.331	23419.3
722.674	23400.32
723.016	23370.04
723.359	23286.42
723.701	23313.09
724.044	23119.19
724.386	23004.4
724.729	23139.53
725.071	23133.21
725.413	23231.06
725.755	23123.71
726.097	22974.11
726.439	22813.44
726.782	22870.84
727.124	22927.11
727.465	22835.81
727.807	22774.8
728.149	22816.15
728.491	22718.07
728.833	22777.06
729.175	22670.39
729.516	22701.8
729.858	22542.26
730.199	22700.45
730.541	22615.7
730.882	22516.72
731.224	22629.72
731.565	22446.22
731.906	22420
732.248	22493.67
732.589	22459.78
732.93	22342.04
733.271	22377.97
733.612	22394.69
733.953	22422.72
734.294	22318.99
734.635	22156.51
734.976	22294.13
735.317	22157.64
735.658	22114.25
735.999	22121.93
736.339	22026.79
736.68	22088.04
737.021	22082.39
737.361	21938.89
737.702	22075.83
738.042	22004.42
738.383	21978.21
738.723	21885.1
739.063	21778.21
739.404	21895.72
739.744	21674.71
740.084	21760.13
740.424	21818.66
740.764	21715.39
741.104	21842.39
741.444	21637.43
741.784	21627.03
742.124	21668.84
742.464	21666.35
742.804	21589.29
743.143	21621.15
743.483	21641.27
743.823	21490.99
744.162	21425.68
744.502	21583.19
744.841	21418.22
745.181	21521.5
745.52	21399.69
745.86	21424.78
746.199	21416.19
746.538	21334.16
746.877	21401.95
747.216	21388.84
747.556	21266.59
747.895	21243.76
748.234	21204.22
748.573	21146.36
748.911	21190.21
749.25	21091.9
749.589	21134.61
749.928	20989.98
750.267	21094.61
750.605	21158.79
750.944	20984.34
751.283	20886.71
751.621	21001.96
751.96	20760.16
752.298	20813.72
752.636	20843.55
752.975	20735.53
753.313	20583.44
753.651	20779.82
753.989	20629.77
754.327	20616.89
754.666	20489.43
755.004	20423.9
755.342	20457.57
755.679	20469.55
756.017	20334.63
756.355	20434.75
756.693	20350.68
757.031	20368.98
757.368	20217.58
757.706	20207.18
758.044	20131.48
758.381	20294.18
758.719	20074.75
759.056	20101.87
759.394	20072.49
759.731	19985.94
760.068	19939.84
760.405	19885.16
760.743	19817.36
761.08	19863.69
761.417	19692.84
761.754	19683.8
762.091	19603.58
762.428	19618.95
