Data from red_cardboard_box_FLMS001491_00054.txt Node
Date: Wed Feb 08 11:32:46 GMT 2017
User: dcchb
Spectrometer: FLMS00149
Trigger mode: 0
Integration Time (sec): 2.000000E-2
Scans to average: 10
Electric dark correction enabled: true
Nonlinearity correction enabled: false
Boxcar width: 0
XAxis mode: Wavelengths
Number of Pixels in Spectrum: 2048
>>>>>Begin Spectral Data<<<<<
341.393	5.58
341.776	5.58
342.16	5.58
342.543	-43.91
342.927	-55.66
343.31	-50.92
343.693	-59.05
344.077	-68.77
344.46	-54.76
344.843	-53.18
345.226	-49.33
345.61	-43.46
345.993	-17.7
346.376	-12.73
346.759	9.65
347.142	15.52
347.525	31.34
347.908	61.62
348.291	89.42
348.674	83.32
349.057	119.02
349.44	111.11
349.823	142.75
350.206	189.3
350.588	207.38
350.971	214.39
351.354	255.29
351.737	242.63
352.119	251
352.502	284.67
352.884	307.94
353.267	307.27
353.65	323.99
354.032	312.69
354.414	305.68
354.797	314.5
355.179	329.64
355.562	334.16
355.944	348.62
356.326	342.07
356.709	323.31
357.091	354.72
357.473	363.76
357.855	349.3
358.238	342.75
358.62	367.15
359.002	341.16
359.384	348.17
359.766	357.43
360.148	344.78
360.53	349.75
360.912	340.26
361.294	351.33
361.676	349.98
362.057	320.82
362.439	333.71
362.821	350.43
363.203	338
363.584	339.13
363.966	309.98
364.348	326.93
364.729	340.94
365.111	341.16
365.493	331.45
365.874	316.31
366.256	299.36
366.637	324.67
367.019	343.65
367.4	329.41
367.781	318.11
368.163	307.49
368.544	310.43
368.925	334.61
369.306	313.14
369.688	313.37
370.069	316.98
370.45	328.06
370.831	331.67
371.212	319.92
371.593	319.92
371.974	336.64
372.355	312.92
372.736	313.82
373.117	330.77
373.498	328.06
373.879	321.73
374.26	303.42
374.641	310.2
375.021	332.58
375.402	312.92
375.783	322.41
376.163	304.33
376.544	328.06
376.925	335.29
377.305	341.39
377.686	319.69
378.066	307.49
378.447	327.15
378.827	332.58
379.208	340.94
379.588	345.01
379.968	326.25
380.349	323.99
380.729	345.01
381.109	331.45
381.489	329.86
381.87	369.41
382.25	342.29
382.63	336.87
383.01	343.2
383.39	342.07
383.77	339.36
384.15	359.24
384.53	348.17
384.91	349.52
385.29	354.95
385.67	351.11
386.049	359.47
386.429	342.29
386.809	349.07
387.189	343.2
387.568	341.16
387.948	373.03
388.328	361.5
388.707	352.24
389.087	361.95
389.466	370.32
389.846	366.02
390.225	342.97
390.605	371.9
390.984	353.59
391.363	371.9
391.743	368.96
392.122	361.73
392.501	390.2
392.881	372.57
393.26	367.15
393.639	373.48
394.018	349.52
394.397	364.67
394.776	384.55
395.155	394.27
395.534	372.35
395.913	374.83
396.292	388.17
396.671	392.46
397.05	361.73
397.429	374.38
397.808	376.19
398.186	384.33
398.565	367.38
398.944	371.67
399.323	390.65
399.701	384.1
400.08	409.18
400.458	369.64
400.837	390.2
401.215	406.7
401.594	397.21
401.972	373.25
402.351	398.11
402.729	384.33
403.107	407.38
403.486	407.6
403.864	376.42
404.242	403.31
404.62	408.28
404.999	406.92
405.377	411.22
405.755	439.92
406.133	404.44
406.511	384.55
406.889	412.35
407.267	398.11
407.645	402.18
408.023	418.9
408.401	425.23
408.779	421.84
409.156	411.9
409.534	426.36
409.912	425.68
410.29	441.27
410.667	419.35
411.045	438.56
411.422	439.47
411.8	437.88
412.178	443.08
412.555	435.62
412.933	427.71
413.31	460.26
413.687	439.92
414.065	474.04
414.442	458.45
414.819	431.1
415.197	465.45
415.574	445.12
415.951	457.32
416.328	468.39
416.705	449.18
417.082	466.58
417.46	462.52
417.837	460.71
418.214	488.73
418.591	453.25
418.967	470.65
419.344	454.38
419.721	475.4
420.098	471.78
420.475	493.48
420.852	472.46
421.228	488.28
421.605	473.14
421.982	477.88
422.358	479.24
422.735	491.67
423.111	507.71
423.488	501.61
423.864	479.69
424.241	523.76
424.617	489.18
424.994	488.5
425.37	492.35
425.746	508.84
426.123	511.33
426.499	510.65
426.875	510.42
427.251	520.59
427.627	550.42
428.003	527.37
428.379	539.8
428.756	509.52
429.132	536.19
429.507	542.51
429.883	549.97
430.259	541.84
430.635	563.08
431.011	549.52
431.387	545.45
431.763	578.67
432.138	545.23
432.514	552.91
432.89	549.75
433.265	568.28
433.641	583.64
434.016	592.68
434.392	592.23
434.767	606.24
435.143	603.08
435.518	616.18
435.894	594.26
436.269	607.6
436.644	623.42
437.02	624.77
437.395	627.03
437.77	604.66
438.145	638.33
438.52	632.91
438.895	647.82
439.271	649.86
439.646	641.27
440.021	643.3
440.395	627.48
440.77	627.48
441.145	649.4
441.52	645.79
441.895	637.2
442.27	671.55
442.645	661.61
443.019	652.12
443.394	669.29
443.769	650.76
444.143	677.2
444.518	672.45
444.892	675.62
445.267	655.51
445.641	669.74
446.016	658.22
446.39	680.59
446.764	690.08
447.139	687.14
447.513	683.98
447.887	704.77
448.262	697.31
448.636	697.99
449.01	702.51
449.384	709.29
449.758	702.51
450.132	689.85
450.506	696.41
450.88	729.85
451.254	726.69
451.628	689.63
452.002	734.83
452.376	727.82
452.75	747.48
453.123	746.58
453.497	738.89
453.871	742.51
454.244	762.62
454.618	751.77
454.992	739.8
455.365	755.62
455.739	777.08
456.112	791.55
456.486	785.67
456.859	775.95
457.232	804.88
457.606	786.12
457.979	792.68
458.352	828.38
458.725	816.41
459.099	836.29
459.472	837.2
459.845	839.68
460.218	836.97
460.591	872.45
460.964	847.36
461.337	872.67
461.71	885.1
462.083	864.54
462.456	879.68
462.829	873.8
463.201	880.36
463.574	895.95
463.947	888.04
464.32	912.67
464.692	900.02
465.065	910.41
465.438	937.08
465.81	924.2
466.183	940.02
466.555	977.08
466.928	979.79
467.3	965.1
467.672	992.67
468.045	959.23
468.417	984.99
468.789	982.95
469.161	1007.36
469.534	1027.7
469.906	1004.65
470.278	1002.84
470.65	1040.13
471.022	1037.19
471.394	1069.28
471.766	1045.33
472.138	1072.67
472.51	1096.62
472.882	1143.4
473.253	1120.58
473.625	1122.61
473.997	1144.53
474.369	1163.51
474.74	1172.1
475.112	1164.64
475.484	1177.07
475.855	1200.12
476.227	1202.38
476.598	1216.17
476.97	1223.63
477.341	1285.55
477.713	1284.19
478.084	1263.62
478.455	1310.63
478.827	1333.45
479.198	1347.69
479.569	1358.09
479.94	1391.31
480.311	1402.15
480.682	1413.45
481.053	1397.86
481.424	1434.02
481.795	1429.27
482.166	1467.24
482.537	1495.94
482.908	1528.7
483.279	1544.07
483.65	1570.96
484.021	1571.87
484.391	1586.55
484.762	1609.6
485.133	1620.68
485.503	1619.32
485.874	1678.76
486.244	1668.81
486.615	1684.63
486.985	1719.21
487.356	1740.9
487.726	1778.41
488.097	1768.02
488.467	1801.24
488.837	1822.93
489.207	1844.17
489.578	1879.88
489.948	1886.43
490.318	1925.98
490.688	1939.31
491.058	1924.4
491.428	1937.51
491.798	1960.1
492.168	2003.72
492.538	2008.01
492.908	2048.01
493.278	2059.99
493.648	2065.64
494.017	2094.34
494.387	2094.11
494.757	2131.17
495.126	2131.62
495.496	2128.91
495.866	2162.36
496.235	2164.39
496.605	2188.12
496.974	2226.99
497.344	2235.58
497.713	2285.07
498.082	2259.98
498.452	2276.03
498.821	2280.32
499.19	2271.96
499.559	2352.18
499.928	2352.86
500.298	2362.13
500.667	2387.66
501.036	2394.67
501.405	2360.77
501.774	2408.23
502.143	2432.63
502.512	2438.96
502.88	2498.39
503.249	2513.54
503.618	2520.54
503.987	2509.69
504.356	2508.56
504.724	2531.84
505.093	2531.39
505.462	2593.53
505.83	2563.7
506.199	2615.45
506.567	2630.59
506.936	2610.71
507.304	2650.93
507.672	2668.11
508.041	2692.06
508.409	2712.4
508.777	2725.51
509.145	2747.65
509.514	2725.28
509.882	2757.6
510.25	2768.22
510.618	2785.39
510.986	2819.97
511.354	2831.95
511.722	2868.33
512.09	2887.99
512.458	2880.31
512.826	2910.14
513.193	2975.67
513.561	2937.25
513.929	2966.86
514.297	2983.35
514.664	3048.89
515.032	3072.39
515.4	3049.57
515.767	3087.31
516.135	3106.29
516.502	3064.71
516.869	3162.33
517.237	3139.73
517.604	3136.34
517.972	3205.72
518.339	3213.18
518.706	3226.51
519.073	3287.07
519.44	3313.74
519.808	3323.91
520.175	3321.65
520.542	3345.83
520.909	3362.33
521.276	3400.97
521.643	3405.04
522.009	3464.92
522.376	3447.52
522.743	3477.35
523.11	3547.63
523.477	3563
523.843	3592.15
524.21	3602.09
524.577	3619.5
524.943	3633.73
525.31	3689.32
525.676	3718.48
526.043	3747.63
526.409	3730.68
526.776	3804.35
527.142	3806.38
527.508	3844.12
527.874	3873.05
528.241	3895.19
528.607	3909.43
528.973	3938.36
529.339	3957.57
529.705	4008.41
530.071	4038.69
530.437	4028.3
530.803	4074.85
531.169	4116.43
531.535	4089.09
531.901	4164.79
532.267	4134.74
532.632	4176.09
532.998	4195.53
533.364	4263.77
533.73	4260.61
534.095	4292.25
534.461	4314.62
534.826	4347.84
535.192	4354.17
535.557	4365.01
535.923	4385.8
536.288	4383.32
536.653	4461.96
537.019	4433.49
537.384	4439.59
537.749	4475.74
538.114	4525.01
538.479	4502.18
538.845	4562.52
539.21	4565.23
539.575	4550.09
539.94	4581.5
540.305	4622.41
540.67	4630.99
541.034	4685
541.399	4661.73
541.764	4738.34
542.129	4750.54
542.494	4739.01
542.858	4807.94
543.223	4778.56
543.587	4793.25
543.952	4824.66
544.316	4827.15
544.681	4866.92
545.045	4867.37
545.41	4915.73
545.774	4950.08
546.138	4975.39
546.503	4984.88
546.867	5000.48
547.231	5055.62
547.595	5077.76
547.959	5129.74
548.324	5122.28
548.688	5164.99
549.052	5166.8
549.416	5161.38
549.779	5214.03
550.143	5202.96
550.507	5286.12
550.871	5316.85
551.235	5348.49
551.599	5354.82
551.962	5338.55
552.326	5362.27
552.689	5441.14
553.053	5443.18
553.417	5489.95
553.78	5575.38
554.143	5557.75
554.507	5626.45
554.87	5636.17
555.234	5734.69
555.597	5688.59
555.96	5688.82
556.323	5740.12
556.686	5822.15
557.05	5851.53
557.413	5860.34
557.776	5974.24
558.139	5964.52
558.502	6038.19
558.865	6056.95
559.228	6092.42
559.59	6164.29
559.953	6135.81
560.316	6266.66
560.679	6276.83
561.041	6324.96
561.404	6378.74
561.767	6485.18
562.129	6442.02
562.492	6559.3
562.854	6582.58
563.217	6554.11
563.579	6686.53
563.941	6729.02
564.304	6827.32
564.666	6906.64
565.028	6910.93
565.39	6939.86
565.753	7038.16
566.115	7099.86
566.477	7168.78
566.839	7218.72
567.201	7267.53
567.563	7339.4
567.925	7477.92
568.287	7498.72
568.648	7593.4
569.01	7612.16
569.372	7681.99
569.734	7721.76
570.095	7911.13
570.457	7951.58
570.819	7985.93
571.18	8043.11
571.542	8148.64
571.903	8196.32
572.265	8337.56
572.626	8382.53
572.987	8423.44
573.349	8490.55
573.71	8630.21
574.071	8674.5
574.432	8828.4
574.794	8841.05
575.155	8962.41
575.516	8957.21
575.877	9119.01
576.238	9222.06
576.599	9324.88
576.96	9338.89
577.32	9514.03
577.681	9661.6
578.042	9754.02
578.403	9872.89
578.763	9984.07
579.124	10070.17
579.485	10174.13
579.845	10296.83
580.206	10428.81
580.566	10570.72
580.927	10661.57
581.287	10839.64
581.648	10939.75
582.008	11146.08
582.368	11234.66
582.728	11421.78
583.089	11533.19
583.449	11769.11
583.809	11905.15
584.169	12045.04
584.529	12212.26
584.889	12558.92
585.249	12606.6
585.609	12808.18
585.969	13047.04
586.329	13246.59
586.688	13484.09
587.048	13710.53
587.408	13785.56
587.768	14123.4
588.127	14356.84
588.487	14485.2
588.846	14953.21
589.206	15096.48
589.565	15366.53
589.925	15624.38
590.284	15944.37
590.643	16155.66
591.003	16464.36
591.362	16821.86
591.721	17130.55
592.08	17389.08
592.44	17754.72
592.799	18123.52
593.158	18315.15
593.517	18712.43
593.876	19156.04
594.235	19401.45
594.593	19732.97
594.952	20231.26
595.311	20529.79
595.67	21011.58
596.029	21448.86
596.387	21749.87
596.746	22195.05
597.104	22359.34
597.463	22762.72
597.822	23318.19
598.18	23589.37
598.538	23936.02
598.897	24458.72
599.255	24836.11
599.613	25435.64
599.972	25608.75
600.33	26248.73
600.688	26385.22
601.046	26871.09
601.404	27440.56
601.762	27734.57
602.12	28298.62
602.478	28574.09
602.836	29039.17
603.194	29339.04
603.552	29677.79
603.91	30067.84
604.268	30514.61
604.625	30924.99
604.983	31484.98
605.341	31653.33
605.698	32195.69
606.056	32619.41
606.413	33060.76
606.771	33278.83
607.128	33735.77
607.485	33919.94
607.843	34237.45
608.2	34641.5
608.557	35160.13
608.914	35393.8
609.272	35972.77
609.629	36247.34
609.986	36654.56
610.343	36586.99
610.7	37220.42
611.057	37448.89
611.414	37726.4
611.771	38000.29
612.127	38349.66
612.484	38611.12
612.841	39015.63
613.198	39106.92
613.554	39356.86
613.911	39713.24
614.267	39903.06
614.624	40017.63
614.98	40291.3
615.337	40634.79
615.693	40786.65
616.05	41089.47
616.406	41503.02
616.762	41485.62
617.118	41707.53
617.475	41795.67
617.831	42211.93
618.187	42547.51
618.543	42594.06
618.899	43079.25
619.255	42891.01
619.611	43073.83
619.967	43336.19
620.323	43731.43
620.678	43625.67
621.034	43600.82
621.39	43951.77
621.746	43961.49
622.101	44492.54
622.457	44225.21
622.812	44539.78
623.168	44635.14
623.523	44766.89
623.879	45012.53
624.234	44763.05
624.589	45129.82
624.945	45213.88
625.3	45253.2
625.655	45337.04
626.01	45543.82
626.365	45430.37
626.72	45646.64
627.075	45724.83
627.43	45673.53
627.785	45719.18
628.14	45977.7
628.495	46057.93
628.85	46083.92
629.205	45943.35
629.559	46298.37
629.914	46308.32
630.269	46436.22
630.623	46303.12
630.978	46261.09
631.332	46529.1
631.687	46658.14
632.041	46454.75
632.396	46569.55
632.75	46511.93
633.104	46624.92
633.459	46482.55
633.813	46499.95
634.167	46542.89
634.521	46560.97
634.875	46768.19
635.229	46617.46
635.583	46505.6
635.937	46581.53
636.291	46558.48
636.645	46704.24
636.999	46471.93
637.352	46751.24
637.706	46487.07
638.06	46746.5
638.413	46702.2
638.767	46580.17
639.121	46681.87
639.474	46480.29
639.828	46503.34
640.181	46665.6
640.534	46788.53
640.888	46604.13
641.241	46461.31
641.594	46828.75
641.947	46718.47
642.301	46680.96
642.654	46844.57
643.007	46736.33
643.36	46646.16
643.713	46742.66
644.066	46854.06
644.419	46396.22
644.771	46306.73
645.124	45975.44
645.477	45938.38
645.83	45667.66
646.182	45563.7
646.535	45529.13
646.888	45759.63
647.24	45519.18
647.593	45738.84
647.945	45699.07
648.298	45531.84
648.65	45515.12
649.002	45387.66
649.355	45594.21
649.707	45549.47
650.059	45596.47
650.411	46141.54
650.763	46182.9
651.115	46613.39
651.467	46424.7
651.819	46405.71
652.171	46345.38
652.523	46279.16
652.875	46524.36
653.227	46285.27
653.578	46660.4
653.93	46450.23
654.282	46312.16
654.633	46295.44
654.985	46363.68
655.337	46259.96
655.688	46421.31
656.039	46461.53
656.391	46268.09
656.742	46307.41
657.094	46310.12
657.445	46481.42
657.796	46381.53
658.147	46127.08
658.498	46107.42
658.849	46193.52
659.2	46193.29
659.551	46111.71
659.902	46143.35
660.253	46184.93
660.604	46227.19
660.955	46016.35
661.306	46203.23
661.656	46085.05
662.007	46224.93
662.358	46245.72
662.708	46200.52
663.059	46144.48
663.409	46003.47
663.76	46290.01
664.11	46380.63
664.461	46382.89
664.811	46274.42
665.161	46239.62
665.511	46179.51
665.862	46292.95
666.212	46279.62
666.562	46432.15
666.912	46143.12
667.262	46099.73
667.612	46187.64
667.962	46278.26
668.312	46156.23
668.662	46356.22
669.011	46189.22
669.361	46135.44
669.711	46130.47
670.06	46060.19
670.41	45964.6
670.76	46023.13
671.109	46297.92
671.459	46132.5
671.808	45989
672.157	46054.54
672.507	45899.97
672.856	45818.84
673.205	45934.99
673.554	45973.41
673.904	45859.74
674.253	46026.29
674.602	46019.74
674.951	45300.43
675.3	45197.84
675.649	45781.32
675.998	45688.22
676.346	45690.03
676.695	45869.46
677.044	45650.71
677.393	45751.72
677.741	45704.26
678.09	45609.58
678.438	45637.83
678.787	45666.07
679.135	45587.21
679.484	45359.41
679.832	45763.02
680.181	45299.3
680.529	45485.06
680.877	45371.62
681.225	45318.29
681.573	45632.85
681.922	45177.5
682.27	45166.88
682.618	45207.55
682.966	45167.1
683.314	45179.08
683.661	45147.22
684.009	44816.38
684.357	44794.68
684.705	44724.18
685.053	44801.24
685.4	44648.47
685.748	44533.9
686.095	44507.69
686.443	44507.91
686.79	44315.83
687.138	44425.43
687.485	44435.6
687.832	44330.97
688.18	44386.56
688.527	44087.36
688.874	43909.28
689.221	43784.09
689.568	43705.22
689.915	43777.31
690.262	43929.17
690.609	43665.22
690.956	43418.9
691.303	43426.36
691.65	43338
691.997	43323.31
692.344	43088.97
692.69	43183.2
693.037	43061.17
693.383	42666.83
693.73	42826.6
694.077	42723.33
694.423	42634.06
694.769	42481.98
695.116	42511.81
695.462	42507.06
695.808	42235.66
696.155	42467.29
696.501	42163.34
696.847	42092.83
697.193	41674.99
697.539	41839.28
697.885	41611.49
698.231	41459.86
698.577	41550.02
698.923	41475.67
699.269	41274.78
699.614	41071.17
699.96	41141.67
700.306	41115.46
700.651	40867.56
700.997	40857.61
701.342	40828.23
701.688	40734
702.033	40564.06
702.379	40576.26
702.724	40513.21
703.069	40413.78
703.415	40002.49
703.76	39978.77
704.105	40001.82
704.45	39913
704.795	39729.05
705.14	39681.6
705.485	39580.81
705.83	39403.64
706.175	39527.93
706.52	39252.46
706.865	39419.68
707.209	39256.07
707.554	39113.03
707.899	39349.18
708.243	38982.18
708.588	38820.38
708.932	38693.83
709.277	38760.27
709.621	38688.86
709.966	38547.39
710.31	38525.7
710.654	38164.12
710.998	38265.82
711.342	38318.7
711.687	38348.07
712.031	38045.48
712.375	37907.86
712.719	37920.51
713.063	37973.62
713.407	38024.24
713.75	37781.99
714.094	37792.16
714.438	37620.86
714.782	37658.83
715.125	37418.38
715.469	37520.3
715.812	37289.34
716.156	37141.33
716.499	37311.49
716.843	37180.87
717.186	37127.09
717.53	37181.78
717.873	37173.19
718.216	36999.18
718.559	36778.17
718.902	36591.96
719.246	36764.16
719.589	36604.84
719.932	36386.32
720.275	36624.5
720.617	36385.41
720.96	36429.93
721.303	36384.74
721.646	36357.62
721.989	36295.25
722.331	36310.61
722.674	36313.55
723.016	36194.46
723.359	36153.33
723.701	36198.3
724.044	35772.1
724.386	35764.41
724.729	35860.46
725.071	35686.22
725.413	35748.14
725.755	35730.52
726.097	35496.85
726.439	35457.08
726.782	35475.15
727.124	35459.56
727.465	35411.88
727.807	35105.9
728.149	35245.78
728.491	35209.63
728.833	35280.13
729.175	35234.03
729.516	35087.37
729.858	34976.18
730.199	35042.4
730.541	34985.68
730.882	34888.05
731.224	34886.7
731.565	34742.74
731.906	34759.02
732.248	34782.07
732.589	34756.53
732.93	34460.49
733.271	34594.5
733.612	34522.86
733.953	34533.71
734.294	34382.75
734.635	34379.36
734.976	34522.86
735.317	34335.3
735.658	34349.76
735.999	34183.66
736.339	34100.5
736.68	34198.8
737.021	34073.38
737.361	34049.43
737.702	34216.43
738.042	34006.27
738.383	33884.69
738.723	33926.49
739.063	33801.75
739.404	33905.7
739.744	33779.61
740.084	33804.01
740.424	33711.81
740.764	33731.47
741.104	33769.89
741.444	33509.56
741.784	33390.92
742.124	33500.74
742.464	33588.65
742.804	33444.02
743.143	33345.72
743.483	33319.96
743.823	33176.23
744.162	33208.1
744.502	33151.15
744.841	33023.24
745.181	33154.76
745.52	33100.75
745.86	33027.54
746.199	33104.82
746.538	33051.04
746.877	32987.31
747.216	32884.94
747.556	32862.34
747.895	32804.94
748.234	32695.79
748.573	32663.25
748.911	32578.73
749.25	32681.78
749.589	32471.17
749.928	32368.34
750.267	32519.98
750.605	32457.83
750.944	32310.72
751.283	32322.92
751.621	32324.73
751.96	32121.8
752.298	32270.04
752.636	32106.66
752.975	31972.2
753.313	31979.43
753.651	32002.48
753.989	31723.84
754.327	31842.26
754.666	31808.58
755.004	31654.01
755.342	31680.68
755.679	31689.27
756.017	31388.71
756.355	31562.26
756.693	31308.48
757.031	31532.66
757.368	31170.86
757.706	31237.98
758.044	31116.17
758.381	31047.02
758.719	30923.41
759.056	30987.82
759.394	30882.28
759.731	30703.3
760.068	30616.75
760.405	30513.93
760.743	30504.44
