Data from red_cardboard_box_FLMS001491_00090.txt Node
Date: Wed Feb 08 11:33:17 GMT 2017
User: dcchb
Spectrometer: FLMS00149
Trigger mode: 0
Integration Time (sec): 2.000000E-2
Scans to average: 10
Electric dark correction enabled: true
Nonlinearity correction enabled: false
Boxcar width: 0
XAxis mode: Wavelengths
Number of Pixels in Spectrum: 2048
>>>>>Begin Spectral Data<<<<<
341.393	6.95
341.776	6.95
342.16	6.95
342.543	-61.52
342.927	-58.36
343.31	-75.53
343.693	-65.59
344.077	-48.64
344.46	-56.1
344.843	-56.78
345.226	-46.61
345.61	-32.82
345.993	-27.17
346.376	-11.36
346.759	9.89
347.142	25.03
347.525	24.58
347.908	76.33
348.291	88.75
348.674	98.7
349.057	97.34
349.44	116.32
349.823	141.86
350.206	168.07
350.588	192.48
350.971	204.01
351.354	214.4
351.737	255.08
352.119	253.95
352.502	271.8
352.884	256.66
353.267	293.04
353.65	278.13
354.032	319.71
354.414	322.42
354.797	307.28
355.179	306.15
355.562	326.94
355.944	344.57
356.326	325.36
356.709	349.76
357.091	348.86
357.473	359.48
357.855	327.62
358.238	346.83
358.62	339.14
359.002	329.65
359.384	356.77
359.766	339.6
360.148	328.3
360.53	346.38
360.912	343.89
361.294	340.95
361.676	330.56
362.057	336.66
362.439	330.1
362.821	338.92
363.203	318.81
363.584	319.94
363.966	328.07
364.348	341.4
364.729	321.97
365.111	321.07
365.493	311.12
365.874	331.91
366.256	344.79
366.637	310.22
367.019	311.8
367.4	319.71
367.781	318.58
368.163	322.65
368.544	320.84
368.925	323.1
369.306	330.56
369.688	305.92
370.069	308.18
370.45	303.21
370.831	326.26
371.212	306.15
371.593	314.29
371.974	319.26
372.355	339.37
372.736	339.82
373.117	327.39
373.498	323.32
373.879	330.33
374.26	327.17
374.641	322.87
375.021	319.48
375.402	318.35
375.783	349.99
376.163	338.69
376.544	333.95
376.925	344.57
377.305	329.88
377.686	315.19
378.066	340.73
378.447	342.53
378.827	330.56
379.208	319.03
379.588	331.01
379.968	349.54
380.349	318.35
380.729	332.82
381.109	335.98
381.489	352.93
381.87	362.19
382.25	342.53
382.63	337.79
383.01	339.82
383.39	366.49
383.77	339.6
384.15	347.5
384.53	332.36
384.91	334.62
385.29	350.67
385.67	356.77
386.049	348.18
386.429	340.5
386.809	346.6
387.189	348.86
387.568	346.6
387.948	350.44
388.328	332.59
388.707	356.77
389.087	347.05
389.466	340.73
389.846	341.86
390.225	358.8
390.605	356.77
390.984	365.36
391.363	349.09
391.743	353.83
392.122	365.13
392.501	357
392.881	378.46
393.26	361.06
393.639	360.61
394.018	373.27
394.397	367.39
394.776	370.78
395.155	386.6
395.534	380.27
395.913	362.65
396.292	359.48
396.671	366.49
397.05	361.29
397.429	381.63
397.808	377.79
398.186	357
398.565	381.85
398.944	364
399.323	363.78
399.701	386.6
400.08	385.7
400.458	373.04
400.837	399.26
401.215	376.66
401.594	389.99
401.972	382.31
402.351	375.3
402.729	392.7
403.107	377.56
403.486	372.14
403.864	375.3
404.242	408.07
404.62	371.91
404.999	390.67
405.377	397.67
405.755	402.64
406.133	389.09
406.511	409.65
406.889	414.62
407.267	407.84
407.645	422.53
408.023	415.07
408.401	414.4
408.779	411.01
409.156	444.23
409.534	419.82
409.912	433.15
410.29	400.16
410.667	413.04
411.045	413.94
411.422	429.54
411.8	427.95
412.178	444.45
412.555	420.05
412.933	440.38
413.31	435.19
413.687	415.3
414.065	441.06
414.442	448.52
414.819	454.39
415.197	463.89
415.574	441.29
415.951	446.26
416.328	458.24
416.705	452.59
417.082	458.91
417.46	439.93
417.837	468.63
418.214	476.77
418.591	474.28
418.967	469.08
419.344	486.03
419.721	478.57
420.098	473.15
420.475	472.93
420.852	463.21
421.228	498.24
421.605	495.07
421.982	492.36
422.358	456.65
422.735	474.28
423.111	501.4
423.488	492.36
423.864	484
424.241	504.79
424.617	500.95
424.994	493.49
425.37	500.27
425.746	487.84
426.123	505.01
426.499	511.79
426.875	501.17
427.251	517.44
427.627	514.51
428.003	499.14
428.379	531.91
428.756	522.87
429.132	544.56
429.507	524.45
429.883	549.99
430.259	550.21
430.635	557.67
431.011	549.53
431.387	563.54
431.763	549.08
432.138	562.87
432.514	556.99
432.89	573.04
433.265	567.61
433.641	580.27
434.016	586.59
434.392	592.24
434.767	589.53
435.143	577.33
435.518	589.08
435.894	613.26
436.269	603.54
436.644	607.84
437.02	592.24
437.395	597.67
437.77	587.72
438.145	615.52
438.52	612.58
438.895	613.03
439.271	638.57
439.646	615.29
440.021	632.24
440.395	625.24
440.77	624.79
441.145	633.6
441.52	633.83
441.895	652.36
442.27	637.67
442.645	651.45
443.019	645.58
443.394	660.94
443.769	649.87
444.143	641.96
444.518	666.59
444.892	651.45
445.267	651
445.641	683.77
446.016	664.11
446.39	653.26
446.764	686.48
447.139	692.81
447.513	669.3
447.887	668.4
448.262	684.9
448.636	686.25
449.01	688.29
449.384	703.2
449.758	675.18
450.132	697.33
450.506	700.49
450.88	696.87
451.254	693.71
451.628	719.25
452.002	702.98
452.376	730.32
452.75	742.75
453.123	718.79
453.497	743.43
453.871	744.78
454.244	730.32
454.618	746.14
454.992	769.64
455.365	748.62
455.739	760.83
456.112	768.28
456.486	779.81
456.859	778.91
457.232	780.04
457.606	788.85
457.979	784.33
458.352	792.24
458.725	801.28
459.099	827.04
459.472	818.45
459.845	829.98
460.218	817.78
460.591	845.12
460.964	835.63
461.337	820.71
461.71	882.18
462.083	862.07
462.456	858.45
462.829	848.28
463.201	874.04
463.574	880.6
463.947	890.54
464.32	915.17
464.692	943.2
465.065	911.56
465.438	914.72
465.81	907.49
466.183	943.2
466.555	934.16
466.928	958.79
467.3	942.52
467.672	961.73
468.045	972.35
468.417	983.19
468.789	961.27
469.161	1008.96
469.534	1020.26
469.906	1012.35
470.278	1014.38
470.65	1038.79
471.022	1056.64
471.394	1054.61
471.766	1052.57
472.138	1063.64
472.51	1086.47
472.882	1085.34
473.253	1091.67
473.625	1101.84
473.997	1120.37
474.369	1148.39
474.74	1156.98
475.112	1134.6
475.484	1162.62
475.855	1189.52
476.227	1185.9
476.598	1212.57
476.97	1226.58
477.341	1229.29
477.713	1235.17
478.084	1253.24
478.455	1294.37
478.827	1281.27
479.198	1291.66
479.569	1351.77
479.94	1361.94
480.311	1359.68
480.682	1388.61
481.053	1408.49
481.424	1403.75
481.795	1440.36
482.166	1474.48
482.537	1476.74
482.908	1498.66
483.279	1495.72
483.65	1542.73
484.021	1569.62
484.391	1588.38
484.762	1591.54
485.133	1587.25
485.503	1617.98
485.874	1606.23
486.244	1645.1
486.615	1696.17
486.985	1705.21
487.356	1715.6
487.726	1708.83
488.097	1717.64
488.467	1747.02
488.837	1799.9
489.207	1830.4
489.578	1818.43
489.948	1855.04
490.318	1873.34
490.688	1879.44
491.058	1899.1
491.428	1912.21
491.798	1953.34
492.168	1934.36
492.538	1971.87
492.908	1986.33
493.278	2083.5
493.648	1991.08
494.017	2038.99
494.387	2067.23
494.757	2060.91
495.126	2107.01
495.496	2126.89
495.866	2125.99
496.235	2142.94
496.605	2173.67
496.974	2161.92
497.344	2203.05
497.713	2215.03
498.082	2196.95
498.452	2242.14
498.821	2287.34
499.19	2305.65
499.559	2297.28
499.928	2310.62
500.298	2328.02
500.667	2352.88
501.036	2337.51
501.405	2373.21
501.774	2377.96
502.143	2354.46
502.512	2414.34
502.88	2429.94
503.249	2461.12
503.618	2433.33
503.987	2446.43
504.356	2480.1
504.724	2492.76
505.093	2510.84
505.462	2530.05
505.83	2547
506.199	2542.02
506.567	2544.28
506.936	2566.66
507.304	2598.07
507.672	2595.13
508.041	2632.42
508.409	2645.07
508.777	2682.81
509.145	2700.21
509.514	2717.61
509.882	2740.44
510.25	2740.89
510.618	2759.64
510.986	2757.84
511.354	2802.58
511.722	2834.22
512.09	2849.81
512.458	2863.6
512.826	2862.47
513.193	2854.78
513.561	2937.49
513.929	2954.89
514.297	2993.31
514.664	2963.26
515.032	2974.1
515.4	3007.77
515.767	3007.1
516.135	3025.17
516.502	3039.41
516.869	3072.86
517.237	3079.64
517.604	3096.13
517.972	3130.48
518.339	3134.78
518.706	3158.73
519.073	3217.26
519.44	3251.61
519.808	3269.01
520.175	3268.78
520.542	3293.42
520.909	3355.11
521.276	3307.43
521.643	3354.66
522.009	3351.04
522.376	3386.75
522.743	3469.23
523.11	3470.36
523.477	3480.53
523.843	3511.26
524.21	3604.37
524.577	3569.57
524.943	3603.24
525.31	3634.88
525.676	3657.47
526.043	3690.47
526.409	3708.77
526.776	3713.97
527.142	3745.38
527.508	3759.17
527.874	3781.54
528.241	3871.93
528.607	3848.2
528.973	3895.21
529.339	3907.41
529.705	3940.86
530.071	3974.08
530.437	3960.29
530.803	4009.1
531.169	4096.56
531.535	4023.57
531.901	4067.18
532.267	4096.78
532.632	4138.59
532.998	4138.82
533.364	4137.01
533.73	4132.94
534.095	4243.9
534.461	4264.92
534.826	4219.04
535.192	4289.32
535.557	4359.83
535.923	4342.2
536.288	4343.78
536.653	4412.03
537.019	4375.2
537.384	4381.98
537.749	4464.01
538.114	4447.51
538.479	4455.87
538.845	4454.06
539.21	4487.51
539.575	4527.73
539.94	4547.39
540.305	4584.91
540.67	4584
541.034	4614.29
541.399	4617.68
541.764	4692.93
542.129	4658.13
542.494	4664.23
542.858	4692.93
543.223	4728.63
543.587	4754.17
543.952	4750.78
544.316	4767.95
544.681	4811.79
545.045	4785.81
545.41	4844.79
545.774	4866.26
546.138	4867.16
546.503	4899.93
546.867	4953.94
547.231	4958.68
547.595	4998.68
547.959	5050.43
548.324	5062.64
548.688	5023.77
549.052	5082.75
549.416	5105.12
549.779	5098.11
550.143	5197.09
550.507	5268.96
550.871	5238.68
551.235	5254.95
551.599	5256.3
551.962	5299.69
552.326	5346.24
552.689	5357.77
553.053	5381.72
553.417	5377.88
553.78	5440.48
554.143	5510.31
554.507	5509.86
554.87	5616.07
555.234	5562.51
555.597	5599.12
555.96	5633.92
556.323	5683.86
556.686	5661.04
557.05	5758.66
557.413	5760.7
557.776	5828.26
558.139	5905.78
558.502	5894.25
558.865	5918.88
559.228	5942.39
559.59	6052.67
559.953	6078.88
560.316	6204.98
560.679	6204.75
561.041	6282.94
561.404	6290.85
561.767	6362.71
562.129	6327.69
562.492	6462.15
562.854	6491.3
563.217	6475.93
563.579	6568.13
563.941	6679.32
564.304	6693.78
564.666	6733.78
565.028	6850.38
565.39	6895.13
565.753	6877.5
566.115	7030.49
566.477	7000.66
566.839	7139.42
567.201	7253.54
567.563	7246.98
567.925	7292.41
568.287	7359.3
568.648	7355
569.01	7494.66
569.372	7651.27
569.734	7605.39
570.095	7716.8
570.457	7855.1
570.819	7863.92
571.18	7907.98
571.542	8041.99
571.903	8131.26
572.265	8136.23
572.626	8290.12
572.987	8308.65
573.349	8375.09
573.71	8490.57
574.071	8582.99
574.432	8675.65
574.794	8804.91
575.155	8882.2
575.516	8835.87
575.877	8947.28
576.238	9092.59
576.599	9176.65
576.96	9257.33
577.32	9306.37
577.681	9479.47
578.042	9629.75
578.403	9681.95
578.763	9825.22
579.124	9893.02
579.485	10084.88
579.845	10224.99
580.206	10323.74
580.566	10411.87
580.927	10538.2
581.287	10718.08
581.648	10854.57
582.008	11042.37
582.368	11083.49
582.728	11322.36
583.089	11356.48
583.449	11634.21
583.809	11765.51
584.169	11976.8
584.529	12039.4
584.889	12400.97
585.249	12430.8
585.609	12615.21
585.969	12900.85
586.329	13046.83
586.688	13229.43
587.048	13469.65
587.408	13660.38
587.768	13899.92
588.127	14135.17
588.487	14371.32
588.846	14673.91
589.206	14837.75
589.565	15097.63
589.925	15417.62
590.284	15641.79
590.643	15975.57
591.003	16246.75
591.362	16569.68
591.721	16872.04
592.08	17115.65
592.44	17458.69
592.799	17798.35
593.158	18096.42
593.517	18446.46
593.876	18770.52
594.235	19003.29
594.593	19422.71
594.952	19775.92
595.311	20091.39
595.67	20467.43
596.029	20950.58
596.387	21250.46
596.746	21630.34
597.104	21934.51
597.463	22176.08
597.822	22684.32
598.18	23002.73
598.538	23237.98
598.897	23742.82
599.255	24089.25
599.613	24735.79
599.972	24902.57
600.33	25317.24
600.688	25525.37
601.046	26020.05
601.404	26474.95
601.762	26768.96
602.12	27257.76
602.478	27614.13
602.836	27899.1
603.194	28268.35
603.552	28742.01
603.91	28894.55
604.268	29270.36
604.625	29652.5
604.983	30090
605.341	30267.17
605.698	30762.07
606.056	31033.03
606.413	31462.85
606.771	31795.72
607.128	32117.97
607.485	32200.68
607.843	32578.07
608.2	33073.88
608.557	33470.25
608.914	33572.62
609.272	34011.03
609.629	34306.16
609.986	34659.6
610.343	34747.73
610.7	35368.73
611.057	35386.58
611.414	35637.2
611.771	35902.5
612.127	36243.96
612.484	36485.99
612.841	36819.31
613.198	36909.03
613.554	37018.18
613.911	37621.33
614.267	37612.29
614.624	37691.61
614.98	38055.21
615.337	38317.35
615.693	38394.87
616.05	38722.54
616.406	39018.58
616.762	38958.69
617.118	39263.32
617.475	39306.25
617.831	39704.21
618.187	39852.91
618.543	40060.81
618.899	40447.47
619.255	40432.33
619.611	40606.33
619.967	40885.65
620.323	41026.21
620.678	40949.15
621.034	40898.53
621.39	41199.09
621.746	41257.84
622.101	41869.58
622.457	41542.81
622.812	41805.4
623.168	41837.04
623.523	41954.55
623.879	42175.78
624.234	41951.61
624.589	42310.02
624.945	42389.11
625.3	42497.13
625.655	42472.73
626.01	42657.58
626.365	42737.58
626.72	42779.16
627.075	42832.72
627.43	42898.25
627.785	42986.61
628.14	43011.24
628.495	43085.59
628.85	43231.12
629.205	43156.55
629.559	43260.27
629.914	43359.93
630.269	43440.38
630.623	43337.34
630.978	43293.27
631.332	43476.77
631.687	43623.88
632.041	43446.71
632.396	43609.87
632.75	43526.48
633.104	43663.43
633.459	43591.11
633.813	43478.12
634.167	43596.09
634.521	43531.91
634.875	43779.81
635.229	43622.98
635.583	43535.97
635.937	43652.13
636.291	43593.15
636.645	43662.07
636.999	43569.19
637.352	43746.82
637.706	43532.36
638.06	43723.54
638.413	43641.51
638.767	43713.82
639.121	43770.32
639.474	43557.22
639.828	43538.01
640.181	43679.02
640.534	43688.96
640.888	43662.3
641.241	43578.23
641.594	43584.33
641.947	43725.8
642.301	43569.87
642.654	43657.33
643.007	43749.98
643.36	43687.38
643.713	43575.97
644.066	43751.56
644.419	43515.18
644.771	43292.59
645.124	42924.01
645.477	42635.21
645.83	42669.33
646.182	42434.08
646.535	42518.83
646.888	42681.99
647.24	42419.39
647.593	42660.06
647.945	42637.47
648.298	42280.64
648.65	42425.04
649.002	42286.29
649.355	42461.88
649.707	42314.99
650.059	42580.29
650.411	43023.67
650.763	43054.4
651.115	43538.69
651.467	43328.97
651.819	43291.23
652.171	43334.85
652.523	43280.16
652.875	43242.65
653.227	43030.68
653.578	43374.62
653.93	43403.1
654.282	43131.24
654.633	43152.71
654.985	43208.07
655.337	43172.82
655.688	43189.99
656.039	43304.12
656.391	43065.93
656.742	43151.8
657.094	43012.6
657.445	43105.93
657.796	43189.09
658.147	43162.2
658.498	43196.1
658.849	43266.38
659.2	43132.59
659.551	42986.38
659.902	43108.87
660.253	43082.65
660.604	43180.5
660.955	42890.12
661.306	43168.07
661.656	43029.77
662.007	43130.79
662.358	43197.9
662.708	43058.92
663.059	43175.76
663.409	42888.99
663.76	43245.59
664.11	43139.37
664.461	43272.25
664.811	43192.03
665.161	43146.61
665.511	43018.7
665.862	42996.33
666.212	43059.83
666.562	43177.11
666.912	43141.63
667.262	43022.99
667.612	43156.55
667.962	43031.81
668.312	42966.72
668.662	43202.42
669.011	43182.08
669.361	42973.5
669.711	42962.2
670.06	42909.55
670.41	42782.77
670.76	42910.68
671.109	43081.52
671.459	42790.23
671.808	42738.93
672.157	42994.07
672.507	42676.11
672.856	42780.74
673.205	42801.08
673.554	42819.16
673.904	42621.65
674.253	43032.26
674.602	42828.87
674.951	42231.38
675.3	42131.49
675.649	42777.58
675.998	42646.73
676.346	42674.3
676.695	42642.66
677.044	42553.4
677.393	42517.47
677.741	42591.37
678.09	42434.53
678.438	42336.46
678.787	42501.65
679.135	42493.97
679.484	42270.47
679.832	42405.83
680.181	42286.06
680.529	42377.36
680.877	42373.97
681.225	42122.45
681.573	42361.32
681.922	42132.4
682.27	42157.71
682.618	42052.85
682.966	41812.63
683.314	42001.33
683.661	41819.86
684.009	41743.48
684.357	41766.3
684.705	41465.29
685.053	41562.69
685.4	41606.76
685.748	41407.22
686.095	41348.23
686.443	41227.56
686.79	41204.06
687.138	41286.99
687.485	41173.55
687.832	41065.98
688.18	41089.26
688.527	40923.84
688.874	40996.38
689.221	40834.8
689.568	40757.52
689.915	40648.37
690.262	40534.7
690.609	40414.47
690.956	40330.63
691.303	40296.96
691.65	40193.69
691.997	40106.01
692.344	39898.78
692.69	39919.8
693.037	39991.21
693.383	39527.72
693.73	39821.04
694.077	39542.86
694.423	39695.85
694.769	39484.78
695.116	39193.72
695.462	39298.57
695.808	39167.05
696.155	39219.48
696.501	38853.61
696.847	38999.14
697.193	38657.01
697.539	38801.18
697.885	38543.56
698.231	38468.08
698.577	38465.37
698.923	38434.19
699.269	38076.46
699.614	37924.82
699.96	37860.19
700.306	37971.83
700.651	37822.68
700.997	37739.52
701.342	37674.66
701.688	37607.09
702.033	37449.35
702.379	37410.49
702.724	37433.31
703.069	37408.68
703.415	36850.95
703.76	37180.89
704.105	36997.61
704.45	36918.97
704.795	36827.68
705.14	36769.6
705.485	36679.66
705.83	36581.58
706.175	36710.84
706.52	36581.58
706.865	36360.8
707.209	36271.08
707.554	36133.68
707.899	36222.49
708.243	36103.4
708.588	36008.94
708.932	35725.78
709.277	35582.74
709.621	35886.01
709.966	35532.34
710.31	35644.88
710.654	35322.86
710.998	35394.27
711.342	35389.97
711.687	35403.08
712.031	35100.72
712.375	34870.67
712.719	35144.1
713.063	35116.99
713.407	35083.54
713.75	34827.5
714.094	34924.22
714.438	34792.02
714.782	34697.79
715.125	34600.62
715.469	34762.42
715.812	34593.38
716.156	34275.65
716.499	34340.74
716.843	34294.63
717.186	34091.25
717.53	34340.28
717.873	34274.97
718.216	34191.13
718.559	33986.17
718.902	33825.04
719.246	33997.47
719.589	33899.84
719.932	33786.17
720.275	33702.56
720.617	33606.29
720.96	33648.32
721.303	33639.96
721.646	33665.72
721.989	33349.58
722.331	33606.29
722.674	33458.05
723.016	33432.51
723.359	33355.45
723.701	33289.92
724.044	33057.61
724.386	33056.25
724.729	33214.44
725.071	33093.31
725.413	33148.22
725.755	32947.33
726.097	32751.85
726.439	32686.32
726.782	32691.74
727.124	32885.41
727.465	32600.67
727.807	32627.11
728.149	32589.6
728.491	32547.79
728.833	32508.69
729.175	32439.99
729.516	32360.22
729.858	32221.24
730.199	32314.8
730.541	32350.96
730.882	32197.06
731.224	32447.45
731.565	32075.71
731.906	31982.38
732.248	32126.1
732.589	32033
732.93	31977.63
733.271	31915.04
733.612	31936.5
733.953	31893.34
734.294	31778.32
734.635	31763.85
734.976	31905.77
735.317	31710.3
735.658	31616.06
735.999	31694.93
736.339	31490.19
736.68	31586.01
737.021	31559.34
737.361	31434.6
737.702	31564.31
738.042	31543.29
738.383	31343.98
738.723	31466.01
739.063	31219.01
739.404	31238.44
739.744	31285.9
740.084	31110.76
740.424	31079.13
740.764	31083.42
741.104	31171.78
741.444	30952.58
741.784	30892.01
742.124	30968.62
742.464	30867.61
742.804	30904.22
743.143	30682.98
743.483	30767.27
743.823	30469.65
744.162	30609.99
744.502	30670.78
744.841	30593.49
745.181	30610.21
745.52	30465.36
745.86	30593.72
746.199	30476.66
746.538	30370.44
746.877	30582.42
747.216	30469.42
747.556	30365.47
747.895	30318.92
748.234	30054.75
748.573	30162.31
748.911	30141.52
749.25	30128.64
749.589	29994.86
749.928	30056.55
750.267	29909.21
750.605	29939.04
750.944	29907.41
751.283	29787.41
751.621	29907.18
751.96	29723.23
752.298	29660.18
752.636	29646.4
752.975	29478.72
753.313	29561.43
753.651	29649.11
753.989	29478.04
754.327	29324.82
754.666	29269.23
755.004	29276.91
755.342	29217.25
755.679	29119.4
756.017	29100.87
756.355	29108.1
756.693	29021.33
757.031	29066.98
757.368	28960.54
757.706	28883.03
758.044	28778.17
758.381	28849.81
758.719	28714.89
759.056	28638.06
759.394	28626.76
759.731	28448.69
760.068	28323.27
760.405	28294.79
760.743	28227.22
761.08	28358.52
