Data from red_shiny_book_FLMS001491_00094.txt Node
Date: Wed Feb 08 15:25:37 GMT 2017
User: dcchb
Spectrometer: FLMS00149
Trigger mode: 0
Integration Time (sec): 2.000000E-2
Scans to average: 10
Electric dark correction enabled: true
Nonlinearity correction enabled: false
Boxcar width: 0
XAxis mode: Wavelengths
Number of Pixels in Spectrum: 2048
>>>>>Begin Spectral Data<<<<<
341.393	11.27
341.776	11.27
342.16	11.27
342.543	-66.92
342.927	-71.44
343.31	-67.82
343.693	-71.89
344.077	-80.7
344.46	-43.64
344.843	-38.9
345.226	-40.03
345.61	-48.61
345.993	-22.85
346.376	3.81
346.759	6.98
347.142	23.7
347.525	41.33
347.908	62.79
348.291	63.7
348.674	103.25
349.057	108.9
349.44	116.58
349.823	142.11
350.206	178.72
350.588	214.88
350.971	219.85
351.354	227.76
351.737	225.05
352.119	264.15
352.502	238.16
352.884	277.93
353.267	274.54
353.65	293.98
354.032	309.79
354.414	323.13
354.797	326.97
355.179	324.26
355.562	321.09
355.944	314.31
356.326	337.59
356.709	348.44
357.091	351.83
357.473	331.04
357.855	357.25
358.238	346.86
358.62	349.34
359.002	330.36
359.384	350.47
359.766	321.32
360.148	352.5
360.53	359.06
360.912	342.34
361.294	339.62
361.676	333.75
362.057	361.09
362.439	334.88
362.821	323.13
363.203	323.81
363.584	336.01
363.966	336.23
364.348	336.91
364.729	333.07
365.111	343.92
365.493	332.84
365.874	309.12
366.256	300.98
366.637	322.45
367.019	310.47
367.4	328.1
367.781	330.13
368.163	312.51
368.544	333.3
368.925	307.99
369.306	326.29
369.688	335.33
370.069	334.2
370.45	304.14
370.831	336.23
371.212	315.9
371.593	302.79
371.974	298.27
372.355	314.31
372.736	327.42
373.117	336.69
373.498	296.24
373.879	320.64
374.26	315.67
374.641	317.93
375.021	326.97
375.402	326.06
375.783	322.9
376.163	312.96
376.544	333.97
376.925	310.92
377.305	329.68
377.686	335.33
378.066	324.03
378.447	334.65
378.827	344.6
379.208	330.13
379.588	353.41
379.968	329.23
380.349	326.97
380.729	344.37
381.109	333.52
381.489	351.83
381.87	333.3
382.25	358.61
382.63	346.63
383.01	345.5
383.39	346.86
383.77	360.41
384.15	348.66
384.53	363.58
384.91	359.74
385.29	361.54
385.67	376.23
386.049	378.94
386.429	354.54
386.809	360.41
387.189	365.61
387.568	362.45
387.948	360.64
388.328	383.92
388.707	358.15
389.087	362.67
389.466	366.52
389.846	381.66
390.225	385.95
390.605	360.19
390.984	390.02
391.363	386.63
391.743	389.79
392.122	385.95
392.501	384.37
392.881	404.25
393.26	402.67
393.639	399.06
394.018	375.78
394.397	423.46
394.776	374.2
395.155	407.87
395.534	400.41
395.913	403.58
396.292	401.77
396.671	385.5
397.05	391.83
397.429	436.57
397.808	400.87
398.186	382.56
398.565	414.88
398.944	402.45
399.323	396.35
399.701	390.02
400.08	413.97
400.458	419.17
400.837	401.54
401.215	448.55
401.594	434.08
401.972	399.96
402.351	415.55
402.729	416.01
403.107	422.33
403.486	411.94
403.864	414.65
404.242	421.43
404.62	420.3
404.999	441.32
405.377	431.82
405.755	453.07
406.133	449.9
406.511	450.13
406.889	430.02
407.267	437.02
407.645	453.29
408.023	472.05
408.401	441.09
408.779	465.5
409.156	484.48
409.534	463.69
409.912	484.25
410.29	474.99
410.667	453.52
411.045	477.47
411.422	471.37
411.8	470.69
412.178	492.39
412.555	518.6
412.933	514.31
413.31	531.71
413.687	537.58
414.065	537.36
414.442	514.99
414.819	508.43
415.197	520.86
415.574	510.24
415.951	538.94
416.328	548.43
416.705	548.88
417.082	542.56
417.46	548.66
417.837	553.86
418.214	541.43
418.591	558.38
418.967	546.85
419.344	548.43
419.721	533.97
420.098	563.8
420.475	568.32
420.852	563.12
421.228	591.59
421.605	590.92
421.982	584.59
422.358	627.07
422.735	626.17
423.111	597.02
423.488	596.57
423.864	598.37
424.241	603.8
424.617	633.4
424.994	624.14
425.37	621.2
425.746	615.1
426.123	658.26
426.499	648.09
426.875	641.31
427.251	647.64
427.627	658.03
428.003	646.96
428.379	660.29
428.756	656
429.132	679.73
429.507	681.08
429.883	708.43
430.259	672.5
430.635	696
431.011	718.37
431.387	728.09
431.763	710.01
432.138	689.22
432.514	686.73
432.89	690.58
433.265	717.92
433.641	681.99
434.016	733.06
434.392	748.43
434.767	752.04
435.143	789.78
435.518	779.16
435.894	768.54
436.269	790.46
436.644	765.83
437.02	764.7
437.395	779.16
437.77	794.3
438.145	798.82
438.52	823.68
438.895	801.08
439.271	832.72
439.646	846.28
440.021	841.76
440.395	839.72
440.77	842.44
441.145	845.37
441.52	853.28
441.895	836.11
442.27	850.34
442.645	845.15
443.019	864.81
443.394	852.83
443.769	879.72
444.143	858.25
444.518	894.86
444.892	900.29
445.267	905.71
445.641	900.51
446.016	885.15
446.39	885.82
446.764	873.17
447.139	886.95
447.513	881.08
447.887	869.78
448.262	895.09
448.636	884.02
449.01	903.9
449.384	948.42
449.758	937.12
450.132	947.52
450.506	957.01
450.88	960.62
451.254	957.69
451.628	972.15
452.002	930.12
452.376	918.37
452.75	931.25
453.123	961.3
453.497	976.9
453.871	957.23
454.244	1013.73
454.618	1016.22
454.992	1049.44
455.365	1009.44
455.739	1026.39
456.112	1037.23
456.486	1034.29
456.859	1013.73
457.232	1034.07
457.606	1001.75
457.979	1014.18
458.352	1036.78
458.725	1056.89
459.099	1080.4
459.472	1104.58
459.845	1104.12
460.218	1105.48
460.591	1142.31
460.964	1122.2
461.337	1131.92
461.71	1133.05
462.083	1104.58
462.456	1085.37
462.829	1094.86
463.201	1118.81
463.574	1097.34
463.947	1132.15
464.32	1170.79
464.692	1171.69
465.065	1211.47
465.438	1188.87
465.81	1242.2
466.183	1232.71
466.555	1275.64
466.928	1207.4
467.3	1221.18
467.672	1202.43
468.045	1191.8
468.417	1215.76
468.789	1232.03
469.161	1206.49
469.534	1274.97
469.906	1321.97
470.278	1339.82
470.65	1356.55
471.022	1387.51
471.394	1392.93
471.766	1429.54
472.138	1389.77
472.51	1385.92
472.882	1382.53
473.253	1373.49
473.625	1386.38
473.997	1409.43
474.369	1456.43
474.74	1422.53
475.112	1479.48
475.484	1531.23
475.855	1580.72
476.227	1576.88
476.598	1666.59
476.97	1657.78
477.341	1672.24
477.713	1688.29
478.084	1660.72
478.455	1644
478.827	1637.89
479.198	1668.4
479.569	1660.95
479.94	1701.17
480.311	1715.86
480.682	1783.88
481.053	1849.64
481.424	1846.02
481.795	1926.47
482.166	1961.95
482.537	1987.72
482.908	1999.69
483.279	2009.18
483.65	2034.27
484.021	2024.55
484.391	2069.97
484.762	2001.28
485.133	1990.88
485.503	2025
485.874	2058.9
486.244	2081.27
486.615	2159.91
486.985	2225.9
487.356	2287.6
487.726	2361.49
488.097	2394.71
488.467	2438.1
488.837	2474.26
489.207	2476.74
489.578	2459.34
489.948	2452.79
490.318	2476.74
490.688	2410.3
491.058	2380.7
491.428	2457.31
491.798	2431.32
492.168	2507.25
492.538	2559
492.908	2612.56
493.278	2704.99
493.648	2746.11
494.017	2819.78
494.387	2857.52
494.757	2895.26
495.126	2889.84
495.496	2927.35
495.866	2888.71
496.235	2830.63
496.605	2802.38
496.974	2816.62
497.344	2808.03
497.713	2811.42
498.082	2812.1
498.452	2895.04
498.821	2925.09
499.19	2987.92
499.559	3051.42
499.928	3107.69
500.298	3173.9
500.667	3233.11
501.036	3201.02
501.405	3240.11
501.774	3177.52
502.143	3195.37
502.512	3129.38
502.88	3115.14
503.249	3069.5
503.618	3065.2
503.987	3008.25
504.356	3040.12
504.724	3082.38
505.093	3135.26
505.462	3157.63
505.83	3274.24
506.199	3343.39
506.567	3392.88
506.936	3446.66
507.304	3465.42
507.672	3459.54
508.041	3455.47
508.409	3440.79
508.777	3405.76
509.145	3345.87
509.514	3227.46
509.882	3231.75
510.25	3235.14
510.618	3266.1
510.986	3243.95
511.354	3274.46
511.722	3357.4
512.09	3410.5
512.458	3427.9
512.826	3516.94
513.193	3590.61
513.561	3643.49
513.929	3660.89
514.297	3679.42
514.664	3674.9
515.032	3624.28
515.4	3559.88
515.767	3519.88
516.135	3523.04
516.502	3446.66
516.869	3431.97
517.237	3413.22
517.604	3406.66
517.972	3440.11
518.339	3521.91
518.706	3561.91
519.073	3662.47
519.44	3762.36
519.808	3810.72
520.175	3801
520.542	3870.6
520.909	3883.03
521.276	3890.94
521.643	3867.67
522.009	3864.28
522.376	3819.53
522.743	3725.07
523.11	3672.87
523.477	3659.54
523.843	3638.52
524.21	3631.74
524.577	3680.78
524.943	3744.51
525.31	3814.79
525.676	3907.67
526.043	3988.79
526.409	4066.76
526.776	4166.19
527.142	4244.61
527.508	4317.37
527.874	4315.34
528.241	4310.37
528.607	4344.26
528.973	4298.39
529.339	4209.8
529.705	4182.46
530.071	4123.71
530.437	4053.42
530.803	4049.13
531.169	4093.88
531.535	4084.16
531.901	4116.47
532.267	4158.28
532.632	4291.16
532.998	4422.45
533.364	4511.27
533.73	4597.14
534.095	4759.62
534.461	4760.98
534.826	4883.69
535.192	4862.89
535.557	4863.12
535.923	4836.68
536.288	4803.46
536.653	4687.31
537.019	4648.89
537.384	4609.12
537.749	4531.6
538.114	4483.92
538.479	4524.37
538.845	4546.52
539.21	4579.51
539.575	4629.68
539.94	4739.96
540.305	4857.7
540.67	5009.78
541.034	5085.26
541.399	5188.76
541.764	5278.25
542.129	5324.8
542.494	5381.53
542.858	5372.26
543.223	5307.4
543.587	5286.39
543.952	5181.08
544.316	5132.49
544.681	5009.33
545.045	5002.33
545.41	5013.4
545.774	4968.43
546.138	4986.73
546.503	4968.43
546.867	5024.7
547.231	5092.72
547.595	5179.72
547.959	5340.17
548.324	5405.93
548.688	5528.64
549.052	5577.9
549.416	5661.29
549.779	5682.76
550.143	5748.3
550.507	5764.79
550.871	5719.82
551.235	5584.46
551.599	5511.69
551.962	5487.51
552.326	5383.11
552.689	5293.17
553.053	5222.89
553.417	5171.81
553.78	5219.27
554.143	5134.75
554.507	5269.44
554.87	5342.66
555.234	5460.62
555.597	5565.93
555.96	5609.09
556.323	5774.96
556.686	5887.05
557.05	5941.74
557.413	5994.62
557.776	6046.14
558.139	6084.11
558.502	6005.01
558.865	5987.38
559.228	5930.66
559.59	5828.75
559.953	5743.32
560.316	5685.7
560.679	5624.23
561.041	5594.4
561.404	5541.52
561.767	5512.14
562.129	5485.7
562.492	5612.25
562.854	5619.49
563.217	5810.67
563.579	5828.29
563.941	5995.75
564.304	6135.4
564.666	6273.71
565.028	6391.89
565.39	6396.87
565.753	6463.76
566.115	6499.01
566.477	6473.25
566.839	6449.29
567.201	6407.94
567.563	6278.45
567.925	6266.7
568.287	6150.09
568.648	6015.63
569.01	5979.02
569.372	5996.42
569.734	5931.34
570.095	5906.26
570.457	5992.58
570.819	6016.54
571.18	6113.94
571.542	6266.7
571.903	6385.34
572.265	6559.35
572.626	6624.88
572.987	6826.91
573.349	6950.75
573.71	7028.49
574.071	7132.21
574.432	7140.35
574.794	7237.97
575.155	7180.8
575.516	7180.12
575.877	7126.34
576.238	7074.59
576.599	7044.76
576.96	6922.28
577.32	6910.75
577.681	6875.72
578.042	6968.6
578.403	7004.53
578.763	7074.59
579.124	7234.13
579.485	7439.32
579.845	7600.45
580.206	7835.25
580.566	8117.27
580.927	8392.75
581.287	8743.92
581.648	8980.75
582.008	9198.37
582.368	9446.95
582.728	9704.58
583.089	9977.56
583.449	10115.64
583.809	10324.45
584.169	10515.18
584.529	10619.81
584.889	10818.22
585.249	10914.49
585.609	11057.08
585.969	11360.58
586.329	11473.57
586.688	11852.54
587.048	12142.93
587.408	12389.93
587.768	12836.7
588.127	13193.98
588.487	13744.92
588.846	14252.93
589.206	14661.73
589.565	15284.54
589.925	15725.21
590.284	16258.08
590.643	16781.9
591.003	17347.54
591.362	17857.13
591.721	18279.27
592.08	18683.77
592.44	19151.11
592.799	19464.32
593.158	19712
593.517	20065.43
593.876	20337.74
594.235	20667.22
594.593	20961.91
594.952	21488.45
595.311	21730.47
595.67	22086.17
596.029	22646.61
596.387	23011.57
596.746	23569.97
597.104	23841.15
597.463	24310.29
597.822	24919.99
598.18	25499.64
598.538	25897.37
598.897	26650.57
599.255	27010.11
599.613	27839.92
599.972	28225.22
600.33	28694.13
600.688	28950.85
601.046	29384.74
601.404	30098.84
601.762	30262.68
602.12	30699.28
602.478	30865.15
602.836	31142.88
603.194	31084.35
603.552	31469.43
603.91	31641.63
604.268	32019.02
604.625	32096.98
604.983	32593.69
605.341	32595.27
605.698	33086.33
606.056	33557.51
606.413	33870.72
606.771	34371.27
607.128	34562
607.485	34930.35
607.843	35175.32
608.2	35963.55
608.557	36265.46
608.914	36413.48
609.272	36969.62
609.629	37387.92
609.986	37808.24
610.343	37845.3
610.7	38318.06
611.057	38496.81
611.414	38671.72
611.771	38787.2
612.127	38950.13
612.484	38882.57
612.841	39127.53
613.198	39022.9
613.554	39042.34
613.911	39344.47
614.267	39325.27
614.624	39374.98
614.98	39546.95
615.337	39951.92
615.693	40051.57
616.05	40165.92
616.406	40685.68
616.762	40679.13
617.118	40946.01
617.475	41183.07
617.831	41402.95
618.187	41766.11
618.543	42048.36
618.899	42406.99
619.255	42405.18
619.611	42608.79
619.967	42812.63
620.323	42863.93
620.678	42805.85
621.034	42874.1
621.39	42949.35
621.746	42889.92
622.101	43361.77
622.457	42834.33
622.812	42854.66
623.168	42837.72
623.523	42798.17
623.879	43037.03
624.234	42687.21
624.589	42764.5
624.945	42864.16
625.3	42876.13
625.655	43010.82
626.01	43219.17
626.365	43234.54
626.72	43357.93
627.075	43512.27
627.43	43639.73
627.785	43772.83
628.14	43934.41
628.495	44145.03
628.85	44165.36
629.205	44115.2
629.559	44545.47
629.914	44332.59
630.269	44553.38
630.623	44340.73
630.978	44210.79
631.332	44367.39
631.687	44395.64
632.041	44187.96
632.396	44084.69
632.75	43828.88
633.104	43808.31
633.459	43682.21
633.813	43535.55
634.167	43500.52
634.521	43211.26
634.875	43572.16
635.229	43252.17
635.583	43199.06
635.937	43168.33
636.291	43303.92
636.645	43443.35
636.999	43403.8
637.352	43627.07
637.706	43554.31
638.06	43773.74
638.413	43810.57
638.767	43838.37
639.121	44004.69
639.474	43864.58
639.828	43916.11
640.181	44141.18
640.534	44017.12
640.888	43800.18
641.241	43792.27
641.594	43733.29
641.947	43793.85
642.301	43493.29
642.654	43544.36
643.007	43286.97
643.36	43196.35
643.713	43068.67
644.066	43317.25
644.419	42635.69
644.771	42419.87
645.124	42002.26
645.477	41752.55
645.83	41513.46
646.182	41340.13
646.535	41221.94
646.888	41378.09
647.24	41449.28
647.593	41709.84
647.945	41651.98
648.298	41643.17
648.65	41484.08
649.002	41716.61
649.355	41907.34
649.707	41854.01
650.059	42062.14
650.411	42655.8
650.763	42765.4
651.115	43165.16
651.467	42971.05
651.819	42911.61
652.171	42747.32
652.523	42732.86
652.875	42613.99
653.227	42382.36
653.578	42502.36
653.93	42311.85
654.282	42114.34
654.633	41821.24
654.985	41907.57
655.337	41894.46
655.688	41716.61
656.039	41811.53
656.391	41451.99
656.742	41383.97
657.094	41537.41
657.445	41608.82
657.796	41459.22
658.147	41496.06
658.498	41518.43
658.849	41716.84
659.2	41934.24
659.551	41702.38
659.902	41885.88
660.253	42193.89
660.604	42245.64
660.955	42084.74
661.306	42328.12
661.656	42309.82
662.007	42215.58
662.358	42236.38
662.708	42296.26
663.059	42298.07
663.409	41931.52
663.76	42327.9
664.11	42182.59
664.461	41950.73
664.811	41917.51
665.161	41861.24
665.511	41457.86
665.862	41532.89
666.212	41432.78
666.562	41458.09
666.912	41185.78
667.262	41058.55
667.612	41050.87
667.962	41054.26
668.312	40955.51
668.662	41186.46
669.011	40930.65
669.361	41007.03
669.711	41042.51
670.06	40981.72
670.41	41027.82
670.76	41148.27
671.109	41479.11
671.459	41442.27
671.808	41298.32
672.157	41564.08
672.507	41412.89
672.856	41504.19
673.205	41713.68
673.554	41708.93
673.904	41595.49
674.253	41840.23
674.602	41590.06
674.951	41157.99
675.3	40783.31
675.649	41269.62
675.998	41213.13
676.346	41104.2
676.695	41156.4
677.044	40805.9
677.393	40680.03
677.741	40659.47
678.09	40466.03
678.438	40385.12
678.787	40289.53
679.135	40296.09
679.484	40066.94
679.832	40075.53
680.181	39731.58
680.529	39880.96
680.877	39881.63
681.225	39837.34
681.573	40160.95
681.922	39946.27
682.27	39877.12
682.618	40080.5
682.966	40042.31
683.314	40329.08
683.661	40134.74
684.009	40068.75
684.357	40121.4
684.705	40193.94
685.053	40266.48
685.4	40380.83
685.748	40166.83
686.095	40009.32
686.443	39844.8
686.79	39748.31
687.138	39885.25
687.485	39835.76
687.832	39423.79
688.18	39459.27
688.527	39203.23
688.874	38978.61
689.221	38884.83
689.568	38693.42
689.915	38549.69
690.262	38468.34
690.609	38227.67
690.956	38121.68
691.303	37955.81
691.65	37808.7
691.997	37794.68
692.344	37367.8
692.69	37588.14
693.037	37633.11
693.383	37413.45
693.73	37618.64
694.077	37428.37
694.423	37512.88
694.769	37439.44
695.116	37482.6
695.462	37528.25
695.808	37513.11
696.155	37676.72
696.501	37227.69
696.847	37402.15
697.193	37235.38
697.539	37357.41
697.885	37204.42
698.231	37043.52
698.577	37038.32
698.923	36806.91
699.269	36880.58
699.614	36654.38
699.96	36525.34
700.306	36415.06
700.651	36136.87
700.997	35912.02
701.342	35963.77
701.688	35794.96
702.033	35625.93
702.379	35507.74
702.724	35314.98
703.069	35303.22
703.415	34719.74
703.76	34763.35
704.105	34757.7
704.45	34596.58
704.795	34425.73
705.14	34340.09
705.485	34427.99
705.83	34233.2
706.175	34268.22
706.52	34220.54
706.865	34253.99
707.209	34280.65
707.554	34214.44
707.899	34333.31
708.243	34120.88
708.588	34150.26
708.932	34206.08
709.277	34168.56
709.621	34313.87
709.966	33976.25
710.31	34125.4
710.654	33931.51
710.998	33992.3
711.342	33873.43
711.687	33851.51
712.031	33745.98
712.375	33593.44
712.719	33557.73
713.063	33461.01
713.407	33401.35
713.75	33105.77
714.094	33155.48
714.438	32938.99
714.782	32870.97
715.125	32602.96
715.469	32624.65
715.812	32307.82
716.156	32173.82
716.499	32192.12
716.843	32089.07
717.186	31918.45
717.53	31983.76
717.873	31986.02
718.216	31852.02
718.559	31790.77
718.902	31658.35
719.246	31660.38
719.589	31557.33
719.932	31577.9
720.275	31604.34
720.617	31701.29
720.96	31730.44
721.303	31810.89
721.646	31763.88
721.989	31678.91
722.331	31831.45
722.674	31770.89
723.016	31654.28
723.359	31831.68
723.701	31877.1
724.044	31617.45
724.386	31590.78
724.729	31624.68
725.071	31443.89
725.413	31483.21
725.755	31386.94
726.097	31282.09
726.439	31099.04
726.782	31016.78
727.124	31109.66
727.465	30823.79
727.807	30720.75
728.149	30533.86
728.491	30343.58
728.833	30402.56
729.175	30224.71
729.516	30151.27
729.858	30101.78
730.199	30036.24
730.541	29895.68
730.882	29920.54
731.224	29879.19
731.565	29664.28
731.906	29739.98
732.248	29793.54
732.589	29636.93
732.93	29659.08
733.271	29613.88
733.612	29711.96
733.953	29732.3
734.294	29660.89
734.635	29748.34
734.976	29744.05
735.317	29611.62
735.658	29803.26
735.999	29732.52
736.339	29844.38
736.68	29837.15
737.021	29821.56
737.361	29627.22
737.702	29798.28
738.042	29815.23
738.383	29778.4
738.723	29769.58
739.063	29642.81
739.404	29737.95
739.744	29595.13
740.084	29405.3
740.424	29408.69
740.764	29283.72
741.104	29284.85
741.444	29054.35
741.784	28950.85
742.124	28843.06
742.464	28655.72
742.804	28634.47
743.143	28492.78
743.483	28491.43
743.823	28257.53
744.162	28288.72
744.502	28200.13
744.841	28121.27
745.181	28253.92
745.52	28050.08
745.86	28026.81
746.199	27828.84
746.538	27991.1
746.877	27988.39
747.216	28035.17
747.556	27895.74
747.895	27906.13
748.234	27965.56
748.573	27923.76
748.911	27947.49
749.25	28000.59
749.589	27942.74
749.928	27948.39
750.267	28027.03
750.605	28024.77
750.944	27879.92
751.283	27966.02
751.621	27995.62
751.96	27783.65
752.298	27747.49
752.636	27865.23
752.975	27876.07
753.313	27713.82
753.651	27646.25
753.989	27433.37
754.327	27459.36
754.666	27311.8
755.004	27277.22
755.342	27198.58
755.679	27072.93
756.017	26821.64
756.355	26913.16
756.693	26702.09
757.031	26640.85
757.368	26465.49
757.706	26462.1
758.044	26223.91
758.381	26257.81
758.719	25980.53
759.056	25993.41
759.394	25846.75
759.731	25677.94
760.068	25616.02
760.405	25520.66
