Data from red_shiny_book_FLMS001491_00088.txt Node
Date: Wed Feb 08 15:25:30 GMT 2017
User: dcchb
Spectrometer: FLMS00149
Trigger mode: 0
Integration Time (sec): 2.000000E-2
Scans to average: 10
Electric dark correction enabled: true
Nonlinearity correction enabled: false
Boxcar width: 0
XAxis mode: Wavelengths
Number of Pixels in Spectrum: 2048
>>>>>Begin Spectral Data<<<<<
341.393	-22.26
341.776	-22.26
342.16	-22.26
342.543	-66.55
342.927	-56.38
343.31	-81.01
343.693	-79.43
344.077	-78.75
344.46	-55.48
344.843	-61.13
345.226	-28.36
345.61	-25.42
345.993	-18.64
346.376	1.69
346.759	5.54
347.142	34.24
347.525	49.83
347.908	48.47
348.291	83.05
348.674	93.9
349.057	111.52
349.44	144.97
349.823	147.23
350.206	157.17
350.588	183.84
350.971	228.81
351.354	220.22
351.737	226.55
352.119	236.72
352.502	262.03
352.884	276.04
353.267	267.45
353.65	291.86
354.032	298.18
354.414	314.68
354.797	311.74
355.179	345.64
355.562	314.23
355.944	330.73
356.326	327.79
356.709	325.08
357.091	332.53
357.473	360.1
357.855	337.28
358.238	356.71
358.62	349.93
359.002	341.35
359.384	318.07
359.766	353.32
360.148	330.27
360.53	337.05
360.912	340.22
361.294	328.47
361.676	346.32
362.057	328.24
362.439	323.27
362.821	320.78
363.203	332.76
363.584	307
363.966	325.08
364.348	329.14
364.729	328.01
365.111	304.29
365.493	297.96
365.874	324.85
366.256	314.68
366.637	318.07
367.019	324.85
367.4	291.18
367.781	333.89
368.163	323.95
368.544	295.02
368.925	321.46
369.306	328.69
369.688	311.07
370.069	318.07
370.45	323.04
370.831	314.46
371.212	317.17
371.593	329.6
371.974	321.46
372.355	304.06
372.736	324.17
373.117	315.81
373.498	313.33
373.879	319.65
374.26	332.31
374.641	308.81
375.021	315.81
375.402	318.3
375.783	326.88
376.163	337.28
376.544	341.35
376.925	342.02
377.305	339.31
377.686	327.56
378.066	334.79
378.447	343.38
378.827	347.45
379.208	330.27
379.588	328.24
379.968	355.58
380.349	334.79
380.729	332.31
381.109	321.91
381.489	342.48
381.87	351.97
382.25	322.36
382.63	338.86
383.01	351.74
383.39	328.92
383.77	357.17
384.15	345.87
384.53	351.52
384.91	354.45
385.29	365.98
385.67	331.18
386.049	356.04
386.429	353.55
386.809	367.11
387.189	361.23
387.568	342.7
387.948	372.31
388.328	358.07
388.707	355.81
389.087	381.57
389.466	390.84
389.846	348.58
390.225	356.04
390.605	360.33
390.984	373.89
391.363	389.93
391.743	381.8
392.122	376.37
392.501	349.03
392.881	393.77
393.26	373.89
393.639	360.56
394.018	378.86
394.397	377.73
394.776	397.62
395.155	404.4
395.534	383.15
395.913	393.77
396.292	390.84
396.671	393.77
397.05	378.86
397.429	398.07
397.808	397.62
398.186	394.23
398.565	411.63
398.944	391.29
399.323	392.87
399.701	405.98
400.08	408.46
400.458	381.8
400.837	392.19
401.215	416.6
401.594	387.22
401.972	404.4
402.351	418.63
402.729	419.76
403.107	409.59
403.486	396.71
403.864	427.22
404.242	411.18
404.62	415.02
404.999	423.38
405.377	418.63
405.755	421.8
406.133	433.32
406.511	446.65
406.889	429.93
407.267	454.34
407.645	463.83
408.023	440.1
408.401	432.19
408.779	434.68
409.156	448.69
409.534	440.33
409.912	465.64
410.29	457.5
410.667	471.74
411.045	499.08
411.422	470.84
411.8	469.03
412.178	497.95
412.555	473.09
412.933	456.82
413.31	469.93
413.687	497.05
414.065	497.28
414.442	490.5
414.819	505.86
415.197	501.34
415.574	510.16
415.951	521.23
416.328	515.58
416.705	519.87
417.082	523.26
417.46	502.7
417.837	522.59
418.214	540.44
418.591	552.19
418.967	525.97
419.344	531.62
419.721	544.96
420.098	524.39
420.475	544.05
420.852	554.22
421.228	523.49
421.605	558.74
421.982	555.13
422.358	585.18
422.735	572.08
423.111	606.42
423.488	587.67
423.864	579.31
424.241	582.24
424.617	587.89
424.994	582.02
425.37	578.85
425.746	584.73
426.123	575.47
426.499	599.87
426.875	642.58
427.251	619.53
427.627	655.69
428.003	631.96
428.379	625.41
428.756	619.53
429.132	611.4
429.507	623.37
429.883	613.66
430.259	653.2
430.635	640.32
431.011	667.44
431.387	678.29
431.763	697.72
432.138	709.7
432.514	690.04
432.89	708.12
433.265	703.82
433.641	661.11
434.016	675.8
434.392	691.85
434.767	694.56
435.143	694.33
435.518	720.77
435.894	728.46
436.269	758.29
436.644	755.35
437.02	730.04
437.395	752.86
437.77	736.14
438.145	742.69
438.52	726.65
438.895	739.75
439.271	739.98
439.646	771.39
440.021	770.71
440.395	767.78
440.77	800.54
441.145	821.79
441.52	801.45
441.895	807.78
442.27	817.49
442.645	790.83
443.019	781.11
443.394	781.11
443.769	772.52
444.143	779.3
444.518	809.81
444.892	837.83
445.267	857.27
445.641	869.69
446.016	862.24
446.39	862.01
446.764	861.56
447.139	836.25
447.513	838.51
447.887	829.47
448.262	822.46
448.636	825.63
449.01	824.27
449.384	812.75
449.758	899.3
450.132	874.21
450.506	887.55
450.88	900.65
451.254	917.15
451.628	900.65
452.002	872.63
452.376	867.89
452.75	876.7
453.123	865.4
453.497	885.29
453.871	869.02
454.244	889.58
454.618	904.27
454.992	944.27
455.365	922.8
455.739	956.47
456.112	984.49
456.486	975.23
456.859	975.23
457.232	946.3
457.606	949.47
457.979	922.57
458.352	944.95
458.725	945.85
459.099	949.69
459.472	960.99
459.845	1009.35
460.218	1018.84
460.591	1001.22
460.964	1037.37
461.337	1067.2
461.71	1047.54
462.083	1039.18
462.456	1029.01
462.829	1013.87
463.201	985.17
463.574	1020.43
463.947	1007.77
464.32	1025.17
464.692	1043.25
465.065	1079.18
465.438	1090.03
465.81	1117.82
466.183	1116.24
466.555	1154.43
466.928	1181.1
467.3	1165.73
467.672	1141.1
468.045	1161.89
468.417	1094.77
468.789	1109.24
469.161	1093.87
469.534	1136.81
469.906	1163.7
470.278	1183.81
470.65	1203.02
471.022	1237.37
471.394	1289.34
471.766	1309.91
472.138	1303.36
472.51	1309.23
472.882	1287.99
473.253	1304.03
473.625	1291.6
473.997	1276.01
474.369	1284.6
474.74	1264.94
475.112	1283.24
475.484	1311.49
475.855	1354.88
476.227	1399.17
476.598	1458.15
476.97	1487.31
477.341	1505.38
477.713	1535.89
478.084	1548.32
478.455	1525.04
478.827	1506.29
479.198	1522.33
479.569	1496.34
479.94	1499.51
480.311	1499.28
480.682	1538.6
481.053	1569.11
481.424	1645.49
481.795	1664.25
482.166	1726.4
482.537	1757.81
482.908	1820.63
483.279	1841.87
483.65	1864.24
484.021	1871.25
484.391	1879.16
484.762	1841.65
485.133	1853.17
485.503	1821.53
485.874	1836.45
486.244	1818.82
486.615	1861.98
486.985	1912.61
487.356	1995.31
487.726	2030.57
488.097	2091.36
488.467	2171.81
488.837	2186.95
489.207	2234.18
489.578	2243.9
489.948	2222.43
490.318	2228.75
490.688	2201.41
491.058	2158.7
491.428	2159.38
491.798	2160.28
492.168	2200.73
492.538	2242.09
492.908	2280.28
493.278	2347.17
493.648	2400.28
494.017	2482.08
494.387	2504
494.757	2575.64
495.126	2564.79
495.496	2605.02
495.866	2561.85
496.235	2581.06
496.605	2572.93
496.974	2507.62
497.344	2485.02
497.713	2487.51
498.082	2459.03
498.452	2493.61
498.821	2497.22
499.19	2571.8
499.559	2655.18
499.928	2700.15
500.298	2752.58
500.667	2806.37
501.036	2841.39
501.405	2878.68
501.774	2844.78
502.143	2832.81
502.512	2766.14
502.88	2748.52
503.249	2698.35
503.618	2675.97
503.987	2659.7
504.356	2664.9
504.724	2693.83
505.093	2739.02
505.462	2753.26
505.83	2797.33
506.199	2894.73
506.567	2978.11
506.936	3041.16
507.304	3039.81
507.672	3076.42
508.041	3062.63
508.409	3063.54
508.777	3000.49
509.145	2950.32
509.514	2882.75
509.882	2867.83
510.25	2823.54
510.618	2831.68
510.986	2796.88
511.354	2833.71
511.722	2885.23
512.09	2972.92
512.458	2995.29
512.826	3067.38
513.193	3153.7
513.561	3219.69
513.929	3224.89
514.297	3304.66
514.664	3276.19
515.032	3203.42
515.4	3207.71
515.767	3117.09
516.135	3028.96
516.502	2955.29
516.869	2932.47
517.237	2953.48
517.604	2897.66
517.972	2954.84
518.339	2990.09
518.706	3086.13
519.073	3180.59
519.44	3259.46
519.808	3335.39
520.175	3352.12
520.542	3373.81
520.909	3440.47
521.276	3434.6
521.643	3354.83
522.009	3367.93
522.376	3332.45
522.743	3268.73
523.11	3185.79
523.477	3117.09
523.843	3103.76
524.21	3094.27
524.577	3113.48
524.943	3202.06
525.31	3247.49
525.676	3329.52
526.043	3449.74
526.409	3506.01
526.776	3612.22
527.142	3684.76
527.508	3730.64
527.874	3809.96
528.241	3757.08
528.607	3718.89
528.973	3650.41
529.339	3619.23
529.705	3618.1
530.071	3502.17
530.437	3473.47
530.803	3439.8
531.169	3437.76
531.535	3467.82
531.901	3514.14
532.267	3597.98
532.632	3696.29
532.998	3784.19
533.364	3918.65
533.73	4021.7
534.095	4088.14
534.461	4154.58
534.826	4237.52
535.192	4254.01
535.557	4188.03
535.923	4097.86
536.288	4082.72
536.653	4036.17
537.019	3908.26
537.384	3914.13
537.749	3838.2
538.114	3813.8
538.479	3815.38
538.845	3871.88
539.21	3922.95
539.575	3983.51
539.94	4102.83
540.305	4296.27
540.67	4349.15
541.034	4408.81
541.399	4576.49
541.764	4625.08
542.129	4666.43
542.494	4662.14
542.858	4648.35
543.223	4550.95
543.587	4510.73
543.952	4381.92
544.316	4363.84
544.681	4286.1
545.045	4230.74
545.41	4233.67
545.774	4205.65
546.138	4213.79
546.503	4254.69
546.867	4364.07
547.231	4439.54
547.595	4560.9
547.959	4669.37
548.324	4753.43
548.688	4839.31
549.052	4949.14
549.416	4913.88
549.779	4956.59
550.143	5034.1
550.507	4940.32
550.871	4901
551.235	4821
551.599	4695.13
551.962	4613.55
552.326	4520.67
552.689	4428.02
553.053	4402.48
553.417	4368.81
553.78	4469.15
554.143	4484.29
554.507	4584.17
554.87	4631.18
555.234	4796.15
555.597	4859.87
555.96	4999.98
556.323	5086.31
556.686	5161.11
557.05	5232.52
557.413	5234.33
557.776	5241.33
558.139	5178.73
558.502	5122.46
558.865	5026.42
559.228	4981
559.59	4923.15
559.953	4765.19
560.316	4698.52
560.679	4688.8
561.041	4681.57
561.404	4613.78
561.767	4704.62
562.129	4722.7
562.492	4862.58
562.854	5000.43
563.217	5045.86
563.579	5200.88
563.941	5355.9
564.304	5453.98
564.666	5540.08
565.028	5619.63
565.39	5601.55
565.753	5632.28
566.115	5596.35
566.477	5547.31
566.839	5424.83
567.201	5334.89
567.563	5234.78
567.925	5226.64
568.287	5015.12
568.648	4988.23
569.01	4986.2
569.372	4995.01
569.734	5012.41
570.095	5041.34
570.457	5174.44
570.819	5312.74
571.18	5409.24
571.542	5587.08
571.903	5694.2
572.265	5877.02
572.626	5965.83
572.987	6081.99
573.349	6052.61
573.71	6150.01
574.071	6154.3
574.432	6144.58
574.794	6087.64
575.155	6071.59
575.516	5983.91
575.877	5873.18
576.238	5890.35
576.599	5830.24
576.96	5832.28
577.32	5790.02
577.681	5859.17
578.042	6005.38
578.403	6049.67
578.763	6243.79
579.124	6387.29
579.485	6647.62
579.845	6868.18
580.206	7125.8
580.566	7411.44
580.927	7612.57
581.287	7844.65
581.648	7990.19
582.008	8232.66
582.368	8387.01
582.728	8563.5
583.089	8678.3
583.449	8796.04
583.809	8912.65
584.169	9078.74
584.529	9169.14
584.889	9373.65
585.249	9505.85
585.609	9659.52
585.969	9941.55
586.329	10267.64
586.688	10610.91
587.048	10932.25
587.408	11435.29
587.768	11839.58
588.127	12345.55
588.487	12816.95
588.846	13374.22
589.206	13759.53
589.565	14333.52
589.925	14887.86
590.284	15239.03
590.643	15611.68
591.003	16111.33
591.362	16444.43
591.721	16854.59
592.08	17213.67
592.44	17588.13
592.799	17855.46
593.158	18135.68
593.517	18502.68
593.876	18807.98
594.235	19095.88
594.593	19550.79
594.952	19982.86
595.311	20369.07
595.67	20953.46
596.029	21447.23
596.387	22012.64
596.746	22618.5
597.104	23081.77
597.463	23645.82
597.822	24293.26
598.18	24573.7
598.538	25182.73
598.897	25889.6
599.255	26039.2
599.613	26943.13
599.972	27126.18
600.33	27679.61
600.688	27956.21
601.046	28420.61
601.404	28655.86
601.762	28848.85
602.12	29294.48
602.478	29628.71
602.836	29926.33
603.194	29898.54
603.552	30350.28
603.91	30458.52
604.268	31025.51
604.625	31169.01
604.983	31740.97
605.341	31925.38
605.698	32588.86
606.056	33008.51
606.413	33502.28
606.771	33840.58
607.128	34513.78
607.485	34805.07
607.843	35047.78
608.2	35549.69
608.557	36070.35
608.914	36181.31
609.272	36543.78
609.629	36786.49
609.986	37186.71
610.343	37153.26
610.7	37606.81
611.057	37598.9
611.414	37692
611.771	37813.13
612.127	37952.34
612.484	37979
612.841	38289.5
613.198	38147.81
613.554	38400.69
613.911	38849.94
614.267	38845.65
614.624	39106.66
614.98	39235.01
615.337	39651.73
615.693	39914.54
616.05	40235.89
616.406	40550.69
616.762	40810.79
617.118	41060.95
617.475	41172.14
617.831	41517.89
618.187	41746.13
618.543	41819.13
618.899	42304.99
619.255	42294.14
619.611	42234.71
619.967	42345.67
620.323	42500.69
620.678	42227.25
621.034	42106.35
621.39	42124.66
621.746	42147.71
622.101	42615.94
622.457	42218.66
622.812	42314.48
623.168	42302.96
623.523	42347.25
623.879	42602.61
624.234	42680.12
624.589	42698.65
624.945	42812.77
625.3	43062.94
625.655	43097.06
626.01	43355.81
626.365	43625.86
626.72	43817.49
627.075	43711.28
627.43	43921.44
627.785	43888.68
628.14	44177.48
628.495	44227.42
628.85	44124.38
629.205	44167.54
629.559	44243.02
629.914	44181.32
630.269	44047.32
630.623	43885.51
630.978	43710.38
631.332	43775.46
631.687	43796.25
632.041	43525.07
632.396	43582.92
632.75	43391.51
633.104	43410.5
633.459	43193.33
633.813	43342.48
634.167	43298.18
634.521	43277.62
634.875	43451.4
635.229	43550.61
635.583	43363.27
635.937	43496.14
636.291	43652.3
636.645	43760.09
636.999	43859.75
637.352	43965.28
637.706	43675.35
638.06	44103.81
638.413	44040.08
638.767	43904.5
639.121	43907.89
639.474	43746.99
639.828	43803.26
640.181	43758.06
640.534	43679.19
640.888	43463.15
641.241	43222.48
641.594	43255.7
641.947	43321.23
642.301	42984.52
642.654	42943.16
643.007	42834.92
643.36	42899.55
643.713	42751.53
644.066	42841.02
644.419	42561.25
644.771	42408.72
645.124	41926.02
645.477	41935.51
645.83	41830.43
646.182	41783.65
646.535	41799.69
646.888	41992
647.24	41833.82
647.593	42320.81
647.945	42284.42
648.298	42055.05
648.65	42061.15
649.002	42011.21
649.355	42022.51
649.707	41974.6
650.059	42061.61
650.411	42498.2
650.763	42350.64
651.115	42831.08
651.467	42444.65
651.819	42443.97
652.171	42290.75
652.523	42165.11
652.875	42053.47
653.227	41682.41
653.578	42090.98
653.93	41806.92
654.282	41703.65
654.633	41528.29
654.985	41755.85
655.337	41747.26
655.688	41796.98
656.039	41982.51
656.391	41577.55
656.742	41741.61
657.094	41960.14
657.445	42143.41
657.796	42069.74
658.147	42093.24
658.498	42250.3
658.849	42383.86
659.2	42337.76
659.551	42202.62
659.902	42476.51
660.253	42431.31
660.604	42394.03
660.955	42269.28
661.306	42395.38
661.656	42051.21
662.007	41982.74
662.358	42008.5
662.708	41939.35
663.059	41754.27
663.409	41307.73
663.76	41606.93
664.11	41424.79
664.461	41338.46
664.811	41403.09
665.161	41198.58
665.511	41066.6
665.862	41126.04
666.212	41323.55
666.562	41410.55
666.912	41220.27
667.262	41207.39
667.612	41184.11
667.962	41435.41
668.312	41444.22
668.662	41612.8
669.011	41533.71
669.361	41635.85
669.711	41779.35
670.06	41625.69
670.41	41658.45
670.76	41606.93
671.109	41867.71
671.459	41875.4
671.808	41790.65
672.157	41724.67
672.507	41481.96
672.856	41471.79
673.205	41355.64
673.554	41448.06
673.904	41120.61
674.253	41347.27
674.602	40916.33
674.951	40344.36
675.3	40205.16
675.649	40802.66
675.998	40541.87
676.346	40592.72
676.695	40608.99
677.044	40289.22
677.393	40345.49
677.741	40324.7
678.09	40330.8
678.438	40268.21
678.787	40397.92
679.135	40538.26
679.484	40230.69
679.832	40486.96
680.181	40374.87
680.529	40601.76
680.877	40494.64
681.225	40546.84
681.573	40785.03
681.922	40693.96
682.27	40530.8
682.618	40736.44
682.966	40585.26
683.314	40700.74
683.661	40441.54
684.009	40256.46
684.357	40237.93
684.705	40056.46
685.053	40035.22
685.4	39854.88
685.748	39798.39
686.095	39590.48
686.443	39472.07
686.79	39162.02
687.138	39254.22
687.485	39138.07
687.832	38925.87
688.18	38839.32
688.527	38583.96
688.874	38543.96
689.221	38449.5
689.568	38318.65
689.915	38353.68
690.262	38367.24
690.609	38354.13
690.956	38146
691.303	38332.44
691.65	38304.42
691.997	38275.72
692.344	38024.42
692.69	38156.17
693.037	38218.54
693.383	38028.94
693.73	38267.58
694.077	37986.46
694.423	38068.26
694.769	37950.75
695.116	37950.75
695.462	37811.77
695.808	37680.03
696.155	37699.91
696.501	37418.34
696.847	37393.71
697.193	36926.6
697.539	36931.57
697.885	36797.34
698.231	36530
698.577	36428.76
698.923	36476.44
699.269	36181.31
699.614	36010.92
699.96	35874.2
700.306	35818.83
700.651	35603.47
700.997	35282.8
701.342	35330.94
701.688	35390.59
702.033	35250.26
702.379	35152.18
702.724	35065.86
703.069	35309.69
703.415	35014.33
703.76	35038.74
704.105	35104.5
704.45	35032.19
704.795	34913.09
705.14	34845.3
705.485	34900.66
705.83	34793.55
706.175	34968.91
706.52	34791.06
706.865	34811.63
707.209	34851.4
707.554	34754.68
707.899	34770.27
708.243	34609.6
708.588	34541.35
708.932	34151.31
709.277	34246.9
709.621	34217.07
709.966	33893.69
710.31	33933.46
710.654	33574.6
710.998	33550.42
711.342	33446.01
711.687	33311.33
712.031	33095.51
712.375	32898.68
712.719	32851
713.063	32858.01
713.407	32818.91
713.75	32670.67
714.094	32605.58
714.438	32385.25
714.782	32365.82
715.125	32335.76
715.469	32559.93
715.812	32270.9
716.156	32227.06
716.499	32314.52
716.843	32346.61
717.186	32234.52
717.53	32363.56
717.873	32439.71
718.216	32438.36
718.559	32317.68
718.902	32215.09
719.246	32146.84
719.589	32212.37
719.932	32117.69
720.275	32189.32
720.617	32146.84
720.96	32115.2
721.303	32087.4
721.646	32126.95
721.989	31796.11
722.331	31910.46
722.674	31820.75
723.016	31734.65
723.359	31527.42
723.701	31482.45
724.044	31097.6
724.386	30893.54
724.729	31063.93
725.071	30958.17
725.413	30877.95
725.755	30849.92
726.097	30509.82
726.439	30239.77
726.782	30262.82
727.124	30413.32
727.465	30213.78
727.807	30231.63
728.149	30195.93
728.491	30192.09
728.833	30174.46
729.175	30120.9
729.516	30023.73
729.858	30093.56
730.199	30189.38
730.541	30152.99
730.882	30061.47
731.224	30339.43
731.565	30170.39
731.906	30329.49
732.248	30321.58
732.589	30237.28
732.93	30142.37
733.271	30262.59
733.612	30318.41
733.953	30056.72
734.294	30096.04
734.635	30032.54
734.976	30004.07
735.317	29957.29
735.658	29903.51
735.999	29876.39
736.339	29779.44
736.68	29867.8
737.021	29608.6
737.361	29397.31
737.702	29431.43
738.042	29239.12
738.383	29156.41
738.723	29157.76
739.063	28980.82
739.404	28949.86
739.744	28880.94
740.084	28687.27
740.424	28755.97
740.764	28668.06
741.104	28688.85
741.444	28476.43
741.784	28446.6
742.124	28565.46
742.464	28473.71
742.804	28359.14
743.143	28355.75
743.483	28453.38
743.823	28292.48
744.162	28246.15
744.502	28439.37
744.841	28329.54
745.181	28524.79
745.52	28471
745.86	28554.39
746.199	28461.51
746.538	28514.39
746.877	28613.15
747.216	28492.25
747.556	28471.45
747.895	28451.34
748.234	28277.79
748.573	28308.75
748.911	28231.91
749.25	28216.32
749.589	28012.48
749.928	28106.49
750.267	27983.33
750.605	27885.48
750.944	27847.97
751.283	27642.1
751.621	27676
751.96	27426.28
752.298	27358.94
752.636	27323.91
752.975	27102.23
753.313	27052.74
753.651	27052.51
753.989	26815.23
754.327	26836.47
754.666	26626.76
755.004	26482.13
755.342	26702.24
755.679	26536.59
756.017	26273.77
756.355	26451.17
756.693	26262.02
757.031	26401
757.368	26171.4
757.706	26157.84
758.044	26097.51
758.381	26186.54
758.719	26114.23
759.056	26253.21
759.394	26138.63
759.731	25995.14
760.068	26025.64
760.405	25957.85
760.743	26015.93
761.08	26043.04
