Data from red_cardboard_box_FLMS001491_00062.txt Node
Date: Wed Feb 08 11:32:55 GMT 2017
User: dcchb
Spectrometer: FLMS00149
Trigger mode: 0
Integration Time (sec): 2.000000E-2
Scans to average: 10
Electric dark correction enabled: true
Nonlinearity correction enabled: false
Boxcar width: 0
XAxis mode: Wavelengths
Number of Pixels in Spectrum: 2048
>>>>>Begin Spectral Data<<<<<
341.393	-1.47
341.776	-1.47
342.16	-1.47
342.543	-65.2
342.927	-71.07
343.31	-68.59
343.693	-73.33
344.077	-74.24
344.46	-57.51
344.843	-69.04
345.226	-42.37
345.61	-16.61
345.993	-17.29
346.376	4.18
346.759	20.23
347.142	22.26
347.525	58.87
347.908	53.67
348.291	74.46
348.674	73.11
349.057	112.2
349.44	137.51
349.823	124.86
350.206	160.11
350.588	203.5
350.971	227.68
351.354	222.93
351.737	222.93
352.119	237.17
352.502	266.09
352.884	266.32
353.267	301.12
353.65	291.63
354.032	309.26
354.414	299.31
354.797	313.1
355.179	302.93
355.562	318.3
355.944	323.49
356.326	332.08
356.709	339.54
357.091	381.57
357.473	333.66
357.855	339.99
358.238	343.61
358.62	317.62
359.002	341.12
359.384	354.45
359.766	318.07
360.148	333.44
360.53	338.86
360.912	338.18
361.294	349.71
361.676	339.09
362.057	337.73
362.439	319.88
362.821	328.47
363.203	342.25
363.584	331.63
363.966	323.04
364.348	311.29
364.729	335.02
365.111	335.25
365.493	341.35
365.874	314.68
366.256	327.56
366.637	312.65
367.019	321.01
367.4	318.3
367.781	313.55
368.163	311.74
368.544	322.59
368.925	302.93
369.306	310.16
369.688	311.29
370.069	285.76
370.45	319.43
370.831	309.48
371.212	294.34
371.593	314
371.974	300.44
372.355	305.42
372.736	317.84
373.117	316.49
373.498	308.13
373.879	321.46
374.26	309.03
374.641	296.83
375.021	294.34
375.402	334.79
375.783	309.26
376.163	311.74
376.544	308.35
376.925	297.51
377.305	338.18
377.686	318.75
378.066	325.75
378.447	320.78
378.827	328.69
379.208	321.23
379.588	307.68
379.968	323.49
380.349	351.52
380.729	295.25
381.109	339.09
381.489	317.84
381.87	329.37
382.25	332.53
382.63	344.96
383.01	328.47
383.39	337.96
383.77	355.58
384.15	338.64
384.53	353.1
384.91	339.09
385.29	330.73
385.67	333.21
386.049	360.1
386.429	318.3
386.809	356.71
387.189	336.6
387.568	367.33
387.948	344.74
388.328	339.54
388.707	347.45
389.087	349.93
389.466	348.13
389.846	351.29
390.225	349.03
390.605	372.08
390.984	351.06
391.363	338.86
391.743	337.51
392.122	366.21
392.501	367.11
392.881	351.74
393.26	366.66
393.639	356.26
394.018	357.84
394.397	363.49
394.776	358.07
395.155	351.52
395.534	351.97
395.913	357.62
396.292	362.14
396.671	353.1
397.05	385.87
397.429	353.55
397.808	359.2
398.186	369.37
398.565	353.32
398.944	361.46
399.323	392.42
399.701	345.87
400.08	353.1
400.458	359.88
400.837	377.05
401.215	369.82
401.594	382.7
401.972	358.3
402.351	369.37
402.729	378.63
403.107	363.27
403.486	394
403.864	382.93
404.242	379.09
404.62	391.97
404.999	366.66
405.377	392.42
405.755	375.02
406.133	385.19
406.511	391.52
406.889	392.87
407.267	407.56
407.645	394
408.023	388.35
408.401	400.55
408.779	389.03
409.156	417.5
409.534	394
409.912	415.47
410.29	419.99
410.667	408.01
411.045	402.14
411.422	403.49
411.8	407.33
412.178	420.44
412.555	429.25
412.933	435.81
413.31	421.57
413.687	446.65
414.065	419.09
414.442	421.12
414.819	418.86
415.197	426.32
415.574	447.11
415.951	434.9
416.328	417.96
416.705	438.52
417.082	440.55
417.46	451.17
417.837	457.95
418.214	452.98
418.591	441.23
418.967	445.98
419.344	453.43
419.721	470.16
420.098	459.31
420.475	457.05
420.852	466.77
421.228	452.3
421.605	457.05
421.982	451.63
422.358	449.59
422.735	476.71
423.111	478.74
423.488	477.61
423.864	466.54
424.241	476.94
424.617	481.46
424.994	479.42
425.37	485.98
425.746	485.52
426.123	478.07
426.499	480.55
426.875	475.35
427.251	484.17
427.627	512.87
428.003	495.69
428.379	495.92
428.756	511.06
429.132	506.31
429.507	503.15
429.883	509.7
430.259	489.59
430.635	502.47
431.011	519.87
431.387	525.97
431.763	530.49
432.138	525.3
432.514	536.37
432.89	532.53
433.265	532.53
433.641	541.34
434.016	540.44
434.392	577.95
434.767	540.89
435.143	547.9
435.518	554.67
435.894	561.45
436.269	567.1
436.644	585.63
437.02	572.08
437.395	585.86
437.77	584.28
438.145	588.8
438.52	584.73
438.895	589.02
439.271	569.14
439.646	572.75
440.021	597.39
440.395	577.05
440.77	583.37
441.145	589.48
441.52	602.36
441.895	600.55
442.27	608.91
442.645	612.07
443.019	599.65
443.394	622.47
443.769	596.26
444.143	617.5
444.518	626.09
444.892	618.85
445.267	626.54
445.641	629.7
446.016	648.01
446.39	651.17
446.764	611.62
447.139	631.51
447.513	635.58
447.887	626.99
448.262	632.86
448.636	636.93
449.01	633.32
449.384	645.52
449.758	650.72
450.132	653.88
450.506	657.95
450.88	683.03
451.254	676.93
451.628	663.37
452.002	665.18
452.376	689.81
452.75	675.58
453.123	681.45
453.497	676.93
453.871	686.87
454.244	705.63
454.618	680.77
454.992	714.9
455.365	714.22
455.739	711.51
456.112	723.48
456.486	735.69
456.859	736.59
457.232	759.19
457.606	733.43
457.979	740.43
458.352	734.1
458.725	749.02
459.099	761.67
459.472	775.91
459.845	764.16
460.218	794.22
460.591	788.34
460.964	771.84
461.337	780.88
461.71	799.64
462.083	801.22
462.456	809.58
462.829	809.58
463.201	797.61
463.574	820.66
463.947	816.59
464.32	834.67
464.692	847.55
465.065	820.43
465.438	826.98
465.81	865.85
466.183	840.32
466.555	888.23
466.928	865.17
467.3	856.81
467.672	875.57
468.045	880.54
468.417	905.17
468.789	887.32
469.161	918.28
469.534	926.64
469.906	920.09
470.278	928.22
470.65	938.39
471.022	948.11
471.394	978.39
471.766	951.5
472.138	989.92
472.51	1005.06
472.882	999.86
473.253	1000.31
473.625	1017.26
473.997	1027.43
474.369	1035.79
474.74	1059.97
475.112	1069.92
475.484	1083.02
475.855	1075.56
476.227	1082.8
476.598	1121.67
476.97	1119.86
477.341	1138.61
477.713	1141.33
478.084	1164.38
478.455	1179.97
478.827	1194.43
479.198	1188.56
479.569	1226.07
479.94	1238.72
480.311	1250.25
480.682	1254.09
481.053	1287.99
481.424	1295.22
481.795	1319.17
482.166	1311.49
482.537	1336.12
482.908	1350.13
483.279	1358.5
483.65	1380.42
484.021	1403.01
484.391	1450.92
484.762	1446.4
485.133	1422.67
485.503	1461.77
485.874	1501.54
486.244	1497.93
486.615	1525.04
486.985	1534.08
487.356	1554.87
487.726	1558.26
488.097	1583.57
488.467	1586.06
488.837	1636.91
489.207	1637.36
489.578	1647.98
489.948	1649.11
490.318	1659.5
490.688	1685.94
491.058	1744.7
491.428	1763.91
491.798	1749.45
492.168	1781.08
492.538	1788.09
492.908	1777.92
493.278	1808.43
493.648	1796
494.017	1853.4
494.387	1860.4
494.757	1859.73
495.126	1880.97
495.496	1894.98
495.866	1929.55
496.235	1906.96
496.605	1933.4
496.974	1968.65
497.344	1982.66
497.713	2010.23
498.082	2009.33
498.452	2016.56
498.821	2024.69
499.19	2026.27
499.559	2067.18
499.928	2082.77
500.298	2083.22
500.667	2098.59
501.036	2127.74
501.405	2101.3
501.774	2119.38
502.143	2127.29
502.512	2156.67
502.88	2154.41
503.249	2141.3
503.618	2196.21
503.987	2206.16
504.356	2223.33
504.724	2234.86
505.093	2258.58
505.462	2279.38
505.83	2280.05
506.199	2318.47
506.567	2306.27
506.936	2318.47
507.304	2325.93
507.672	2352.37
508.041	2330.9
508.409	2405.7
508.777	2389.2
509.145	2415.87
509.514	2425.59
509.882	2404.8
510.25	2437.79
510.618	2467.39
510.986	2460.61
511.354	2505.13
511.722	2542.42
512.09	2545.13
512.458	2516.66
512.826	2564.11
513.193	2540.84
513.561	2574.73
513.929	2607.28
514.297	2626.03
514.664	2667.16
515.032	2671
515.4	2684.34
515.767	2677.33
516.135	2703.32
516.502	2706.48
516.869	2739.48
517.237	2765.92
517.604	2783.54
517.972	2805.91
518.339	2816.31
518.706	2826.25
519.073	2823.54
519.44	2860.83
519.808	2854.95
520.175	2901.96
520.542	2958.23
520.909	2950.32
521.276	2980.37
521.643	2986.25
522.009	3027.38
522.376	3044.1
522.743	3056.3
523.11	3094.04
523.477	3133.36
523.843	3125
524.21	3153.48
524.577	3183.98
524.943	3204.55
525.31	3248.84
525.676	3272.34
526.043	3308.73
526.409	3266.02
526.776	3281.38
527.142	3349.86
527.508	3366.35
527.874	3375.84
528.241	3437.76
528.607	3402.96
528.973	3444.77
529.339	3443.64
529.705	3462.85
530.071	3519.57
530.437	3528.83
530.803	3529.29
531.169	3565.22
531.535	3600.92
531.901	3597.08
532.267	3626.23
532.632	3648.6
532.998	3682.95
533.364	3691.09
533.73	3748.26
534.095	3738.32
534.461	3753.01
534.826	3767.92
535.192	3801.37
535.557	3813.57
535.923	3829.39
536.288	3846.34
536.653	3834.81
537.019	3872.1
537.384	3884.53
537.749	3873.91
538.114	3948.03
538.479	3927.69
538.845	3941.48
539.21	3931.99
539.575	3974.25
539.94	3993.91
540.305	4063.96
540.67	4018.09
541.034	4040.46
541.399	4112.1
541.764	4102.15
542.129	4156.84
542.494	4147.57
542.858	4148.7
543.223	4171.3
543.587	4228.02
543.952	4186.44
544.316	4237.74
544.681	4244.3
545.045	4286.1
545.41	4323.62
545.774	4333.56
546.138	4346.89
546.503	4380.56
546.867	4345.76
547.231	4442.48
547.595	4397.51
547.959	4458.98
548.324	4436.83
548.688	4461.69
549.052	4504.18
549.416	4494.91
549.779	4534.46
550.143	4527
550.507	4587.11
550.871	4628.47
551.235	4648.35
551.599	4651.97
551.962	4692.87
552.326	4696.26
552.689	4745.98
553.053	4734
553.417	4788.91
553.78	4864.62
554.143	4853.32
554.507	4825.52
554.87	4882.47
555.234	4973.09
555.597	4931.96
555.96	4989.36
556.323	5024.61
556.686	5060.54
557.05	5098.96
557.413	5090.15
557.776	5123.82
558.139	5166.98
558.502	5199.3
558.865	5225.96
559.228	5294.44
559.59	5254.66
559.953	5322.01
560.316	5411.72
560.679	5428.9
561.041	5516.58
561.404	5538.72
561.767	5580.98
562.129	5565.84
562.492	5677.93
562.854	5695.33
563.217	5657.59
563.579	5779.85
563.941	5816.46
564.304	5871.37
564.666	5896.91
565.028	5998.6
565.39	6016.45
565.753	6077.02
566.115	6079.95
566.477	6192.94
566.839	6263.23
567.201	6276.78
567.563	6349.32
567.925	6414.86
568.287	6443.79
568.648	6484.01
569.01	6525.59
569.372	6611.24
569.734	6645.36
570.095	6760.39
570.457	6758.58
570.819	6867.96
571.18	6857.56
571.542	6935.98
571.903	7033.83
572.265	7077.22
572.626	7120.15
572.987	7168.06
573.349	7232.69
573.71	7281.28
574.071	7350.2
574.432	7399.24
574.794	7539.58
575.155	7555.17
575.516	7600.14
575.877	7766.24
576.238	7805.56
576.599	7920.13
576.96	7945.44
577.32	8015.27
577.681	8150.63
578.042	8209.61
578.403	8274.02
578.763	8356.5
579.124	8475.6
579.485	8566.22
579.845	8707.91
580.206	8806.44
580.566	8825.19
580.927	9008.92
581.287	9175.24
581.648	9237.84
582.008	9361.45
582.368	9487.32
582.728	9643.25
583.089	9710.14
583.449	9808.67
583.809	10042.79
584.169	10119.85
584.529	10193.07
584.889	10419.27
585.249	10508.99
585.609	10626.05
585.969	10885.25
586.329	11022.2
586.688	11127.96
587.048	11285.69
587.408	11503.54
587.768	11639.13
588.127	11916.41
588.487	12103.52
588.846	12309.17
589.206	12505.32
589.565	12695.15
589.925	12987.57
590.284	13131.97
590.643	13368.58
591.003	13624.61
591.362	13894.21
591.721	14051.49
592.08	14341.43
592.44	14602.67
592.799	14931.92
593.158	15204.46
593.517	15420.05
593.876	15754.5
594.235	16009.64
594.593	16305.67
594.952	16618.21
595.311	16858.2
595.67	17237.4
596.029	17577.96
596.387	17853.65
596.746	18199.41
597.104	18396.24
597.463	18713.97
597.822	19112.15
598.18	19360.06
598.538	19743.55
598.897	20124.78
599.255	20395.96
599.613	20845.89
599.972	21075.94
600.33	21515.48
600.688	21658.53
601.046	22136.03
601.404	22645.39
601.762	22927.19
602.12	23282.21
602.478	23696.67
602.836	24006.49
603.194	24185.69
603.552	24646.7
603.91	24842.85
604.268	25335.49
604.625	25631.53
604.983	25984.51
605.341	26256.15
605.698	26642.12
606.056	27062.9
606.413	27363.69
606.771	27630.12
607.128	27952.6
607.485	28167.73
607.843	28485.24
608.2	28856.98
608.557	29262.39
608.914	29581.26
609.272	29867.58
609.629	30208.36
609.986	30488.12
610.343	30701.45
610.7	31013.31
611.057	31339.63
611.414	31552.96
611.771	31817.58
612.127	32094.86
612.484	32342.09
612.841	32598.8
613.198	32719.03
613.554	33138.45
613.911	33361.27
614.267	33521.94
614.624	33739.56
614.98	33940.46
615.337	34198.76
615.693	34424.29
616.05	34597.85
616.406	34965.3
616.762	34995.58
617.118	35078.29
617.475	35326.42
617.831	35728.44
618.187	35829
618.543	36047.3
618.899	36405.71
619.255	36482.09
619.611	36588.08
619.967	36838.69
620.323	37011.34
620.678	37007.05
621.034	37059.7
621.39	37253.14
621.746	37532.01
622.101	37858.1
622.457	37682.06
622.812	37884.31
623.168	38026.68
623.523	38167.92
623.879	38368.82
624.234	38152.56
624.589	38496.05
624.945	38499.21
625.3	38725.2
625.655	38844.29
626.01	38860.79
626.365	38971.52
626.72	38983.49
627.075	39008.13
627.43	39151.63
627.785	39139.65
628.14	39326.76
628.495	39344.39
628.85	39461
629.205	39371.51
629.559	39742.34
629.914	39604.5
630.269	39650.37
630.623	39618.05
630.978	39635.46
631.332	39892.62
631.687	39879.97
632.041	39808.33
632.396	39961.32
632.75	39958.84
633.104	39939.18
633.459	39796.13
633.813	40019.63
634.167	39985.73
634.521	40096.01
634.875	40172.39
635.229	40073.18
635.583	39907.76
635.937	40091.94
636.291	39858.5
636.645	40175.1
636.999	40115.44
637.352	40145.05
637.706	39933.53
638.06	40139.4
638.413	40211.26
638.767	40043.35
639.121	40150.24
639.474	39917.71
639.828	40112.96
640.181	40229.79
640.534	40276.57
640.888	40160.41
641.241	40011.26
641.594	40049.68
641.947	40161.99
642.301	40261.65
642.654	40176.46
643.007	40233.63
643.36	40176.68
643.713	40259.62
644.066	40294.87
644.419	39992.73
644.771	39855.11
645.124	39452.86
645.477	39335.12
645.83	39255.8
646.182	39084.28
646.535	39000.44
646.888	39154.56
647.24	39210.38
647.593	39306.42
647.945	39168.57
648.298	39017.62
648.65	39084.51
649.002	38990.73
649.355	39133.77
649.707	39205.41
650.059	39172.19
650.411	39702.57
650.763	39800.65
651.115	40217.59
651.467	39995.67
651.819	40073.18
652.171	40014.2
652.523	39949.57
652.875	40099.62
653.227	39954.09
653.578	40116.35
653.93	40055.1
654.282	39929.91
654.633	39922.45
654.985	39832.06
655.337	39970.36
655.688	40019.17
656.039	40090.81
656.391	39870.03
656.742	39864.83
657.094	39929.68
657.445	39928.1
657.796	39879.74
658.147	39857.6
658.498	39884.49
658.849	39969.91
659.2	39780.76
659.551	39796.35
659.902	39870.93
660.253	39717.26
660.604	39929.91
660.955	39765.62
661.306	39851.04
661.656	39800.2
662.007	39868.44
662.358	39748.9
662.708	39819.63
663.059	39775.34
663.409	39494.89
663.76	39877.03
664.11	39957.71
664.461	39881.55
664.811	39858.5
665.161	39691.72
665.511	39804.04
665.862	39805.62
666.212	39845.39
666.562	39902.79
666.912	39705.51
667.262	39784.15
667.612	39871.83
667.962	39754.55
668.312	39828.67
668.662	40074.31
669.011	39848.78
669.361	39902.11
669.711	39788.9
670.06	39751.61
670.41	39751.61
670.76	39559.52
671.109	39813.98
671.459	39822.12
671.808	39741.44
672.157	39737.37
672.507	39428.45
672.856	39441.79
673.205	39579.64
673.554	39707.32
673.904	39637.26
674.253	39689.92
674.602	39760.42
674.951	38962.25
675.3	39025.08
675.649	39529.47
675.998	39518.17
676.346	39515.23
676.695	39620.77
677.044	39382.58
677.393	39426.87
677.741	39475.46
678.09	39438.85
678.438	39200.44
678.787	39338.06
679.135	39368.34
679.484	39067.11
679.832	39295.8
680.181	39092.64
680.529	39191.62
680.877	39034.79
681.225	39217.84
681.573	39239.76
681.922	39007.22
682.27	38942.82
682.618	38835.25
682.966	38775.36
683.314	38822.82
683.661	38823.27
684.009	38651.75
684.357	38624.41
684.705	38524.98
685.053	38431.64
685.4	38430.74
685.748	38356.17
686.095	38305.32
686.443	38206.79
686.79	38251.54
687.138	38082.05
687.485	38160.92
687.832	37956.4
688.18	37993.24
688.527	37890.19
688.874	37913.92
689.221	37660.59
689.568	37600.71
689.915	37463.99
690.262	37638.67
690.609	37443.87
690.956	37209.98
691.303	37261.51
691.65	37104.67
691.997	37179.93
692.344	37109.42
692.69	36924.57
693.037	36992.59
693.383	36650.45
693.73	36731.8
694.077	36635.99
694.423	36443.9
694.769	36558.93
695.116	36533.39
695.462	36414.75
695.808	36245.94
696.155	36274.19
696.501	36089.33
696.847	36109.22
697.193	35812.5
697.539	35887.98
697.885	35632.62
698.231	35636.46
698.577	35673.98
698.923	35580.65
699.269	35364.15
699.614	35177.04
699.96	35164.39
700.306	35176.14
700.651	34956.03
700.997	34921.23
701.342	34863.83
701.688	34818.41
702.033	34711.74
702.379	34612.54
702.724	34582.48
703.069	34699.77
703.415	34243.28
703.76	34303.84
704.105	34200.12
704.45	34205.77
704.795	34038.09
705.14	33959.9
705.485	33890.75
705.83	33811.2
706.175	33820.69
706.52	33645.56
706.865	33532.79
707.209	33625.9
707.554	33387.03
707.899	33466.58
708.243	33393.36
708.588	33363.98
708.932	33072.92
709.277	33062.75
709.621	33126.93
709.966	32822.07
710.31	32855.97
710.654	32513.61
710.998	32882.19
711.342	32700.27
711.687	32599.93
712.031	32491.69
712.375	32308.19
712.719	32523.1
713.063	32544.12
713.407	32505.25
713.75	32254.41
714.094	32265.48
714.438	32218.25
714.782	32245.82
715.125	31994.53
715.469	32132.15
715.812	31940.97
716.156	31684.03
716.499	31836.79
716.843	31711.82
717.186	31536.01
717.53	31734.65
717.873	31684.25
718.216	31667.75
718.559	31584.14
718.902	31164.94
719.246	31386.63
719.589	31403.36
719.932	31161.33
720.275	31071.61
720.617	31119.07
720.96	31102.35
721.303	31089.01
721.646	31045.62
721.989	30838.4
722.331	30882.24
722.674	30952.07
723.016	30973.76
723.359	30793.88
723.701	30821.68
724.044	30622.58
724.386	30541.91
724.729	30643.83
725.071	30606.99
725.413	30588.91
725.755	30544.39
726.097	30513.89
726.439	30217.4
726.782	30275.7
727.124	30450.61
727.465	30255.81
727.807	30151.41
728.149	30049.72
728.491	30145.31
728.833	30134.91
729.175	30001.58
729.516	29981.47
729.858	29799.1
730.199	29909.16
730.541	29862.83
730.882	29955.48
731.224	29893.56
731.565	29687.24
731.906	29785.54
732.248	29699.22
732.589	29593.91
732.93	29430.53
733.271	29612.22
733.612	29568.38
733.953	29496.51
734.294	29368.38
734.635	29408.83
734.976	29342.39
735.317	29374.03
735.658	29361.37
735.999	29323.18
736.339	29239.12
736.68	29296.97
737.021	29056.52
737.361	29051.33
737.702	29139.69
738.042	29050.2
738.383	28913.93
738.723	28950.76
739.063	28788.96
739.404	29040.93
739.744	28918.45
740.084	28727.95
740.424	28742.41
740.764	28831.45
741.104	28853.14
741.444	28616.54
741.784	28543.54
742.124	28662.64
742.464	28515.75
742.804	28538.57
743.143	28573.6
743.483	28510.1
743.823	28276.88
744.162	28376.32
744.502	28466.94
744.841	28240.27
745.181	28347.62
745.52	28250.44
745.86	28388.29
746.199	28226.49
746.538	28248.64
746.877	28184.46
747.216	28178.36
747.556	28106.27
747.895	28113.72
748.234	28011.13
748.573	28034.4
748.911	27927.51
749.25	27819.72
749.589	27895.88
749.928	27841.41
750.267	27844.13
750.605	27694.53
750.944	27801.87
751.283	27536.34
751.621	27661.76
751.96	27501.76
752.298	27470.8
752.636	27506.28
752.975	27390.35
753.313	27299.28
753.651	27362.33
753.989	27330.69
754.327	27276.46
754.666	27160.53
755.004	27078.5
755.342	27152.85
755.679	27066.29
756.017	26950.14
756.355	27006.63
756.693	26887.54
757.031	26888.9
757.368	26666.53
757.706	26751.27
758.044	26569.81
758.381	26663.82
758.719	26504.05
759.056	26564.39
759.394	26404.16
759.731	26286.65
760.068	26280.78
760.405	26118.75
760.743	26129.6
761.08	26142.7
761.417	26002.37
