Data from red_cardboard_box_FLMS001491_00044.txt Node
Date: Wed Feb 08 11:32:27 GMT 2017
User: dcchb
Spectrometer: FLMS00149
Trigger mode: 0
Integration Time (sec): 2.000000E-2
Scans to average: 10
Electric dark correction enabled: true
Nonlinearity correction enabled: false
Boxcar width: 0
XAxis mode: Wavelengths
Number of Pixels in Spectrum: 2048
>>>>>Begin Spectral Data<<<<<
341.393	-22.39
341.776	-22.39
342.16	-22.39
342.543	-61.26
342.927	-59
343.31	-71.65
343.693	-80.69
344.077	-78.43
344.46	-51.54
344.843	-45.21
345.226	-47.92
345.61	-29.17
345.993	-11.09
346.376	-4.99
346.759	12.64
347.142	16.26
347.525	29.59
347.908	65.75
348.291	75.24
348.674	111.85
349.057	109.36
349.44	144.39
349.823	157.27
350.206	157.72
350.588	193.65
350.971	219.42
351.354	236.36
351.737	251.5
352.119	257.83
352.502	263.26
352.884	269.36
353.267	278.4
353.65	284.72
354.032	320.88
354.414	315.01
354.797	319.75
355.179	310.03
355.562	317.72
355.944	344.38
356.326	340.32
356.709	340.77
357.091	329.24
357.473	342.58
357.855	337.83
358.238	344.38
358.62	340.09
359.002	350.03
359.384	362.01
359.766	338.28
360.148	346.87
360.53	338.28
360.912	330.82
361.294	337.6
361.676	331.28
362.057	336.7
362.439	310.71
362.821	337.83
363.203	320.88
363.584	305.74
363.966	308.9
364.348	326.76
364.729	323.37
365.111	314.78
365.493	310.94
365.874	318.4
366.256	322.24
366.637	298.74
367.019	303.71
367.4	310.71
367.781	335.12
368.163	318.4
368.544	298.96
368.925	297.38
369.306	330.37
369.688	306.42
370.069	318.62
370.45	322.46
370.831	324.05
371.212	318.62
371.593	306.19
371.974	317.49
372.355	298.06
372.736	333.76
373.117	340.99
373.498	325.18
373.879	319.75
374.26	296.25
374.641	324.5
375.021	305.29
375.402	323.59
375.783	319.07
376.163	326.76
376.544	327.21
376.925	332.86
377.305	324.5
377.686	330.82
378.066	334.44
378.447	327.89
378.827	305.06
379.208	310.26
379.588	332.41
379.968	332.86
380.349	345.29
380.729	349.81
381.109	317.49
381.489	348.68
381.87	322.01
382.25	335.12
382.63	327.43
383.01	345.29
383.39	323.37
383.77	336.7
384.15	326.98
384.53	356.13
384.91	332.86
385.29	359.3
385.67	350.03
386.049	345.06
386.429	341.67
386.809	366.98
387.189	349.13
387.568	345.74
387.948	352.29
388.328	346.64
388.707	363.82
389.087	342.58
389.466	353.2
389.846	344.84
390.225	349.81
390.605	344.16
390.984	337.38
391.363	341.67
391.743	345.97
392.122	361.11
392.501	333.99
392.881	366.08
393.26	361.11
393.639	343.03
394.018	354.78
394.397	370.37
394.776	375.34
395.155	370.6
395.534	384.38
395.913	373.99
396.292	390.94
396.671	352.97
397.05	371.73
397.429	375.12
397.808	371.05
398.186	377.6
398.565	376.25
398.944	379.86
399.323	394.1
399.701	387.55
400.08	372.18
400.458	386.87
400.837	384.83
401.215	390.03
401.594	376.7
401.972	362.69
402.351	377.15
402.729	376.47
403.107	386.87
403.486	388.9
403.864	376.7
404.242	389.81
404.62	404.27
404.999	404.95
405.377	409.69
405.755	418.73
406.133	398.85
406.511	393.87
406.889	391.39
407.267	385.96
407.645	394.55
408.023	403.37
408.401	403.82
408.779	411.95
409.156	423.25
409.534	390.48
409.912	424.83
410.29	394.33
410.667	402.69
411.045	439.75
411.422	446.53
411.8	444.95
412.178	424.38
412.555	442.46
412.933	405.17
413.31	404.5
413.687	432.74
414.065	445.4
414.442	423.03
414.819	434.55
415.197	433.42
415.574	468.22
415.951	476.36
416.328	448.34
416.705	474.55
417.082	459.63
417.46	462.12
417.837	474.1
418.214	464.61
418.591	420.99
418.967	449.47
419.344	466.19
419.721	458.73
420.098	457.83
420.475	455.79
420.852	460.31
421.228	476.13
421.605	462.57
421.982	475.91
422.358	468.9
422.735	482.01
423.111	495.11
423.488	490.37
423.864	458.5
424.241	479.97
424.617	488.33
424.994	490.14
425.37	492.85
425.746	494.89
426.123	495.11
426.499	482.91
426.875	506.87
427.251	500.31
427.627	507.54
428.003	503.02
428.379	522.01
428.756	534.44
429.132	516.13
429.507	528.33
429.883	547.09
430.259	550.93
430.635	544.83
431.011	530.37
431.387	543.7
431.763	544.15
432.138	547.99
432.514	548.67
432.89	554.1
433.265	559.29
433.641	554.55
434.016	573.08
434.392	551.61
434.767	583.7
435.143	597.03
435.518	595.22
435.894	592.06
436.269	583.93
436.644	594.09
437.02	595.68
437.395	599.52
437.77	625.28
438.145	619.86
438.52	595.9
438.895	605.62
439.271	620.31
439.646	611.27
440.021	609.69
440.395	603.13
440.77	645.17
441.145	625.73
441.52	616.69
441.895	639.29
442.27	639.74
442.645	635.22
443.019	662.12
443.394	673.19
443.769	645.84
444.143	634.55
444.518	645.62
444.892	650.36
445.267	679.06
445.641	662.12
446.016	664.6
446.39	655.79
446.764	670.93
447.139	675.22
447.513	669.12
447.887	668.22
448.262	673.64
448.636	684.04
449.01	688.1
449.384	694.2
449.758	717.03
450.132	699.4
450.506	681.32
450.88	716.58
451.254	690.59
451.628	715.67
452.002	699.18
452.376	715.67
452.75	697.59
453.123	745.95
453.497	694.2
453.871	723.13
454.244	726.75
454.618	728.55
454.992	737.14
455.365	741.66
455.739	741.21
456.112	733.75
456.486	755.22
456.859	787.99
457.232	786.63
457.606	785.95
457.979	780.76
458.352	811.49
458.725	800.87
459.099	806.97
459.472	818.95
459.845	833.18
460.218	793.19
460.591	835.67
460.964	832.73
461.337	840.19
461.71	848.33
462.083	854.65
462.456	868.66
462.829	836.35
463.201	854.43
463.574	880.64
463.947	872.96
464.32	929.23
464.692	891.49
465.065	912.05
465.438	893.75
465.81	910.47
466.183	905.05
466.555	933.07
466.928	932.62
467.3	930.36
467.672	962.22
468.045	955.89
468.417	967.64
468.789	984.59
469.161	993.63
469.534	988.21
469.906	1002.22
470.278	1003.8
470.65	1028.43
471.022	1018.72
471.394	1053.52
471.766	1084.25
472.138	1056.91
472.51	1067.08
472.882	1109.34
473.253	1086.06
473.625	1117.7
473.997	1140.07
474.369	1145.27
474.74	1147.3
475.112	1140.52
475.484	1145.49
475.855	1157.92
476.227	1185.94
476.598	1217.13
476.97	1228.43
477.341	1219.39
477.713	1251.03
478.084	1255.32
478.455	1300.74
478.827	1309.56
479.198	1314.3
479.569	1323.11
479.94	1356.79
480.311	1362.21
480.682	1372.38
481.053	1376.67
481.424	1420.06
481.795	1423.45
482.166	1460.96
482.537	1474.07
482.908	1482.88
483.279	1521.08
483.65	1514.97
484.021	1532.15
484.391	1545.71
484.762	1570.11
485.133	1543.22
485.503	1580.74
485.874	1619.6
486.244	1621.64
486.615	1677.91
486.985	1670
487.356	1707.96
487.726	1728.75
488.097	1756.32
488.467	1741.18
488.837	1783.22
489.207	1793.16
489.578	1819.83
489.948	1808.98
490.318	1848.07
490.688	1844.91
491.058	1884.68
491.428	1882.2
491.798	1933.95
492.168	1976.21
492.538	1937.11
492.908	1929.2
493.278	1991.35
493.648	1991.8
494.017	1995.87
494.387	2057.78
494.757	2092.36
495.126	2068.63
495.496	2104.56
495.866	2126.94
496.235	2126.71
496.605	2125.58
496.974	2154.96
497.344	2204.67
497.713	2198.12
498.082	2201.74
498.452	2244.45
498.821	2229.08
499.19	2215.97
499.559	2271.56
499.928	2298.46
500.298	2296.87
500.667	2332.58
501.036	2355.18
501.405	2342.98
501.774	2347.27
502.143	2404.89
502.512	2380.71
502.88	2403.99
503.249	2406.48
503.618	2429.75
503.987	2464.1
504.356	2451.9
504.724	2504.78
505.093	2487.83
505.462	2521.95
505.83	2525.12
506.199	2535.06
506.567	2567.83
506.936	2554.95
507.304	2587.04
507.672	2600.37
508.041	2618.22
508.409	2630.2
508.777	2645.57
509.145	2667.03
509.514	2705.68
509.882	2704.55
510.25	2732.34
510.618	2733.47
510.986	2771.44
511.354	2793.13
511.722	2772.79
512.09	2844.88
512.458	2810.76
512.826	2876.97
513.193	2894.83
513.561	2861.61
513.929	2935.73
514.297	2923.3
514.664	2951.77
515.032	2946.58
515.4	2979.12
515.767	2974.14
516.135	3024.77
516.502	2999.68
516.869	3089.85
517.237	3062.73
517.604	3101.15
517.972	3110.41
518.339	3138.43
518.706	3141.15
519.073	3186.57
519.44	3203.07
519.808	3239.45
520.175	3236.06
520.542	3251.65
520.909	3320.12
521.276	3312.89
521.643	3338.2
522.009	3382.72
522.376	3403.96
522.743	3416.85
523.11	3403.06
523.477	3462.49
523.843	3494.58
524.21	3532.77
524.577	3557.86
524.943	3575.71
525.31	3560.8
525.676	3641.92
526.043	3631.08
526.409	3621.13
526.776	3696.16
527.142	3700.68
527.508	3747.01
527.874	3807.8
528.241	3792.88
528.607	3820
528.973	3823.61
529.339	3897.51
529.705	3876.95
530.071	3942.03
530.437	3937.96
530.803	3949.94
531.169	4006.89
531.535	3956.04
531.901	4030.84
532.267	4062.03
532.632	4080.1
532.998	4064.06
533.364	4084.17
533.73	4117.17
534.095	4158.97
534.461	4206.43
534.826	4248.69
535.192	4226.99
535.557	4295.47
535.923	4269.93
536.288	4313.32
536.653	4355.58
537.019	4322.81
537.384	4349.7
537.749	4358.06
538.114	4377.95
538.479	4400.32
538.845	4422.92
539.21	4437.38
539.575	4446.2
539.94	4466.99
540.305	4532.52
540.67	4499.75
541.034	4577.49
541.399	4620.2
541.764	4577.72
542.129	4656.81
542.494	4637.6
542.858	4659.07
543.223	4705.85
543.587	4705.17
543.952	4707.88
544.316	4751.27
544.681	4777.04
545.045	4790.59
545.41	4816.13
545.774	4817.94
546.138	4833.98
546.503	4827.2
546.867	4834.66
547.231	4884.38
547.595	4935.45
547.959	4948.1
548.324	5016.35
548.688	5007.76
549.052	5051.6
549.416	5045.95
549.779	5043.92
550.143	5063.81
550.507	5132.51
550.871	5152.62
551.235	5192.17
551.599	5188.55
551.962	5205.5
552.326	5302.9
552.689	5319.85
553.053	5317.59
553.417	5325.95
553.78	5412.72
554.143	5501.54
554.507	5422.67
554.87	5506.96
555.234	5582.21
555.597	5570.91
555.96	5569.78
556.323	5645.26
556.686	5614.53
557.05	5655.2
557.413	5695.2
557.776	5831.47
558.139	5819.72
558.502	5824.92
558.865	5869.66
559.228	5904.24
559.59	5992.82
559.953	5972.03
560.316	6068.3
560.679	6077.57
561.041	6140.16
561.404	6212.93
561.767	6280.5
562.129	6255.87
562.492	6373.83
562.854	6339.25
563.217	6443.66
563.579	6480.49
563.941	6559.14
564.304	6586.93
564.666	6672.35
565.028	6695.63
565.39	6746.93
565.753	6780.6
566.115	6860.14
566.477	6936.98
566.839	6997.77
567.201	7070.76
567.563	7106.24
567.925	7154.15
568.287	7191.44
568.648	7278.89
569.01	7355.95
569.372	7435.95
569.734	7413.35
570.095	7583.29
570.457	7587.36
570.819	7698.09
571.18	7757.52
571.542	7775.37
571.903	7883.62
572.265	7919.1
572.626	8036.84
572.987	8027.12
573.349	8169.04
573.71	8279.09
574.071	8351.18
574.432	8385.3
574.794	8552.98
575.155	8576.26
575.516	8623.49
575.877	8793.2
576.238	8834.33
576.599	8891.28
576.96	8990.03
577.32	9046.75
577.681	9231.38
578.042	9289.46
578.403	9425.5
578.763	9515.44
579.124	9657.59
579.485	9712.05
579.845	9846.05
580.206	10015.09
580.566	10126.73
580.927	10165.14
581.287	10323.56
581.648	10445.13
582.008	10567.17
582.368	10685.81
582.728	10827.05
583.089	10994.27
583.449	11106.81
583.809	11255.28
584.169	11482.85
584.529	11595.61
584.889	11846.91
585.249	11960.58
585.609	12068.82
585.969	12384.74
586.329	12511.97
586.688	12751.74
587.048	12870.16
587.408	13109.47
587.768	13384.04
588.127	13565.96
588.487	13726.63
588.846	14044.59
589.206	14215.21
589.565	14485.03
589.925	14834.85
590.284	14974.51
590.643	15247.72
591.003	15479.13
591.362	15834.6
591.721	16064.65
592.08	16330.18
592.44	16712.31
592.799	17108.01
593.158	17308.68
593.517	17605.62
593.876	17926.52
594.235	18275.44
594.593	18597.69
594.952	18896.44
595.311	19247.16
595.67	19761.5
596.029	20078.55
596.387	20494.81
596.746	20879.44
597.104	21043.05
597.463	21497.95
597.822	21859.75
598.18	21971.16
598.538	22454.54
598.897	22948.08
599.255	23174.29
599.613	23811.34
599.972	24063.76
600.33	24435.28
600.688	24741.03
601.046	25062.15
601.404	25627.79
601.762	25943.03
602.12	26298.28
602.478	26612.85
602.836	26978.03
603.194	27264.13
603.552	27644.23
603.91	27999.7
604.268	28328.73
604.625	28590.42
604.983	29029.51
605.341	29302.72
605.698	29727.79
606.056	30200.32
606.413	30456.59
606.771	30862.68
607.128	31132.05
607.485	31433.51
607.843	31672.37
608.2	32056.77
608.557	32436.87
608.914	32586.02
609.272	33028.27
609.629	33345.55
609.986	33699.21
610.343	33792.54
610.7	34110.5
611.057	34308.46
611.414	34587.78
611.771	34900.31
612.127	35177.37
612.484	35332.39
612.841	35679.5
613.198	35929.66
613.554	36027.51
613.911	36371.01
614.267	36530.78
614.624	36851.22
614.98	36959.47
615.337	37318.33
615.693	37479.23
616.05	37632.67
616.406	37963.51
616.762	37994.02
617.118	38109.72
617.475	38284.63
617.831	38490.5
618.187	38778.85
618.543	39021.33
618.899	39238.95
619.255	39357.14
619.611	39492.28
619.967	39713.29
620.323	39897.24
620.678	39923.23
621.034	39875.55
621.39	40067.41
621.746	40033.96
622.101	40668.97
622.457	40418.81
622.812	40626.04
623.168	40881.62
623.523	40878.46
623.879	41134.72
624.234	40893.83
624.589	41245.68
624.945	41282.06
625.3	41426.24
625.655	41405
626.01	41668.95
626.365	41520.48
626.72	41615.84
627.075	41800.02
627.43	41862.16
627.785	41794.14
628.14	41943.52
628.495	41977.19
628.85	41981.03
629.205	41975.38
629.559	42240.91
629.914	42038.2
630.269	42343.28
630.623	42284.3
630.978	42314.35
631.332	42422.6
631.687	42497.85
632.041	42308.25
632.396	42506.44
632.75	42404.97
633.104	42519.32
633.459	42407.91
633.813	42420.79
634.167	42331.98
634.521	42360
634.875	42608.36
635.229	42546.89
635.583	42295.82
635.937	42344.64
636.291	42480.68
636.645	42454.01
636.999	42275.48
637.352	42562.93
637.706	42399.32
638.06	42458.3
638.413	42423.5
638.767	42332.21
639.121	42418.76
639.474	42313.9
639.828	42536.72
640.181	42515.48
640.534	42624.85
640.888	42432.54
641.241	42317.74
641.594	42343.51
641.947	42468.47
642.301	42326.33
642.654	42429.83
643.007	42468.02
643.36	42277.52
643.713	42400.68
644.066	42440.45
644.419	42315.03
644.771	42033.91
645.124	41453.13
645.477	41666.01
645.83	41362.97
646.182	41461.95
646.535	41282.52
646.888	41283.87
647.24	41267.6
647.593	41537.42
647.945	41441.38
648.298	41167.04
648.65	41294.72
649.002	41110.77
649.355	41234.61
649.707	41033.03
650.059	41368.16
650.411	41887.02
650.763	41887.47
651.115	42261.7
651.467	42255.6
651.819	42164.53
652.171	42200.23
652.523	42154.81
652.875	42112.32
653.227	42000.92
653.578	42303.96
653.93	42145.77
654.282	42036.39
654.633	42009.5
654.985	42143.28
655.337	42004.98
655.688	42106.45
656.039	42209.95
656.391	41835.95
656.742	41957.3
657.094	42061.7
657.445	42113.91
657.796	42160.23
658.147	41931.09
658.498	41959.11
658.849	42020.8
659.2	41972.22
659.551	41901.93
659.902	41921.82
660.253	41868.94
660.604	41996.62
660.955	41785.78
661.306	41901.03
661.656	41862.61
662.007	41895.83
662.358	41811.77
662.708	41905.78
663.059	41848.38
663.409	41726.35
663.76	41911.65
664.11	41882.95
664.461	41999.11
664.811	41854.93
665.161	41963.4
665.511	41830.52
665.862	41969.73
666.212	41953.69
666.562	41969.96
666.912	41887.47
667.262	41841.15
667.612	41748.27
667.962	41803.18
668.312	41791.43
668.662	42000.01
669.011	41872.56
669.361	41854.25
669.711	41804.54
670.06	41683.41
670.41	41729.96
670.76	41615.84
671.109	41798.89
671.459	41848.15
671.808	41779.23
672.157	41838.43
672.507	41614.71
672.856	41483.87
673.205	41621.72
673.554	41663.75
673.904	41554.6
674.253	41787.81
674.602	41468.05
674.951	41078
675.3	40835.97
675.649	41564.99
675.998	41491.1
676.346	41561.6
676.695	41450.65
677.044	41194.16
677.393	41532.91
677.741	41430.31
678.09	41345.57
678.438	41273.48
678.787	41339.01
679.135	41292.01
679.484	41019.92
679.832	41340.82
680.181	40972.92
680.529	41074.61
680.877	40965.24
681.225	40914.62
681.573	41276.19
681.922	40968.85
682.27	40846.14
682.618	40876.65
682.966	40754.85
683.314	40802.98
683.661	40681.18
684.009	40561.63
684.357	40435.31
684.705	40430.34
685.053	40437.79
685.4	40411.35
685.748	40291.13
686.095	40316.44
686.443	40061.08
686.79	40193.28
687.138	40035.32
687.485	39965.71
687.832	39905.6
688.18	39998.71
688.527	39751.93
688.874	39711.71
689.221	39637.14
689.568	39596.46
689.915	39448.89
690.262	39406.18
690.609	39308.33
690.956	39273.98
691.303	39119.86
691.65	39033.54
691.997	39022.24
692.344	38820.43
692.69	38786.99
693.037	38855.69
693.383	38398.75
693.73	38645.3
694.077	38340.45
694.423	38482.59
694.769	38321.92
695.116	38255.93
695.462	38233.1
695.808	38016.84
696.155	37984.3
696.501	37722.16
696.847	37870.85
697.193	37575.27
697.539	37735.04
697.885	37252.57
698.231	37327.82
698.577	37403.07
698.923	37343.64
699.269	37164.43
699.614	36955.17
699.96	36825.23
700.306	36923.76
700.651	36716.76
700.997	36635.63
701.342	36621.85
701.688	36638.8
702.033	36484
702.379	36426.6
702.724	36191.35
703.069	36316.09
703.415	35887.63
703.76	35935.99
704.105	35972.83
704.45	35893.96
704.795	35590.69
705.14	35615.77
705.485	35545.94
705.83	35439.96
706.175	35403.35
706.52	35368.1
706.865	35348.66
707.209	35237.25
707.554	35016.69
707.899	35138.5
708.243	35055.34
708.588	34911.16
708.932	34811.05
709.277	34720.43
709.621	34654.89
709.966	34375.35
710.31	34552.52
710.654	34366.09
710.998	34311.85
711.342	34370.38
711.687	34219.2
712.031	34090.61
712.375	33915.7
712.719	34058.07
713.063	34067.11
713.407	34111.18
713.75	33846.55
714.094	33779.44
714.438	33734.47
714.782	33833.22
715.125	33670.06
715.469	33665.32
715.812	33505.55
716.156	33296.74
716.499	33447.69
716.843	33498.99
717.186	33238.21
717.53	33438.43
717.873	33283.63
718.216	33086.8
718.559	33069.85
718.902	32792.57
719.246	32895.17
719.589	32793.25
719.932	32758.22
720.275	32782.4
720.617	32784.89
720.96	32575.4
721.303	32722.06
721.646	32666.7
721.989	32549.64
722.331	32622.86
722.674	32479.81
723.016	32498.34
723.359	32361.85
723.701	32551.22
724.044	32147.39
724.386	32059.71
724.729	32182.64
725.071	32108.97
725.413	31967.96
725.755	32028.3
726.097	31897
726.439	31835.53
726.782	31802.77
727.124	31861.07
727.465	31638.25
727.807	31810.67
728.149	31688.19
728.491	31643.45
728.833	31664.69
729.175	31554.86
729.516	31501.3
729.858	31390.35
730.199	31464.92
730.541	31330.69
730.882	31393.06
731.224	31469.67
731.565	31257.02
731.906	31220.86
732.248	31270.12
732.589	31107.64
732.93	31068.77
733.271	30986.74
733.612	31022.22
733.953	30950.81
734.294	30904.71
734.635	30864.71
734.976	30897.7
735.317	30750.82
735.658	30779.74
735.999	30659.97
736.339	30640.76
736.68	30737.93
737.021	30610.71
737.361	30444.16
737.702	30685.51
738.042	30479.18
738.383	30398.96
738.723	30436.7
739.063	30322.13
739.404	30472.18
739.744	30400.99
740.084	30229.7
740.424	30323.26
740.764	30261.11
741.104	30243.94
741.444	30077.61
741.784	29999.2
742.124	30148.8
742.464	30043.49
742.804	29996.94
743.143	29897.28
743.483	29947.45
743.823	29826.09
744.162	29795.81
744.502	29880.56
744.841	29817.73
745.181	29690.28
745.52	29650.05
745.86	29751.29
746.199	29657.51
746.538	29610.05
746.877	29658.19
747.216	29628.36
747.556	29429.72
747.895	29563.5
748.234	29454.58
748.573	29415.26
748.911	29302.27
749.25	29364.19
749.589	29196.96
749.928	29220.01
750.267	29270.4
750.605	29167.13
750.944	29197.86
751.283	29059.79
751.621	29177.98
751.96	28959.9
752.298	28876.51
752.636	28997.19
752.975	28770.08
753.313	28781.83
753.651	28860.24
753.989	28602.17
754.327	28646.24
754.666	28573.25
755.004	28591.55
755.342	28528.5
755.679	28524.89
756.017	28260.71
756.355	28475.4
756.693	28212.8
757.031	28302.29
757.368	28075.86
757.706	28108.17
758.044	28034.28
758.381	28054.16
758.719	27919.48
759.056	27931.68
759.394	27850.1
759.731	27547.28
760.068	27710.67
760.405	27501.41
760.743	27491.69
761.08	27568.75
