Data from red_cardboard_box_FLMS001491_00064.txt Node
Date: Wed Feb 08 11:32:56 GMT 2017
User: dcchb
Spectrometer: FLMS00149
Trigger mode: 0
Integration Time (sec): 2.000000E-2
Scans to average: 10
Electric dark correction enabled: true
Nonlinearity correction enabled: false
Boxcar width: 0
XAxis mode: Wavelengths
Number of Pixels in Spectrum: 2048
>>>>>Begin Spectral Data<<<<<
341.393	1.47
341.776	1.47
342.16	1.47
342.543	-58.87
342.927	-62.71
343.31	-69.72
343.693	-66.1
344.077	-90.73
344.46	-65.42
344.843	-28.59
345.226	-46.67
345.61	-26.78
345.993	-13.45
346.376	-3.73
346.759	11.41
347.142	13.67
347.525	52.32
347.908	65.42
348.291	70.85
348.674	94.12
349.057	103.39
349.44	145.87
349.823	136.38
350.206	175.02
350.588	217.06
350.971	205.31
351.354	232.65
351.737	271.07
352.119	248.92
352.502	273.78
352.884	288.92
353.267	284.63
353.65	301.57
354.032	303.38
354.414	320.1
354.797	321.23
355.179	301.12
355.562	325.3
355.944	336.15
356.326	362.59
356.709	334.12
357.091	338.18
357.473	359.65
357.855	331.18
358.238	347.22
358.62	346.32
359.002	360.33
359.384	337.28
359.766	338.64
360.148	343.61
360.53	360.33
360.912	341.12
361.294	355.81
361.676	320.78
362.057	355.36
362.439	344.74
362.821	341.8
363.203	325.98
363.584	325.3
363.966	337.28
364.348	323.04
364.729	325.75
365.111	330.05
365.493	331.86
365.874	308.81
366.256	332.31
366.637	331.63
367.019	289.37
367.4	315.58
367.781	333.44
368.163	311.29
368.544	333.44
368.925	305.87
369.306	315.58
369.688	305.42
370.069	323.72
370.45	319.65
370.831	303.83
371.212	325.08
371.593	326.66
371.974	319.88
372.355	326.66
372.736	326.43
373.117	310.84
373.498	344.74
373.879	305.19
374.26	316.49
374.641	286.43
375.021	330.5
375.402	313.1
375.783	313.1
376.163	334.34
376.544	322.82
376.925	315.58
377.305	327.56
377.686	306.55
378.066	324.85
378.447	337.73
378.827	323.04
379.208	344.51
379.588	337.96
379.968	344.51
380.349	341.8
380.729	347.67
381.109	341.35
381.489	339.77
381.87	339.31
382.25	341.57
382.63	331.86
383.01	338.86
383.39	337.96
383.77	358.97
384.15	330.73
384.53	349.93
384.91	342.25
385.29	334.57
385.67	339.77
386.049	349.71
386.429	339.54
386.809	348.58
387.189	350.84
387.568	348.13
387.948	359.88
388.328	346.32
388.707	355.58
389.087	329.14
389.466	342.93
389.846	353.1
390.225	331.4
390.605	336.38
390.984	356.71
391.363	344.74
391.743	357.84
392.122	356.94
392.501	361.01
392.881	363.49
393.26	343.38
393.639	338.18
394.018	355.36
394.397	352.19
394.776	351.06
395.155	343.15
395.534	379.31
395.913	358.3
396.292	362.36
396.671	380.89
397.05	359.43
397.429	376.37
397.808	373.89
398.186	384.74
398.565	384.06
398.944	373.89
399.323	396.26
399.701	355.36
400.08	379.76
400.458	373.44
400.837	406.2
401.215	363.04
401.594	362.82
401.972	366.21
402.351	402.14
402.729	358.07
403.107	401.01
403.486	384.06
403.864	391.29
404.242	363.72
404.62	418.63
404.999	388.35
405.377	380.22
405.755	389.93
406.133	408.24
406.511	396.71
406.889	392.19
407.267	375.02
407.645	391.06
408.023	388.8
408.401	397.62
408.779	405.98
409.156	413.66
409.534	417.5
409.912	402.36
410.29	406.43
410.667	407.33
411.045	409.59
411.422	433.32
411.8	414.79
412.178	401.91
412.555	420.89
412.933	431.29
413.31	416.37
413.687	415.92
414.065	425.86
414.442	416.6
414.819	428.12
415.197	444.62
415.574	434
415.951	432.64
416.328	433.55
416.705	436.94
417.082	442.81
417.46	458.18
417.837	442.81
418.214	450.95
418.591	451.4
418.967	435.36
419.344	450.5
419.721	467.9
420.098	438.52
420.475	454.56
420.852	469.25
421.228	457.95
421.605	483.04
421.982	460.89
422.358	460.89
422.735	472.42
423.111	488.01
423.488	472.87
423.864	465.64
424.241	464.06
424.617	487.78
424.994	497.73
425.37	481
425.746	489.59
426.123	484.85
426.499	491.63
426.875	483.94
427.251	494.56
427.627	501.12
428.003	493.21
428.379	516.03
428.756	497.05
429.132	522.81
429.507	518.29
429.883	527.78
430.259	526.2
430.635	516.71
431.011	523.49
431.387	532.3
431.763	509.03
432.138	524.17
432.514	512.87
432.89	546.77
433.265	550.83
433.641	538.86
434.016	525.97
434.392	564.62
434.767	548.8
435.143	578.18
435.518	556.03
435.894	592.41
436.269	570.04
436.644	560.55
437.02	569.36
437.395	561.91
437.77	609.59
438.145	561.23
438.52	604.84
438.895	594.9
439.271	614.79
439.646	595.35
440.021	596.03
440.395	625.18
440.77	595.13
441.145	603.03
441.52	605.97
441.895	631.06
442.27	617.72
442.645	623.83
443.019	630.83
443.394	610.27
443.769	592.41
444.143	628.8
444.518	619.53
444.892	638.51
445.267	652.98
445.641	635.8
446.016	612.07
446.39	619.08
446.764	639.42
447.139	650.04
447.513	641.9
447.887	642.58
448.262	639.19
448.636	642.13
449.01	654.11
449.384	637.38
449.758	664.95
450.132	667.21
450.506	652.75
450.88	658.17
451.254	670.83
451.628	666.31
452.002	676.71
452.376	694.78
452.75	678.06
453.123	690.49
453.497	676.71
453.871	703.6
454.244	706.99
454.618	698.17
454.992	691.85
455.365	681.45
455.739	714.22
456.112	719.42
456.486	717.16
456.859	748.12
457.232	747.21
457.606	749.7
457.979	732.75
458.352	769.58
458.725	769.13
459.099	765.97
459.472	772.3
459.845	776.36
460.218	782.69
460.591	793.54
460.964	778.62
461.337	789.7
461.71	808.91
462.083	800.09
462.456	785.18
462.829	818.17
463.201	836.02
463.574	816.81
463.947	828.57
464.32	820.2
464.692	803.93
465.065	857.27
465.438	853.88
465.81	894.78
466.183	857.27
466.555	866.98
466.928	857.27
467.3	874.67
467.672	897.04
468.045	877.15
468.417	902.46
468.789	908.34
469.161	929.13
469.534	930.71
469.906	918.28
470.278	942.01
470.65	927.77
471.022	948.79
471.394	968.68
471.766	970.26
472.138	983.36
472.51	1024.94
472.882	1006.64
473.253	999.41
473.625	1027.43
473.997	1032.63
474.369	1017.71
474.74	1061.55
475.112	1031.27
475.484	1077.6
475.855	1095.68
476.227	1089.58
476.598	1103.81
476.97	1099.97
477.341	1128.9
477.713	1147.65
478.084	1143.36
478.455	1197.37
478.827	1179.29
479.198	1239.85
479.569	1217.48
479.94	1220.65
480.311	1264.26
480.682	1275.11
481.053	1284.6
481.424	1271.04
481.795	1301.77
482.166	1353.75
482.537	1340.64
482.908	1346.52
483.279	1374.31
483.65	1377.25
484.021	1405.73
484.391	1407.76
484.762	1433.52
485.133	1402.11
485.503	1461.54
485.874	1486.85
486.244	1484.14
486.615	1521.43
486.985	1551.03
487.356	1553.52
487.726	1558.49
488.097	1588.77
488.467	1594.87
488.837	1614.08
489.207	1625.38
489.578	1641.88
489.948	1673.06
490.318	1704.7
490.688	1673.52
491.058	1710.12
491.428	1745.6
491.798	1740.86
492.168	1804.13
492.538	1767.07
492.908	1824.25
493.278	1796.45
493.648	1830.8
494.017	1864.7
494.387	1870.8
494.757	1887.52
495.126	1880.97
495.496	1909.67
495.866	1906.73
496.235	1934.98
496.605	1925.49
496.974	1957.35
497.344	1974.52
497.713	1983.11
498.082	1991.02
498.452	2017.24
498.821	2024.24
499.19	2060.85
499.559	2059.27
499.928	2092.94
500.298	2097.01
500.667	2087.74
501.036	2119.38
501.405	2124.58
501.774	2128.64
502.143	2157.8
502.512	2156.89
502.88	2174.97
503.249	2163.45
503.618	2183.33
503.987	2226.5
504.356	2276.21
504.724	2227.17
505.093	2228.53
505.462	2302.43
505.83	2292.03
506.199	2305.14
506.567	2324.57
506.936	2296.32
507.304	2338.13
507.672	2336.1
508.041	2373.61
508.409	2387.62
508.777	2400.28
509.145	2426.72
509.514	2413.83
509.882	2450.67
510.25	2443.21
510.618	2482.76
510.986	2492.25
511.354	2517.56
511.722	2511.23
512.09	2552.59
512.458	2537.9
512.826	2543.55
513.193	2553.27
513.561	2593.27
513.929	2639.14
514.297	2663.09
514.664	2660.61
515.032	2683.88
515.4	2700.83
515.767	2729.53
516.135	2721.17
516.502	2688.4
516.869	2772.24
517.237	2773.83
517.604	2746.93
517.972	2807.27
518.339	2825.35
518.706	2852.92
519.073	2879.81
519.44	2893.6
519.808	2881.17
520.175	2884.56
520.542	2890.66
520.909	2962.29
521.276	2969.07
521.643	2996.64
522.009	3018.34
522.376	2996.42
522.743	3067.83
523.11	3062.41
523.477	3148.96
523.843	3110.54
524.21	3178.79
524.577	3200.48
524.943	3222.18
525.31	3237.09
525.676	3248.84
526.043	3297.2
526.409	3243.19
526.776	3309.4
527.142	3323.87
527.508	3306.47
527.874	3388.95
528.241	3423.3
528.607	3386.69
528.973	3468.5
529.339	3441.6
529.705	3552.11
530.071	3507.59
530.437	3539.91
530.803	3572
531.169	3567.48
531.535	3578.32
531.901	3600.02
532.267	3602.28
532.632	3649.06
532.998	3663.97
533.364	3693.8
533.73	3696.51
534.095	3740.81
534.461	3769.51
534.826	3804.53
535.192	3807.7
535.557	3830.29
535.923	3837.07
536.288	3902.61
536.653	3898.77
537.019	3873.23
537.384	3904.19
537.749	3906.22
538.114	3943.06
538.479	3959.78
538.845	4010.63
539.21	3973.79
539.575	3985.77
539.94	3977.18
540.305	4060.35
540.67	4023.51
541.034	4081.81
541.399	4105.32
541.764	4129.04
542.129	4153.9
542.494	4122.94
542.858	4178.76
543.223	4176.95
543.587	4195.26
543.952	4240.23
544.316	4232.54
544.681	4241.81
545.045	4275.03
545.41	4322.71
545.774	4321.81
546.138	4326.78
546.503	4376.72
546.867	4381.69
547.231	4427.79
547.595	4419.88
547.959	4422.82
548.324	4465.08
548.688	4428.92
549.052	4508.02
549.416	4497.62
549.779	4541.01
550.143	4502.59
550.507	4568.81
550.871	4588.24
551.235	4616.71
551.599	4683.61
551.962	4673.66
552.326	4699.42
552.689	4734.68
553.053	4724.28
553.417	4786.43
553.78	4863.49
554.143	4824.39
554.507	4851.51
554.87	4952.75
555.234	4980.32
555.597	4993.88
555.96	4988.23
556.323	4997.5
556.686	5039.75
557.05	5053.99
557.413	5084.05
557.776	5116.14
558.139	5222.8
558.502	5189.58
558.865	5274.55
559.228	5309.35
559.59	5255.34
559.953	5383.25
560.316	5421.67
560.679	5405.39
561.041	5470.03
561.404	5472.06
561.767	5545.05
562.129	5568.33
562.492	5647.65
562.854	5701.21
563.217	5715.89
563.579	5736.69
563.941	5808.77
564.304	5860.52
564.666	5919.51
565.028	5978.71
565.39	5987.3
565.753	6090.57
566.115	6116.56
566.477	6141.42
566.839	6191.59
567.201	6328.53
567.563	6288.31
567.925	6379.61
568.287	6470
568.648	6489.21
569.01	6486.5
569.372	6634.06
569.734	6619.37
570.095	6716.32
570.457	6773.72
570.819	6786.38
571.18	6857.79
571.542	6926.71
571.903	6995.86
572.265	7088.06
572.626	7089.64
572.987	7175.29
573.349	7263.2
573.71	7330.99
574.071	7442.86
574.432	7451.44
574.794	7540.25
575.155	7574.38
575.516	7603.3
575.877	7757.42
576.238	7776.41
576.599	7965.55
576.96	8002.61
577.32	8052.56
577.681	8118.54
578.042	8249.84
578.403	8313.34
578.763	8343.85
579.124	8486.44
579.485	8602.82
579.845	8751.97
580.206	8883.95
580.566	8890.27
580.927	9017.95
581.287	9126.65
581.648	9257.95
582.008	9385.85
582.368	9506.76
582.728	9605.51
583.089	9741.55
583.449	9815.67
583.809	9974.09
584.169	10125.27
584.529	10228.09
584.889	10469.89
585.249	10454.3
585.609	10675.09
585.969	10866.95
586.329	10940.62
586.688	11160.05
587.048	11322.3
587.408	11421.73
587.768	11669.18
588.127	11900.82
588.487	12023.07
588.846	12336.51
589.206	12423.06
589.565	12725.65
589.925	12941.47
590.284	13093.33
590.643	13395.24
591.003	13586.87
591.362	13917.94
591.721	14147.99
592.08	14272.96
592.44	14693.51
592.799	14942.77
593.158	15100.05
593.517	15381.63
593.876	15683.77
594.235	15988.62
594.593	16216.86
594.952	16656.4
595.311	16806
595.67	17171.64
596.029	17490.5
596.387	17966.65
596.746	18254.1
597.104	18445.73
597.463	18714.2
597.822	19226.73
598.18	19392.37
598.538	19637.56
598.897	20182.86
599.255	20310.54
599.613	20839.34
599.972	21195.71
600.33	21576.27
600.688	21787.11
601.046	22222.13
601.404	22604.26
601.762	22829.34
602.12	23379.16
602.478	23549.55
602.836	24005.13
603.194	24260.72
603.552	24512.01
603.91	24824.77
604.268	25392.21
604.625	25645.31
604.983	26092.53
605.341	26225.64
605.698	26722.8
606.056	26963.92
606.413	27266.51
606.771	27698.37
607.128	28031.92
607.485	28104.01
607.843	28536.54
608.2	28939.92
608.557	29303.98
608.914	29382.17
609.272	29857.41
609.629	30176.27
609.986	30503.49
610.343	30784.39
610.7	31207.88
611.057	31326.75
611.414	31633.63
611.771	31741.65
612.127	32186.39
612.484	32317.46
612.841	32698.24
613.198	32841.51
613.554	32968.51
613.911	33419.12
614.267	33589.06
614.624	33857.3
614.98	34032.44
615.337	34358.31
615.693	34477.4
616.05	34654.34
616.406	34972.53
616.762	34961.23
617.118	35099.98
617.475	35284.83
617.831	35715.11
618.187	35907.64
618.543	36160.97
618.899	36305.15
619.255	36492.49
619.611	36539.94
619.967	36911.46
620.323	37030.78
620.678	36992.13
621.034	37105.58
621.39	37266.03
621.746	37470.99
622.101	37742.17
622.457	37589.18
622.812	37828.5
623.168	38059.9
623.523	38127.7
623.879	38369.05
624.234	38158.88
624.589	38444.75
624.945	38533.11
625.3	38728.81
625.655	38804.74
626.01	38844.52
626.365	38940.11
626.72	38982.59
627.075	39163.6
627.43	39060.78
627.785	39096.49
628.14	39297.38
628.495	39413.31
628.85	39488.79
629.205	39327.89
629.559	39714.32
629.914	39614.89
630.269	39631.39
630.623	39565.85
630.978	39638.17
631.332	39902.34
631.687	39983.02
632.041	39970.36
632.396	40067.76
632.75	39915.22
633.104	40102.79
633.459	39924.49
633.813	39978.04
634.167	39981.89
634.521	40060.98
634.875	40185.5
635.229	40012.85
635.583	39994.32
635.937	39897.14
636.291	39999.74
636.645	39996.12
636.999	40082.67
637.352	40232.05
637.706	39926.52
638.06	40219.17
638.413	40112.5
638.767	39984.6
639.121	40173.97
639.474	39967.2
639.828	40044.94
640.181	40377.58
640.534	40265.04
640.888	40184.59
641.241	39980.3
641.594	40205.38
641.947	40287.87
642.301	40364.02
642.654	40304.82
643.007	40371.03
643.36	40186.17
643.713	40184.14
644.066	40358.6
644.419	40072.96
644.771	39816.47
645.124	39513.42
645.477	39395.91
645.83	39240.89
646.182	39224.39
646.535	39163.83
646.888	39384.16
647.24	39068.46
647.593	39398.4
647.945	39321.11
648.298	39107.56
648.65	39151.85
649.002	39102.59
649.355	39191.62
649.707	39129.93
650.059	39406.31
650.411	39710.48
650.763	39808.11
651.115	40226.4
651.467	39973.53
651.819	40125.16
652.171	39997.25
652.523	40095.78
652.875	39950.93
653.227	39807.2
653.578	40199.73
653.93	40159.06
654.282	39848.1
654.633	39796.35
654.985	39862.79
655.337	40030.47
655.688	39979.17
656.039	40118.38
656.391	39911.38
656.742	39839.52
657.094	39913.87
657.445	39998.16
657.796	40034.54
658.147	39846.52
658.498	39895.56
658.849	39854.88
659.2	39896.69
659.551	39810.59
659.902	39963.58
660.253	39946.63
660.604	39883.81
660.955	39771.27
661.306	39848.78
661.656	39908.67
662.007	39928.1
662.358	39847.2
662.708	39903.7
663.059	39859.4
663.409	39703.02
663.76	39861.21
664.11	39804.26
664.461	39909.35
664.811	39867.09
665.161	39909.8
665.511	39814.21
665.862	39900.76
666.212	39884.49
666.562	39872.06
666.912	39875.9
667.262	40025.5
667.612	39851.72
667.962	39795.22
668.312	39773.76
668.662	40054.65
669.011	39863.47
669.361	39832.96
669.711	39868.22
670.06	39867.54
670.41	39823.92
670.76	39722.68
671.109	39860.99
671.459	39874.09
671.808	39675.68
672.157	39797.03
672.507	39644.95
672.856	39648.79
673.205	39789.35
673.554	39776.24
673.904	39564.95
674.253	39818.5
674.602	39741.67
674.951	39210.16
675.3	38899.2
675.649	39666.87
675.998	39547.32
676.346	39549.58
676.695	39676.58
677.044	39285.63
677.393	39453.99
677.741	39635.91
678.09	39299.19
678.438	39362.02
678.787	39391.17
679.135	39336.25
679.484	39188.91
679.832	39373.54
680.181	39200.21
680.529	39064.85
680.877	39145.52
681.225	39119.08
681.573	39212.64
681.922	39035.02
682.27	38853.78
682.618	38963.83
682.966	38854.46
683.314	38863.72
683.661	38653.79
684.009	38677.29
684.357	38597.97
684.705	38483.39
685.053	38569.49
685.4	38524.52
685.748	38424.19
686.095	38329.5
686.443	38174.48
686.79	38249.28
687.138	38282.72
687.485	38209.05
687.832	38010.64
688.18	38039.79
688.527	37878.89
688.874	37776.29
689.221	37849.74
689.568	37647.94
689.915	37471.44
690.262	37568.39
690.609	37582.4
690.956	37333.14
691.303	37308.74
691.65	37223.32
691.997	37191.68
692.344	37113.04
692.69	36940.16
693.037	37016.99
693.383	36682.31
693.73	36894.28
694.077	36535.2
694.423	36578.81
694.769	36547.85
695.116	36448.87
695.462	36341.53
695.808	36203.91
696.155	36320.97
696.501	36132.95
696.847	36037.58
697.193	35896.8
697.539	35875.78
697.885	35573.87
698.231	35714.65
698.577	35695.67
698.923	35667.42
699.269	35494.32
699.614	35189.02
699.96	35302.46
700.306	35346.98
700.651	35028.34
700.997	34957.61
701.342	34853.43
701.688	34811.63
702.033	34677.85
702.379	34664.51
702.724	34625.87
703.069	34682.36
703.415	34278.31
703.76	34359.21
704.105	34432.2
704.45	34226.33
704.795	34000.57
705.14	34032.89
705.485	33947.02
705.83	33847.58
706.175	33790.41
706.52	33803.29
706.865	33615.95
707.209	33610.75
707.554	33555.39
707.899	33604.43
708.243	33429.74
708.588	33369.41
708.932	33112.24
709.277	33128.73
709.621	33127.6
709.966	32932.81
710.31	32813.94
710.654	32771.45
710.998	32815.52
711.342	32729.42
711.687	32747.73
712.031	32525.13
712.375	32407.85
712.719	32595.41
713.063	32499.37
713.407	32509.09
713.75	32389.32
714.094	32224.12
714.438	32162.88
714.782	32290.79
715.125	32019.16
715.469	32188.65
715.812	31984.81
716.156	31881.31
716.499	31760.86
716.843	31878.82
717.186	31633.41
717.53	31914.08
717.873	31762.44
718.216	31720.63
718.559	31464.6
718.902	31308.44
719.246	31463.24
719.589	31239.97
719.932	31332.62
720.275	31171.5
720.617	31157.49
720.96	31048.11
721.303	31129.01
721.646	30998.85
721.989	30875.91
722.331	31174.21
722.674	30828.68
723.016	30861.45
723.359	30972.63
723.701	30831.62
724.044	30620.78
724.386	30567.44
724.729	30700.32
725.071	30572.64
725.413	30558.86
725.755	30514.34
726.097	30403.83
726.439	30345.53
726.782	30339.2
727.124	30367.9
727.465	30166.1
727.807	30257.4
728.149	30175.14
728.491	30168.81
728.833	30137.4
729.175	30004.52
729.516	29971.53
729.858	29970.17
730.199	29975.82
730.541	29939.89
730.882	29865.32
731.224	30057.18
731.565	29739.9
731.906	29829.84
732.248	29798.2
732.589	29725.89
732.93	29515.5
733.271	29466.46
733.612	29564.99
733.953	29582.84
734.294	29459.23
734.635	29462.84
734.976	29523.18
735.317	29303.52
735.658	29227.82
735.999	29342.84
736.339	29243.64
736.68	29390.07
737.021	29250.87
737.361	29076.18
737.702	29203.41
738.042	29046.81
738.383	29093.81
738.723	29079.8
739.063	28904.21
739.404	29082.74
739.744	28955.51
740.084	28810.88
740.424	28838.22
740.764	28835.74
741.104	28823.54
741.444	28741.73
741.784	28636.42
742.124	28767.94
742.464	28746.25
742.804	28698.12
743.143	28601.17
743.483	28526.14
743.823	28295.41
744.162	28431.23
744.502	28393.49
744.841	28316.66
745.181	28427.61
745.52	28294.06
745.86	28327.28
746.199	28301.29
746.538	28222.65
746.877	28280.05
747.216	28203.89
747.556	28178.36
747.895	28130.67
748.234	27989.21
748.573	28116.21
748.911	27864.24
749.25	28028.98
749.589	27699.05
749.928	27912.83
750.267	27925.25
750.605	27852.71
750.944	27722.55
751.283	27651.59
751.621	27764.58
751.96	27544.25
752.298	27549.45
752.636	27608.65
752.975	27455.44
753.313	27353.52
753.651	27550.58
753.989	27217.25
754.327	27268.1
754.666	27144.71
755.004	27125.5
755.342	27156.01
755.679	27085.28
756.017	26935.9
756.355	26938.61
756.693	26977.26
757.031	26963.25
757.368	26810.71
757.706	26733.42
758.044	26580.88
758.381	26638.73
758.719	26497.04
759.056	26524.39
759.394	26497.04
759.731	26312.87
760.068	26189.48
760.405	26261.57
760.743	26129.14
761.08	26083.95
761.417	26140.22
