Data from red_shiny_book_FLMS001491_00021.txt Node
Date: Wed Feb 08 15:24:37 GMT 2017
User: dcchb
Spectrometer: FLMS00149
Trigger mode: 0
Integration Time (sec): 2.000000E-2
Scans to average: 10
Electric dark correction enabled: true
Nonlinearity correction enabled: false
Boxcar width: 0
XAxis mode: Wavelengths
Number of Pixels in Spectrum: 2048
>>>>>Begin Spectral Data<<<<<
341.393	-12.95
341.776	-12.95
342.16	-12.95
342.543	-62.67
342.927	-75.1
343.31	-69.67
343.693	-53.18
344.077	-62.67
344.46	-59.05
344.843	-59.73
345.226	-64.25
345.61	-31.26
345.993	-23.12
346.376	3.77
346.759	8.29
347.142	18.46
347.525	68.85
347.908	76.76
348.291	82.19
348.674	75.86
349.057	88.74
349.44	127.38
349.823	154.5
350.206	157.67
350.588	201.28
350.971	209.87
351.354	231.34
351.737	252.8
352.119	260.04
352.502	277.44
352.884	255.74
353.267	295.06
353.65	311.33
354.032	322.18
354.414	310.2
354.797	303.2
355.179	314.95
355.562	308.4
355.944	322.86
356.326	336.19
356.709	342.29
357.091	356.08
357.473	358.34
357.855	362.18
358.238	356.3
358.62	353.37
359.002	349.75
359.384	350.65
359.766	344.1
360.148	340.03
360.53	345.91
360.912	346.36
361.294	346.13
361.676	329.86
362.057	349.07
362.439	327.83
362.821	342.52
363.203	335.51
363.584	335.51
363.966	329.19
364.348	322.63
364.729	328.28
365.111	317.89
365.493	334.84
365.874	321.5
366.256	335.51
366.637	330.32
367.019	325.12
367.4	335.29
367.781	319.92
368.163	313.59
368.544	325.34
368.925	309.53
369.306	341.39
369.688	324.44
370.069	319.47
370.45	322.86
370.831	351.56
371.212	326.47
371.593	333.71
371.974	317.89
372.355	325.8
372.736	332.12
373.117	337.77
373.498	334.16
373.879	333.71
374.26	321.5
374.641	337.77
375.021	324.21
375.402	326.02
375.783	342.97
376.163	335.51
376.544	335.29
376.925	332.35
377.305	350.88
377.686	325.34
378.066	343.65
378.447	341.84
378.827	332.35
379.208	343.2
379.588	356.53
379.968	346.81
380.349	351.11
380.729	347.49
381.109	343.88
381.489	346.36
381.87	351.11
382.25	355.17
382.63	355.85
383.01	361.73
383.39	362.18
383.77	360.82
384.15	357.89
384.53	365.34
384.91	360.15
385.29	365.57
385.67	371.22
386.049	372.12
386.429	369.41
386.809	387.04
387.189	361.5
387.568	363.99
387.948	375.51
388.328	359.02
388.707	354.27
389.087	371.22
389.466	375.96
389.846	390.88
390.225	394.72
390.605	393.82
390.984	382.07
391.363	384.55
391.743	382.74
392.122	397.89
392.501	399.01
392.881	406.02
393.26	403.53
393.639	396.98
394.018	385.23
394.397	414.38
394.776	402.63
395.155	404.21
395.534	402.18
395.913	414.61
396.292	403.99
396.671	434.27
397.05	412.12
397.429	427.04
397.808	421.16
398.186	422.29
398.565	432.23
398.944	415.74
399.323	426.13
399.701	426.13
400.08	415.29
400.458	427.71
400.837	424.55
401.215	451.89
401.594	460.03
401.972	434.27
402.351	444.44
402.729	440.37
403.107	439.24
403.486	458.9
403.864	454.83
404.242	449.64
404.62	459.58
404.999	495.96
405.377	450.54
405.755	474.27
406.133	473.36
406.511	475.4
406.889	474.04
407.267	462.52
407.645	484.44
408.023	502.06
408.401	498.67
408.779	519.24
409.156	506.58
409.534	515.4
409.912	507.03
410.29	486.7
410.667	516.53
411.045	510.65
411.422	551.55
411.8	544.77
412.178	564.21
412.555	548.39
412.933	550.88
413.31	542.06
413.687	559.69
414.065	554.94
414.442	560.14
414.819	566.02
415.197	585.68
415.574	600.82
415.951	576.41
416.328	589.97
416.705	605.34
417.082	616.18
417.46	626.13
417.837	615.73
418.214	614.38
418.591	617.99
418.967	604.66
419.344	626.58
419.721	622.29
420.098	643.53
420.475	643.98
420.852	647.82
421.228	666.58
421.605	669.97
421.982	658.22
422.358	641.49
422.735	678.56
423.111	673.58
423.488	695.73
423.864	690.76
424.241	721.49
424.617	703.19
424.994	723.75
425.37	702.96
425.746	697.54
426.123	697.09
426.499	723.3
426.875	713.36
427.251	698.22
427.627	739.12
428.003	742.51
428.379	758.1
428.756	765.56
429.132	767.82
429.507	769.85
429.883	775.05
430.259	806.46
430.635	787.25
431.011	794.71
431.387	793.35
431.763	796.52
432.138	807.82
432.514	822.28
432.89	850.08
433.265	864.31
433.641	863.41
434.016	888.49
434.392	886.01
434.767	883.3
435.143	861.15
435.518	878.1
435.894	875.61
436.269	877.65
436.644	897.98
437.02	946.8
437.395	922.62
437.77	976.4
438.145	985.89
438.52	964.88
438.895	964.88
439.271	999.68
439.646	965.1
440.021	978.43
440.395	969.62
440.77	967.81
441.145	978.89
441.52	1011.2
441.895	1050.98
442.27	1059.11
442.645	1080.35
443.019	1031.99
443.394	1036.74
443.769	1046.68
444.143	1027.47
444.518	1036.74
444.892	1012.56
445.267	1036.74
445.641	1056.17
446.016	1090.52
446.39	1123.97
446.764	1094.14
447.139	1139.79
447.513	1149.73
447.887	1132.55
448.262	1113.8
448.636	1106.79
449.01	1103.86
449.384	1083.52
449.758	1126.91
450.132	1121.93
450.506	1140.69
450.88	1169.39
451.254	1174.36
451.628	1211.65
452.002	1204.42
452.376	1199.22
452.75	1216.85
453.123	1231.54
453.497	1208.03
453.871	1210.97
454.244	1189.5
454.618	1218.2
454.992	1226.79
455.365	1240.35
455.739	1289.16
456.112	1323.96
456.486	1323.28
456.859	1365.54
457.232	1369.84
457.606	1342.94
457.979	1334.58
458.352	1344.3
458.725	1336.39
459.099	1309.95
459.472	1334.36
459.845	1367.35
460.218	1387.46
460.591	1405.32
460.964	1419.1
461.337	1499.78
461.71	1525.76
462.083	1521.47
462.456	1513.79
462.829	1478.31
463.201	1502.04
463.574	1456.16
463.947	1470.4
464.32	1480.34
464.692	1461.59
465.065	1494.81
465.438	1538.87
465.81	1621.13
466.183	1615.71
466.555	1681.24
466.928	1684.86
467.3	1672.2
467.672	1696.38
468.045	1709.71
468.417	1675.37
468.789	1657.96
469.161	1649.6
469.534	1648.25
469.906	1697.06
470.278	1744.06
470.65	1775.93
471.022	1869.48
471.394	1874.46
471.766	1937.51
472.138	1984.06
472.51	1962.14
472.882	2033.55
473.253	2003.27
473.625	1977.73
473.997	1972.53
474.369	1951.52
474.74	1929.6
475.112	1975.24
475.484	2011.4
475.855	2089.37
476.227	2161.91
476.598	2241.9
476.97	2280.32
477.341	2362.13
477.713	2426.31
478.084	2412.52
478.455	2395.57
478.827	2418.85
479.198	2418.85
479.569	2370.94
479.94	2379.98
480.311	2378.62
480.682	2452.07
481.053	2532.74
481.424	2605.06
481.795	2676.02
482.166	2784.26
482.537	2851.83
482.908	2943.13
483.279	2961.89
483.65	3015.44
484.021	3007.31
484.391	2955.11
484.762	2917.59
485.133	2904.71
485.503	2885.05
485.874	2957.37
486.244	2988.78
486.615	3059.51
486.985	3202.11
487.356	3306.28
487.726	3417.24
488.097	3518.25
488.467	3580.17
488.837	3655.43
489.207	3686.84
489.578	3698.14
489.948	3617.91
490.318	3622.88
490.688	3563.45
491.058	3591.93
491.428	3521.87
491.798	3591.93
492.168	3746.95
492.538	3818.36
492.908	3958.7
493.278	4024.46
493.648	4142.87
494.017	4233.72
494.387	4332.24
494.757	4329.53
495.126	4341.96
495.496	4322.98
495.866	4254.73
496.235	4208.63
496.605	4189.42
496.974	4145.58
497.344	4116.21
497.713	4180.84
498.082	4248.63
498.452	4359.14
498.821	4433.94
499.19	4559.81
499.559	4693.14
499.928	4820.37
500.298	4842.06
500.667	4880.93
501.036	4871.21
501.405	4847.94
501.774	4733.59
502.143	4688.17
502.512	4612.46
502.88	4590.32
503.249	4508.29
503.618	4496.99
503.987	4596.87
504.356	4663.54
504.724	4819.69
505.093	4908.73
505.462	5040.25
505.83	5159.34
506.199	5266.46
506.567	5318.21
506.936	5344.2
507.304	5304.65
507.672	5301.71
508.041	5167.93
508.409	5065.56
508.777	4968.39
509.145	4895.62
509.514	4890.87
509.882	4937.88
510.25	4898.11
510.618	5080.7
510.986	5206.8
511.354	5424.19
511.722	5513.46
512.09	5695.6
512.458	5709.16
512.826	5751.42
513.193	5812.43
513.561	5762.04
513.929	5662.15
514.297	5560.01
514.664	5487.02
515.032	5386.23
515.4	5343.07
515.767	5313.24
516.135	5298.55
516.502	5306.23
516.869	5493.57
517.237	5532.44
517.604	5730.85
517.972	5873.67
518.339	6072.54
518.706	6112.09
519.073	6264.85
519.44	6273.89
519.808	6321.12
520.175	6197.28
520.542	6157.96
520.909	5938.3
521.276	5848.82
521.643	5762.72
522.009	5693.34
522.376	5701.02
522.743	5680.23
523.11	5811.3
523.477	5932.2
523.843	6049.94
524.21	6283.83
524.577	6503.71
524.943	6683.37
525.31	6804.27
525.676	6895.57
526.043	6989.8
526.409	6935.57
526.776	6940.76
527.142	6828.68
527.508	6688.57
527.874	6581.45
528.241	6437.27
528.607	6383.49
528.973	6363.83
529.339	6415.35
529.705	6426.43
530.071	6595.69
530.437	6757.49
530.803	6974.66
531.169	7180.98
531.535	7340.3
531.901	7506.4
532.267	7674.3
532.632	7814.41
532.998	7857.35
533.364	7792.72
533.73	7648.32
534.095	7613.97
534.461	7404.93
534.826	7332.39
535.192	7160.87
535.557	7069.57
535.923	7045.39
536.288	7072.51
536.653	7177.82
537.019	7269.79
537.384	7493.97
537.749	7736.45
538.114	7955.2
538.479	8190.22
538.845	8303.67
539.21	8399.03
539.575	8583.66
539.94	8518.58
540.305	8517.67
540.67	8413.49
541.034	8236.55
541.399	8138.25
541.764	7926.5
542.129	7797.69
542.494	7747.75
542.858	7665.49
543.223	7734.42
543.587	7722.89
543.952	7816
544.316	8004.24
544.681	8203.56
545.045	8467.96
545.41	8655.07
545.774	8943.2
546.138	9035.17
546.503	9076.3
546.867	9185.9
547.231	9239.69
547.595	9134.15
547.959	8999.01
548.324	8835.86
548.688	8742.3
549.052	8507.95
549.416	8330.56
549.779	8127.17
550.143	8183.89
550.507	8174.86
550.871	8259.6
551.235	8267.51
551.599	8465.02
551.962	8628.63
552.326	8892.12
552.689	9092.12
553.053	9209.63
553.417	9423.64
553.78	9657.53
554.143	9699.34
554.507	9626.57
554.87	9597.64
555.234	9574.37
555.597	9335.5
555.96	9158.56
556.323	9047.38
556.686	8773.26
557.05	8594.05
557.413	8551.34
557.776	8545.02
558.139	8594.28
558.502	8712.92
558.865	8822.07
559.228	9023.19
559.59	9211.66
559.953	9496.18
560.316	9691.2
560.679	9925.54
561.041	10127.57
561.404	10229.49
561.767	10272.88
562.129	10193.11
562.492	10242.6
562.854	10014.13
563.217	9836.51
563.579	9710.63
563.941	9496.63
564.304	9334.15
564.666	9213.47
565.028	9137.54
565.39	9125.11
565.753	9196.3
566.115	9258.89
566.477	9489.85
566.839	9542.96
567.201	9784.76
567.563	10074.69
567.925	10288.47
568.287	10547.22
568.648	10683.49
569.01	10836.93
569.372	10962.13
569.734	10903.6
570.095	10978.4
570.457	10824.28
570.819	10629.71
571.18	10638.07
571.542	10391.75
571.903	10245.31
572.265	10032.21
572.626	9876.51
572.987	9787.24
573.349	9859.11
573.71	9918.09
574.071	10030.4
574.432	10197.4
574.794	10470.84
575.155	10721.91
575.516	10959.42
575.877	11267.88
576.238	11574.99
576.599	11849.34
576.96	12027.18
577.32	12212.72
577.681	12329.32
578.042	12319.83
578.403	12247.97
578.763	12224.92
579.124	12141.31
579.485	12156.22
579.845	12017.24
580.206	11920.52
580.566	11819.51
580.927	11823.8
581.287	11942.89
581.648	12084.81
582.008	12431.92
582.368	12786.94
582.728	13060.15
583.089	13433.02
583.449	14077.07
583.809	14565.87
584.169	15102.36
584.529	15544.15
584.889	16164.7
585.249	16477.46
585.609	16792.48
585.969	17333.71
586.329	17679.24
586.688	17918.33
587.048	18224.76
587.408	18352.22
587.768	18559.89
588.127	18701.81
588.487	18993.55
588.846	19352.87
589.206	19460.66
589.565	19843.7
589.925	20449.56
590.284	20898.36
590.643	21475.3
591.003	22128.39
591.362	22797.07
591.721	23580.33
592.08	24325.17
592.44	24949.1
592.799	25774.62
593.158	26406.47
593.517	27205.32
593.876	27771.4
594.235	28113.77
594.593	28776.35
594.952	29313.51
595.311	29482.32
595.67	29864.45
596.029	30361.62
596.387	30600.48
596.746	30997.98
597.104	31147.36
597.463	31418.99
597.822	31821.47
598.18	32162.47
598.538	32548.9
598.897	33351.82
599.255	33619.61
599.613	34676.08
599.972	34966.69
600.33	35936.16
600.688	36389.71
601.046	37182
601.404	37993.28
601.762	38507.17
602.12	39353.47
602.478	39828.71
602.836	40307.34
603.194	40613.78
603.552	40980.09
603.91	41002.47
604.268	41494.66
604.625	41397.03
604.983	41817.59
605.341	41824.59
605.698	42276.56
606.056	42273.85
606.413	42488.08
606.771	42754.29
607.128	43047.16
607.485	43196.08
607.843	43475.62
608.2	44139.33
608.557	44731.41
608.914	44838.98
609.272	45493.42
609.629	45894.99
609.986	46454.75
610.343	46675.54
610.7	47331.79
611.057	47730.65
611.414	47904.66
611.771	48130.87
612.127	48476.17
612.484	48729.04
612.841	48765.2
613.198	48748.7
613.554	48705.77
613.911	48968.13
614.267	48882.94
614.624	48875.25
614.98	48900.11
615.337	49064.85
615.693	48990.96
616.05	48952.77
616.406	49322.25
616.762	49122.25
617.118	49384.17
617.475	49440.89
617.831	49858.73
618.187	50180.3
618.543	50331.94
618.899	50715.66
619.255	50790.91
619.611	51011.7
619.967	51398.8
620.323	51631.34
620.678	51526.26
621.034	51631.34
621.39	51745.01
621.746	51776.42
622.101	52095.06
622.457	51765.12
622.812	51824.1
623.168	51963.76
623.523	51801.73
623.879	51763.09
624.234	51455.3
624.589	51477.45
624.945	51651.9
625.3	51640.61
625.655	51490.55
626.01	51473.83
626.365	51601.74
626.72	51584.34
627.075	51681.51
627.43	51814.84
627.785	51829.08
628.14	52013.48
628.495	52176.18
628.85	52350.19
629.205	52375.05
629.559	52715.83
629.914	52580.02
630.269	52756.51
630.623	52770.52
630.978	52766.9
631.332	52902.27
631.687	52937.52
632.041	52646.45
632.396	52693.69
632.75	52443.07
633.104	52433.13
633.459	52250.98
633.813	52043.98
634.167	51993.82
634.521	51844.89
634.875	51859.81
635.229	51700.26
635.583	51471.57
635.937	51661.4
636.291	51527.16
636.645	51662.07
636.999	51686.03
637.352	51851
637.706	51712.92
638.06	52119.46
638.413	51993.36
638.767	52102.06
639.121	52293.7
639.474	52257.54
639.828	52250.76
640.181	52474.48
640.534	52478.32
640.888	52352.23
641.241	52328.5
641.594	52337.76
641.947	52332.34
642.301	52043.76
642.654	52034.72
643.007	51930.77
643.36	51712.24
643.713	51564
644.066	51478.58
644.419	51257.34
644.771	50932.38
645.124	50474.99
645.477	50401.77
645.83	50098.27
646.182	50105.5
646.535	50017.82
646.888	50134.66
647.24	50012.63
647.593	50307.08
647.945	50216.24
648.298	50225.5
648.65	50246.74
649.002	50497.36
649.355	50650.12
649.707	50655.09
650.059	50974.63
650.411	51408.3
650.763	51493.26
651.115	51777.1
651.467	51595.86
651.819	51531.23
652.171	51430.89
652.523	51182.76
652.875	51228.41
653.227	50958.82
653.578	50990.68
653.93	50778.71
654.282	50587.98
654.633	50441.54
654.985	50272.05
655.337	50269.57
655.688	50134.66
656.039	50317.48
656.391	50001.78
656.742	50036.81
657.094	50113.41
657.445	50196.58
657.796	50348.21
658.147	50339.85
658.498	50410.36
658.849	50594.31
659.2	50638.82
659.551	50624.36
659.902	50844.92
660.253	50906.39
660.604	51187.06
660.955	50944.13
661.306	51064.58
661.656	51042.43
662.007	50994.75
662.358	50953.39
662.708	50903.68
663.059	50793.17
663.409	50477.92
663.76	50691.48
664.11	50544.14
664.461	50321.32
664.811	50324.48
665.161	50003.81
665.511	49792.29
665.862	49696.02
666.212	49807.66
666.562	49723.37
666.912	49583.26
667.262	49565.18
667.612	49633.88
667.962	49733.99
668.312	49566.31
668.662	49954.32
669.011	49893.53
669.361	50021.89
669.711	50006.52
670.06	50127.2
670.41	50091.04
670.76	50327.42
671.109	50588.2
671.459	50536.45
671.808	50565.15
672.157	50665.72
672.507	50440.86
672.856	50495.32
673.205	50448.77
673.554	50470.47
673.904	50388.43
674.253	50418.04
674.602	50121.55
674.951	49580.09
675.3	49303.72
675.649	49685.85
675.998	49482.47
676.346	49225.53
676.695	49318.18
677.044	49000.45
677.393	48997.51
677.741	49065.08
678.09	48923.61
678.438	48673.68
678.787	48908.7
679.135	48960
679.484	48715.26
679.832	48997.06
680.181	48839.78
680.529	49120.45
680.877	49006.32
681.225	49110.95
681.573	49604.95
681.922	49245.87
682.27	49357.05
682.618	49403.38
682.966	49423.26
683.314	49624.61
683.661	49504.84
684.009	49312.31
684.357	49242.93
684.705	49183.27
685.053	49043.61
685.4	48992.77
685.748	48686.78
686.095	48646.79
686.443	48301.26
686.79	48125.22
687.138	48044.09
687.485	48043.41
687.832	47651.78
688.18	47577.44
688.527	47305.8
688.874	47143.32
689.221	47040.27
689.568	46953.05
689.915	46766.61
690.262	46709.44
690.609	46683
690.956	46666.5
691.303	46666.27
691.65	46639.61
691.997	46735.88
692.344	46613.84
692.69	46757.57
693.037	46860.17
693.383	46725.48
693.73	47000.95
694.077	46766.38
694.423	46860.62
694.769	46831.69
695.116	46824.91
695.462	46833.05
695.808	46794.18
696.155	46766.84
696.501	46304.93
696.847	46189.9
697.193	45867.2
697.539	46005.5
697.885	45536.13
698.231	45346.99
698.577	45086.2
698.923	44932.99
699.269	44646.21
699.614	44405.09
699.96	44260.69
700.306	43994.48
700.651	43777.99
700.997	43570.54
701.342	43565.34
701.688	43442.85
702.033	43312.01
702.379	43338
702.724	43240.83
703.069	43399.69
703.415	43046.26
703.76	43210.54
704.105	43409.86
704.45	43395.62
704.795	43225.01
705.14	43296.87
705.485	43262.52
705.83	43181.39
706.175	43349.52
706.52	43229.08
706.865	43222.75
707.209	43390.65
707.554	43184.33
707.899	43208.06
708.243	43122.41
708.588	42891.68
708.932	42582.76
709.277	42483.33
709.621	42343.9
709.966	41997.24
710.31	42017.58
710.654	41496.01
710.998	41461.89
711.342	41255.57
711.687	41069.58
712.031	40890.83
712.375	40566.32
712.719	40614.68
713.063	40307.12
713.407	40628.92
713.75	40308.47
714.094	40278.42
714.438	40001.59
714.782	40219.66
715.125	40053.79
715.469	40110.06
715.812	40192.32
716.156	40025.54
716.499	40087.46
716.843	40261.7
717.186	40103.06
717.53	40368.59
717.873	40471.63
718.216	40418.53
718.559	40356.83
718.902	40194.35
719.246	40386.66
719.589	40305.31
719.932	40095.82
720.275	40129.04
720.617	40051.76
720.96	40101.02
721.303	40016.05
721.646	40006.56
721.989	39572.9
722.331	39682.5
722.674	39302.62
723.016	39301.72
723.359	39002.29
723.701	38981.96
724.044	38588.07
724.386	38285.02
724.729	38290.9
725.071	38128.87
725.413	38112.37
725.755	37971.13
726.097	37629.45
726.439	37520.3
726.782	37551.48
727.124	37658.83
727.465	37507.42
727.807	37477.14
728.149	37469.9
728.491	37463.8
728.833	37584.25
729.175	37640.3
729.516	37575.89
729.858	37725.72
730.199	37894.53
730.541	37888.88
730.882	37719.84
731.224	37913.06
731.565	37812.04
731.906	37938.59
732.248	38110.79
732.589	37940.4
732.93	37807.52
733.271	37797.81
733.612	37717.58
733.953	37692.72
734.294	37549.68
734.635	37350.13
734.976	37428.55
735.317	37196.24
735.658	37033.31
735.999	36966.19
736.339	36737.27
736.68	36774.33
737.021	36507.67
737.361	36197.62
737.702	36280.11
738.042	36012.54
738.383	36012.32
738.723	35882.6
739.063	35760.57
739.404	35709.05
739.744	35636.05
740.084	35407.59
740.424	35627.69
740.764	35274.48
741.104	35585.66
741.444	35408.04
741.784	35364.2
742.124	35567.58
742.464	35620.69
742.804	35599.67
743.143	35591.08
743.483	35726.22
743.823	35642.38
744.162	35680.12
744.502	35989.49
744.841	35751.53
745.181	35877.86
745.52	35819.55
745.86	35920.11
746.199	35848.03
746.538	35805.99
746.877	35798.54
747.216	35785.2
747.556	35572.1
747.895	35598.32
748.234	35470.86
748.573	35250.75
748.911	35200.13
749.25	35038.56
749.589	34722.86
749.928	34738
750.267	34678.57
750.605	34531.22
750.944	34308.18
751.283	34025.25
751.621	34060.28
751.96	33777.57
752.298	33731.92
752.636	33541.65
752.975	33412.61
753.313	33166.74
753.651	33304.14
753.989	33159.96
754.327	32985.05
754.666	33016.24
755.004	32976.24
755.342	33196.12
755.679	33032.28
756.017	33016.69
756.355	32978.27
756.693	33011.04
757.031	32990.47
757.368	32952.28
757.706	33097.36
758.044	33011.72
758.381	33062.79
758.719	32925.62
759.056	33073.64
