Data from red_shiny_book_FLMS001491_00007.txt Node
Date: Wed Feb 08 15:23:34 GMT 2017
User: dcchb
Spectrometer: FLMS00149
Trigger mode: 0
Integration Time (sec): 2.000000E-2
Scans to average: 10
Electric dark correction enabled: true
Nonlinearity correction enabled: false
Boxcar width: 0
XAxis mode: Wavelengths
Number of Pixels in Spectrum: 2048
>>>>>Begin Spectral Data<<<<<
341.393	-5.88
341.776	-5.88
342.16	-5.88
342.543	-51.07
342.927	-69.38
343.31	-65.31
343.693	-68.02
344.077	-64.86
344.46	-67.57
344.843	-50.17
345.226	-54.46
345.61	-38.64
345.993	-28.7
346.376	-9.94
346.759	2.49
347.142	27.8
347.525	56.95
347.908	71.86
348.291	72.54
348.674	95.59
349.057	120.45
349.44	126.78
349.823	140.79
350.206	147.79
350.588	230.28
350.971	204.51
351.354	233.67
351.737	229.6
352.119	273.44
352.502	272.76
352.884	284.96
353.267	295.59
353.65	306.66
354.032	314.34
354.414	311.86
354.797	329.48
355.179	353.21
355.562	344.17
355.944	340.1
356.326	328.58
356.709	336.04
357.091	321.8
357.473	351.63
357.855	331.06
358.238	343.72
358.62	357.05
359.002	354.57
359.384	372.65
359.766	352.31
360.148	344.85
360.53	355.24
360.912	353.44
361.294	345.75
361.676	362.7
362.057	350.05
362.439	349.6
362.821	336.04
363.203	330.39
363.584	336.94
363.966	339.88
364.348	338.07
364.729	324.96
365.111	334.23
365.493	332.19
365.874	327.9
366.256	322.48
366.637	332.19
367.019	347.79
367.4	359.09
367.781	332.87
368.163	329.03
368.544	327.22
368.925	333.55
369.306	326.77
369.688	325.19
370.069	331.74
370.45	343.95
370.831	315.47
371.212	323.38
371.593	315.92
371.974	340.56
372.355	329.03
372.736	333.32
373.117	348.92
373.498	322.25
373.879	320.67
374.26	330.39
374.641	336.94
375.021	345.08
375.402	342.82
375.783	350.95
376.163	335.81
376.544	337.62
376.925	347.56
377.305	340.33
377.686	340.1
378.066	342.14
378.447	329.26
378.827	349.6
379.208	361.57
379.588	364.28
379.968	351.4
380.349	344.85
380.729	364.74
381.109	358.86
381.489	355.7
381.87	354.11
382.25	364.51
382.63	381.68
383.01	346.21
383.39	379.88
383.77	362.02
384.15	373.55
384.53	368.35
384.91	392.31
385.29	372.87
385.67	358.63
386.049	378.75
386.429	382.59
386.809	395.47
387.189	371.29
387.568	387.56
387.948	390.5
388.328	377.17
388.707	378.52
389.087	365.41
389.466	388.69
389.846	388.92
390.225	391.85
390.605	375.58
390.984	411.74
391.363	396.37
391.743	416.49
392.122	394.11
392.501	407.22
392.881	401.35
393.26	446.32
393.639	383.72
394.018	405.41
394.397	422.81
394.776	410.84
395.155	411.29
395.534	402.25
395.913	409.71
396.292	407.9
396.671	400.67
397.05	427.79
397.429	417.62
397.808	436.15
398.186	411.97
398.565	416.71
398.944	429.59
399.323	437.5
399.701	449.03
400.08	427.11
400.458	416.94
400.837	438.63
401.215	432.08
401.594	439.31
401.972	453.55
402.351	444.96
402.729	443.6
403.107	477.95
403.486	454.45
403.864	457.84
404.242	446.54
404.62	458.29
404.999	457.39
405.377	461.68
405.755	484.06
406.133	499.87
406.511	476.6
406.889	497.84
407.267	480.44
407.645	480.89
408.023	465.52
408.401	478.63
408.779	486.77
409.156	510.04
409.534	523.6
409.912	499.42
410.29	500.1
410.667	526.54
411.045	501.23
411.422	541.23
411.8	530.38
412.178	539.65
412.555	546.43
412.933	557.73
413.31	571.06
413.687	562.7
414.065	562.02
414.442	557.95
414.819	564.73
415.197	566.76
415.574	579.65
415.951	569.48
416.328	582.58
416.705	578.29
417.082	576.03
417.46	597.05
417.837	607.44
418.214	618.97
418.591	623.94
418.967	621.45
419.344	623.94
419.721	619.87
420.098	621
420.475	643.82
420.852	614.67
421.228	623.71
421.605	639.53
421.982	639.76
422.358	646.31
422.735	679.98
423.111	681.11
423.488	682.02
423.864	661.9
424.241	684.73
424.617	652.41
424.994	667.33
425.37	693.32
425.746	660.1
426.123	689.25
426.499	701.22
426.875	723.14
427.251	712.07
427.627	728.34
428.003	750.04
428.379	733.31
428.756	735.57
429.132	730.83
429.507	712.07
429.883	755.23
430.259	739.42
430.635	769.02
431.011	768.34
431.387	775.12
431.763	805.18
432.138	775.8
432.514	780.32
432.89	795.91
433.265	808.34
433.641	780.32
434.016	804.27
434.392	806.31
434.767	836.14
435.143	836.59
435.518	854.21
435.894	867.55
436.269	880.43
436.644	898.28
437.02	888.79
437.395	887.21
437.77	878.39
438.145	890.82
438.52	866.64
438.895	896.02
439.271	886.08
439.646	905.96
440.021	933.53
440.395	929.69
440.77	946.42
441.145	927.43
441.52	958.84
441.895	951.16
442.27	943.25
442.645	927.89
443.019	920.65
443.394	926.98
443.769	936.7
444.143	971.27
444.518	964.72
444.892	986.19
445.267	1002.69
445.641	1009.46
446.016	1007.66
446.39	1000.2
446.764	990.71
447.139	973.76
447.513	985.74
447.887	965.62
448.262	961.1
448.636	1000.65
449.01	1046.75
449.384	1039.97
449.758	1077.94
450.132	1087.88
450.506	1053.31
450.88	1067.09
451.254	1038.62
451.628	1063.7
452.002	1017.83
452.376	1038.39
452.75	1074.77
453.123	1042.23
453.497	1093.3
453.871	1085.4
454.244	1116.35
454.618	1128.56
454.992	1131.72
455.365	1112.06
455.739	1150.93
456.112	1143.02
456.486	1143.7
456.859	1143.25
457.232	1132.17
457.606	1129.46
457.979	1138.73
458.352	1171.27
458.725	1176.47
459.099	1210.14
459.472	1247.2
459.845	1267.09
460.218	1267.09
460.591	1256.92
460.964	1248.78
461.337	1259.4
461.71	1242
462.083	1255.11
462.456	1210.14
462.829	1213.3
463.201	1260.98
463.574	1245.17
463.947	1312.96
464.32	1341.66
464.692	1364.71
465.065	1399.96
465.438	1365.16
465.81	1390.7
466.183	1362
466.555	1385.27
466.928	1370.59
467.3	1335.78
467.672	1367.87
468.045	1382.56
468.417	1400.87
468.789	1400.19
469.161	1468.44
469.534	1486.74
469.906	1516.12
470.278	1529.68
470.65	1558.6
471.022	1576.91
471.394	1601.09
471.766	1536.23
472.138	1542.11
472.51	1550.69
472.882	1565.16
473.253	1561.54
473.625	1583.91
473.997	1611.71
474.369	1685.15
474.74	1718.37
475.112	1790.24
475.484	1792.72
475.855	1854.41
476.227	1868.88
476.598	1860.52
476.97	1844.02
477.341	1809.44
477.713	1804.02
478.084	1827.75
478.455	1844.92
478.827	1871.36
479.198	1920.85
479.569	1975.32
479.94	2023
480.311	2087.4
480.682	2164.91
481.053	2203.11
481.424	2215.76
481.795	2205.59
482.166	2221.18
482.537	2218.7
482.908	2234.52
483.279	2211.69
483.65	2202.65
484.021	2281.3
484.391	2265.93
484.762	2325.59
485.133	2411.91
485.503	2400.39
485.874	2539.82
486.244	2595.86
486.615	2664.79
486.985	2667.27
487.356	2687.61
487.726	2713.6
488.097	2694.17
488.467	2666.14
488.837	2695.97
489.207	2691.91
489.578	2716.54
489.948	2702.53
490.318	2758.57
490.688	2835.18
491.058	2898.23
491.428	2987.72
491.798	3100.03
492.168	3184.1
492.538	3173.48
492.908	3231.78
493.278	3254.83
493.648	3177.77
494.017	3221.38
494.387	3125.12
494.757	3127.38
495.126	3155.4
495.496	3166.7
495.866	3149.97
496.235	3225.23
496.605	3290.31
496.974	3338.9
497.344	3457.76
497.713	3531.21
498.082	3551.09
498.452	3622.5
498.821	3647.81
499.19	3645.33
499.559	3625.89
499.928	3579.79
500.298	3538.44
500.667	3512.9
501.036	3431.77
501.405	3482.85
501.774	3466.12
502.143	3518.33
502.512	3572.11
502.88	3638.77
503.249	3709.06
503.618	3813.01
503.987	3866.79
504.356	3917.19
504.724	3963.29
505.093	3885.32
505.462	3894.59
505.83	3877.64
506.199	3808.71
506.567	3747.25
506.936	3728.94
507.304	3698.89
507.672	3696.17
508.041	3736.4
508.409	3763.06
508.777	3818.88
509.145	3904.98
509.514	3976.62
509.882	4039.67
510.25	4111.08
510.618	4192.88
510.986	4212.54
511.354	4158.31
511.722	4245.99
512.09	4163.96
512.458	4066.33
512.826	4009.39
513.193	3923.29
513.561	3892.55
513.929	3906.34
514.297	3906.34
514.664	3994.7
515.032	4073.34
515.4	4141.13
515.767	4248.7
516.135	4326.21
516.502	4353.11
516.869	4436.49
517.237	4440.34
517.604	4412.54
517.972	4426.1
518.339	4372.99
518.706	4261.58
519.073	4259.78
519.44	4199.66
519.808	4170.74
520.175	4110.63
520.542	4135.48
520.909	4179.33
521.276	4202.38
521.643	4329.38
522.009	4375.7
522.376	4516.94
522.743	4649.14
523.11	4690.5
523.477	4730.27
523.843	4755.36
524.21	4835.58
524.577	4827.67
524.943	4758.74
525.31	4662.93
525.676	4648.92
526.043	4582.7
526.409	4505.42
526.776	4567.79
527.142	4546.1
527.508	4535.47
527.874	4593.55
528.241	4730.5
528.607	4840.78
528.973	4979.08
529.339	5104.27
529.705	5176.59
530.071	5289.35
530.437	5367.77
530.803	5393.3
531.169	5370.25
531.535	5333.42
531.901	5293.19
532.267	5168.45
532.632	5132.52
532.998	5045.29
533.364	5030.6
533.73	5033.99
534.095	5045.29
534.461	5117.61
534.826	5236.02
535.192	5331.61
535.557	5398.28
535.923	5511.95
536.288	5644.37
536.653	5777.02
537.019	5845.95
537.384	5930.47
537.749	5981.99
538.114	5926.17
538.479	5913.74
538.845	5869.22
539.21	5783.58
539.575	5718.49
539.94	5580.87
540.305	5579.51
540.67	5513.53
541.034	5534.77
541.399	5556.69
541.764	5586.97
542.129	5753.75
542.494	5868.77
542.858	6020.41
543.223	6142.21
543.587	6294.75
543.952	6383.11
544.316	6445.71
544.681	6494.07
545.045	6498.59
545.41	6482.77
545.774	6480.73
546.138	6312.6
546.503	6242.77
546.867	6127.3
547.231	6095.21
547.595	6035.77
547.959	5916
548.324	5982.22
548.688	5991.25
549.052	6022.67
549.416	6176.11
549.779	6229.89
550.143	6458.59
550.507	6588.3
550.871	6682.99
551.235	6821.52
551.599	6907.84
551.962	6896.99
552.326	6898.35
552.689	6863.32
553.053	6748.75
553.417	6700.61
553.78	6646.15
554.143	6472.15
554.507	6424.01
554.87	6327.29
555.234	6292.04
555.597	6209.33
555.96	6258.82
556.323	6335.43
556.686	6417.91
557.05	6501.75
557.413	6625.14
557.776	6819.48
558.139	6950.33
558.502	7100.15
558.865	7178.57
559.228	7261.5
559.59	7291.33
559.953	7261.28
560.316	7345.12
560.679	7282.52
561.041	7145.35
561.404	7103.99
561.767	6939.93
562.129	6851.12
562.492	6760.73
562.854	6720.73
563.217	6606.83
563.579	6645.93
563.941	6673.27
564.304	6817.22
564.666	6930.89
565.028	7100.38
565.39	7272.8
565.753	7403.65
566.115	7562.74
566.477	7677.31
566.839	7737.65
567.201	7840.7
567.563	7901.04
567.925	7844.54
568.287	7816.52
568.648	7675.73
569.01	7578.11
569.372	7547.82
569.734	7396.64
570.095	7337.43
570.457	7261.28
570.819	7179.25
571.18	7206.14
571.542	7226.7
571.903	7243.88
572.265	7363.87
572.626	7504.89
572.987	7716.63
573.349	7906.46
573.71	8160.01
574.071	8278.43
574.432	8476.39
574.794	8625.08
575.155	8722.26
575.516	8739.88
575.877	8775.36
576.238	8737.4
576.599	8721.13
576.96	8661.47
577.32	8608.14
577.681	8632.09
578.042	8551.64
578.403	8508.48
578.763	8564.97
579.124	8633.9
579.485	8783.95
579.845	8900.78
580.206	9077.05
580.566	9228.23
580.927	9670.93
581.287	9949.57
581.648	10295.32
582.008	10655.31
582.368	11049.43
582.728	11365.35
583.089	11555.18
583.449	11990.42
583.809	12213.46
584.169	12544.3
584.529	12674.02
584.889	13065.19
585.249	13208.01
585.609	13341.8
585.969	13687.1
586.329	13848.68
586.688	14061.55
587.048	14448.66
587.408	14686.62
587.768	15102.2
588.127	15614.5
588.487	16018.79
588.846	16684.99
589.206	17170.17
589.565	17823.03
589.925	18482
590.284	18986.17
590.643	19712.48
591.003	20280.82
591.362	20862.5
591.721	21372.09
592.08	21993.55
592.44	22431.5
592.799	23033.97
593.158	23477.35
593.517	23809.09
593.876	24270.32
594.235	24599.13
594.593	24929.51
594.952	25317.53
595.311	25660.12
595.67	26268.24
596.029	26675.91
596.387	27270.24
596.746	27833.17
597.104	28257.56
597.463	28873.14
597.822	29535.72
598.18	30052.32
598.538	30570.04
598.897	31465.16
599.255	31897.01
599.613	33079.58
599.972	33332.46
600.33	33838.66
600.688	34301.7
601.046	34852.64
601.404	35418.5
601.762	35725.61
602.12	36317.92
602.478	36502.32
602.836	36857.56
603.194	36893.04
603.552	37254.39
603.91	37378
604.268	37713.36
604.625	38075.38
604.983	38577.97
605.341	38641.24
605.698	39321.68
606.056	39714.89
606.413	39957.82
606.771	40555.09
607.128	41152.82
607.485	41424.9
607.843	41982.17
608.2	42659.9
608.557	43077.96
608.914	43378.29
609.272	43813.09
609.629	44199.06
609.986	44559.96
610.343	44558.6
610.7	45067.29
611.057	45093.5
611.414	45337.34
611.771	45438.35
612.127	45622.08
612.484	45549.54
612.841	45737.33
613.198	45634.73
613.554	45821.17
613.911	46170.99
614.267	46195.62
614.624	46327.14
614.98	46633.8
615.337	47124.41
615.693	47156.73
616.05	47352.88
616.406	47720.33
616.762	47788.8
617.118	48126.19
617.475	48387.43
617.831	48728.66
618.187	48841.2
618.543	49075.09
618.899	49418.36
619.255	49471.92
619.611	49287.07
619.967	49716.21
620.323	49713.04
620.678	49511.92
621.034	49507.62
621.39	49425.37
621.746	49392.15
622.101	49800.5
622.457	49357.8
622.812	49414.52
623.168	49559.6
623.523	49464.46
623.879	49654.51
624.234	49453.61
624.589	49718.01
624.945	49869.65
625.3	49996.2
625.655	50103.09
626.01	50210.88
626.365	50442.06
626.72	50634.37
627.075	50599.8
627.43	50779
627.785	50846.8
628.14	50974.03
628.495	51017.42
628.85	51092.89
629.205	50996.63
629.559	51221.48
629.914	50990.98
630.269	50948.72
630.623	50866.91
630.978	50691.32
631.332	50803.86
631.687	50739.68
632.041	50318.68
632.396	50438.22
632.75	50176.53
633.104	50358
633.459	50172.92
633.813	50159.81
634.167	50316.87
634.521	50304.67
634.875	50398.22
635.229	50416.3
635.583	50379.92
635.937	50410.65
636.291	50599.35
636.645	50724.99
636.999	50661.94
637.352	50839.79
637.706	50672.11
638.06	50920.92
638.413	50862.84
638.767	50779
639.121	50735.39
639.474	50534.72
639.828	50571.33
640.181	50531.33
640.534	50447.26
640.888	50244.78
641.241	50023.77
641.594	49866.49
641.947	50031
642.301	49844.57
642.654	49768.18
643.007	49822.64
643.36	49588.3
643.713	49629.43
644.066	49771.57
644.419	49513.73
644.771	49406.84
645.124	49149.67
645.477	49061.53
645.83	48910.58
646.182	48931.37
646.535	49051.82
646.888	49103.79
647.24	49065.15
647.593	49373.62
647.945	49313.05
648.298	49200.97
648.65	49172.49
649.002	49070.12
649.355	49145.6
649.707	49099.05
650.059	48991.71
650.411	49459.04
650.763	49466.04
651.115	49578.58
651.467	49396.89
651.819	49236.45
652.171	49116.67
652.523	48859.73
652.875	48785.38
653.227	48683.92
653.578	48855.89
653.93	48717.14
654.282	48620.19
654.633	48622.9
654.985	48684.14
655.337	48669.23
655.688	48770.92
656.039	48912.61
656.391	48863.12
656.742	48913.97
657.094	49220.85
657.445	49284.13
657.796	49308.99
658.147	49307.63
658.498	49319.61
658.849	49515.53
659.2	49414.75
659.551	49259.5
659.902	49480.05
660.253	49290
660.604	49292.94
660.955	49046.85
661.306	49030.12
661.656	48927.3
662.007	48905.61
662.358	48772.95
662.708	48589.68
663.059	48343.59
663.409	48203.93
663.76	48400.99
664.11	48459.97
664.461	48211.61
664.811	48222.69
665.161	48172.29
665.511	48117.83
665.862	48258.84
666.212	48444.83
666.562	48500.65
666.912	48463.13
667.262	48453.19
667.612	48558.72
667.962	48625.39
668.312	48600.08
668.662	48997.58
669.011	48875.33
669.361	48793.07
669.711	48804.59
670.06	48825.16
670.41	48840.07
670.76	48767.08
671.109	48721.66
671.459	48578.16
671.808	48588.55
672.157	48618.61
672.507	48117.6
672.856	48128.45
673.205	48137.49
673.554	48072.18
673.904	47923.03
674.253	48065.4
674.602	47755.81
674.951	47229.04
675.3	46854.81
675.649	47514
675.998	47497.28
676.346	47485.08
676.695	47762.13
677.044	47422.26
677.393	47564.17
677.741	47684.85
678.09	47627.45
678.438	47651.85
678.787	47881.9
679.135	47832.87
679.484	47635.58
679.832	47977.27
680.181	47855.69
680.529	47978.17
680.877	47766.88
681.225	47829.7
681.573	48101.79
681.922	47794.45
682.27	47652.31
682.618	47614.57
682.966	47540.44
683.314	47608.47
683.661	47257.06
684.009	46953.34
684.357	46859.11
684.705	46681.94
685.053	46743.4
685.4	46491.21
685.748	46152.23
686.095	46201.05
686.443	46047.38
686.79	45855.07
687.138	45895.52
687.485	45923.09
687.832	45692.36
688.18	45860.26
688.527	45668.86
688.874	45766.48
689.221	45670.66
689.568	45627.05
689.915	45635.86
690.262	45715.63
690.609	45669.08
690.956	45703.43
691.303	45715.63
691.65	45703.88
691.997	45774.39
692.344	45498.01
692.69	45461.4
693.037	45589.54
693.383	45281.3
693.73	45318.36
694.077	45063.9
694.423	45054.18
694.769	44737.13
695.116	44612.84
695.462	44573.52
695.808	44212.4
696.155	44293.98
696.501	43839.07
696.847	43690.15
697.193	43411.29
697.539	43294.91
697.885	43064.63
698.231	42833.45
698.577	42828.7
698.923	42720.46
699.269	42513.91
699.614	42399.56
699.96	42286.35
700.306	42421.03
700.651	42219.68
700.997	42141.26
701.342	42172.9
701.688	42289.28
702.033	42313.01
702.379	42197.99
702.724	42203.86
703.069	42420.58
703.415	41893.36
703.76	42238.89
704.105	42177.2
704.45	42190.98
704.795	41969.29
705.14	41773.14
705.485	41809.3
705.83	41606.14
706.175	41727.72
706.52	41408.18
706.865	41344.68
707.209	41137.45
707.554	40952.6
707.899	40957.57
708.243	40568.65
708.588	40477.81
708.932	40141.09
709.277	40020.87
709.621	40036.69
709.966	39589.92
710.31	39642.12
710.654	39214.56
710.998	39364.16
711.342	39332.3
711.687	39181.34
712.031	39129.82
712.375	39066.09
712.719	39050.5
713.063	39013.21
713.407	39073.77
713.75	39065.19
714.094	39016.83
714.438	39063.38
714.782	39176.6
715.125	39057.73
715.469	39105.86
715.812	39054.34
716.156	38984.29
716.499	39114.9
716.843	39195.13
717.186	39020.22
717.53	39221.12
717.873	39162.59
718.216	38967.34
718.559	38704.52
718.902	38405.77
719.246	38488.48
719.589	38369.16
719.932	38077.42
720.275	38060.47
720.617	37922.84
720.96	37812.11
721.303	37556.98
721.646	37604.21
721.989	37410.77
722.331	37402.41
722.674	37104.56
723.016	37026.6
723.359	37011.46
723.701	36952.7
724.044	36638.36
724.386	36617.79
724.729	36647.62
725.071	36531.69
725.413	36606.27
725.755	36646.95
726.097	36495.54
726.439	36349.33
726.782	36569.89
727.124	36659.15
727.465	36498.02
727.807	36526.72
728.149	36556.33
728.491	36500.06
728.833	36704.35
729.175	36599.94
729.516	36571.47
729.858	36402.88
730.199	36635.87
730.541	36490.57
730.882	36264.13
731.224	36469.32
731.565	36284.92
731.906	36150.69
732.248	36205.38
732.589	35858.27
732.93	35892.39
733.271	35814.2
733.612	35775.56
733.953	35505.96
734.294	35397.04
734.635	35239.53
734.976	35296.47
735.317	34887.22
735.658	34872.76
735.999	34829.37
736.339	34741.91
736.68	34679.31
737.021	34711.18
737.361	34492.88
737.702	34526.1
738.042	34541.69
738.383	34458.53
738.723	34591.63
739.063	34361.36
739.404	34597.73
739.744	34468.47
740.084	34347.8
740.424	34540.11
740.764	34489.04
741.104	34712.08
741.444	34533.1
741.784	34470.73
742.124	34685.42
742.464	34629.6
742.804	34604.97
743.143	34484.07
743.483	34597.96
743.823	34434.35
744.162	34472.09
744.502	34427.57
744.841	34408.81
745.181	34488.81
745.52	34272.32
745.86	34141.7
746.199	34066.22
746.538	33934.7
746.877	34020.12
747.216	33840.47
747.556	33540.14
747.895	33640.25
748.234	33342.4
748.573	33159.13
748.911	33184.21
749.25	33099.24
749.589	32867.61
749.928	32760.27
750.267	32850.89
750.605	32623.32
750.944	32520.95
751.283	32349.43
751.621	32439.82
751.96	32321.64
752.298	32306.5
752.636	32386.72
752.975	32095.43
753.313	32124.58
753.651	32116.9
753.989	32106.05
754.327	32239.83
754.666	32143.34
755.004	32126.84
755.342	32171.81
755.679	32211.81
756.017	32124.58
756.355	32161.64
756.693	31963.68
757.031	32129.55
757.368	31955.09
757.706	31995.99
758.044	31934.98
758.381	31880.74
758.719	31707.64
759.056	31832.61
759.394	31576.8
759.731	31437.14
760.068	31320.76
760.405	31202.8
760.743	30979.07
