Data from red_shiny_book_FLMS001491_00100.txt Node
Date: Wed Feb 08 15:25:38 GMT 2017
User: dcchb
Spectrometer: FLMS00149
Trigger mode: 0
Integration Time (sec): 2.000000E-2
Scans to average: 10
Electric dark correction enabled: true
Nonlinearity correction enabled: false
Boxcar width: 0
XAxis mode: Wavelengths
Number of Pixels in Spectrum: 2048
>>>>>Begin Spectral Data<<<<<
341.393	-36.17
341.776	-36.17
342.16	-36.17
342.543	-61.26
342.927	-61.26
343.31	-64.19
343.693	-61.48
344.077	-67.36
344.46	-60.8
344.843	-49.73
345.226	-28.04
345.61	-49.73
345.993	-8.83
346.376	2.7
346.759	8.57
347.142	21.45
347.525	35.24
347.908	54.9
348.291	58.97
348.674	103.03
349.057	105.29
349.44	137.38
349.823	138.97
350.206	161.11
350.588	183.71
350.971	214.44
351.354	242.01
351.737	238.17
352.119	255.12
352.502	272.3
352.884	276.81
353.267	262.58
353.65	283.82
354.032	284.05
354.414	317.04
354.797	336.25
355.179	334.89
355.562	311.39
355.944	352.52
356.326	332.86
356.709	327.21
357.091	341.22
357.473	348.68
357.855	353.2
358.238	357.72
358.62	338.28
359.002	340.54
359.384	343.48
359.766	360.65
360.148	344.16
360.53	346.64
360.912	345.29
361.294	349.58
361.676	337.83
362.057	348.23
362.439	357.04
362.821	332.86
363.203	320.43
363.584	348.23
363.966	326.53
364.348	327.66
364.729	290.83
365.111	324.95
365.493	329.92
365.874	323.14
366.256	332.86
366.637	330.6
367.019	323.14
367.4	307.77
367.781	328.79
368.163	325.18
368.544	310.94
368.925	309.13
369.306	325.4
369.688	330.82
370.069	341.9
370.45	318.85
370.831	325.63
371.212	310.03
371.593	325.63
371.974	317.04
372.355	322.69
372.736	318.17
373.117	325.85
373.498	331.95
373.879	308.23
374.26	311.16
374.641	314.78
375.021	328.34
375.402	300.09
375.783	326.08
376.163	337.6
376.544	315.23
376.925	329.92
377.305	333.31
377.686	334.67
378.066	316.36
378.447	330.6
378.827	340.54
379.208	324.72
379.588	351.39
379.968	355.23
380.349	347.1
380.729	350.26
381.109	350.49
381.489	359.07
381.87	357.72
382.25	365.17
382.63	339.64
383.01	349.36
383.39	358.17
383.77	349.13
384.15	356.59
384.53	364.5
384.91	357.72
385.29	354.55
385.67	352.29
386.049	349.36
386.429	369.69
386.809	367.43
387.189	361.11
387.568	351.84
387.948	350.71
388.328	400.2
388.707	373.99
389.087	379.41
389.466	355.91
389.846	378.51
390.225	389.81
390.605	378.06
390.984	381.44
391.363	377.6
391.743	363.14
392.122	362.46
392.501	370.6
392.881	388.68
393.26	380.54
393.639	369.47
394.018	399.98
394.397	378.06
394.776	379.41
395.155	392.52
395.534	378.73
395.913	402.91
396.292	395.46
396.671	409.69
397.05	422.57
397.429	410.14
397.808	405.85
398.186	417.6
398.565	408.56
398.944	406.3
399.323	390.71
399.701	418.96
400.08	409.01
400.458	425.74
400.837	434.1
401.215	419.64
401.594	411.73
401.972	415.57
402.351	424.83
402.729	413.31
403.107	430.26
403.486	435
403.864	455.34
404.242	428
404.62	443.14
404.999	428.22
405.377	440.88
405.755	463.93
406.133	437.26
406.511	451.05
406.889	445.4
407.267	442.01
407.645	453.53
408.023	481.33
408.401	458.73
408.779	466.19
409.156	470.26
409.534	469.35
409.912	479.52
410.29	475.91
410.667	495.57
411.045	476.58
411.422	485.17
411.8	477.94
412.178	495.34
412.555	517.03
412.933	517.03
413.31	503.02
413.687	526.75
414.065	533.76
414.442	529.24
414.819	515.45
415.197	526.07
415.574	535.34
415.951	546.64
416.328	531.27
416.705	542.8
417.082	532.4
417.46	566.07
417.837	571.5
418.214	579.18
418.591	553.87
418.967	549.12
419.344	567.88
419.721	567.88
420.098	592.06
420.475	563.36
420.852	582.34
421.228	590.93
421.605	583.47
421.982	617.6
422.358	648.56
422.735	596.13
423.111	610.59
423.488	590.7
423.864	597.71
424.241	609.24
424.617	626.18
424.994	608.56
425.37	630.7
425.746	635.45
426.123	632.51
426.499	649.23
426.875	656.69
427.251	678.61
427.627	632.74
428.003	630.03
428.379	657.6
428.756	667.09
429.132	674.77
429.507	680.42
429.883	692.17
430.259	700.08
430.635	714.32
431.011	707.76
431.387	718.39
431.763	731.72
432.138	688.1
432.514	705.96
432.89	686.3
433.265	721.32
433.641	744.6
434.016	735.11
434.392	776.91
434.767	741.21
435.143	752.96
435.518	775.56
435.894	765.39
436.269	774.2
436.644	782.11
437.02	757.03
437.395	784.15
437.77	806.07
438.145	787.99
438.52	810.36
438.895	798.16
439.271	812.85
439.646	823.69
440.021	858.49
440.395	871.6
440.77	841.32
441.145	861.66
441.52	849.46
441.895	827.76
442.27	828.44
442.645	832.96
443.019	841.32
443.394	850.36
443.769	875.9
444.143	876.12
444.518	885.84
444.892	895.56
445.267	886.52
445.641	909.79
446.016	866.4
446.39	877.93
446.764	891.26
447.139	870.7
447.513	867.76
447.887	881.09
448.262	878.83
448.636	896.69
449.01	916.12
449.384	936.91
449.758	949.11
450.132	940.07
450.506	939.4
450.88	941.2
451.254	930.13
451.628	944.37
452.002	923.35
452.376	912.05
452.75	955.21
453.123	957.47
453.497	1010.58
453.871	1008.32
454.244	1013.07
454.618	1022.78
454.992	1016.46
455.365	1028.43
455.739	1021.65
456.112	1036.12
456.486	1020.98
456.859	987.53
457.232	1021.2
457.606	996.8
457.979	1020.52
458.352	1039.05
458.725	1053.74
459.099	1082.67
459.472	1077.92
459.845	1103.69
460.218	1131.48
460.591	1126.74
460.964	1118.15
461.337	1102.56
461.71	1089.22
462.083	1112.95
462.456	1093.29
462.829	1077.92
463.201	1078.83
463.574	1083.35
463.947	1134.65
464.32	1140.52
464.692	1186.17
465.065	1209.22
465.438	1232.04
465.81	1247.64
466.183	1266.39
466.555	1263.91
466.928	1228.43
467.3	1243.57
467.672	1247.41
468.045	1228.2
468.417	1227.07
468.789	1239.73
469.161	1238.37
469.534	1315.21
469.906	1308.88
470.278	1349.33
470.65	1334.87
471.022	1378.93
471.394	1397.69
471.766	1409.67
472.138	1397.69
472.51	1405.37
472.882	1396.79
473.253	1400.18
473.625	1399.5
473.997	1406.05
474.369	1401.76
474.74	1433.85
475.112	1483.56
475.484	1512.94
475.855	1557.23
476.227	1591.13
476.598	1608.31
476.97	1655.08
477.341	1658.47
477.713	1651.47
478.084	1651.02
478.455	1671.13
478.827	1630.45
479.198	1639.72
479.569	1649.66
479.94	1660.73
480.311	1705.48
480.682	1773.95
481.053	1809.43
481.424	1879.48
481.795	1935.3
482.166	1922.42
482.537	2011.46
482.908	2038.8
483.279	2015.53
483.65	2017.11
484.021	2046.03
484.391	2024.79
484.762	1975.08
485.133	1988.86
485.503	1991.35
485.874	2067.5
486.244	2064.56
486.615	2131
486.985	2194.5
487.356	2275.18
487.726	2321.05
488.097	2423.88
488.467	2383.88
488.837	2445.57
489.207	2432.46
489.578	2472.24
489.948	2443.76
490.318	2452.35
490.688	2391.34
491.058	2444.22
491.428	2417.1
491.798	2429.98
492.168	2499.81
492.538	2559.69
492.908	2645.79
493.278	2695.28
493.648	2729.41
494.017	2795.62
494.387	2867.48
494.757	2834.71
495.126	2907.48
495.496	2867.71
495.866	2888.72
496.235	2848.95
496.605	2817.31
496.974	2782.96
497.344	2823.41
497.713	2793.81
498.082	2811.66
498.452	2824.77
498.821	2919.23
499.19	2973.92
499.559	3056.63
499.928	3100.24
500.298	3157.42
500.667	3165.33
501.036	3225.44
501.405	3205.55
501.774	3173.01
502.143	3148.15
502.512	3100.02
502.88	3098.21
503.249	3051.43
503.618	3022.05
503.987	3032.45
504.356	3025.22
504.724	3034.71
505.093	3104.99
505.462	3175.27
505.83	3222.5
506.199	3318.99
506.567	3383.4
506.936	3415.72
507.304	3447.58
507.672	3438.54
508.041	3435.15
508.409	3397.86
508.777	3371.42
509.145	3343.63
509.514	3300.46
509.882	3235.16
510.25	3166.91
510.618	3222.73
510.986	3224.99
511.354	3258.66
511.722	3363.74
512.09	3360.12
512.458	3438.09
512.826	3555.15
513.193	3596.05
513.561	3629.72
513.929	3690.06
514.297	3677.4
514.664	3654.35
515.032	3620
515.4	3566.22
515.767	3531.19
516.135	3511.76
516.502	3412.33
516.869	3400.35
517.237	3399.44
517.604	3414.81
517.972	3421.14
518.339	3489.61
518.706	3536.16
519.073	3654.35
519.44	3730.06
519.808	3797.4
520.175	3829.94
520.542	3910.84
520.909	3892.54
521.276	3877.85
521.643	3848.02
522.009	3831.98
522.376	3760.79
522.743	3732.54
523.11	3643.28
523.477	3620.68
523.843	3642.15
524.21	3579.33
524.577	3633.56
524.943	3725.76
525.31	3794.91
525.676	3874.01
526.043	3946.1
526.409	4096.83
526.776	4141.12
527.142	4238.07
527.508	4310.38
527.874	4310.38
528.241	4311.06
528.607	4266.99
528.973	4269.93
529.339	4188.35
529.705	4177.05
530.071	4104.74
530.437	4096.6
530.803	4035.36
531.169	4046.66
531.535	4068.13
531.901	4076.71
532.267	4175.47
532.632	4269.48
532.998	4414.79
533.364	4488
533.73	4550.83
534.095	4706.98
534.461	4735.23
534.826	4793.98
535.192	4814.77
535.557	4811.38
535.923	4812.29
536.288	4722.35
536.653	4721.22
537.019	4609.36
537.384	4541.56
537.749	4518.74
538.114	4452.07
538.479	4446.87
538.845	4484.61
539.21	4519.87
539.575	4673.76
539.94	4707.43
540.305	4829.24
540.67	4954.66
541.034	5098.61
541.399	5187.42
541.764	5234.42
542.129	5314.87
542.494	5339.51
542.858	5310.58
543.223	5305.38
543.587	5276.01
543.952	5196.46
544.316	5091.6
544.681	5047.76
545.045	4971.15
545.41	4946.3
545.774	4879.41
546.138	4883.93
546.503	4921.66
546.867	4985.84
547.231	5122.11
547.595	5198.04
547.959	5280.75
548.324	5383.57
548.688	5525.04
549.052	5615.43
549.416	5615.88
549.779	5662.66
550.143	5708.99
550.507	5723.9
550.871	5657.46
551.235	5579.95
551.599	5586.96
551.962	5443.68
552.326	5359.84
552.689	5242.79
553.053	5196.46
553.417	5169.79
553.78	5243.46
554.143	5188.55
554.507	5281.43
554.87	5285.04
555.234	5389.22
555.597	5476.68
555.96	5629.44
556.323	5696.79
556.686	5841.41
557.05	5896.55
557.413	6019.26
557.776	6008.19
558.139	6054.97
558.502	6021.52
558.865	5944.91
559.228	5912.37
559.59	5771.13
559.953	5703.79
560.316	5680.74
560.679	5585.15
561.041	5512.61
561.404	5473.51
561.767	5479.39
562.129	5516
562.492	5598.03
562.854	5579.95
563.217	5659.95
563.579	5789.21
563.941	5920.73
564.304	6071.92
564.666	6267.84
565.028	6359.59
565.39	6348.97
565.753	6476.2
566.115	6470.55
566.477	6454.05
566.839	6380.38
567.201	6314.17
567.563	6290.89
567.925	6211.57
568.287	6077.34
568.648	6054.74
569.01	5940.17
569.372	5918.25
569.734	5886.84
570.095	5903.33
570.457	5925.93
570.819	5968.42
571.18	6068.75
571.542	6188.75
571.903	6400.72
572.265	6499.48
572.626	6654.27
572.987	6751.45
573.349	6934.04
573.71	7010.87
574.071	7089.29
574.432	7125
574.794	7183.07
575.155	7166.8
575.516	7094.04
575.877	7106.92
576.238	7015.39
576.599	7007.03
576.96	6908.5
577.32	6814.27
577.681	6903.99
578.042	6882.29
578.403	6961.16
578.763	7024.21
579.124	7166.8
579.485	7387.14
579.845	7585.55
580.206	7818.99
580.566	8067.12
580.927	8350.95
581.287	8662.13
581.648	8939.86
582.008	9190.48
582.368	9447.65
582.728	9787.3
583.089	9840.86
583.449	10127.86
583.809	10256.21
584.169	10433.61
584.529	10506.6
584.889	10812.81
585.249	10864.33
585.609	10990.43
585.969	11316.75
586.329	11523.3
586.688	11735.72
587.048	12102.94
587.408	12419.77
587.768	12752.19
588.127	13210.49
588.487	13628.78
588.846	14185.6
589.206	14672.82
589.565	15144.9
589.925	15782.85
590.284	16227.81
590.643	16763.39
591.003	17222.58
591.362	17680.88
591.721	18117.25
592.08	18585.49
592.44	18943.67
592.799	19367.39
593.158	19709.75
593.517	19964.43
593.876	20342.95
594.235	20589.73
594.593	20995.59
594.952	21303.15
595.311	21594.22
595.67	22022.91
596.029	22489.56
596.387	22966.61
596.746	23364.12
597.104	23917.32
597.463	24301.04
597.822	24965.21
598.18	25327.91
598.538	25855.58
598.897	26592.06
599.255	26924.02
599.613	27797.9
599.972	28059.14
600.33	28698.44
600.688	28961.03
601.046	29387.46
601.404	29896.37
601.762	30292.75
602.12	30634.66
602.478	30870.36
602.836	31118.49
603.194	31174.53
603.552	31534.98
603.91	31638.48
604.268	31818.58
604.625	32112.36
604.983	32516.19
605.341	32579.69
605.698	33083.64
606.056	33435.49
606.413	33712.77
606.771	34146.66
607.128	34627.55
607.485	34802.01
607.843	35208.1
608.2	35731.48
608.557	36256.89
608.914	36521.96
609.272	36938.9
609.629	37506.12
609.986	37683.74
610.343	37837.18
610.7	38296.38
611.057	38384.74
611.414	38481.01
611.771	38720.55
612.127	38767.33
612.484	38875.57
612.841	38851.39
613.198	38908.79
613.554	38965.29
613.911	39211.16
614.267	39372.96
614.624	39489.57
614.98	39487.99
615.337	39912.16
615.693	40070.12
616.05	40161.87
616.406	40514.63
616.762	40490.22
617.118	40738.12
617.475	41094.95
617.831	41462.62
618.187	41899.68
618.543	41891.09
618.899	42369.95
619.255	42416.27
619.611	42490.39
619.967	42769.26
620.323	42857.62
620.678	42736.72
621.034	42933.09
621.39	43012.41
621.746	42691.29
622.101	43263.03
622.457	42776.26
622.812	42827.11
623.168	42787.11
623.523	42916.15
623.879	42882.93
624.234	42659.66
624.589	42809.48
624.945	42799.76
625.3	42834.57
625.655	43031.85
626.01	43148.68
626.365	43224.39
626.72	43204.5
627.075	43335.34
627.43	43616.47
627.785	43685.39
628.14	43858.49
628.495	44051.71
628.85	44149.56
629.205	44179.84
629.559	44455.09
629.914	44332.83
630.269	44355.66
630.623	44383.68
630.978	44239.27
631.332	44329.44
631.687	44437.91
632.041	44104.14
632.396	44206.28
632.75	43817.59
633.104	43769.23
633.459	43593.42
633.813	43447.43
634.167	43296.25
634.521	43385.96
634.875	43355.23
635.229	43173.31
635.583	43141
635.937	43263.71
636.291	43171.73
636.645	43434.78
636.999	43359.3
637.352	43565.17
637.706	43420.09
638.06	43653.08
638.413	43639.97
638.767	43629.57
639.121	43896.23
639.474	43675.22
639.828	43854.2
640.181	43955.21
640.534	43886.97
640.888	43838.83
641.241	43771.94
641.594	43663.02
641.947	43667.76
642.301	43480.42
642.654	43363.82
643.007	43328.11
643.36	43216.93
643.713	42974.9
644.066	42875.47
644.419	42754.12
644.771	42294.24
645.124	41969.28
645.477	41715.27
645.83	41451.1
646.182	41288.62
646.535	41200.03
646.888	41518.44
647.24	41414.49
647.593	41565.45
647.945	41696.29
648.298	41603.19
648.65	41620.13
649.002	41551.21
649.355	41868.49
649.707	41844.54
650.059	42131.31
650.411	42592.31
650.763	42625.53
651.115	43175.8
651.467	42891.74
651.819	42887.22
652.171	42736.04
652.523	42688.58
652.875	42442.71
653.227	42308.25
653.578	42701.46
653.93	42249.27
654.282	42087.92
654.633	41863.29
654.985	41751.43
655.337	41769.06
655.688	41697.19
656.039	41816.51
656.391	41290.65
656.742	41435.73
657.094	41526.58
657.445	41604.09
657.796	41619.46
658.147	41477.54
658.498	41562.73
658.849	41836.17
659.2	41718.89
659.551	41739.45
659.902	41922.95
660.253	41996.4
660.604	42108.48
660.955	41988.71
661.306	42324.97
661.656	42218.54
662.007	42243.17
662.358	42321.36
662.708	42287.01
663.059	42143.74
663.409	41874.37
663.76	42145.77
664.11	42048.37
664.461	42028.49
664.811	41791.2
665.161	41649.29
665.511	41374.04
665.862	41386.24
666.212	41629.4
666.562	41352.34
666.912	41161.84
667.262	41123.88
667.612	40906.48
667.962	41046.59
668.312	40912.13
668.662	41057.21
669.011	41063.76
669.361	40850.66
669.711	41002.3
670.06	41080.04
670.41	41007.04
670.76	41074.16
671.109	41334.94
671.459	41254.72
671.808	41286.13
672.157	41518.44
672.507	41480.25
672.856	41315.96
673.205	41564.54
673.554	41641.38
673.904	41575.39
674.253	41787.81
674.602	41572
674.951	41030.55
675.3	40785.13
675.649	41335.85
675.998	41132.69
676.346	40897.67
676.695	41008.63
677.044	40722.53
677.393	40765.24
677.741	40666.94
678.09	40436.44
678.438	40285.48
678.787	40273.28
679.135	40267.4
679.484	39920.29
679.832	40041.87
680.181	39938.82
680.529	39907.19
680.877	39883.23
681.225	39986.96
681.573	40126.39
681.922	40087.97
682.27	39858.6
682.618	40053.4
682.966	39935.43
683.314	40217.91
683.661	40188.31
684.009	40104.69
684.357	39965.04
684.705	40107.18
685.053	40133.17
685.4	40210
685.748	40005.26
686.095	39956.22
686.443	39820.41
686.79	39656.34
687.138	39829.45
687.485	39669.9
687.832	39477.82
688.18	39557.36
688.527	39095
688.874	39039.19
689.221	38790.83
689.568	38549.93
689.915	38398.52
690.262	38450.27
690.609	38263.61
690.956	38082.15
691.303	38034.01
691.65	37663.4
691.997	37737.07
692.344	37384.09
692.69	37465.22
693.037	37590.86
693.383	37280.14
693.73	37582.95
694.077	37331.43
694.423	37490.53
694.769	37342.51
695.116	37349.96
695.462	37505.44
695.808	37398.78
696.155	37470.19
696.501	37286.92
696.847	37341.83
697.193	37263.19
697.539	37353.35
697.885	37135.05
698.231	37130.99
698.577	37059.35
698.923	36954.49
699.269	36763.76
699.614	36578.69
699.96	36541.85
700.306	36410.1
700.651	36098.7
700.997	35856.67
701.342	35823
701.688	35800.17
702.033	35470.01
702.379	35355.89
702.724	35176.01
703.069	35298.94
703.415	34680.43
703.76	34771.5
704.105	34686.31
704.45	34558.17
704.795	34424.84
705.14	34256.71
705.485	34326.54
705.83	34232.53
706.175	34332.87
706.52	34262.81
706.865	34142.59
707.209	34237.05
707.554	34057.85
707.899	34293.55
708.243	34176.26
708.588	34193.44
708.932	33980.56
709.277	34136.26
709.621	34193.66
709.966	33895.82
710.31	34203.83
710.654	33767.46
710.998	33867.34
711.342	33957.06
711.687	33768.36
712.031	33525.66
712.375	33518.2
712.719	33502.61
713.063	33402.72
713.407	33418.99
713.75	33138.78
714.094	33077.99
714.438	32872.34
714.782	32801.84
715.125	32529.07
715.469	32545.57
715.812	32223.55
716.156	32108.52
716.499	32071.23
716.843	31960.95
717.186	31787.4
717.53	31956.43
717.873	31871.46
718.216	31807.06
718.559	31630.79
718.902	31500.17
719.246	31698.14
719.589	31435.09
719.932	31530.46
720.275	31533.62
720.617	31571.59
720.96	31557.8
721.303	31653.39
721.646	31738.13
721.989	31623.79
722.331	31775.65
722.674	31755.31
723.016	31745.14
723.359	31611.58
723.701	31768.42
724.044	31486.84
724.386	31459.05
724.729	31554.64
725.071	31424.24
725.413	31337.47
725.755	31370.23
726.097	31202.1
726.439	31028.1
726.782	31033.29
727.124	31180.63
727.465	30728.22
727.807	30679.86
728.149	30619.75
728.491	30234.45
728.833	30419.53
729.175	30207.33
729.516	30104.51
729.858	30012.53
730.199	29939.09
730.541	29822.25
730.882	29811.18
731.224	29896.15
731.565	29671.75
731.906	29753.55
732.248	29694.57
732.589	29641.01
732.93	29442.83
733.271	29592.88
733.612	29608.92
733.953	29720.56
734.294	29609.83
734.635	29579.1
734.976	29700.67
735.317	29627.68
735.658	29663.39
735.999	29683.95
736.339	29698.19
736.68	29816.38
737.021	29731.41
737.361	29682.6
737.702	29767.56
738.042	29782.93
738.383	29746.77
738.723	29755.14
739.063	29546.33
739.404	29514.01
739.744	29401.7
740.084	29358.31
740.424	29429.49
740.764	29294.58
741.104	29250.29
741.444	29060.69
741.784	28834.26
742.124	28816.86
742.464	28778.44
742.804	28620.02
743.143	28491.67
743.483	28413.7
743.823	28058.01
744.162	28189.3
744.502	28234.72
744.841	27932.13
745.181	28171.45
745.52	27900.72
745.86	27916.09
746.199	27884.68
746.538	27850.78
746.877	27898.46
747.216	27945.01
747.556	27906.14
747.895	27922.87
748.234	27899.82
748.573	27841.06
748.911	27840.61
749.25	27942.08
749.589	27808.52
749.928	28036.08
750.267	28012.81
750.605	27960.61
750.944	27881.29
751.283	27918.12
751.621	28032.7
751.96	27855.52
752.298	27755.41
752.636	27957.44
752.975	27710.44
753.313	27499.6
753.651	27731.91
753.989	27565.14
754.327	27408.53
754.666	27148.42
755.004	27295.31
755.342	27230.46
755.679	27077.69
756.017	26911.82
756.355	26826.85
756.693	26642.22
757.031	26624.37
757.368	26371.95
757.706	26350.25
758.044	26164.5
758.381	26275.68
758.719	26071.39
759.056	26055.12
759.394	25826.65
759.731	25638.63
760.068	25643.38
760.405	25624.17
