Data from red_shiny_book_FLMS001491_00006.txt Node
Date: Wed Feb 08 15:23:34 GMT 2017
User: dcchb
Spectrometer: FLMS00149
Trigger mode: 0
Integration Time (sec): 2.000000E-2
Scans to average: 10
Electric dark correction enabled: true
Nonlinearity correction enabled: false
Boxcar width: 0
XAxis mode: Wavelengths
Number of Pixels in Spectrum: 2048
>>>>>Begin Spectral Data<<<<<
341.393	-3.73
341.776	-3.73
342.16	-3.73
342.543	-71.07
342.927	-67.46
343.31	-79.88
343.693	-64.97
344.077	-67.23
344.46	-50.28
344.843	-48.25
345.226	-31.75
345.61	-36.04
345.993	-25.88
346.376	-21.81
346.759	20
347.142	27.23
347.525	43.05
347.908	51.86
348.291	94.12
348.674	84.63
349.057	105.19
349.44	128.92
349.823	147.68
350.206	170.96
350.588	215.47
350.971	224.74
351.354	232.65
351.737	230.84
352.119	276.49
352.502	289.14
352.884	269.26
353.267	277.17
353.65	309.94
354.032	306.77
354.414	304.96
354.797	321.01
355.179	334.57
355.562	356.04
355.944	359.2
356.326	351.97
356.709	350.84
357.091	348.13
357.473	340.44
357.855	366.21
358.238	361.46
358.62	356.94
359.002	348.35
359.384	338.86
359.766	359.65
360.148	351.74
360.53	349.71
360.912	351.74
361.294	346.32
361.676	343.83
362.057	348.58
362.439	366.21
362.821	355.58
363.203	328.47
363.584	323.04
363.966	335.02
364.348	345.64
364.729	338.41
365.111	322.59
365.493	340.22
365.874	328.92
366.256	325.98
366.637	344.74
367.019	326.21
367.4	330.73
367.781	325.98
368.163	314.68
368.544	330.27
368.925	360.78
369.306	350.61
369.688	326.88
370.069	311.97
370.45	356.26
370.831	346.77
371.212	318.75
371.593	329.37
371.974	325.75
372.355	337.51
372.736	335.02
373.117	332.76
373.498	336.15
373.879	333.21
374.26	337.73
374.641	344.28
375.021	326.88
375.402	328.69
375.783	347
376.163	368.24
376.544	347
376.925	356.26
377.305	344.51
377.686	353.78
378.066	346.54
378.447	362.59
378.827	350.61
379.208	347.22
379.588	350.39
379.968	349.71
380.349	360.56
380.729	356.04
381.109	367.79
381.489	342.48
381.87	351.29
382.25	373.89
382.63	358.52
383.01	345.41
383.39	372.53
383.77	356.26
384.15	362.59
384.53	398.52
384.91	377.73
385.29	351.52
385.67	387.22
386.049	384.28
386.429	379.54
386.809	376.6
387.189	373.89
387.568	375.02
387.948	365.3
388.328	376.15
388.707	393.55
389.087	402.59
389.466	408.24
389.846	398.29
390.225	395.36
390.605	385.87
390.984	395.81
391.363	397.84
391.743	387.45
392.122	387.9
392.501	415.02
392.881	417.96
393.26	404.4
393.639	404.4
394.018	394.23
394.397	398.52
394.776	412.76
395.155	423.83
395.534	433.1
395.913	417.73
396.292	411.85
396.671	427.22
397.05	449.37
397.429	419.76
397.808	417.73
398.186	422.93
398.565	432.64
398.944	446.43
399.323	431.06
399.701	459.54
400.08	450.5
400.458	441.46
400.837	428.58
401.215	442.36
401.594	444.62
401.972	438.29
402.351	449.14
402.729	444.4
403.107	446.43
403.486	448.69
403.864	460.89
404.242	463.38
404.62	439.65
404.999	470.16
405.377	462.93
405.755	475.81
406.133	478.74
406.511	478.07
406.889	485.3
407.267	493.43
407.645	504.05
408.023	466.32
408.401	463.38
408.779	507.67
409.156	516.94
409.534	496.37
409.912	509.93
410.29	539.99
410.667	528.01
411.045	519.65
411.422	515.81
411.8	521.23
412.178	546.31
412.555	537.27
412.933	537.5
413.31	521
413.687	535.24
414.065	545.18
414.442	544.28
414.819	565.3
415.197	552.87
415.574	567.1
415.951	567.1
416.328	581.34
416.705	585.18
417.082	582.7
417.46	567.33
417.837	607.55
418.214	603.49
418.591	611.62
418.967	617.05
419.344	638.51
419.721	624.96
420.098	631.96
420.475	624.73
420.852	615.01
421.228	640.55
421.605	643.71
421.982	617.72
422.358	650.49
422.735	663.82
423.111	662.02
423.488	667.21
423.864	681
424.241	702.02
424.617	689.81
424.994	664.95
425.37	669.7
425.746	669.47
426.123	681.45
426.499	689.81
426.875	699.76
427.251	719.64
427.627	723.03
428.003	733.43
428.379	731.85
428.756	717.61
429.132	732.75
429.507	721.45
429.883	756.7
430.259	750.38
430.635	762.58
431.011	762.8
431.387	772.52
431.763	775.69
432.138	812.3
432.514	804.84
432.89	791.05
433.265	811.17
433.641	798.06
434.016	769.36
434.392	798.96
434.767	838.28
435.143	822.69
435.518	858.17
435.894	849.13
436.269	885.29
436.644	899.52
437.02	863.37
437.395	894.33
437.77	871.95
438.145	853.2
438.52	859.75
438.895	876.02
439.271	896.59
439.646	912.63
440.021	914.44
440.395	946.3
440.77	934.55
441.145	933.42
441.52	970.26
441.895	917.15
442.27	947.43
442.645	918.51
443.019	923.03
443.394	921.67
443.769	951.05
444.143	938.39
444.518	998.73
444.892	991.95
445.267	1002.8
445.641	992.18
446.016	1007.54
446.39	1005.96
446.764	977.49
447.139	978.62
447.513	977.71
447.887	958.73
448.262	991.27
448.636	1020.65
449.01	1057.03
449.384	1036.47
449.758	1082.57
450.132	1062.01
450.506	1046.41
450.88	1082.8
451.254	1030.14
451.628	1026.98
452.002	1049.12
452.376	1029.69
452.75	1062.01
453.123	1042.57
453.497	1090.48
453.871	1078.73
454.244	1106.3
454.618	1131.38
454.992	1137.03
455.365	1169.35
455.739	1146.07
456.112	1160.99
456.486	1149.46
456.859	1130.48
457.232	1114.43
457.606	1112.85
457.979	1167.99
458.352	1174.77
458.725	1179.74
459.099	1221.55
459.472	1244.15
459.845	1246.18
460.218	1272.17
460.591	1232.62
460.964	1217.03
461.337	1242.79
461.71	1235.56
462.083	1246.63
462.456	1248.44
462.829	1233.75
463.201	1274.66
463.574	1264.94
463.947	1317.37
464.32	1338.38
464.692	1363.24
465.065	1388.78
465.438	1392.17
465.81	1381.77
466.183	1379.06
466.555	1396.46
466.928	1352.39
467.3	1371.6
467.672	1353.98
468.045	1388.1
468.417	1380.42
468.789	1422.67
469.161	1453.41
469.534	1499.28
469.906	1526.17
470.278	1563.69
470.65	1575.44
471.022	1561.2
471.394	1564.37
471.766	1560.98
472.138	1540.86
472.51	1573.86
472.882	1529.79
473.253	1573.86
473.625	1621.31
473.997	1617.25
474.369	1667.64
474.74	1707.41
475.112	1775.43
475.484	1806.39
475.855	1833.29
476.227	1799.84
476.598	1843
476.97	1846.39
477.341	1825.83
477.713	1852.27
478.084	1807.98
478.455	1824.25
478.827	1867.86
479.198	1939.72
479.569	1947.41
479.94	2019.04
480.311	2085.93
480.682	2137.01
481.053	2202.54
481.424	2235.99
481.795	2228.75
482.166	2216.78
482.537	2198.7
482.908	2201.86
483.279	2162.32
483.65	2198.93
484.021	2261.97
484.391	2282.09
484.762	2282.09
485.133	2381.97
485.503	2443.21
485.874	2553.94
486.244	2587.62
486.615	2641.63
486.985	2696.31
487.356	2721.17
487.726	2710.32
488.097	2746.93
488.467	2702.19
488.837	2675.07
489.207	2647.73
489.578	2700.15
489.948	2709.65
490.318	2775.41
490.688	2848.63
491.058	2937.21
491.428	3010.43
491.798	3069.18
492.168	3190.99
492.538	3195.06
492.908	3228.05
493.278	3234.15
493.648	3239.58
494.017	3251.33
494.387	3153.02
494.757	3067.15
495.126	3120.03
495.496	3113.48
495.866	3159.35
496.235	3188.28
496.605	3286.35
496.974	3362.74
497.344	3445.22
497.713	3533.81
498.082	3569.96
498.452	3604.31
498.821	3611.54
499.19	3640.47
499.559	3605.89
499.928	3570.64
500.298	3515.73
500.667	3511.21
501.036	3448.84
501.405	3448.38
501.774	3464.2
502.143	3499.46
502.512	3564.54
502.88	3630.07
503.249	3674.37
503.618	3799.11
503.987	3868.94
504.356	3926.79
504.724	3968.14
505.093	3887.02
505.462	3930.18
505.83	3860.12
506.199	3809.96
506.567	3751.43
506.936	3695.84
507.304	3683.63
507.672	3764.31
508.041	3726.79
508.409	3784.42
508.777	3881.82
509.145	3922.5
509.514	4001.82
509.882	4066.9
510.25	4080.46
510.618	4175.37
510.986	4152.32
511.354	4254.46
511.722	4174.47
512.09	4139.44
512.458	4072.1
512.826	3992.78
513.193	3925.43
513.561	3918.88
513.929	3900.12
514.297	3961.36
514.664	3974.02
515.032	4054.02
515.4	4132.66
515.767	4199.1
516.135	4334.69
516.502	4385.53
516.869	4430.73
517.237	4452.43
517.604	4464.63
517.972	4429.6
518.339	4378.53
518.706	4328.59
519.073	4270.28
519.44	4192.09
519.808	4163.62
520.175	4116.39
520.542	4071.64
520.909	4169.49
521.276	4181.02
521.643	4264.86
522.009	4388.7
522.376	4532.65
522.743	4618.75
523.11	4652.42
523.477	4753.89
523.843	4804.96
524.21	4856.03
524.577	4839.08
524.943	4770.38
525.31	4710.72
525.676	4674.34
526.043	4619.43
526.409	4566.09
526.776	4562.7
527.142	4525.87
527.508	4519.09
527.874	4614.68
528.241	4749.14
528.607	4823.71
528.973	4920.21
529.339	5109.13
529.705	5181.67
530.071	5369.01
530.437	5345.51
530.803	5362.68
531.169	5389.58
531.535	5279.3
531.901	5300.31
532.267	5232.74
532.632	5067.78
532.998	5047.44
533.364	5035.23
533.73	5006.31
534.095	5058.06
534.461	5125.4
534.826	5216.25
535.192	5273.19
535.557	5491.95
535.923	5586.86
536.288	5698.49
536.653	5830.47
537.019	5815.1
537.384	5945.95
537.749	5961.54
538.114	6011.71
538.479	5947.98
538.845	5873.63
539.21	5764.26
539.575	5627.76
539.94	5567.88
540.305	5551.61
540.67	5515.45
541.034	5508.44
541.399	5561.55
541.764	5672.28
542.129	5817.14
542.494	5927.87
542.858	6083.79
543.223	6171.25
543.587	6251.25
543.952	6408.53
544.316	6468.19
544.681	6490.34
545.045	6504.8
545.41	6558.36
545.774	6449.66
546.138	6343.9
546.503	6256.45
546.867	6180.97
547.231	6057.58
547.595	6003.8
547.959	6038.6
548.324	6003.8
548.688	6024.14
549.052	6082.89
549.416	6178.48
549.779	6305.94
550.143	6420.74
550.507	6610.33
550.871	6696.21
551.235	6774.4
551.599	6952.02
551.962	6880.61
552.326	6913.83
552.689	6885.81
553.053	6711.8
553.417	6709.77
553.78	6627.28
554.143	6496.21
554.507	6458.25
554.87	6312.49
555.234	6339.16
555.597	6206.96
555.96	6280.63
556.323	6277.01
556.686	6441.07
557.05	6531.01
557.413	6655.53
557.776	6794.28
558.139	6963.32
558.502	7060.94
558.865	7173.48
559.228	7219.58
559.59	7282.63
559.953	7280.83
560.316	7307.27
560.679	7164.44
561.041	7116.99
561.404	7061.85
561.767	6982.98
562.129	6781.86
562.492	6815.98
562.854	6622.09
563.217	6646.04
563.579	6684.23
563.941	6706.15
564.304	6825.92
564.666	6944.11
565.028	7060.27
565.39	7267.94
565.753	7450.54
566.115	7622.74
566.477	7655.05
566.839	7730.53
567.201	7846.69
567.563	7797.2
567.925	7780.02
568.287	7810.53
568.648	7714.49
569.01	7589.74
569.372	7511.78
569.734	7408.05
570.095	7270.2
570.457	7233.37
570.819	7183.88
571.18	7159.47
571.542	7177.55
571.903	7248.74
572.265	7418.67
572.626	7523.08
572.987	7723.07
573.349	7912.22
573.71	8094.59
574.071	8237.86
574.432	8398.31
574.794	8663.61
575.155	8752.65
575.516	8734.57
575.877	8792.88
576.238	8759.2
576.599	8779.09
576.96	8713.56
577.32	8638.98
577.681	8572.99
578.042	8597.4
578.403	8573.9
578.763	8481.7
579.124	8647.12
579.485	8740.45
579.845	8908.58
580.206	9029.25
580.566	9349.7
580.927	9619.07
581.287	9890.02
581.648	10313.74
582.008	10639.83
582.368	11028.75
582.728	11347.61
583.089	11680.71
583.449	12045.9
583.809	12318.43
584.169	12603.4
584.529	12739.44
584.889	13020.11
585.249	13157.73
585.609	13392.76
585.969	13646.31
586.329	13804.95
586.688	14139.4
587.048	14427.3
587.408	14728.99
587.768	15143.44
588.127	15555.64
588.487	16002.86
588.846	16578.21
589.206	17201.24
589.565	17700.44
589.925	18469.01
590.284	19076
590.643	19620.61
591.003	20301.5
591.362	20896.06
591.721	21503.28
592.08	21949.59
592.44	22481.1
592.799	23054.2
593.158	23465.03
593.517	23819.83
593.876	24223.88
594.235	24524.21
594.593	24940.93
594.952	25329.16
595.311	25709.95
595.67	26283.49
596.029	26651.84
596.387	27233.52
596.746	27902.88
597.104	28318.46
597.463	28852.69
597.822	29661.48
598.18	30152.99
598.538	30697.84
598.897	31509.12
599.255	32002.89
599.613	32959.02
599.972	33334.6
600.33	33882.61
600.688	34296.84
601.046	34895.01
601.404	35440.09
601.762	35805.27
602.12	36232.15
602.478	36527.74
602.836	36731.12
603.194	36909.65
603.552	37178.57
603.91	37434.83
604.268	37807.93
604.625	38061.03
604.983	38517.29
605.341	38713.45
605.698	39250.15
606.056	39761.78
606.413	40139.85
606.771	40561.31
607.128	41216.66
607.485	41420.04
607.843	41994.49
608.2	42674.7
608.557	43062.03
608.914	43237.62
609.272	43818.17
609.629	44236.46
609.986	44694.31
610.343	44581.77
610.7	45208.19
611.057	45213.84
611.414	45213.39
611.771	45376.55
612.127	45687.27
612.484	45617.22
612.841	45817.67
613.198	45550.78
613.554	45769.31
613.911	46093.14
614.267	46227.15
614.624	46256.52
614.98	46467.59
615.337	46999.78
615.693	47106.67
616.05	47328.59
616.406	47777.84
616.762	47835.01
617.118	48067.55
617.475	48310.93
617.831	48730.13
618.187	48928.32
618.543	49156.33
618.899	49444.01
619.255	49500.05
619.611	49487.4
619.967	49605.81
620.323	49656.43
620.678	49537.79
621.034	49491.69
621.39	49472.94
621.746	49383.45
622.101	49749.54
622.457	49437.46
622.812	49435.88
623.168	49524.01
623.523	49475.87
623.879	49737.56
624.234	49547.96
624.589	49731.91
624.945	49785.02
625.3	50055.07
625.655	50134.16
626.01	50225.91
626.365	50502.06
626.72	50509.29
627.075	50691.21
627.43	50795.39
627.785	50784.31
628.14	50923.52
628.495	50986.57
628.85	50983.86
629.205	50923.97
629.559	51199.44
629.914	50976.63
630.269	51082.84
630.623	50828.16
630.978	50731.43
631.332	50820.92
631.687	50643.08
632.041	50376.19
632.396	50459.58
632.75	50263.65
633.104	50378
633.459	50189.98
633.813	50243.99
634.167	50168.74
634.521	50309.75
634.875	50383.65
635.229	50397.88
635.583	50272.01
635.937	50473.81
636.291	50518.56
636.645	50637.65
636.999	50655.05
637.352	50702.96
637.706	50668.61
638.06	50862.73
638.413	50844.2
638.767	50590.65
639.121	50814.82
639.474	50629.52
639.828	50547.03
640.181	50469.52
640.534	50440.14
640.888	50292.58
641.241	50022.53
641.594	50041.51
641.947	50077.89
642.301	49841.06
642.654	49862.76
643.007	49719.48
643.36	49628.86
643.713	49623.44
644.066	49791.35
644.419	49524.23
644.771	49412.15
645.124	49014.87
645.477	49133.06
645.83	48982.1
646.182	48981.2
646.535	49099.16
646.888	49173.96
647.24	49063.23
647.593	49325.14
647.945	49342.09
648.298	49203.79
648.65	49120.63
649.002	49071.37
649.355	49119.73
649.707	49057.81
650.059	49067.98
650.411	49359.49
650.763	49367.4
651.115	49610.33
651.467	49297.57
651.819	49373.73
652.171	49040.86
652.523	48891.71
652.875	48912.73
653.227	48602.45
653.578	48798.6
653.93	48781.88
654.282	48562.9
654.633	48535.56
654.985	48667.53
655.337	48693.52
655.688	48805.16
656.039	49043.8
656.391	48857.36
656.742	48896.45
657.094	49133.28
657.445	49366.5
657.796	49132.15
658.147	49291.25
658.498	49229.55
658.849	49416.21
659.2	49423.9
659.551	49401.75
659.902	49366.05
660.253	49233.62
660.604	49348.87
660.955	49039.28
661.306	49116.11
661.656	48865.95
662.007	48898.49
662.358	48825.04
662.708	48541.21
663.059	48484.71
663.409	48221.44
663.76	48448.33
664.11	48361.55
664.461	48395.68
664.811	48293.98
665.161	48225.96
665.511	48153.2
665.862	48395.9
666.212	48525.84
666.562	48560.42
666.912	48514.77
667.262	48446.75
667.612	48554.77
667.962	48731.04
668.312	48793.86
668.662	48947.53
669.011	49020.74
669.361	48894.87
669.711	48933.74
670.06	48912.73
670.41	48736.23
670.76	48625.95
671.109	48865.04
671.459	48591.6
671.808	48495.79
672.157	48644.03
672.507	48244.04
672.856	48152.97
673.205	48178.96
673.554	48103.03
673.904	47962.02
674.253	48033.65
674.602	47817.61
674.951	47253.11
675.3	47035.49
675.649	47595.47
675.998	47491.29
676.346	47535.13
676.695	47614.23
677.044	47314.8
677.393	47540.78
677.741	47676.15
678.09	47693.32
678.438	47634.11
678.787	47779.42
679.135	47852.41
679.484	47707.33
679.832	47975.8
680.181	47545.98
680.529	47853.09
680.877	47888.57
681.225	47802.25
681.573	48064.16
681.922	47750.04
682.27	47580.56
682.618	47606.77
682.966	47479.32
683.314	47534
683.661	47338.53
684.009	46964.98
684.357	46922.04
684.705	46715.49
685.053	46680.69
685.4	46573.35
685.748	46199.8
686.095	46177.2
686.443	46075.06
686.79	45925.69
687.138	45969.07
687.485	46025.8
687.832	45814.05
688.18	45873.03
688.527	45654.51
688.874	45739.02
689.221	45753.94
689.568	45585.13
689.915	45689.08
690.262	45730.89
690.609	45634.62
690.956	45708.29
691.303	45749.19
691.65	45671.68
691.997	45693.37
692.344	45346.04
692.69	45661.74
693.037	45652.02
693.383	45162.32
693.73	45204.8
694.077	45026.95
694.423	45145.37
694.769	44706.96
695.116	44666.96
695.462	44400.3
695.808	44330.47
696.155	44267.2
696.501	43833.54
696.847	43711.73
697.193	43315.81
697.539	43325.3
697.885	43024.07
698.231	42840.79
698.577	42743.17
698.923	42743.17
699.269	42638.54
699.614	42485.78
699.96	42372.33
700.306	42471.76
700.651	42245.56
700.997	42170.53
701.342	42358.32
701.688	42207.82
702.033	42301.15
702.379	42301.15
702.724	42231.09
703.069	42391.54
703.415	41898.67
703.76	42236.52
704.105	42226.35
704.45	42261.15
704.795	41923.53
705.14	41820.26
705.485	41832.46
705.83	41722.41
706.175	41634.72
706.52	41460.49
706.865	41216.88
707.209	41138.69
707.554	41012.14
707.899	40970.79
708.243	40576
708.588	40483.34
708.932	40247.64
709.277	40095.1
709.621	40074.99
709.966	39639.97
710.31	39707.32
710.654	39356.37
710.998	39366.54
711.342	39379.42
711.687	39173.55
712.031	38991.63
712.375	39007.67
712.719	39152.3
713.063	39065.07
713.407	39278.63
713.75	39108.46
714.094	39063.94
714.438	39120.67
714.782	39082.25
715.125	39030.5
715.469	39208.35
715.812	39078.86
716.156	38862.37
716.499	39016.04
716.843	39066.66
717.186	38818.75
717.53	39189.82
717.873	39087.9
718.216	38821.69
718.559	38599.32
718.902	38460.34
719.246	38575.6
719.589	38458.08
719.932	38024.2
720.275	38037.53
720.617	37943.75
720.96	37744.43
721.303	37591.44
721.646	37641.84
721.989	37317.78
722.331	37366.81
722.674	37176.99
723.016	37064
723.359	36974.73
723.701	36885.02
724.044	36652.03
724.386	36499.04
724.729	36773.61
725.071	36570.68
725.413	36624.69
725.755	36551.69
726.097	36434.18
726.439	36431.92
726.782	36460.85
727.124	36649.77
727.465	36495.88
727.807	36463.56
728.149	36606.61
728.491	36482.77
728.833	36661.3
729.175	36593.5
729.516	36583.11
729.858	36494.07
730.199	36628.98
730.541	36455.88
730.882	36595.99
731.224	36561.41
731.565	36220.4
731.906	36271.93
732.248	36245.26
732.589	35983.8
732.93	35815.22
733.271	35860.41
733.612	35701.77
733.953	35586.3
734.294	35339.75
734.635	35223.14
734.976	35235.12
735.317	34954.67
735.658	34834.68
735.999	34785.19
736.339	34709.48
736.68	34785.64
737.021	34438.53
737.361	34564.63
737.702	34538.19
738.042	34342.03
738.383	34514.23
738.723	34469.04
739.063	34350.85
739.404	34594.46
739.744	34485.31
740.084	34434.24
740.424	34546.32
740.764	34623.16
741.104	34723.27
741.444	34525.08
741.784	34615.25
742.124	34574.57
742.464	34523.95
742.804	34593.1
743.143	34538.19
743.483	34643.95
743.823	34486.66
744.162	34464.52
744.502	34484.18
744.841	34288.25
745.181	34399.43
745.52	34071.31
745.86	34318.53
746.199	34030.4
746.538	33940.24
746.877	34078.54
747.216	33787.25
747.556	33565.11
747.895	33500.48
748.234	33337.99
748.573	33193.14
748.911	33248.96
749.25	33091.9
749.589	32763.09
749.928	32725.35
750.267	32803.32
750.605	32631.35
750.944	32539.14
751.283	32529.65
751.621	32501.41
751.96	32237.68
752.298	32280.39
752.636	32347.29
752.975	32218.7
753.313	32077.91
753.651	32233.16
753.989	32177.8
754.327	32234.75
754.666	32112.26
755.004	32211.24
755.342	32180.06
755.679	32196.78
756.017	32019.16
756.355	32183.9
756.693	32046.05
757.031	32267.97
757.368	32036.11
757.706	31923.57
758.044	31771.26
758.381	32000.63
758.719	31671.82
759.056	31750.92
759.394	31539.62
759.731	31358.61
760.068	31431.6
