Data from red_cardboard_box_FLMS001491_00096.txt Node
Date: Wed Feb 08 11:33:25 GMT 2017
User: dcchb
Spectrometer: FLMS00149
Trigger mode: 0
Integration Time (sec): 2.000000E-2
Scans to average: 10
Electric dark correction enabled: true
Nonlinearity correction enabled: false
Boxcar width: 0
XAxis mode: Wavelengths
Number of Pixels in Spectrum: 2048
>>>>>Begin Spectral Data<<<<<
341.393	-14.49
341.776	-14.49
342.16	-14.49
342.543	-50.42
342.927	-60.59
343.31	-74.38
343.693	-66.02
344.077	-81.38
344.46	-52.91
344.843	-53.13
345.226	-32.12
345.61	-49.97
345.993	-5.45
346.376	5.4
346.759	2.01
347.142	27.09
347.525	47.88
347.908	37.26
348.291	94.66
348.674	108.9
349.057	92.17
349.44	120.42
349.823	150.93
350.206	172.85
350.588	198.16
350.971	215.79
351.354	234.77
351.737	237.25
352.119	248.33
352.502	286.97
352.884	288.1
353.267	284.94
353.65	300.08
354.032	309.79
354.414	322
354.797	333.97
355.179	336.69
355.562	312.28
355.944	350.25
356.326	342.56
356.709	345.95
357.091	322.68
357.473	326.52
357.855	340.75
358.238	382.33
358.62	332.39
359.002	331.71
359.384	360.87
359.766	338.04
360.148	330.13
360.53	327.65
360.912	336.91
361.294	343.69
361.676	310.92
362.057	334.88
362.439	342.56
362.821	318.16
363.203	316.8
363.584	325.61
363.966	325.61
364.348	333.52
364.729	318.61
365.111	323.81
365.493	326.29
365.874	303.01
366.256	330.13
366.637	310.47
367.019	333.07
367.4	326.74
367.781	307.53
368.163	325.16
368.544	326.52
368.925	327.87
369.306	321.55
369.688	296.46
370.069	322.68
370.45	298.04
370.831	315.22
371.212	323.13
371.593	311.83
371.974	314.77
372.355	310.7
372.736	311.38
373.117	326.97
373.498	328.55
373.879	312.73
374.26	331.49
374.641	335.78
375.021	326.29
375.402	324.71
375.783	341.43
376.163	345.5
376.544	333.3
376.925	344.6
377.305	343.01
377.686	340.3
378.066	336.46
378.447	318.83
378.827	331.71
379.208	325.61
379.588	323.13
379.968	329.23
380.349	329.45
380.729	326.52
381.109	345.27
381.489	338.95
381.87	336.01
382.25	337.14
382.63	334.88
383.01	340.75
383.39	340.75
383.77	337.14
384.15	344.6
384.53	340.98
384.91	347.08
385.29	354.31
385.67	352.73
386.049	346.86
386.429	363.35
386.809	348.21
387.189	355.22
387.568	363.35
387.948	355.89
388.328	369.91
388.707	361.32
389.087	353.18
389.466	375.33
389.846	363.8
390.225	372.39
390.605	376.46
390.984	362.9
391.363	377.59
391.743	367.87
392.122	365.16
392.501	386.18
392.881	383.92
393.26	360.64
393.639	366.29
394.018	384.59
394.397	391.6
394.776	378.27
395.155	374.65
395.534	373.97
395.913	376.01
396.292	385.5
396.671	397.93
397.05	373.52
397.429	382.33
397.808	394.09
398.186	390.24
398.565	383.01
398.944	392.05
399.323	388.66
399.701	417.36
400.08	399.51
400.458	407.19
400.837	386.85
401.215	390.24
401.594	395.44
401.972	408.55
402.351	398.38
402.729	403.35
403.107	404.25
403.486	396.8
403.864	400.41
404.242	419.85
404.62	387.31
404.999	390.02
405.377	418.72
405.755	422.56
406.133	426.4
406.511	413.97
406.889	441.77
407.267	416.01
407.645	421.43
408.023	414.88
408.401	432.73
408.779	412.16
409.156	439.51
409.534	449.9
409.912	442.45
410.29	441.99
410.667	445.61
411.045	447.19
411.422	434.99
411.8	458.49
412.178	444.48
412.555	475.67
412.933	477.7
413.31	463.24
413.687	456.68
414.065	465.5
414.442	459.39
414.819	485.16
415.197	471.15
415.574	480.86
415.951	492.39
416.328	486.96
416.705	477.25
417.082	493.29
417.46	485.61
417.837	503.46
418.214	491.26
418.591	488.32
418.967	501.88
419.344	476.12
419.721	532.61
420.098	484.25
420.475	515.21
420.852	509.79
421.228	508.66
421.605	521.77
421.982	514.76
422.358	526.51
422.735	533.07
423.111	513.86
423.488	530.35
423.864	538.04
424.241	521.09
424.617	520.18
424.994	533.29
425.37	537.81
425.746	543.69
426.123	545.95
426.499	550.24
426.875	526.06
427.251	568.32
427.627	554.31
428.003	543.69
428.379	578.04
428.756	559.28
429.132	581.43
429.507	582.56
429.883	578.26
430.259	573.97
430.635	597.7
431.011	589.79
431.387	609.22
431.763	593.18
432.138	614.64
432.514	602.44
432.89	595.44
433.265	619.84
433.641	607.41
434.016	619.16
434.392	612.39
434.767	619.39
435.143	642.21
435.518	633.4
435.894	642.21
436.269	650.8
436.644	668.65
437.02	657.13
437.395	667.3
437.77	667.98
438.145	654.87
438.52	674.08
438.895	688.54
439.271	690.35
439.646	701.87
440.021	683.8
440.395	692.83
440.77	666.17
441.145	682.89
441.52	705.72
441.895	706.39
442.27	693.51
442.645	730.12
443.019	712.04
443.394	709.11
443.769	721.53
444.143	727.41
444.518	735.77
444.892	714.08
445.267	737.58
445.641	732.38
446.016	734.64
446.39	743.46
446.764	750.23
447.139	758.6
447.513	758.6
447.887	750.46
448.262	762.21
448.636	782.1
449.01	755.21
449.384	758.37
449.758	781.65
450.132	786.84
450.506	787.52
450.88	780.06
451.254	776.67
451.628	800.63
452.002	797.69
452.376	787.75
452.75	813.06
453.123	820.06
453.497	827.75
453.871	805.6
454.244	852.15
454.618	841.53
454.992	838.59
455.365	837.46
455.739	870.68
456.112	883.34
456.486	852.83
456.859	898.48
457.232	895.09
457.606	895.09
457.979	891.25
458.352	901.19
458.725	917.69
459.099	905.03
459.472	934.41
459.845	929.21
460.218	939.61
460.591	946.16
460.964	942.55
461.337	962.43
461.71	969.66
462.083	958.82
462.456	1006.5
462.829	974.18
463.201	1005.6
463.574	1013.96
463.947	1021.19
464.32	1044.92
464.692	1009.21
465.065	1008.98
465.438	1033.16
465.81	1022.09
466.183	1037.23
466.555	1104.8
466.928	1079.27
467.3	1083.56
467.672	1073.16
468.045	1100.28
468.417	1103.9
468.789	1101.41
469.161	1154.07
469.534	1139.15
469.906	1177.79
470.278	1160.17
470.65	1185.25
471.022	1180.51
471.394	1208.75
471.766	1199.71
472.138	1232.93
472.51	1251.01
472.882	1275.19
473.253	1280.84
473.625	1275.87
473.997	1303.21
474.369	1338.02
474.74	1279.71
475.112	1357
475.484	1363.33
475.855	1380.73
476.227	1404.45
476.598	1406.04
476.97	1412.59
477.341	1472.02
477.713	1458.92
478.084	1453.04
478.455	1502.53
478.827	1546.15
479.198	1575.52
479.569	1552.7
479.94	1581.4
480.311	1590.89
480.682	1645.35
481.053	1689.42
481.424	1672.7
481.795	1705.24
482.166	1710.21
482.537	1751.56
482.908	1731.23
483.279	1749.08
483.65	1788.85
484.021	1837.89
484.391	1875.63
484.762	1889.41
485.133	1856.87
485.503	1921.5
485.874	1932.58
486.244	1949.53
486.615	1983.42
486.985	2037.43
487.356	2006.25
487.726	2074.95
488.097	2080.82
488.467	2109.75
488.837	2104.78
489.207	2159.91
489.578	2158.56
489.948	2227.03
490.318	2225.9
490.688	2248.27
491.058	2265.9
491.428	2292.79
491.798	2312.91
492.168	2339.35
492.538	2384.09
492.908	2385.22
493.278	2386.8
493.648	2406.46
494.017	2496.86
494.387	2457.31
494.757	2517.87
495.126	2501.15
495.496	2540.7
495.866	2528.49
496.235	2581.6
496.605	2578.89
496.974	2596.97
497.344	2662.95
497.713	2642.61
498.082	2666.79
498.452	2689.17
498.821	2724.19
499.19	2708.6
499.559	2713.12
499.928	2714.93
500.298	2773.01
500.667	2814.81
501.036	2808.49
501.405	2818.43
501.774	2834.47
502.143	2863.63
502.512	2906.11
502.88	2930.74
503.249	2921.25
503.618	2927.58
503.987	2902.72
504.356	2970.29
504.724	2977.29
505.093	3025.65
505.462	3025.88
505.83	3054.35
506.199	3090.74
506.567	3115.82
506.936	3110.62
507.304	3169.38
507.672	3194.01
508.041	3165.31
508.409	3182.94
508.777	3222.94
509.145	3218.42
509.514	3238.08
509.882	3269.72
510.25	3269.49
510.618	3322.37
510.986	3375.7
511.354	3337.51
511.722	3406.21
512.09	3393.33
512.458	3426.1
512.826	3436.27
513.193	3503.61
513.561	3527.11
513.929	3525.08
514.297	3525.75
514.664	3564.17
515.032	3604.62
515.4	3686.2
515.767	3641.01
516.135	3646.43
516.502	3662.25
516.869	3713.77
517.237	3737.5
517.604	3738.63
517.972	3843.26
518.339	3804.17
518.706	3822.02
519.073	3878.97
519.44	3908.8
519.808	3971.62
520.175	3928
520.542	3981.79
520.909	4029.02
521.276	4049.13
521.643	4071.05
522.009	4097.72
522.376	4112.41
522.743	4171.61
523.11	4205.96
523.477	4253.87
523.843	4240.31
524.21	4257.26
524.577	4345.62
524.943	4313.53
525.31	4394.66
525.676	4382.68
526.043	4437.6
526.409	4490.93
526.776	4434.43
527.142	4520.08
527.508	4596.24
527.874	4591.04
528.241	4611.15
528.607	4639.62
528.973	4694.99
529.339	4770.02
529.705	4780.19
530.071	4797.13
530.437	4791.26
530.803	4832.61
531.169	4849.34
531.535	4853.18
531.901	4903.35
532.267	4938.37
532.632	4995.55
532.998	5054.3
533.364	4991.93
533.73	5025.38
534.095	5096.11
534.461	5080.52
534.826	5162.1
535.192	5183.79
535.557	5250.46
535.923	5183.79
536.288	5194.64
536.653	5297.46
537.019	5273.51
537.384	5323.45
537.749	5404.12
538.114	5361.19
538.479	5374.29
538.845	5450.22
539.21	5402.54
539.575	5434.41
539.94	5497
540.305	5524.8
540.67	5537.45
541.034	5523.89
541.399	5635.76
541.764	5609.77
542.129	5631.69
542.494	5617.9
542.858	5697.68
543.223	5725.47
543.587	5749.43
543.952	5727.28
544.316	5786.94
544.681	5802.76
545.045	5812.93
545.41	5920.27
545.774	5907.16
546.138	5967.27
546.503	5975.18
546.867	6010.21
547.231	6018.57
547.595	5991.68
547.959	6022.19
548.324	6085.46
548.688	6095.63
549.052	6136.99
549.416	6119.81
549.779	6196.42
550.143	6204.33
550.507	6264.89
550.871	6307.83
551.235	6278.9
551.599	6398.45
551.962	6363.42
552.326	6427.37
552.689	6444.55
553.053	6466.92
553.417	6467.15
553.78	6604.54
554.143	6617.88
554.507	6636.41
554.87	6651.55
555.234	6756.18
555.597	6730.87
555.96	6796.4
556.323	6847.25
556.686	6893.8
557.05	6987.36
557.413	6967.02
557.776	7001.37
558.139	7031.2
558.502	7090.86
558.865	7120.91
559.228	7228.71
559.59	7199.56
559.953	7327.69
560.316	7418.76
560.679	7391.87
561.041	7512.09
561.404	7542.82
561.767	7646.78
562.129	7640
562.492	7788.92
562.854	7771.97
563.217	7827.11
563.579	7879.09
563.941	7982.81
564.304	8041.12
564.666	8110.27
565.028	8168.57
565.39	8234.33
565.753	8304.39
566.115	8395.68
566.477	8498.73
566.839	8529.69
567.201	8604.94
567.563	8657.6
567.925	8796.8
568.287	8772.85
568.648	8874.99
569.01	8973.75
569.372	9033.18
569.734	9091.26
570.095	9182.1
570.457	9302.55
570.819	9426.62
571.18	9416.22
571.542	9537.12
571.903	9594.07
572.265	9709.77
572.626	9807.85
572.987	9866.38
573.349	9952.48
573.71	10054.17
574.071	10197.44
574.432	10290.32
574.794	10422.52
575.155	10446.25
575.516	10544.55
575.877	10681.72
576.238	10738.9
576.599	10882.85
576.96	10930.98
577.32	11013.02
577.681	11227.02
578.042	11353.35
578.403	11389.05
578.763	11484.87
579.124	11752.43
579.485	11815.71
579.845	12018.86
580.206	12061.35
580.566	12203.04
580.927	12417.5
581.287	12548.34
581.648	12665.4
582.008	12949.91
582.368	13036.69
582.728	13311.71
583.089	13434.87
583.449	13554.19
583.809	13764.81
584.169	14039.15
584.529	14130
584.889	14375.86
585.249	14490.66
585.609	14721.17
585.969	15066.02
586.329	15219.46
586.688	15498.55
587.048	15663.29
587.408	15941.7
587.768	16183.73
588.127	16471.18
588.487	16630.04
588.846	17155.68
589.206	17234.09
589.565	17547.53
589.925	18008.09
590.284	18102.77
590.643	18420.28
591.003	18822.53
591.362	19184.1
591.721	19469.97
592.08	19818.66
592.44	20154.47
592.799	20605.08
593.158	20812.98
593.517	21046.65
593.876	21696.58
594.235	21944.93
594.593	22304.02
594.952	22711.92
595.311	23065.13
595.67	23531.1
596.029	23928.16
596.387	24391.65
596.746	24779.21
597.104	24996.38
597.463	25467.78
597.822	26018.72
598.18	26250.58
598.538	26703
598.897	27257.11
599.255	27393.83
599.613	28214.6
599.972	28350.41
600.33	28843.51
600.688	29201.69
601.046	29592.41
601.404	30232.85
601.762	30577.25
602.12	31080.96
602.478	31435.98
602.836	31935.63
603.194	32116.42
603.552	32600.7
603.91	32970.4
604.268	33480.22
604.625	33738.52
604.983	34222.57
605.341	34489.91
605.698	34987.3
606.056	35494.63
606.413	35632.93
606.771	36280.15
607.128	36610.76
607.485	36702.51
607.843	37076.96
608.2	37634.01
608.557	38069.03
608.914	38175.69
609.272	38677.37
609.629	39067.19
609.986	39351.03
610.343	39564.13
610.7	40081.86
611.057	40234.39
611.414	40468.51
611.771	40777.88
612.127	41093.81
612.484	41270.53
612.841	41644.75
613.198	41871.41
613.554	42042.71
613.911	42414.9
614.267	42642.47
614.624	42828.45
614.98	43184.15
615.337	43471.15
615.693	43506.17
616.05	43659.84
616.406	44030.23
616.762	44231.58
617.118	44295.53
617.475	44600.61
617.831	44763.31
618.187	44858.91
618.543	45107.03
618.899	45516.29
619.255	45663.4
619.611	45731.2
619.967	46024.75
620.323	46260.22
620.678	46153.33
621.034	46179.77
621.39	46339.32
621.746	46476.49
622.101	46991.28
622.457	46710.83
622.812	47015.68
623.168	47115.34
623.523	47226.98
623.879	47461.1
624.234	47226.75
624.589	47442.34
624.945	47589.45
625.3	47685.05
625.655	47846.62
626.01	47866.06
626.365	48001.65
626.72	47866.28
627.075	48074.19
627.43	48074.19
627.785	48051.14
628.14	48180.17
628.495	48322.77
628.85	48455.19
629.205	48294.3
629.559	48634.63
629.914	48512.37
630.269	48555.53
630.623	48493.61
630.978	48555.31
631.332	48622.87
631.687	48808.86
632.041	48685.92
632.396	48928.63
632.75	48733.15
633.104	48916.2
633.459	48738.35
633.813	48771.12
634.167	48897.44
634.521	48868.52
634.875	49000.04
635.229	48905.13
635.583	48798.69
635.937	48876.65
636.291	48812.25
636.645	48887.73
636.999	48789.42
637.352	48946.93
637.706	48836.88
638.06	48880.04
638.413	48830.78
638.767	48837.11
639.121	48879.14
639.474	48796.65
639.828	48668.07
640.181	49001.85
640.534	48878.91
640.888	48760.5
641.241	48750.33
641.594	48844.34
641.947	49000.04
642.301	48767.05
642.654	48838.69
643.007	48860.16
643.36	48888.4
643.713	48781.06
644.066	48977.89
644.419	48706.94
644.771	48467.4
645.124	48102.66
645.477	48034.19
645.83	47883.23
646.182	47774.99
646.535	47698.38
646.888	47756.46
647.24	47608.89
647.593	47917.81
647.945	47767.53
648.298	47588.78
648.65	47550.13
649.002	47527.99
649.355	47671.71
649.707	47536.8
650.059	47779.05
650.411	48227.63
650.763	48279.15
651.115	48708.52
651.467	48695.41
651.819	48544.91
652.171	48591.91
652.523	48518.47
652.875	48531.35
653.227	48384.91
653.578	48718.46
653.93	48616.09
654.282	48335.88
654.633	48470.79
654.985	48408.42
655.337	48452.71
655.688	48359.15
656.039	48609.09
656.391	48274.63
656.742	48264.92
657.094	48252.04
657.445	48446.83
657.796	48363.22
658.147	48346.72
658.498	48344.69
658.849	48403.44
659.2	48273.5
659.551	48114.86
659.902	48337.23
660.253	48285.93
660.604	48241.87
660.955	48155.99
661.306	48299.04
661.656	48108.76
662.007	48210.46
662.358	48242.77
662.708	48239.38
663.059	48224.01
663.409	47916
663.76	48363.9
664.11	48335.88
664.461	48270.57
664.811	48229.21
665.161	48309.21
665.511	48091.59
665.862	48265.14
666.212	48247.29
666.562	48429.88
666.912	48237.35
667.262	48300.4
667.612	48199.16
667.962	48090.68
668.312	48141.98
668.662	48419.04
669.011	48232.83
669.361	48239.83
669.711	48273.73
670.06	48160.74
670.41	48074.64
670.76	48005.49
671.109	48094.53
671.459	48074.41
671.808	48064.47
672.157	48188.76
672.507	47892.5
672.856	47818.83
673.205	47843.69
673.554	48005.72
673.904	47901.54
674.253	48219.95
674.602	47934.3
674.951	47400.99
675.3	47332.74
675.649	47981.31
675.998	47890.01
676.346	47901.31
676.695	47977.24
677.044	47754.87
677.393	47678.49
677.741	47800.97
678.09	47838.04
678.438	47539.74
678.787	47614.31
679.135	47653.18
679.484	47435.79
679.832	47609.79
680.181	47348.11
680.529	47471.94
680.877	47353.53
681.225	47266.3
681.573	47579.29
681.922	47300.65
682.27	47112.41
682.618	47200.31
682.966	47059.98
683.314	47205.96
683.661	47018.85
684.009	46742.7
684.357	46910.83
684.705	46711.06
685.053	46815.46
685.4	46720.1
685.748	46469.71
686.095	46530.27
686.443	46472.87
686.79	46369.83
687.138	46404.18
687.485	46489.14
687.832	46308.36
688.18	46318.3
688.527	46121.24
688.874	46016.39
689.221	45825.43
689.568	45803.06
689.915	45776.62
690.262	45822.27
690.609	45734.14
690.956	45564.88
691.303	45504.09
691.65	45281.04
691.997	45283.75
692.344	45140.93
692.69	45171.21
693.037	45095.28
693.383	44803.77
693.73	45026.58
694.077	44678.57
694.423	44716.54
694.769	44663.66
695.116	44637.89
695.462	44313.83
695.808	44160.62
696.155	44353.16
696.501	44043.11
696.847	44137.34
697.193	43873.17
697.539	44005.82
697.885	43648.09
698.231	43615.77
698.577	43613.06
698.923	43477.7
699.269	43352.73
699.614	43035.22
699.96	43065.28
700.306	43053.3
700.651	42790.71
700.997	42830.03
701.342	42641.56
701.688	42722.01
702.033	42548.01
702.379	42433.21
702.724	42407.9
703.069	42439.08
703.415	41944.18
703.76	42103.27
704.105	41978.53
704.45	41860.79
704.795	41816.73
705.14	41730.17
705.485	41665.09
705.83	41520.01
706.175	41461.93
706.52	41362.95
706.865	41362.05
707.209	41220.81
707.554	40942.4
707.899	41152.56
708.243	40834.6
708.588	40745.79
708.932	40650.2
709.277	40670.09
709.621	40677.77
709.966	40216.77
710.31	40459.47
710.654	39989.43
710.998	40152.59
711.342	40227.16
711.687	40202.76
712.031	39862.65
712.375	39748.08
712.719	39807.06
713.063	39833.95
713.407	39820.62
713.75	39668.31
714.094	39610
714.438	39398.48
714.782	39569.33
715.125	39416.56
715.469	39359.61
715.812	39081.66
716.156	38836.46
716.499	39087.53
716.843	38986.52
717.186	38839.85
717.53	39192.16
717.873	38952.17
718.216	38796.24
718.559	38624.94
718.902	38459.98
719.246	38570.26
719.589	38384.27
719.932	38274.22
720.275	38212.53
720.617	38221.57
720.96	38143.38
721.303	38217.72
721.646	38185.41
721.989	37969.59
722.331	38012.08
722.674	37947.9
723.016	37858.41
723.359	37843.04
723.701	37849.15
724.044	37560.57
724.386	37464.07
724.729	37533.67
725.071	37580.23
725.413	37417.74
725.755	37407.58
726.097	37330.52
726.439	37137.98
726.782	37147.92
727.124	37276.05
727.465	37111.76
727.807	37083.52
728.149	36947.7
728.491	36955.61
728.833	36982.28
729.175	36903.41
729.516	36658.67
729.858	36705
730.199	36694.37
730.541	36556.75
730.882	36619.12
731.224	36674.04
731.565	36532.8
731.906	36455.28
732.248	36422.97
732.589	36295.29
732.93	36191.34
733.271	36220.49
733.612	36205.8
733.953	36276.08
734.294	36146.59
734.635	35937.33
734.976	36209.64
735.317	35967.61
735.658	35917.45
735.999	36039.48
736.339	35806.49
736.68	35842.65
737.021	35836.77
737.361	35689.65
737.702	35730.33
738.042	35639.94
738.383	35459.38
738.723	35657.79
739.063	35538.92
739.404	35550.45
739.744	35352.49
740.084	35425.25
740.424	35436.33
740.764	35273.62
741.104	35412.83
741.444	35110.24
741.784	35070.91
742.124	35139.84
742.464	35136.67
742.804	35092.38
743.143	35006.96
743.483	35038.82
743.823	34821.88
744.162	34770.36
744.502	34781.2
744.841	34717.93
745.181	34782.11
745.52	34515
745.86	34769.9
746.199	34430.93
746.538	34474.77
746.877	34580.53
747.216	34498.27
747.556	34409.69
747.895	34448.56
748.234	34288.11
748.573	34245.62
748.911	34149.81
749.25	34140.77
749.589	33995.01
749.928	34144.84
750.267	34103.71
750.605	33935.35
750.944	33878.63
751.283	33795.92
751.621	33939.64
751.96	33657.84
752.298	33707.56
752.636	33775.35
752.975	33487.45
753.313	33488.36
753.651	33547.56
753.989	33389.38
754.327	33289.49
754.666	33205.43
755.004	33218.99
755.342	33151.19
755.679	32932.44
756.017	32807.24
756.355	33030.52
756.693	32934.7
757.031	32938.54
757.368	32752.56
757.706	32659.45
758.044	32448.84
758.381	32453.36
758.719	32354.38
759.056	32334.26
759.394	32410.19
759.731	32198.22
760.068	32011.56
760.405	32043.87
