Data from red_cardboard_box_FLMS001491_00013.txt Node
Date: Wed Feb 08 11:31:35 GMT 2017
User: dcchb
Spectrometer: FLMS00149
Trigger mode: 0
Integration Time (sec): 2.000000E-2
Scans to average: 10
Electric dark correction enabled: true
Nonlinearity correction enabled: false
Boxcar width: 0
XAxis mode: Wavelengths
Number of Pixels in Spectrum: 2048
>>>>>Begin Spectral Data<<<<<
341.393	-6.93
341.776	-6.93
342.16	-6.93
342.543	-58.68
342.927	-86.71
343.31	-50.55
343.693	-71.79
344.077	-81.28
344.46	-60.04
344.843	-64.79
345.226	-42.87
345.61	-51.23
345.993	-16.2
346.376	1.65
346.759	12.27
347.142	22.22
347.525	33.06
347.908	74.87
348.291	66.28
348.674	104.25
349.057	124.14
349.44	110.8
349.823	133.4
350.206	158.03
350.588	177.02
350.971	194.19
351.354	237.8
351.737	233.74
352.119	242.32
352.502	265.37
352.884	282.1
353.267	292.27
353.65	294.3
354.032	279.16
354.414	300.85
354.797	292.72
355.179	307.63
355.562	317.8
355.944	325.71
356.326	327.52
356.709	329.33
357.091	321.19
357.473	318.25
357.855	340.63
358.238	342.89
358.62	359.84
359.002	334.75
359.384	321.19
359.766	319.38
360.148	313.96
360.53	338.37
360.912	338.14
361.294	332.27
361.676	342.89
362.057	339.95
362.439	310.34
362.821	314.19
363.203	310.8
363.584	306.5
363.966	317.12
364.348	329.1
364.729	320.51
365.111	318.93
365.493	306.96
365.874	331.59
366.256	323.68
366.637	304.24
367.019	312.38
367.4	294.3
367.781	298.37
368.163	311.7
368.544	322.77
368.925	310.57
369.306	302.66
369.688	294.98
370.069	292.04
370.45	315.54
370.831	306.73
371.212	310.8
371.593	293.62
371.974	324.81
372.355	313.06
372.736	318.48
373.117	311.02
373.498	313.28
373.879	310.12
374.26	306.28
374.641	314.86
375.021	304.7
375.402	317.12
375.783	305.6
376.163	320.06
376.544	339.27
376.925	318.25
377.305	325.03
377.686	305.6
378.066	343.34
378.447	314.19
378.827	313.51
379.208	327.75
379.588	312.15
379.968	307.63
380.349	337.24
380.729	314.64
381.109	329.1
381.489	331.59
381.87	313.96
382.25	327.52
382.63	333.4
383.01	346.5
383.39	345.37
383.77	336.33
384.15	351.93
384.53	358.03
384.91	336.33
385.29	334.53
385.67	332.72
386.049	342.43
386.429	345.15
386.809	327.29
387.189	339.72
387.568	324.36
387.948	332.94
388.328	332.27
388.707	320.97
389.087	345.6
389.466	333.4
389.846	332.94
390.225	342.43
390.605	334.75
390.984	351.25
391.363	341.76
391.743	344.69
392.122	343.79
392.501	348.99
392.881	350.8
393.26	336.33
393.639	360.06
394.018	365.26
394.397	357.35
394.776	353.73
395.155	359.38
395.534	342.66
395.913	353.96
396.292	334.75
396.671	383.56
397.05	359.16
397.429	385.6
397.808	351.93
398.186	348.76
398.565	352.6
398.944	368.87
399.323	357.35
399.701	377.69
400.08	390.57
400.458	353.28
400.837	376.11
401.215	377.69
401.594	355.09
401.972	365.94
402.351	366.16
402.729	381.76
403.107	393.28
403.486	379.72
403.864	382.66
404.242	370.91
404.62	373.62
404.999	381.3
405.377	367.74
405.755	374.98
406.133	387.86
406.511	368.87
406.889	372.04
407.267	379.5
407.645	394.64
408.023	389.44
408.401	376.56
408.779	377.01
409.156	390.34
409.534	383.56
409.912	395.99
410.29	399.38
410.667	384.02
411.045	416.78
411.422	429.21
411.8	385.15
412.178	392.38
412.555	424.69
412.933	410.23
413.31	438.93
413.687	427.63
414.065	413.17
414.442	416.1
414.819	419.27
415.197	428.76
415.574	427.4
415.951	414.97
416.328	431.47
416.705	403
417.082	427.63
417.46	415.88
417.837	420.62
418.214	431.25
418.591	421.75
418.967	449.78
419.344	435.77
419.721	431.25
420.098	451.36
420.475	431.7
420.852	407.74
421.228	442.32
421.605	426.27
421.982	416.1
422.358	462.66
422.735	440.51
423.111	442.32
423.488	439.61
423.864	455.2
424.241	457.69
424.617	468.31
424.994	461.98
425.37	474.63
425.746	478.93
426.123	461.53
426.499	458.82
426.875	485.03
427.251	469.44
427.627	473.28
428.003	488.65
428.379	485.71
428.756	478.25
429.132	488.19
429.507	466.95
429.883	508.53
430.259	475.76
430.635	493.16
431.011	491.13
431.387	494.07
431.763	510.79
432.138	491.58
432.514	500.4
432.89	497.46
433.265	500.4
433.641	519.6
434.016	504.24
434.392	513.5
434.767	525.25
435.143	525.03
435.518	546.27
435.894	536.1
436.269	521.64
436.644	531.13
437.02	525.71
437.395	527.51
437.77	531.81
438.145	544.69
438.52	544.01
438.895	568.64
439.271	529.55
439.646	558.93
440.021	556.44
440.395	560.96
440.77	567.74
441.145	548.08
441.52	577
441.895	574.29
442.27	551.92
442.645	577.23
443.019	562.54
443.394	566.84
443.769	562.09
444.143	572.26
444.518	577.91
444.892	577.46
445.267	570
445.641	583.11
446.016	619.49
446.39	600.73
446.764	577
447.139	590.56
447.513	600.96
447.887	609.77
448.262	610.22
448.636	600.51
449.01	604.12
449.384	594.63
449.758	603.22
450.132	611.35
450.506	614.52
450.88	590.56
451.254	598.92
451.628	621.07
452.002	623.11
452.376	637.12
452.75	621.75
453.123	657.68
453.497	654.52
453.871	637.12
454.244	653.16
454.618	651.35
454.992	640.73
455.365	668.53
455.739	660.17
456.112	669.66
456.486	669.66
456.859	668.53
457.232	686.38
457.606	674.18
457.979	688.87
458.352	705.14
458.725	707.4
459.099	696.55
459.472	694.97
459.845	708.53
460.218	718.24
460.591	730.22
460.964	722.09
461.337	729.32
461.71	722.99
462.083	716.44
462.456	744.91
462.829	734.51
463.201	760.73
463.574	764.34
463.947	755.53
464.32	767.51
464.692	760.95
465.065	752.37
465.438	781.52
465.81	793.27
466.183	803.21
466.555	794.85
466.928	811.57
467.3	806.38
467.672	805.25
468.045	831.46
468.417	822.65
468.789	823.55
469.161	830.78
469.534	844.12
469.906	846.15
470.278	848.18
470.65	867.62
471.022	903.78
471.394	891.8
471.766	882.76
472.138	884.79
472.51	916.2
472.882	902.87
473.253	917.56
473.625	922.08
473.997	965.24
474.369	968.86
474.74	947.16
475.112	954.4
475.484	989.42
475.855	999.37
476.227	981.29
476.598	1005.69
476.97	1014.51
477.341	1022.19
477.713	1043.43
478.084	1054.05
478.455	1064.68
478.827	1085.24
479.198	1071.45
479.569	1114.39
479.94	1145.58
480.311	1131.34
480.682	1121.4
481.053	1177.21
481.424	1184.9
481.795	1185.12
482.166	1193.26
482.537	1212.47
482.908	1248.17
483.279	1244.78
483.65	1267.16
484.021	1264.44
484.391	1266.25
484.762	1288.62
485.133	1297.44
485.503	1320.49
485.874	1325.01
486.244	1363.42
486.615	1353.71
486.985	1386.47
487.356	1399.58
487.726	1406.14
488.097	1425.8
488.467	1429.41
488.837	1428.06
489.207	1470.31
489.578	1487.26
489.948	1490.65
490.318	1512.12
490.688	1542.63
491.058	1553.7
491.428	1569.29
491.798	1582.4
492.168	1609.97
492.538	1601.61
492.908	1624.66
493.278	1619.01
493.648	1644.77
494.017	1650.42
494.387	1680.03
494.757	1677.54
495.126	1689.97
495.496	1702.17
495.866	1705.34
496.235	1696.75
496.605	1755.5
496.974	1779.23
497.344	1772.91
497.713	1813.81
498.082	1803.64
498.452	1820.81
498.821	1820.36
499.19	1820.81
499.559	1848.84
499.928	1845.45
500.298	1848.38
500.667	1890.87
501.036	1894.48
501.405	1907.82
501.774	1876.41
502.143	1915.05
502.512	1949.85
502.88	1978.55
503.249	1958.66
503.618	1940.81
503.987	1987.59
504.356	1999.11
504.724	2033.46
505.093	2015.16
505.462	2046.34
505.83	2024.42
506.199	2061.03
506.567	2069.62
506.936	2078.89
507.304	2099.9
507.672	2134.25
508.041	2153.01
508.409	2101.26
508.777	2133.8
509.145	2157.53
509.514	2185.55
509.882	2188.04
510.25	2192.78
510.618	2207.47
510.986	2223.29
511.354	2252.89
511.722	2222.84
512.09	2279.78
512.458	2265.55
512.826	2283.4
513.193	2298.32
513.561	2303.06
513.929	2317.75
514.297	2341.93
514.664	2351.42
515.032	2408.82
515.4	2411.76
515.767	2423.51
516.135	2433.45
516.502	2429.39
516.869	2470.97
517.237	2481.81
517.604	2466.67
517.972	2513.45
518.339	2506.22
518.706	2540.79
519.073	2497.63
519.44	2541.02
519.808	2587.12
520.175	2615.14
520.542	2614.69
520.909	2617.85
521.276	2654.46
521.643	2647.23
522.009	2704.63
522.376	2739.21
522.743	2696.5
523.11	2716.16
523.477	2768.59
523.843	2786.21
524.21	2799.77
524.577	2828.02
524.943	2843.39
525.31	2860.11
525.676	2875.7
526.043	2882.71
526.409	2909.82
526.776	2921.12
527.142	2988.47
527.508	2989.37
527.874	2989.6
528.241	3000.22
528.607	3025.98
528.973	3069.37
529.339	3052.65
529.705	3051.74
530.071	3094.23
530.437	3161.34
530.803	3170.61
531.169	3168.12
531.535	3187.78
531.901	3200.21
532.267	3216.71
532.632	3249.93
532.998	3249.02
533.364	3302.81
533.73	3301.9
534.095	3312.98
534.461	3317.5
534.826	3344.84
535.192	3376.7
535.557	3415.57
535.923	3380.09
536.288	3437.72
536.653	3442.24
537.019	3415.35
537.384	3428.68
537.749	3462.58
538.114	3493.31
538.479	3512.97
538.845	3528.11
539.21	3532.86
539.575	3522.01
539.94	3583.03
540.305	3582.12
540.67	3586.19
541.034	3601.78
541.399	3627.77
541.764	3654.21
542.129	3616.92
542.494	3662.12
542.858	3653.76
543.223	3703.02
543.587	3726.98
543.952	3716.13
544.316	3764.94
544.681	3734.66
545.045	3769.46
545.41	3775.79
545.774	3810.14
546.138	3860.99
546.503	3864.15
546.867	3830.48
547.231	3910.7
547.595	3898.73
547.959	3927.88
548.324	3949.8
548.688	3960.19
549.052	3998.84
549.416	4011.26
549.779	4001.55
550.143	4057.59
550.507	4103.92
550.871	4087.19
551.235	4110.92
551.599	4152.96
551.962	4151.83
552.326	4169
552.689	4233.18
553.053	4227.3
553.417	4263.01
553.78	4298.26
554.143	4304.82
554.507	4322.89
554.87	4371.93
555.234	4372.84
555.597	4402.89
555.96	4427.3
556.323	4445.83
556.686	4508.43
557.05	4510.69
557.413	4526.05
557.776	4552.95
558.139	4641.76
558.502	4620.06
558.865	4672.72
559.228	4747.06
559.59	4745.93
559.953	4729.44
560.316	4830.9
560.679	4858.02
561.041	4907.51
561.404	4945.93
561.767	4942.77
562.129	4994.52
562.492	5056.43
562.854	5090.11
563.217	5076.32
563.579	5127.17
563.941	5204.23
564.304	5194.28
564.666	5297.78
565.028	5296.88
565.39	5296.43
565.753	5394.51
566.115	5461.17
566.477	5502.3
566.839	5482.86
567.201	5580.94
567.563	5645.35
567.925	5617.32
568.287	5715.4
568.648	5762.63
569.01	5824.55
569.372	5937.77
569.734	5906.13
570.095	5952.68
570.457	6039.91
570.819	6079.46
571.18	6080.36
571.542	6189.96
571.903	6231.09
572.265	6311.32
572.626	6315.61
572.987	6424.76
573.349	6473.57
573.71	6525.55
574.071	6562.84
574.432	6596.28
574.794	6711.98
575.155	6796.73
575.516	6850.74
575.877	6893.67
576.238	6953.33
576.599	7080.79
576.96	7124.63
577.32	7196.72
577.681	7322.59
578.042	7301.8
578.403	7446.2
578.763	7532.75
579.124	7649.81
579.485	7711.05
579.845	7836.47
580.206	7871.5
580.566	7967.32
580.927	8017.71
581.287	8227.2
581.648	8301.1
582.008	8410.02
582.368	8521.65
582.728	8624.7
583.089	8783.79
583.449	8872.15
583.809	9019.49
584.169	9130
584.529	9244.12
584.889	9429.43
585.249	9544.9
585.609	9679.36
585.969	9920.26
586.329	10062.63
586.688	10228.05
587.048	10369.97
587.408	10549.85
587.768	10712.11
588.127	10868.26
588.487	11038.88
588.846	11370.62
589.206	11452.88
589.565	11796.6
589.925	11926.99
590.284	12108.9
590.643	12500.53
591.003	12624.82
591.362	12849.68
591.721	13144.81
592.08	13343.45
592.44	13643.55
592.799	13792.7
593.158	14049.42
593.517	14344.1
593.876	14650.08
594.235	14965.33
594.593	15230.86
594.952	15558.08
595.311	15758.75
595.67	16191.28
596.029	16527.77
596.387	16833.53
596.746	17185.61
597.104	17336.34
597.463	17721.86
597.822	18124.34
598.18	18310.78
598.538	18576.98
598.897	19034.6
599.255	19147.14
599.613	19743.51
599.972	19877.06
600.33	20311.63
600.688	20597.72
601.046	20977.6
601.404	21475.21
601.762	21717.01
602.12	22147.06
602.478	22367.39
602.836	22796.76
603.194	22863.88
603.552	23303.41
603.91	23398.1
604.268	23936.62
604.625	24307.23
604.983	24589.71
605.341	24828.12
605.698	25269.01
606.056	25485.5
606.413	25755.33
606.771	26247.06
607.128	26641.86
607.485	26713.94
607.843	26930.44
608.2	27247.04
608.557	27721.38
608.914	27816.74
609.272	28207.01
609.629	28460.11
609.986	28842.93
610.343	28788.92
610.7	29224.16
611.057	29479.07
611.414	29679.74
611.771	29934.42
612.127	30175.77
612.484	30412.83
612.841	30788.64
613.198	30765.59
613.554	31137.78
613.911	31315.41
614.267	31485.12
614.624	31742.06
614.98	31996.29
615.337	32229.28
615.693	32355.83
616.05	32410.52
616.406	32773.9
616.762	32742.26
617.118	33027.9
617.475	33171.4
617.831	33384.28
618.187	33551.05
618.543	33736.81
618.899	34032.85
619.255	33996.01
619.611	34303.12
619.967	34489.33
620.323	34706.05
620.678	34642.78
621.034	34655.88
621.39	34788.31
621.746	34988.76
622.101	35440.49
622.457	35267.39
622.812	35378.35
623.168	35557.33
623.523	35604.11
623.879	35825.34
624.234	35804.78
624.589	35901.5
624.945	35987.82
625.3	36231.66
625.655	36292.22
626.01	36166.13
626.365	36303.3
626.72	36477.76
627.075	36443.63
627.43	36483.18
627.785	36570.41
628.14	36719.11
628.495	36938.99
628.85	36896.05
629.205	36780.12
629.559	37079.1
629.914	36922.94
630.269	37038.19
630.623	36891.3
630.978	36873
631.332	37157.06
631.687	37245.19
632.041	37097.63
632.396	37326.09
632.75	37029.38
633.104	37348.02
633.459	37112.99
633.813	37092.2
634.167	37292.42
634.521	37310.95
634.875	37361.35
635.229	37339.2
635.583	37108.25
635.937	37066.44
636.291	37114.8
636.645	37330.39
636.999	37303.04
637.352	37351.86
637.706	37269.83
638.06	37404.28
638.413	37334
638.767	37305.98
639.121	37326.55
639.474	37246.55
639.828	37212.2
640.181	37272.76
640.534	37389.14
640.888	37205.87
641.241	37196.61
641.594	37207.23
641.947	37335.13
642.301	37213.1
642.654	37378.75
643.007	37431.63
643.36	37415.81
643.713	37207.91
644.066	37367.9
644.419	37190.73
644.771	36783.96
645.124	36686.79
645.477	36569.05
645.83	36303.75
646.182	36363.18
646.535	36334.03
646.888	36505.33
647.24	36275.5
647.593	36496.06
647.945	36390.98
648.298	36281.83
648.65	36198.89
649.002	36097.88
649.355	36460.81
649.707	36199.34
650.059	36459.45
650.411	36841.81
650.763	36960.68
651.115	37240.45
651.467	37092.43
651.819	37183.27
652.171	37169.71
652.523	37067.57
652.875	37118.64
653.227	37026.67
653.578	37243.61
653.93	37243.84
654.282	37064.41
654.633	37111.86
654.985	37192.31
655.337	37098.98
655.688	37064.41
656.039	37302.59
656.391	37023.96
656.742	37014.92
657.094	36935.14
657.445	37012.88
657.796	37051.3
658.147	37052.2
658.498	36909.16
658.849	37075.25
659.2	36936.73
659.551	36985.09
659.902	37103.95
660.253	37010.62
660.604	37045.88
660.955	36778.54
661.306	37070.06
661.656	36899.89
662.007	36973.79
662.358	37030.74
662.708	37042.26
663.059	36936.27
663.409	36808.14
663.76	37124.07
664.11	36913.9
664.461	37145.53
664.811	37098.76
665.161	37016.72
665.511	36879.33
665.862	36958.65
666.212	37065.54
666.562	37090.17
666.912	37062.82
667.262	36831.19
667.612	36953.45
667.962	36912.77
668.312	36971.08
668.662	37037.29
669.011	37021.24
669.361	37053.11
669.711	36959.55
670.06	37006.56
670.41	36870.06
670.76	36723.17
671.109	36926.33
671.459	36780.57
671.808	36833.68
672.157	36732.89
672.507	36595.27
672.856	36649.73
673.205	36611.54
673.554	36820.35
673.904	36726.79
674.253	36949.38
674.602	36737.41
674.951	36300.81
675.3	36076.64
675.649	36616.51
675.998	36536.29
676.346	36602.27
676.695	36802.27
677.044	36460.81
677.393	36381.49
677.741	36631.2
678.09	36427.14
678.438	36464.65
678.787	36518.66
679.135	36450.64
679.484	36329.28
679.832	36343.07
680.181	36120.25
680.529	36410.86
680.877	36303.97
681.225	36250.42
681.573	36376.29
681.922	36066.69
682.27	36125.9
682.618	36058.11
682.966	35927.26
683.314	36070.31
683.661	35946.7
684.009	35706.7
684.357	35565.69
684.705	35551.68
685.053	35694.73
685.4	35685.23
685.748	35332.25
686.095	35394.85
686.443	35297.67
686.79	35391.23
687.138	35300.61
687.485	35332.25
687.832	35237.11
688.18	35200.28
688.527	35100.39
688.874	34988.53
689.221	34865.82
689.568	34823.56
689.915	34650.68
690.262	34773.85
690.609	34549.9
690.956	34504.02
691.303	34544.47
691.65	34406.4
691.997	34362.78
692.344	34134.77
692.69	34250.24
693.037	34264.25
693.383	34016.58
693.73	34087.08
694.077	33862.91
694.423	33840.76
694.769	33754.44
695.116	33745.4
695.462	33748.34
695.808	33603.71
696.155	33625.85
696.501	33402.13
696.847	33378.63
697.193	33179.54
697.539	33152.87
697.885	33036.26
698.231	33062.93
698.577	32959.43
698.923	32939.09
699.269	32738.42
699.614	32593.79
699.96	32487.58
700.306	32478.54
700.651	32467.92
700.997	32309.05
701.342	32249.62
701.688	32293.91
702.033	32068.83
702.379	32005.1
702.724	32069.74
703.069	31965.11
703.415	31633.36
703.76	31702.06
704.105	31781.38
704.45	31668.84
704.795	31402.41
705.14	31451.67
705.485	31342.75
705.83	31335.29
706.175	31369.64
706.52	31255.75
706.865	31138.23
707.209	31107.5
707.554	31036.54
707.899	31118.8
708.243	30853.27
708.588	30787.51
708.932	30634.07
709.277	30592.26
709.621	30625.48
709.966	30370.8
710.31	30448.08
710.654	30311.82
710.998	30267.52
711.342	30303.23
711.687	30292.38
712.031	30091.71
712.375	29895.78
712.719	29867.53
713.063	29999.96
713.407	30089.9
713.75	29833.18
714.094	29798.84
714.438	29665.28
714.782	29733.53
715.125	29631.83
715.469	29744.83
715.812	29520.42
716.156	29380.54
716.499	29358.17
716.843	29413.31
717.186	29145.29
717.53	29433.2
717.873	29337.15
718.216	29231.84
718.559	29030.49
718.902	28904.4
719.246	29083.6
719.589	28797.51
719.932	28808.13
720.275	28806.09
720.617	28810.61
720.96	28769.26
721.303	28806.09
721.646	28793.89
721.989	28512.99
722.331	28555.03
722.674	28628.7
723.016	28592.31
723.359	28524.74
723.701	28596.38
724.044	28398.19
724.386	28106.45
724.729	28369.27
725.071	28276.84
725.413	28216.05
725.755	28165.43
726.097	28006.57
726.439	28065.55
726.782	28087.47
727.124	28090.41
727.465	28005.66
727.807	27963.18
728.149	27930.18
728.491	27806.35
728.833	27857.87
729.175	27777.42
729.516	27693.81
729.858	27661.04
730.199	27717.08
730.541	27637.54
730.882	27607.03
731.224	27713.47
731.565	27515.96
731.906	27461.72
732.248	27600.93
732.589	27322.06
732.93	27365.9
733.271	27334.04
733.612	27267.6
733.953	27235.51
734.294	27209.07
734.635	27126.36
734.976	27278.68
735.317	27018.12
735.658	26989.87
735.999	26991.9
736.339	27064.67
736.68	27063.77
737.021	26944.9
737.361	26875.07
737.702	27101.05
738.042	26889.99
738.383	26756.2
738.723	26900.15
739.063	26714.85
739.404	26691.12
739.744	26625.81
740.084	26618.13
740.424	26600.5
740.764	26542.42
741.104	26700.61
741.444	26476.89
741.784	26412.26
742.124	26488.19
742.464	26519.83
742.804	26401.86
743.143	26402.09
743.483	26459.26
743.823	26228.99
744.162	26112.6
744.502	26132.26
744.841	26135.65
745.181	26314.18
745.52	26158.7
745.86	26169.78
746.199	26066.5
746.538	26125.71
746.877	26117.8
747.216	26080.74
747.556	26027.41
747.895	25892.5
748.234	25893.4
748.573	25916
748.911	25730.69
749.25	25692.95
749.589	25639.17
749.928	25680.75
750.267	25717.36
750.605	25703.12
750.944	25660.86
751.283	25494.32
751.621	25618.15
751.96	25395.34
752.298	25477.14
752.636	25363.47
752.975	25232.63
753.313	25218.16
753.651	25451.15
753.989	25236.92
754.327	25099.52
754.666	25177.94
755.004	25162.12
755.342	25016.14
755.679	25112.4
756.017	24882.81
756.355	25043.03
756.693	24884.61
757.031	24788.8
757.368	24749.48
757.706	24793.99
758.044	24712.42
758.381	24628.12
758.719	24651.85
759.056	24554.91
759.394	24519.43
759.731	24316.72
760.068	24311.52
760.405	24298.19
760.743	24245.76
761.08	24236.27
761.417	24160.11
761.754	24049.38
762.091	23911.98
