Data from red_shiny_book_FLMS001491_00069.txt Node
Date: Wed Feb 08 15:25:14 GMT 2017
User: dcchb
Spectrometer: FLMS00149
Trigger mode: 0
Integration Time (sec): 2.000000E-2
Scans to average: 10
Electric dark correction enabled: true
Nonlinearity correction enabled: false
Boxcar width: 0
XAxis mode: Wavelengths
Number of Pixels in Spectrum: 2048
>>>>>Begin Spectral Data<<<<<
341.393	-9.56
341.776	-9.56
342.16	-9.56
342.543	-60.63
342.927	-71.71
343.31	-73.29
343.693	-69.45
344.077	-43.01
344.46	-53.85
344.843	-42.1
345.226	-37.81
345.61	-21.54
345.993	-24.25
346.376	-5.27
346.759	-15.44
347.142	41.06
347.525	40.15
347.908	51.68
348.291	64.56
348.674	81.74
349.057	106.82
349.44	92.81
349.823	144.56
350.206	149.76
350.588	165.35
350.971	205.57
351.354	209.87
351.737	221.39
352.119	231.11
352.502	273.14
352.884	278.79
353.267	281.73
353.65	303.88
354.032	290.32
354.414	313.37
354.797	304.55
355.179	329.64
355.562	321.5
355.944	337.32
356.326	331.9
356.709	347.04
357.091	338.9
357.473	339.36
357.855	342.29
358.238	334.84
358.62	318.57
359.002	350.88
359.384	352.01
359.766	356.08
360.148	342.97
360.53	340.49
360.912	336.64
361.294	339.81
361.676	336.64
362.057	335.74
362.439	343.65
362.821	336.19
363.203	322.86
363.584	317.21
363.966	321.28
364.348	317.89
364.729	319.02
365.111	304.33
365.493	323.76
365.874	323.76
366.256	327.38
366.637	311.33
367.019	332.58
367.4	309.53
367.781	291
368.163	321.73
368.544	318.79
368.925	316.08
369.306	304.55
369.688	308.62
370.069	300.71
370.45	299.13
370.831	304.78
371.212	299.58
371.593	323.76
371.974	305.23
372.355	307.72
372.736	329.86
373.117	306.81
373.498	317.89
373.879	326.25
374.26	328.28
374.641	315.4
375.021	307.04
375.402	317.89
375.783	301.62
376.163	323.99
376.544	314.05
376.925	299.36
377.305	301.62
377.686	325.8
378.066	299.81
378.447	316.31
378.827	316.31
379.208	319.69
379.588	316.08
379.968	326.02
380.349	338.9
380.729	314.05
381.109	330.09
381.489	334.16
381.87	342.75
382.25	319.02
382.63	314.72
383.01	335.06
383.39	353.14
383.77	326.7
384.15	344.1
384.53	334.61
384.91	307.49
385.29	347.04
385.67	342.75
386.049	329.86
386.429	337.1
386.809	345.91
387.189	330.77
387.568	328.51
387.948	338.68
388.328	312.46
388.707	336.42
389.087	333.71
389.466	323.08
389.846	363.54
390.225	342.75
390.605	341.39
390.984	347.94
391.363	343.88
391.743	334.16
392.122	348.17
392.501	365.57
392.881	323.99
393.26	362.18
393.639	365.8
394.018	339.81
394.397	347.72
394.776	367.83
395.155	370.09
395.534	354.72
395.913	336.64
396.292	355.17
396.671	382.52
397.05	327.83
397.429	366.02
397.808	366.25
398.186	386.81
398.565	356.98
398.944	380.71
399.323	370.77
399.701	373.48
400.08	361.05
400.458	372.12
400.837	377.77
401.215	369.86
401.594	372.35
401.972	376.64
402.351	356.53
402.729	397.21
403.107	372.57
403.486	373.7
403.864	377.09
404.242	374.16
404.62	381.84
404.999	385.68
405.377	390.2
405.755	364.67
406.133	392.24
406.511	382.07
406.889	385
407.267	400.82
407.645	383.42
408.023	396.08
408.401	406.02
408.779	404.44
409.156	406.92
409.534	398.34
409.912	409.18
410.29	394.27
410.667	428.62
411.045	399.47
411.422	432.46
411.8	403.99
412.178	426.81
412.555	443.99
412.933	408.96
413.31	418.45
413.687	428.17
414.065	432.91
414.442	433.14
414.819	435.17
415.197	427.94
415.574	436.53
415.951	449.64
416.328	428.62
416.705	465.23
417.082	458.45
417.46	456.41
417.837	473.14
418.214	488.73
418.591	450.54
418.967	460.48
419.344	485.11
419.721	495.06
420.098	488.28
420.475	485.57
420.852	482.85
421.228	460.93
421.605	476.08
421.982	471.78
422.358	510.2
422.735	476.53
423.111	493.7
423.488	514.72
423.864	511.78
424.241	503.42
424.617	505.9
424.994	502.74
425.37	525.79
425.746	478.33
426.123	505.45
426.499	510.2
426.875	515.62
427.251	519.69
427.627	540.93
428.003	529.41
428.379	545.68
428.756	545.9
429.132	549.07
429.507	525.34
429.883	529.18
430.259	542.06
430.635	517.88
431.011	523.76
431.387	545.23
431.763	556.3
432.138	566.24
432.514	554.72
432.89	572.8
433.265	570.31
433.641	592.68
434.016	568.05
434.392	579.35
434.767	578.22
435.143	566.92
435.518	587.71
435.894	593.81
436.269	608.05
436.644	603.53
437.02	607.37
437.395	614.83
437.77	606.47
438.145	626.81
438.52	614.38
438.895	616.64
439.271	623.64
439.646	633.59
440.021	617.31
440.395	619.12
440.77	622.29
441.145	626.58
441.52	638.1
441.895	639.91
442.27	620.25
442.645	653.92
443.019	666.58
443.394	663.19
443.769	667.71
444.143	637.43
444.518	645.34
444.892	656.18
445.267	633.13
445.641	662.51
446.016	695.28
446.39	653.02
446.764	678.78
447.139	690.31
447.513	678.33
447.887	667.71
448.262	683.98
448.636	678.33
449.01	684.21
449.384	676.75
449.758	689.63
450.132	706.35
450.506	673.36
450.88	687.37
451.254	686.47
451.628	712.68
452.002	730.08
452.376	742.73
452.75	716.07
453.123	720.59
453.497	708.84
453.871	734.83
454.244	702.96
454.618	725.33
454.992	711.32
455.365	717.65
455.739	741.15
456.112	726.46
456.486	720.36
456.859	780.47
457.232	740.93
457.606	751.1
457.979	764.2
458.352	737.99
458.725	757.65
459.099	738.44
459.472	751.1
459.845	757.88
460.218	746.35
460.591	771.21
460.964	744.54
461.337	765.11
461.71	803.98
462.083	802.85
462.456	798.55
462.829	782.06
463.201	799.91
463.574	792.9
463.947	778.21
464.32	788.84
464.692	771.89
465.065	797.2
465.438	789.97
465.81	799.46
466.183	829.29
466.555	825.9
466.928	844.43
467.3	829.74
467.672	866.8
468.045	869.74
468.417	838.1
468.789	856.63
469.161	855.27
469.534	862.51
469.906	840.81
470.278	868.61
470.65	872.67
471.022	896.85
471.394	888.27
471.766	910.87
472.138	923.52
472.51	934.37
472.882	942.05
473.253	969.85
473.625	953.35
473.997	954.03
474.369	964.88
474.74	980.47
475.112	953.35
475.484	962.62
475.855	966.91
476.227	959
476.598	1007.13
476.97	1030.18
477.341	1033.57
477.713	1019.56
478.084	1065.66
478.455	1068.15
478.827	1087.58
479.198	1135.27
479.569	1114.25
479.94	1106.57
480.311	1108.15
480.682	1103.63
481.053	1122.16
481.424	1120.58
481.795	1128.94
482.166	1146.34
482.537	1174.14
482.908	1238.31
483.279	1249.39
483.65	1267.24
484.021	1275.38
484.391	1332.1
484.762	1291.87
485.133	1303.4
485.503	1314.7
485.874	1317.18
486.244	1311.31
486.615	1304.98
486.985	1335.71
487.356	1348.59
487.726	1375.71
488.097	1403.28
488.467	1430.85
488.837	1451.87
489.207	1517.4
489.578	1491.64
489.948	1514.47
490.318	1563.05
490.688	1590.62
491.058	1584.97
491.428	1584.97
491.798	1564.63
492.168	1564.63
492.538	1558.31
492.908	1581.13
493.278	1593.56
493.648	1605.99
494.017	1621.13
494.387	1668.36
494.757	1685.53
495.126	1736.83
495.496	1740.22
495.866	1743.39
496.235	1795.81
496.605	1782.48
496.974	1796.72
497.344	1781.8
497.713	1778.64
498.082	1755.14
498.452	1758.98
498.821	1750.39
499.19	1763.5
499.559	1813.44
499.928	1779.09
500.298	1781.13
500.667	1861.58
501.036	1833.33
501.405	1893.21
501.774	1886.21
502.143	1890.28
502.512	1927.79
502.88	1951.52
503.249	1910.84
503.618	1923.95
503.987	1877.39
504.356	1852.76
504.724	1881.69
505.093	1853.44
505.462	1834.91
505.83	1853.67
506.199	1881.01
506.567	1916.94
506.936	1922.82
507.304	1957.17
507.672	1953.1
508.041	1982.48
508.409	1983.15
508.777	2024.96
509.145	2003.04
509.514	1995.36
509.882	1965.3
510.25	1962.36
510.618	1935.02
510.986	1932.31
511.354	1939.09
511.722	1892.53
512.09	1932.08
512.458	1902.93
512.826	1929.6
513.193	1936.15
513.561	1996.94
513.929	1983.61
514.297	2039.2
514.664	2054.79
515.032	2056.37
515.4	2068.8
515.767	2067.67
516.135	2035.13
516.502	2019.09
516.869	2052.3
517.237	1981.57
517.604	1958.75
517.972	1955.13
518.339	1910.39
518.706	1925.98
519.073	1961.01
519.44	1951.29
519.808	1956.04
520.175	1971.63
520.542	2008.92
520.909	2053.66
521.276	2070.38
521.643	2073.1
522.009	2081.91
522.376	2072.19
522.743	2083.04
523.11	2064.06
523.477	2040.33
523.843	2041.68
524.21	2044.17
524.577	2011.18
524.943	2018.86
525.31	1964.85
525.676	1989.71
526.043	2027.45
526.409	2052.08
526.776	2078.29
527.142	2134.11
527.508	2119.87
527.874	2191.74
528.241	2213.88
528.607	2210.72
528.973	2285.97
529.339	2251.4
529.705	2272.86
530.071	2253.2
530.437	2253.88
530.803	2238.51
531.169	2194.9
531.535	2192.19
531.901	2156.93
532.267	2182.47
532.632	2182.24
532.998	2200.32
533.364	2279.42
533.73	2272.19
534.095	2329.81
534.461	2381.34
534.826	2415.23
535.192	2468.57
535.557	2478.96
535.923	2469.92
536.288	2537.49
536.653	2544.95
537.019	2503.14
537.384	2488.9
537.749	2468.34
538.114	2453.88
538.479	2434.89
538.845	2409.81
539.21	2398.51
539.575	2426.31
539.94	2419.53
540.305	2491.39
540.67	2495.68
541.034	2524.61
541.399	2597.6
541.764	2652.97
542.129	2684.83
542.494	2714.66
542.858	2722.8
543.223	2727.99
543.587	2792.62
543.952	2765.96
544.316	2781.55
544.681	2751.04
545.045	2702.46
545.41	2710.14
545.774	2686.19
546.138	2686.86
546.503	2697.03
546.867	2672.18
547.231	2675.34
547.595	2694.55
547.959	2700.2
548.324	2731.83
548.688	2786.97
549.052	2802.79
549.416	2822.45
549.779	2887.09
550.143	2885.05
550.507	2932.73
550.871	2919.85
551.235	2923.02
551.599	2892.28
551.962	2876.92
552.326	2868.33
552.689	2843.7
553.053	2780.65
553.417	2760.99
553.78	2721.44
554.143	2732.74
554.507	2719.86
554.87	2681.89
555.234	2708.78
555.597	2732.29
555.96	2767.31
556.323	2780.87
556.686	2824.49
557.05	2873.53
557.413	2914.43
557.776	2961.43
558.139	2962.56
558.502	2991.94
558.865	2961.89
559.228	2977.03
559.59	2956.46
559.953	2918.27
560.316	2933.64
560.679	2887.76
561.041	2849.57
561.404	2802.34
561.767	2816.35
562.129	2767.77
562.492	2796.69
562.854	2795.56
563.217	2779.52
563.579	2817.26
563.941	2840.53
564.304	2919.4
564.666	2993.75
565.028	2980.64
565.39	3067.65
565.753	3084.59
566.115	3109.45
566.477	3106.51
566.839	3094.99
567.201	3145.61
567.563	3109.68
567.925	3093.86
568.287	3084.14
568.648	3006.86
569.01	2974.77
569.372	2981.32
569.734	3009.12
570.095	2935.45
570.457	2936.58
570.819	2966.63
571.18	2996.46
571.542	3040.08
571.903	3073.07
572.265	3124.59
572.626	3208.21
572.987	3220.18
573.349	3261.31
573.71	3383.34
574.071	3398.71
574.432	3443.45
574.794	3494.53
575.155	3555.99
575.516	3551.02
575.877	3581.53
576.238	3595.32
576.599	3635.77
576.96	3628.53
577.32	3644.35
577.681	3677.57
578.042	3733.16
578.403	3718.7
578.763	3774.29
579.124	3900.39
579.485	4017.45
579.845	4108.97
580.206	4240.04
580.566	4411.56
580.927	4558.68
581.287	4738.11
581.648	4942.4
582.008	5167.25
582.368	5358.88
582.728	5526.56
583.089	5741.25
583.449	5984.4
583.809	6189.37
584.169	6418.74
584.529	6506.65
584.889	6860.77
585.249	6955
585.609	7213.98
585.969	7523.12
586.329	7706.62
586.688	8040.4
587.048	8340.95
587.408	8605.35
587.768	8945
588.127	9330.08
588.487	9621.82
588.846	10084.64
589.206	10381.13
589.565	10778.63
589.925	11264.04
590.284	11687.08
590.643	12262.43
591.003	12573.61
591.362	13136.76
591.721	13470.54
592.08	13893.35
592.44	14417.86
592.799	14785.76
593.158	15188
593.517	15571.05
593.876	16040.41
594.235	16347.07
594.593	16818.7
594.952	17102.08
595.311	17467.27
595.67	17973.02
596.029	18478.77
596.387	18817.97
596.746	19308.12
597.104	19579.75
597.463	20042.11
597.822	20645.04
598.18	21072.6
598.538	21434.39
598.897	22084.09
599.255	22372
599.613	23039.32
599.972	23357.51
600.33	23851.73
600.688	24208.56
601.046	24807.64
601.404	25212.15
601.762	25518.81
602.12	26000.38
602.478	26452.34
602.836	26636.97
603.194	26947.7
603.552	27182.94
603.91	27474.46
604.268	27894.11
604.625	28028.12
604.983	28494.55
605.341	28672.4
605.698	29129.11
606.056	29415.2
606.413	29690.22
606.771	30128.4
607.128	30546.92
607.485	30697.88
607.843	31135.16
608.2	31471.64
608.557	31813.78
608.914	31984.85
609.272	32456.03
609.629	32940.53
609.986	33213.52
610.343	33255.55
610.7	33735.09
611.057	33919.94
611.414	34183.21
611.771	34344.79
612.127	34641.73
612.484	34689.19
612.841	34947.71
613.198	35016.41
613.554	35081.49
613.911	35516.74
614.267	35534.81
614.624	35609.39
614.98	35777.07
615.337	36236.94
615.693	36151.52
616.05	36316.26
616.406	36742.01
616.762	36763.26
617.118	36900.65
617.475	37119.41
617.831	37341.55
618.187	37659.96
618.543	37765.26
618.899	38004.81
619.255	38108.08
619.611	38467.17
619.967	38515.53
620.323	38675.75
620.678	38680.95
621.034	38756.42
621.39	38713.04
621.746	38717.1
622.101	39268.95
622.457	38913.26
622.812	38973.82
623.168	39204.55
623.523	39182.85
623.879	39287.03
624.234	39192.8
624.589	39304.43
624.945	39333.13
625.3	39521.6
625.655	39380.36
626.01	39556.4
626.365	39687.47
626.72	39645.67
627.075	39690.86
627.43	39887.24
627.785	39787.81
628.14	40105.54
628.495	40170.62
628.85	40038.2
629.205	40174.92
629.559	40438.19
629.914	40288.14
630.269	40438.64
630.623	40324.29
630.978	40357.96
631.332	40504.85
631.687	40550.73
632.041	40276.38
632.396	40382.14
632.75	40265.54
633.104	40287.46
633.459	39974.47
633.813	39989.39
634.167	40061.7
634.521	39993.45
634.875	39981.48
635.229	39851.99
635.583	39790.75
635.937	39937.18
636.291	39725.44
636.645	39958.2
636.999	39866.68
637.352	40113.68
637.706	39813.57
638.06	40202.04
638.413	40083.4
638.767	40008.59
639.121	40113.45
639.474	39879.11
639.828	39947.58
640.181	40089.04
640.534	40128.14
640.888	39994.58
641.241	39884.08
641.594	39886.79
641.947	40131.98
642.301	39855.6
642.654	39869.39
643.007	39787.81
643.36	39654.25
643.713	39580.36
644.066	39728.15
644.419	39418.33
644.771	39028.96
645.124	38685.92
645.477	38622.64
645.83	38372.25
646.182	38161.64
646.535	38219.72
646.888	38368.19
647.24	38122.32
647.593	38434.63
647.945	38343.33
648.298	38272.37
648.65	38317.57
649.002	38204.8
649.355	38379.94
649.707	38318.02
650.059	38485.7
650.411	38970.43
650.763	38975.4
651.115	39327.93
651.467	39290.42
651.819	39185.79
652.171	38972.46
652.523	38929.08
652.875	38944.44
653.227	38723.2
653.578	39003.65
653.93	38816.08
654.282	38653.6
654.633	38404.34
654.985	38523.66
655.337	38573.15
655.688	38478.92
656.039	38670.1
656.391	38254.74
656.742	38270.79
657.094	38402.99
657.445	38485.7
657.796	38453.38
658.147	38306.94
658.498	38340.39
658.849	38421.74
659.2	38489.31
659.551	38305.14
659.902	38646.37
660.253	38544.23
660.604	38613.15
660.955	38463.78
661.306	38649.76
661.656	38613.6
662.007	38586.03
662.358	38494.28
662.708	38617.67
663.059	38458.58
663.409	38292.71
663.76	38416.55
664.11	38471.91
664.461	38414.51
664.811	38368.64
665.161	38219.49
665.511	38083
665.862	38068.31
666.212	38128.42
666.562	38150.34
666.912	37925.49
667.262	37973.17
667.612	38013.39
667.962	37878.48
668.312	37809.33
668.662	37986.28
669.011	37904.24
669.361	37970.46
669.711	37977.91
670.06	37927.97
670.41	37753.51
670.76	37778.37
671.109	38004.35
671.459	37910.35
671.808	37879.39
672.157	38061.98
672.507	37926.16
672.856	37900.63
673.205	38014.07
673.554	38002.32
673.904	37990.57
674.253	38082.54
674.602	37888.65
674.951	37389
675.3	37220.19
675.649	37768.88
675.998	37718.49
676.346	37681.2
676.695	37613.4
677.044	37310.36
677.393	37365.5
677.741	37428.78
678.09	37143.81
678.438	37146.75
678.787	37212.96
679.135	37173.19
679.484	36984.95
679.832	37007.09
680.181	36873.54
680.529	36987.43
680.877	36793.54
681.225	36953.31
681.573	37150.59
681.922	36765.74
682.27	36786.98
682.618	36839.19
682.966	36984.72
683.314	36928.68
683.661	36871.28
684.009	36748.34
684.357	36546.77
684.705	36670.15
685.053	36740.88
685.4	36702.92
685.748	36576.37
686.095	36554.45
686.443	36452.08
686.79	36217.73
687.138	36379.09
687.485	36232.87
687.832	36039.66
688.18	35915.14
688.527	35876.73
688.874	35803.96
689.221	35613
689.568	35451.88
689.915	35279.91
690.262	35410.52
690.609	35296.85
690.956	35143.19
691.303	35127.14
691.65	34851.44
691.997	34990.65
692.344	34631.34
692.69	34815.06
693.037	34773.93
693.383	34586.82
693.73	34620.26
694.077	34427.95
694.423	34517.67
694.769	34394.96
695.116	34416.65
695.462	34384.56
695.808	34255.07
696.155	34366.48
696.501	34175.53
696.847	34179.6
697.193	33909.09
697.539	34086.94
697.885	33842.66
698.231	33727.86
698.577	33660.29
698.923	33577.8
699.269	33512.49
699.614	33166.29
699.96	33114.99
700.306	33063.24
700.651	32831.83
700.997	32785.73
701.342	32825.73
701.688	32629.81
702.033	32476.36
702.379	32369.93
702.724	32412.64
703.069	32489.24
703.415	31945.08
703.76	31919.54
704.105	32092.87
704.45	31885.64
704.795	31867.57
705.14	31711.64
705.485	31749.38
705.83	31671.86
706.175	31730.62
706.52	31551.64
706.865	31508.93
707.209	31578.31
707.554	31421.02
707.899	31532.21
708.243	31405.21
708.588	31353
708.932	31279.78
709.277	31112.78
709.621	31235.04
709.966	30939.45
710.31	31028.04
710.654	30804.77
710.998	30738.56
711.342	30928.83
711.687	30737.2
712.031	30526.81
712.375	30379.7
712.719	30534.04
713.063	30281.39
713.407	30409.53
713.75	30165.92
714.094	30104.67
714.438	29961.4
714.782	29846.83
715.125	29793.95
715.469	29839.82
715.812	29610.9
716.156	29511.7
716.499	29562.77
716.843	29465.82
717.186	29338.37
717.53	29519.61
717.873	29430.34
718.216	29324.36
718.559	29248.65
718.902	29110.8
719.246	29362.55
719.589	29283.91
719.932	29122.33
720.275	29202.55
720.617	29037.81
720.96	29099.73
721.303	29080.52
721.646	29075.32
721.989	28961.65
722.331	28996.23
722.674	29008.66
723.016	28898.6
723.359	28840.3
723.701	28933.63
724.044	28744.03
724.386	28495.9
724.729	28650.7
725.071	28527.77
725.413	28501.55
725.755	28403.25
726.097	28387.21
726.439	28130.26
726.782	28097.04
727.124	28192.18
727.465	28072.19
727.807	27744.74
728.149	27819.99
728.491	27815.24
728.833	27864.51
729.175	27737.05
729.516	27670.39
729.858	27559.66
730.199	27565.08
730.541	27461.13
730.882	27496.16
731.224	27544.06
731.565	27361.92
731.906	27410.73
732.248	27345.2
732.589	27380.23
732.93	27264.07
733.271	27327.8
733.612	27281.02
733.953	27279.44
734.294	27223.85
734.635	27288.48
734.976	27401.92
735.317	27263.17
735.658	27254.13
735.999	27267.24
736.339	27174.36
736.68	27233.79
737.021	27065.21
737.361	26938.66
737.702	27121.25
738.042	26964.19
738.383	26939.11
738.723	27010.97
739.063	26792.22
739.404	26785.21
739.744	26768.04
740.084	26597.87
740.424	26606.91
740.764	26592.45
741.104	26563.07
741.444	26346.81
741.784	26347.71
742.124	26356.98
742.464	26246.02
742.804	26144.78
743.143	26118.56
743.483	26072.01
743.823	25886.48
744.162	25803.54
744.502	25948.63
744.841	25833.15
745.181	25839.7
745.52	25709.31
745.86	26001.05
746.199	25760.61
746.538	25801.51
746.877	25805.58
747.216	25872.92
747.556	25751.57
747.895	25758.12
748.234	25604.91
748.573	25679.71
748.911	25696.2
749.25	25683.1
749.589	25518.81
749.928	25621.4
750.267	25626.83
750.605	25466.6
750.944	25512.48
751.283	25340.51
751.621	25465.93
751.96	25215.09
752.298	25209.66
752.636	25197.46
752.975	25078.37
753.313	24991.59
753.651	24883.34
753.989	24801.09
754.327	24895.77
754.666	24525.61
755.004	24600.64
755.342	24689.45
755.679	24552.96
756.017	24461.66
756.355	24420.08
756.693	24181.44
757.031	24324.71
757.368	24104.38
757.706	24009.47
758.044	23869.81
758.381	24127.2
758.719	23854.44
759.056	23881.11
759.394	23740.77
759.731	23656.03
760.068	23649.93
760.405	23658.74
760.743	23573.32
761.08	23575.81
761.417	23505.98
761.754	23479.09
