Data from red_cardboard_box_FLMS001491_00009.txt Node
Date: Wed Feb 08 11:31:24 GMT 2017
User: dcchb
Spectrometer: FLMS00149
Trigger mode: 0
Integration Time (sec): 2.000000E-2
Scans to average: 10
Electric dark correction enabled: true
Nonlinearity correction enabled: false
Boxcar width: 0
XAxis mode: Wavelengths
Number of Pixels in Spectrum: 2048
>>>>>Begin Spectral Data<<<<<
341.393	-23.28
341.776	-23.28
342.16	-23.28
342.543	-67.79
342.927	-72.99
343.31	-70.51
343.693	-75.93
344.077	-67.34
344.46	-52.2
344.843	-57.85
345.226	-68.02
345.61	-16.04
345.993	-23.5
346.376	0.45
346.759	11.53
347.142	24.63
347.525	40
347.908	63.05
348.291	69.15
348.674	102.6
349.057	120
349.44	137.17
349.823	154.12
350.206	142.6
350.588	194.35
350.971	205.87
351.354	237.06
351.737	247
352.119	254.46
352.502	272.76
352.884	279.54
353.267	287.45
353.65	301.69
354.032	287.9
354.414	326.77
354.797	321.12
355.179	315.47
355.562	331.52
355.944	326.09
356.326	342.59
356.709	358.18
357.091	353.21
357.473	343.49
357.855	348.69
358.238	342.14
358.62	340.33
359.002	341.46
359.384	343.27
359.766	345.3
360.148	359.99
360.53	353.66
360.912	329.03
361.294	316.83
361.676	344.85
362.057	307.34
362.439	347.79
362.821	325.87
363.203	319.54
363.584	315.47
363.966	313.44
364.348	324.06
364.729	293.78
365.111	344.4
365.493	312.76
365.874	305.08
366.256	322.7
366.637	315.25
367.019	319.09
367.4	302.82
367.781	325.64
368.163	325.87
368.544	313.21
368.925	308.24
369.306	320.44
369.688	312.53
370.069	307.11
370.45	319.54
370.831	330.61
371.212	304.62
371.593	322.7
371.974	326.55
372.355	324.74
372.736	327.22
373.117	336.26
373.498	324.74
373.879	324.96
374.26	319.54
374.641	315.92
375.021	311.63
375.402	317.73
375.783	308.69
376.163	313.66
376.544	343.49
376.925	346.21
377.305	347.34
377.686	325.87
378.066	314.34
378.447	333.32
378.827	329.03
379.208	329.03
379.588	317.96
379.968	325.42
380.349	327.22
380.729	327.9
381.109	348.47
381.489	322.03
381.87	348.01
382.25	315.47
382.63	348.47
383.01	339.2
383.39	339.65
383.77	338.07
384.15	324.96
384.53	326.55
384.91	351.63
385.29	338.52
385.67	346.88
386.049	357.05
386.429	355.02
386.809	350.27
387.189	351.63
387.568	360.44
387.948	339.88
388.328	352.99
388.707	345.75
389.087	358.41
389.466	365.19
389.846	374.45
390.225	362.7
390.605	347.56
390.984	356.83
391.363	358.63
391.743	370.84
392.122	376.49
392.501	347.34
392.881	366.54
393.26	353.89
393.639	374.23
394.018	377.39
394.397	378.75
394.776	364.06
395.155	373.1
395.534	384.62
395.913	369.26
396.292	378.3
396.671	361.57
397.05	362.7
397.429	365.64
397.808	375.13
398.186	371.29
398.565	365.87
398.944	383.72
399.323	359.31
399.701	400.44
400.08	376.26
400.458	390.27
400.837	380.55
401.215	395.24
401.594	373.78
401.972	370.39
402.351	398.63
402.729	398.18
403.107	405.64
403.486	390.72
403.864	392.76
404.242	386.2
404.62	387.56
404.999	390.05
405.377	399.31
405.755	412.64
406.133	401.35
406.511	392.76
406.889	387.11
407.267	382.81
407.645	405.64
408.023	404.28
408.401	421.91
408.779	411.06
409.156	399.09
409.534	405.41
409.912	412.42
410.29	408.8
410.667	426.43
411.045	425.75
411.422	431.63
411.8	411.97
412.178	412.19
412.555	439.31
412.933	414
413.31	419.88
413.687	437.05
414.065	427.79
414.442	439.31
414.819	429.59
415.197	451.74
415.574	456.94
415.951	444.51
416.328	481.8
416.705	452.64
417.082	460.55
417.46	450.38
417.837	463.49
418.214	451.06
418.591	444.51
418.967	478.41
419.344	454
419.721	482.02
420.098	457.84
420.475	471.85
420.852	478.63
421.228	484.28
421.605	473.21
421.982	471.4
422.358	479.31
422.735	476.37
423.111	484.28
423.488	480.89
423.864	481.34
424.241	489.93
424.617	482.93
424.994	489.25
425.37	515.01
425.746	494.68
426.123	510.27
426.499	497.61
426.875	514.34
427.251	503.04
427.627	511.4
428.003	502.59
428.379	526.77
428.756	500.55
429.132	508.69
429.507	519.53
429.883	538.74
430.259	538.29
430.635	551.4
431.011	541.91
431.387	539.87
431.763	540.32
432.138	532.87
432.514	560.21
432.89	540.78
433.265	557.5
433.641	538.06
434.016	573.09
434.392	545.3
434.767	571.06
435.143	584.62
435.518	567.67
435.894	587.78
436.269	583.49
436.644	602.7
437.02	580.78
437.395	584.62
437.77	614.67
438.145	609.02
438.52	588.69
438.895	618.51
439.271	611.96
439.646	612.19
440.021	607.22
440.395	625.07
440.77	632.3
441.145	604.28
441.52	637.05
441.895	636.82
442.27	649.25
442.645	625.52
443.019	639.53
443.394	638.85
443.769	628.01
444.143	630.94
444.518	632.98
444.892	634.79
445.267	638.4
445.641	649.25
446.016	617.61
446.39	647.44
446.764	663.03
447.139	673.2
447.513	667.78
447.887	663.94
448.262	663.94
448.636	693.77
449.01	682.69
449.384	700.77
449.758	665.97
450.132	666.2
450.506	685.86
450.88	654.22
451.254	687.89
451.628	710.94
452.002	696.7
452.376	705.07
452.75	710.04
453.123	708.68
453.497	701.22
453.871	719.08
454.244	737.16
454.618	738.06
454.992	731.96
455.365	740.32
455.739	745.29
456.112	749.81
456.486	731.51
456.859	752.3
457.232	774.44
457.606	755.91
457.979	745.52
458.352	768.57
458.725	781.45
459.099	795.01
459.472	773.76
459.845	802.46
460.218	791.84
460.591	786.42
460.964	784.16
461.337	810.15
461.71	817.83
462.083	851.05
462.456	832.07
462.829	814.22
463.201	853.08
463.574	860.54
463.947	860.54
464.32	844.5
464.692	872.07
465.065	866.19
465.438	882.46
465.81	898.51
466.183	879.98
466.555	930.15
466.928	912.74
467.3	909.13
467.672	933.08
468.045	923.59
468.417	935.12
468.789	942.8
469.161	952.97
469.534	979.18
469.906	981.44
470.278	970.37
470.65	1012.63
471.022	1023.25
471.394	1004.49
471.766	1003.82
472.138	1031.61
472.51	1038.62
472.882	1055.57
473.253	1048.33
473.625	1068.9
473.997	1074.1
474.369	1093.98
474.74	1092.17
475.112	1110.25
475.484	1127.43
475.855	1140.53
476.227	1143.92
476.598	1167.65
476.97	1172.17
477.341	1171.49
477.713	1202.45
478.084	1215.56
478.455	1212.85
478.827	1243.81
479.198	1277.03
479.569	1283.81
479.94	1285.16
480.311	1333.07
480.682	1326.74
481.053	1380.53
481.424	1375.33
481.795	1372.17
482.166	1377.14
482.537	1421.88
482.908	1415.33
483.279	1456.23
483.65	1463.92
484.021	1475.67
484.391	1510.69
484.762	1511.37
485.133	1514.08
485.503	1519.51
485.874	1588.21
486.244	1566.96
486.615	1592.05
486.985	1575.78
487.356	1679.05
487.726	1637.02
488.097	1673.4
488.467	1651.48
488.837	1697.58
489.207	1729.67
489.578	1758.82
489.948	1745.72
490.318	1801.76
490.688	1783
491.058	1808.99
491.428	1822.32
491.798	1872.95
492.168	1879.05
492.538	1900.29
492.908	1895.54
493.278	1914.07
493.648	1947.29
494.017	1946.16
494.387	1957.46
494.757	1991.59
495.126	2017.8
495.496	1996.33
495.866	2030.46
496.235	2052.38
496.605	2049.21
496.974	2063.22
497.344	2081.98
497.713	2105.48
498.082	2119.94
498.452	2134.86
498.821	2139.83
499.19	2175.76
499.559	2198.13
499.928	2157.68
500.298	2217.79
500.667	2232.94
501.036	2216.89
501.405	2232.48
501.774	2260.73
502.143	2284.23
502.512	2299.6
502.88	2320.84
503.249	2308.41
503.618	2328.53
503.987	2322.2
504.356	2345.93
504.724	2376.43
505.093	2400.16
505.462	2425.02
505.83	2412.82
506.199	2442.2
506.567	2450.11
506.936	2467.73
507.304	2486.94
507.672	2493.49
508.041	2489.65
508.409	2487.62
508.777	2543.21
509.145	2559.48
509.514	2578.69
509.882	2587.73
510.25	2608.74
510.618	2621.63
510.986	2622.3
511.354	2674.96
511.722	2678.8
512.09	2700.49
512.458	2703.21
512.826	2705.47
513.193	2747.72
513.561	2739.36
513.929	2746.82
514.297	2789.08
514.664	2833.6
515.032	2823.65
515.4	2846.93
515.767	2890.77
516.135	2879.7
516.502	2872.47
516.869	2946.36
517.237	2906.82
517.604	2919.92
517.972	2970.09
518.339	2988.4
518.706	3019.58
519.073	3032.01
519.44	3050.99
519.808	3093.48
520.175	3077.43
520.542	3111.56
520.909	3114.49
521.276	3137.32
521.643	3170.09
522.009	3173.48
522.376	3219.58
522.743	3246.69
523.11	3263.19
523.477	3284.89
523.843	3272.91
524.21	3297.09
524.577	3390.42
524.943	3331.44
525.31	3411.89
525.676	3482.39
526.043	3446.01
526.409	3511.55
526.776	3552.67
527.142	3520.36
527.508	3566.69
527.874	3583.41
528.241	3592.9
528.607	3589.96
528.973	3651.2
529.339	3652.56
529.705	3728.49
530.071	3702.73
530.437	3732.33
530.803	3738.88
531.169	3777.75
531.535	3811.2
531.901	3838.09
532.267	3817.3
532.632	3897.07
532.998	3882.16
533.364	3886.45
533.73	3914.25
534.095	3944.53
534.461	3985.66
534.826	4002.83
535.192	4024.07
535.557	4046.9
535.923	4040.57
536.288	4050.74
536.653	4075.6
537.019	4106.56
537.384	4116.05
537.749	4152.43
538.114	4161.7
538.479	4197.18
538.845	4220.45
539.21	4215.03
539.575	4239.21
539.94	4252.32
540.305	4295.71
540.67	4301.81
541.034	4301.58
541.399	4331.19
541.764	4371.41
542.129	4367.34
542.494	4397.85
542.858	4376.38
543.223	4386.33
543.587	4483.72
543.952	4448.92
544.316	4504.74
544.681	4497.73
545.045	4497.06
545.41	4545.64
545.774	4580.22
546.138	4575.25
546.503	4566.89
546.867	4613.89
547.231	4666.54
547.595	4705.86
547.959	4720.1
548.324	4724.17
548.688	4701.12
549.052	4797.61
549.416	4752.19
549.779	4805.3
550.143	4811.4
550.507	4874.22
550.871	4901.57
551.235	4897.5
551.599	4985.63
551.962	4902.24
552.326	4958.06
552.689	5033.99
553.053	5058.17
553.417	5107.89
553.78	5104.27
554.143	5057.04
554.507	5159.64
554.87	5150.37
555.234	5243.25
555.597	5238.96
555.96	5270.37
556.323	5315.79
556.686	5349.24
557.05	5369.12
557.413	5398.28
557.776	5414.32
558.139	5473.08
558.502	5476.01
558.865	5511.27
559.228	5588.78
559.59	5649.79
559.953	5665.16
560.316	5702.45
560.679	5756.23
561.041	5836.68
561.404	5789.45
561.767	5907.87
562.129	5926.4
562.492	6008.2
562.854	6029.67
563.217	6031.93
563.579	6059.73
563.941	6177.69
564.304	6224.24
564.666	6316.67
565.028	6281.19
565.39	6344.01
565.753	6413.84
566.115	6455.42
566.477	6544.46
566.839	6577.23
567.201	6669.2
567.563	6675.3
567.925	6772.48
568.287	6796.43
568.648	6848.41
569.01	6912.59
569.372	7004.34
569.734	7017.89
570.095	7084.33
570.457	7137.89
570.819	7196.42
571.18	7252.01
571.542	7381.05
571.903	7452.69
572.265	7543.53
572.626	7587.82
572.987	7607.03
573.349	7674.83
573.71	7779.23
574.071	7853.13
574.432	7967.47
574.794	8071.43
575.155	8115.94
575.516	8129.73
575.877	8300.35
576.238	8347.58
576.599	8450.85
576.96	8482.49
577.32	8610.4
577.681	8700.34
578.042	8853.1
578.403	8910.73
578.763	9015.81
579.124	9070.04
579.485	9288.34
579.845	9394.56
580.206	9398.62
580.566	9604.04
580.927	9740.99
581.287	9851.72
581.648	9873.86
582.008	10026.63
582.368	10204.7
582.728	10324.93
583.089	10446.5
583.449	10592.72
583.809	10682.88
584.169	10892.14
584.529	11034.96
584.889	11234.96
585.249	11356.76
585.609	11532.8
585.969	11783.19
586.329	11934.83
586.688	12075.16
587.048	12202.62
587.408	12405.32
587.768	12610.74
588.127	12791.08
588.487	13068.81
588.846	13267.67
589.206	13470.15
589.565	13680.54
589.925	13954.44
590.284	14167.31
590.643	14473.74
591.003	14688.43
591.362	14995.09
591.721	15164.35
592.08	15415.19
592.44	15758.46
592.799	15985.79
593.158	16276.63
593.517	16561.6
593.876	16829.39
594.235	17096.5
594.593	17400.22
594.952	17782.58
595.311	17968.79
595.67	18321.78
596.029	18806.29
596.387	19068.88
596.746	19324.01
597.104	19599.71
597.463	19858.69
597.822	20307.94
598.18	20517.65
598.538	20858.66
598.897	21267.69
599.255	21537.29
599.613	22093.43
599.972	22205.97
600.33	22595.11
600.688	22904.03
601.046	23362.1
601.404	23663.56
601.762	23952.59
602.12	24342.86
602.478	24681.61
602.836	25010.42
603.194	25188.49
603.552	25521.59
603.91	25828.02
604.268	26289.93
604.625	26555.46
604.983	26901.21
605.341	27173.3
605.698	27493.51
606.056	27909.32
606.413	28151.8
606.771	28463.21
607.128	28870.65
607.485	28977.32
607.843	29231.77
608.2	29502.73
608.557	29998.99
608.914	30039.89
609.272	30616.14
609.629	30822.24
609.986	31269.23
610.343	31316.46
610.7	31625.16
611.057	31931.36
611.414	32147.18
611.771	32339.04
612.127	32583.55
612.484	32870.77
612.841	33143.76
613.198	33128.85
613.554	33496.75
613.911	33887.7
614.267	33968.82
614.624	34169.27
614.98	34466.44
615.337	34768.58
615.693	34703.49
616.05	34954.79
616.406	35432.51
616.762	35417.37
617.118	35471.84
617.475	35608.78
617.831	35929.45
618.187	36056.23
618.543	36312.94
618.899	36681.97
619.255	36756.55
619.611	36817.34
619.967	36910.67
620.323	37175.97
620.678	37224.11
621.034	37187.04
621.39	37411.45
621.746	37493.7
622.101	37926.91
622.457	37763.53
622.812	37932.34
623.168	38190.86
623.523	38218.2
623.879	38396.5
624.234	38163.06
624.589	38533.9
624.945	38700.9
625.3	38670.62
625.655	38732.54
626.01	38840.56
626.365	38963.5
626.72	38888.02
627.075	38985.87
627.43	39178.18
627.785	39121.23
628.14	39153.32
628.495	39351.28
628.85	39377.72
629.205	39310.6
629.559	39603.25
629.914	39597.6
630.269	39665.4
630.623	39632.63
630.978	39493.2
631.332	39710.14
631.687	39928.44
632.041	39692.74
632.396	39909.23
632.75	39751.05
633.104	39896.8
633.459	39921.44
633.813	39870.14
634.167	39868.33
634.521	39777.94
634.875	39968.44
635.229	39931.15
635.583	39788.33
635.937	39876.69
636.291	39825.85
636.645	39839.63
636.999	39793.76
637.352	39936.35
637.706	39809.8
638.06	40083.92
638.413	39881.44
638.767	39804.15
639.121	39935.67
639.474	39746.53
639.828	39798.5
640.181	39925.05
640.534	39980.64
640.888	39998.72
641.241	39785.62
641.594	39812.51
641.947	40003.02
642.301	39806.18
642.654	39945.39
643.007	39945.62
643.36	39927.99
643.713	39919.85
644.066	39964.15
644.419	39735.68
644.771	39492.97
645.124	39224.96
645.477	39164.17
645.83	38812.99
646.182	38846.66
646.535	38905.87
646.888	38923.72
647.24	38909.03
647.593	39067.22
647.945	38905.87
648.298	38691.86
648.65	38793.56
649.002	38665.42
649.355	39002.82
649.707	38796.49
650.059	38925.76
650.411	39372.07
650.763	39513.09
651.115	39933.64
651.467	39578.39
651.819	39808.22
652.171	39680.54
652.523	39631.27
652.875	39707.66
653.227	39346.54
653.578	39746.07
653.93	39635.57
654.282	39569.81
654.633	39438.96
654.985	39610.71
655.337	39506.76
655.688	39683.25
656.039	39767.77
656.391	39497.49
656.742	39478.74
657.094	39521.67
657.445	39652.06
657.796	39539.3
658.147	39480.09
658.498	39531.39
658.849	39502.24
659.2	39481.22
659.551	39341.34
659.902	39536.59
660.253	39515.8
660.604	39543.14
660.955	39358.97
661.306	39530.71
661.656	39441
662.007	39543.37
662.358	39544.5
662.708	39488.23
663.059	39359.64
663.409	39292.3
663.76	39596.47
664.11	39546.76
664.461	39587.43
664.811	39481.67
665.161	39516.25
665.511	39423.6
665.862	39525.74
666.212	39599.86
666.562	39608.9
666.912	39454.1
667.262	39410.72
667.612	39454.78
667.962	39384.05
668.312	39294.56
668.662	39501.33
669.011	39570.94
669.361	39437.16
669.711	39502.24
670.06	39272.87
670.41	39250.72
670.76	39201.91
671.109	39453.88
671.459	39298.18
671.808	39116.71
672.157	39250.49
672.507	39036.71
672.856	39031.06
673.205	39172.98
673.554	39322.58
673.904	39109.93
674.253	39393.77
674.602	39055.02
674.951	38695.71
675.3	38536.84
675.649	39057.5
675.998	39056.15
676.346	38948.13
676.695	39058.63
677.044	38939.77
677.393	38999.65
677.741	38997.17
678.09	38919.43
678.438	38765.31
678.787	38891.41
679.135	39062.93
679.484	38697.06
679.832	38815.25
680.181	38585.43
680.529	38728.7
680.877	38687.57
681.225	38604.41
681.573	38777.51
681.922	38508.14
682.27	38390.4
682.618	38517.63
682.966	38331.2
683.314	38475.15
683.661	38350.4
684.009	38096.63
684.357	38020.47
684.705	37962.17
685.053	37998.1
685.4	37963.75
685.748	37910.42
686.095	37967.59
686.443	37792
686.79	37792.23
687.138	37722.4
687.485	37712.23
687.832	37522.86
688.18	37639.24
688.527	37437.89
688.874	37422.74
689.221	37448.96
689.568	37229.3
689.915	37182.53
690.262	37111.79
690.609	37057.78
690.956	36830.9
691.303	36810.78
691.65	36752.03
691.997	36644.01
692.344	36439.72
692.69	36624.12
693.037	36676.32
693.383	36182.78
693.73	36400.17
694.077	36250.35
694.423	36238.82
694.769	36000.64
695.116	35973.07
695.462	36013.97
695.808	35736.46
696.155	35862.56
696.501	35629.12
696.847	35691.72
697.193	35412.18
697.539	35504.38
697.885	35189.13
698.231	35224.61
698.577	35303.48
698.923	35103.26
699.269	34981
699.614	34791.18
699.96	34794.11
700.306	34677.51
700.651	34533.1
700.997	34556.61
701.342	34564.29
701.688	34442.71
702.033	34307.8
702.379	34269.38
702.724	34166.11
703.069	34348.7
703.415	33781.48
703.76	33937.86
704.105	33941.03
704.45	33767.25
704.795	33675.72
705.14	33441.38
705.485	33493.81
705.83	33490.64
706.175	33432.57
706.52	33386.24
706.865	33332
707.209	33205.68
707.554	33029.64
707.899	33099.92
708.243	32974.5
708.588	32839.14
708.932	32722.98
709.277	32715.52
709.621	32749.2
709.966	32478.47
710.31	32492.25
710.654	32190.57
710.998	32275.99
711.342	32325.93
711.687	32286.16
712.031	32188.31
712.375	32047.52
712.719	32042.32
713.063	32001.42
713.407	32018.37
713.75	31844.36
714.094	31892.49
714.438	31705.38
714.782	31765.49
715.125	31737.02
715.469	31720.52
715.812	31498.15
716.156	31299.74
716.499	31388.1
716.843	31430.13
717.186	31241.21
717.53	31327.54
717.873	31476.69
718.216	31187.43
718.559	31205.06
718.902	30902.69
719.246	30968.9
719.589	30894.55
719.932	30804.16
720.275	30654.34
720.617	30749.7
720.96	30613.21
721.303	30730.04
721.646	30744.05
721.989	30599.65
722.331	30723.49
722.674	30485.53
723.016	30572.08
723.359	30409.82
723.701	30347.9
724.044	30203.73
724.386	30188.36
724.729	30262.48
725.071	30128.93
725.413	30245.53
725.755	30081.47
726.097	29982.94
726.439	29807.13
726.782	29880.12
727.124	30005.54
727.465	29768.26
727.807	29801.25
728.149	29830.85
728.491	29592.67
728.833	29738.65
729.175	29537.98
729.516	29514.7
729.858	29526.68
730.199	29530.52
730.541	29491.2
730.882	29563.52
731.224	29569.17
731.565	29300.02
731.906	29374.59
732.248	29295.5
732.589	29231.55
732.93	29135.73
733.271	29271.77
733.612	29083.98
733.953	29176.18
734.294	29058.9
734.635	28946.58
734.976	29236.29
735.317	28929.18
735.658	29006.02
735.999	28995.62
736.339	28781.39
736.68	28840.82
737.021	28764.67
737.361	28618
737.702	28889.86
738.042	28683.99
738.383	28592.47
738.723	28681.51
739.063	28445.81
739.404	28591.34
739.744	28510.66
740.084	28412.13
740.424	28501.62
740.764	28385.02
741.104	28488.06
741.444	28307.73
741.784	28218.92
742.124	28305.24
742.464	28214.85
742.804	28156.1
743.143	28074.97
743.483	28076.78
743.823	27957.68
744.162	27881.98
744.502	27877.69
744.841	27879.72
745.181	28013.95
745.52	27867.52
745.86	28026.61
746.199	27862.32
746.538	27802.21
746.877	27782.09
747.216	27840.62
747.556	27706.62
747.895	27727.86
748.234	27619.61
748.573	27628.2
748.911	27554.08
749.25	27621.65
749.589	27543
749.928	27466.62
750.267	27421.2
750.605	27342.33
750.944	27361.77
751.283	27289.68
751.621	27304.59
751.96	27141.66
752.298	27069.34
752.636	27104.37
752.975	27056.24
753.313	26921.33
753.651	27078.38
753.989	26881.78
754.327	26844.04
754.666	26778.5
755.004	26764.72
755.342	26826.87
755.679	26654.67
756.017	26416.25
756.355	26601.56
756.693	26424.84
757.031	26488.57
757.368	26261.23
757.706	26292.42
758.044	26199.99
758.381	26197.73
758.719	26080.67
759.056	26043.38
759.394	26073.89
759.731	25839.09
760.068	25908.47
760.405	25732.66
760.743	25823.73
761.08	25724.3
761.417	25774.69
