Data from red_cardboard_box_FLMS001491_00066.txt Node
Date: Wed Feb 08 11:32:56 GMT 2017
User: dcchb
Spectrometer: FLMS00149
Trigger mode: 0
Integration Time (sec): 2.000000E-2
Scans to average: 10
Electric dark correction enabled: true
Nonlinearity correction enabled: false
Boxcar width: 0
XAxis mode: Wavelengths
Number of Pixels in Spectrum: 2048
>>>>>Begin Spectral Data<<<<<
341.393	-14.8
341.776	-14.8
342.16	-14.8
342.543	-58.42
342.927	-76.72
343.31	-57.29
343.693	-89.38
344.077	-50.73
344.46	-57.06
344.843	-55.25
345.226	-34.46
345.61	-35.14
345.993	-32.2
346.376	14.58
346.759	7.57
347.142	25.88
347.525	49.83
347.908	55.03
348.291	80.56
348.674	67.91
349.057	110.17
349.44	110.39
349.823	120.11
350.206	163.27
350.588	167.11
350.971	207.57
351.354	233.1
351.737	238.52
352.119	248.69
352.502	282.14
352.884	284.85
353.267	280.78
353.65	265.19
354.032	316.49
354.414	291.4
354.797	288.47
355.179	333.21
355.562	324.62
355.944	328.47
356.326	347.45
356.709	332.99
357.091	344.28
357.473	337.51
357.855	329.82
358.238	338.18
358.62	336.38
359.002	344.06
359.384	316.04
359.766	346.32
360.148	342.93
360.53	315.36
360.912	320.56
361.294	314.68
361.676	330.27
362.057	313.33
362.439	324.85
362.821	338.18
363.203	320.56
363.584	330.73
363.966	319.65
364.348	327.79
364.729	329.14
365.111	308.81
365.493	311.29
365.874	299.09
366.256	310.39
366.637	320.56
367.019	321.01
367.4	325.53
367.781	312.65
368.163	325.3
368.544	311.52
368.925	313.78
369.306	334.34
369.688	317.39
370.069	320.78
370.45	320.78
370.831	311.52
371.212	317.39
371.593	298.18
371.974	299.99
372.355	309.03
372.736	305.42
373.117	320.1
373.498	299.09
373.879	307
374.26	324.62
374.641	316.04
375.021	330.95
375.402	310.61
375.783	318.75
376.163	325.08
376.544	321.91
376.925	323.49
377.305	314.23
377.686	319.88
378.066	335.7
378.447	333.66
378.827	309.48
379.208	322.14
379.588	326.88
379.968	314.46
380.349	315.13
380.729	309.26
381.109	335.25
381.489	334.57
381.87	318.52
382.25	339.09
382.63	336.15
383.01	338.18
383.39	338.41
383.77	331.18
384.15	318.97
384.53	327.11
384.91	335.25
385.29	340.44
385.67	337.96
386.049	336.83
386.429	330.73
386.809	349.71
387.189	334.79
387.568	341.57
387.948	353.78
388.328	347
388.707	320.56
389.087	332.08
389.466	364.62
389.846	349.71
390.225	358.07
390.605	365.3
390.984	338.64
391.363	344.96
391.743	375.7
392.122	357.84
392.501	349.48
392.881	338.41
393.26	361.01
393.639	359.88
394.018	356.04
394.397	344.51
394.776	356.71
395.155	338.41
395.534	361.23
395.913	328.47
396.292	368.69
396.671	356.49
397.05	360.78
397.429	368.69
397.808	358.75
398.186	362.59
398.565	353.1
398.944	372.08
399.323	358.52
399.701	358.3
400.08	349.26
400.458	357.17
400.837	366.88
401.215	382.02
401.594	371.4
401.972	382.25
402.351	378.63
402.729	377.05
403.107	398.07
403.486	375.02
403.864	383.61
404.242	379.31
404.62	370.5
404.999	379.76
405.377	400.1
405.755	386.77
406.133	390.84
406.511	395.81
406.889	387
407.267	384.28
407.645	392.19
408.023	394.23
408.401	396.94
408.779	385.87
409.156	414.34
409.534	410.05
409.912	415.02
410.29	398.97
410.667	401.01
411.045	412.31
411.422	403.94
411.8	422.93
412.178	399.2
412.555	431.74
412.933	401.23
413.31	416.37
413.687	434.68
414.065	417.96
414.442	422.25
414.819	445.75
415.197	446.2
415.574	418.18
415.951	412.08
416.328	436.49
416.705	441.46
417.082	428.8
417.46	455.69
417.837	418.86
418.214	443.04
418.591	446.88
418.967	450.5
419.344	454.11
419.721	445.98
420.098	434.45
420.475	451.85
420.852	451.17
421.228	471.74
421.605	443.72
421.982	481.46
422.358	466.32
422.735	447.33
423.111	458.86
423.488	488.24
423.864	495.24
424.241	456.6
424.617	463.83
424.994	483.26
425.37	469.93
425.746	458.41
426.123	474.45
426.499	482.81
426.875	511.74
427.251	501.57
427.627	498.18
428.003	506.99
428.379	501.79
428.756	481.23
429.132	506.77
429.507	514.45
429.883	496.15
430.259	514.68
430.635	501.12
431.011	519.65
431.387	504.73
431.763	526.2
432.138	525.97
432.514	544.05
432.89	529.59
433.265	547.9
433.641	535.24
434.016	542.7
434.392	543.38
434.767	557.39
435.143	546.31
435.518	580.21
435.894	574.34
436.269	569.59
436.644	577.72
437.02	573.66
437.395	557.39
437.77	563.94
438.145	580.66
438.52	585.86
438.895	572.75
439.271	571.62
439.646	594.67
440.021	597.61
440.395	604.16
440.77	581.57
441.145	589.02
441.52	599.42
441.895	615.24
442.27	599.19
442.645	600.1
443.019	607.78
443.394	589.25
443.769	622.02
444.143	618.4
444.518	600.32
444.892	638.74
445.267	626.99
445.641	643.49
446.016	616.59
446.39	615.69
446.764	628.57
447.139	623.37
447.513	651.17
447.887	663.15
448.262	608.23
448.636	635.35
449.01	613.66
449.384	642.13
449.758	632.41
450.132	640.55
450.506	661.79
450.88	664.5
451.254	654.56
451.628	667.44
452.002	684.39
452.376	671.73
452.75	689.81
453.123	676.03
453.497	685.52
453.871	700.66
454.244	698.17
454.618	684.61
454.992	690.49
455.365	695.46
455.739	721.45
456.112	698.85
456.486	733.65
456.859	722.13
457.232	726.42
457.606	717.16
457.979	719.64
458.352	726.42
458.725	757.61
459.099	750.15
459.472	759.64
459.845	776.59
460.218	770.04
460.591	779.98
460.964	774.33
461.337	790.15
461.71	795.57
462.083	797.15
462.456	772.75
462.829	795.8
463.201	804.16
463.574	796.25
463.947	819.98
464.32	809.13
464.692	839.86
465.065	839.41
465.438	843.25
465.81	862.46
466.183	863.82
466.555	867.21
466.928	872.41
467.3	863.37
467.672	884.61
468.045	883.48
468.417	890.26
468.789	911.05
469.161	897.94
469.534	909.47
469.906	929.81
470.278	933.87
470.65	962.35
471.022	927.55
471.394	964.61
471.766	950.37
472.138	967.77
472.51	991.05
472.882	997.6
473.253	1001.44
473.625	1022.01
473.997	1031.27
474.369	1024.49
474.74	1062.01
475.112	1045.28
475.484	1062.01
475.855	1083.02
476.227	1081.67
476.598	1100.65
476.97	1110.14
477.341	1098.62
477.713	1155.34
478.084	1134.09
478.455	1164.38
478.827	1180.87
479.198	1179.52
479.569	1215.67
479.94	1267.42
480.311	1232.4
480.682	1267.88
481.053	1267.88
481.424	1301.32
481.795	1318.04
482.166	1305.39
482.537	1323.24
482.908	1348.78
483.279	1371.6
483.65	1352.62
484.021	1428.78
484.391	1415.22
484.762	1439.17
485.133	1441.66
485.503	1457.7
485.874	1486.85
486.244	1506.74
486.615	1499.73
486.985	1514.2
487.356	1533.63
487.726	1558.49
488.097	1575.21
488.467	1613.4
488.837	1608.21
489.207	1646.4
489.578	1671.48
489.948	1668.09
490.318	1700.18
490.688	1688.66
491.058	1711.48
491.428	1770.46
491.798	1783.34
492.168	1758.94
492.538	1795.77
492.908	1793.96
493.278	1819.27
493.648	1828.09
494.017	1837.35
494.387	1839.39
494.757	1860.18
495.126	1874.41
495.496	1900.18
495.866	1937.46
496.235	1942.43
496.605	1962.1
496.974	1973.62
497.344	1962.55
497.713	1964.81
498.082	2004.13
498.452	2035.09
498.821	2030.57
499.19	2031.92
499.559	2061.98
499.928	2078.25
500.298	2099.27
500.667	2083
501.036	2108.53
501.405	2114.41
501.774	2131.13
502.143	2169.32
502.512	2155.99
502.88	2207.74
503.249	2170.68
503.618	2193.95
503.987	2205.93
504.356	2217
504.724	2199.6
505.093	2232.6
505.462	2249.09
505.83	2264.69
506.199	2295.19
506.567	2341.75
506.936	2313.72
507.304	2357.57
507.672	2340.84
508.041	2375.19
508.409	2374.51
508.777	2385.14
509.145	2424.23
509.514	2393.27
509.882	2422.2
510.25	2440.27
510.618	2443.66
510.986	2487.73
511.354	2490.67
511.722	2510.56
512.09	2539.93
512.458	2526.15
512.826	2578.58
513.193	2550.33
513.561	2609.99
513.929	2625.35
514.297	2643.66
514.664	2662.42
515.032	2654.51
515.4	2673.72
515.767	2706.26
516.135	2732.47
516.502	2714.17
516.869	2780.83
517.237	2791.9
517.604	2742.64
517.972	2805.24
518.339	2843.43
518.706	2832.13
519.073	2853.15
519.44	2880.94
519.808	2906.48
520.175	2900.38
520.542	2943.31
520.909	2937.89
521.276	2974.27
521.643	3000.26
522.009	3037.77
522.376	3088.85
522.743	3089.52
523.11	3083.87
523.477	3125.91
523.843	3122.97
524.21	3173.36
524.577	3152.12
524.943	3199.35
525.31	3164.78
525.676	3272.12
526.043	3287.94
526.409	3315.05
526.776	3311.44
527.142	3325
527.508	3357.99
527.874	3387.14
528.241	3385.79
528.607	3372.91
528.973	3451.77
529.339	3449.06
529.705	3486.8
530.071	3500.81
530.437	3520.92
530.803	3576.06
531.169	3579.45
531.535	3590.3
531.901	3622.39
532.267	3655.84
532.632	3664.88
532.998	3681.6
533.364	3682.5
533.73	3706.68
534.095	3736.29
534.461	3767.25
534.826	3822.61
535.192	3775.15
535.557	3852.44
535.923	3840.46
536.288	3863.51
536.653	3873.68
537.019	3873.23
537.384	3868.26
537.749	3925.66
538.114	3958.88
538.479	3897.19
538.845	3971.08
539.21	3945.55
539.575	3991.87
539.94	3997.75
540.305	4039.55
540.67	4047.69
541.034	4097.41
541.399	4073
541.764	4126.56
542.129	4158.42
542.494	4152.32
542.858	4176.73
543.223	4183.28
543.587	4172.66
543.952	4215.14
544.316	4264.86
544.681	4229.83
545.045	4286.1
545.41	4325.42
545.774	4336.5
546.138	4364.29
546.503	4317.51
546.867	4379.66
547.231	4388.7
547.595	4452.88
547.959	4388.92
548.324	4462.59
548.688	4503.5
549.052	4488.13
549.416	4506.89
549.779	4505.31
550.143	4502.37
550.507	4590.27
550.871	4564.29
551.235	4637.96
551.599	4645.19
551.962	4731.51
552.326	4683.38
552.689	4742.14
553.053	4762.7
553.417	4767.67
553.78	4786.2
554.143	4823.26
554.507	4889.93
554.87	4952.75
555.234	4933.99
555.597	4937.38
555.96	4992.52
556.323	4979.42
556.686	4985.07
557.05	5051.28
557.413	5054.22
557.776	5141.45
558.139	5199.52
558.502	5207.21
558.865	5218.51
559.228	5317.71
559.59	5313.87
559.953	5339.41
560.316	5440.87
560.679	5427.77
561.041	5493.98
561.404	5542.57
561.767	5634.32
562.129	5615.11
562.492	5654.65
562.854	5693.52
563.217	5665.73
563.579	5732.17
563.941	5818.49
564.304	5847.64
564.666	5919.96
565.028	5989.79
565.39	6025.27
565.753	6051.71
566.115	6122.66
566.477	6183.91
566.839	6276.11
567.201	6295.09
567.563	6380.28
567.925	6415.31
568.287	6424.8
568.648	6474.75
569.01	6548.42
569.372	6615.76
569.734	6630.22
570.095	6672.71
570.457	6750.44
570.819	6870.21
571.18	6914.96
571.542	6970.33
571.903	7027.27
572.265	7022.75
572.626	7136.65
572.987	7196.99
573.349	7291.9
573.71	7316.53
574.071	7384.1
574.432	7479.01
574.794	7547.94
575.155	7559.69
575.516	7620.25
575.877	7816.63
576.238	7885.33
576.599	7934.14
576.96	7948.83
577.32	8111.99
577.681	8163.74
578.042	8253.68
578.403	8338.65
578.763	8371.64
579.124	8514.47
579.485	8606.44
579.845	8685.99
580.206	8834.68
580.566	8937.96
580.927	9004.62
581.287	9119.42
581.648	9218.63
582.008	9341.11
582.368	9414.78
582.728	9596.47
583.089	9730.48
583.449	9881.89
583.809	9955.56
584.169	10110.13
584.529	10195.55
584.889	10500.18
585.249	10558.03
585.609	10676.22
585.969	10942.2
586.329	10930.45
586.688	11185.13
587.048	11360.04
587.408	11497.21
587.768	11725.91
588.127	11877.77
588.487	12035.95
588.846	12334.03
589.206	12503.06
589.565	12677.97
589.925	12954.8
590.284	13237.28
590.643	13351.4
591.003	13649.47
591.362	13883.59
591.721	14118.61
592.08	14293.75
592.44	14653.51
592.799	14872.72
593.158	15098.7
593.517	15456.88
593.876	15712.92
594.235	15973.7
594.593	16210.53
594.952	16640.58
595.311	16792.21
595.67	17182.49
596.029	17587
596.387	17852.07
596.746	18254.55
597.104	18487.31
597.463	18737.7
597.822	19160.74
598.18	19301.3
598.538	19741.29
598.897	20193.25
599.255	20423.76
599.613	20985.32
599.972	21166.11
600.33	21562.03
600.688	21765.42
601.046	22190.49
601.404	22619.63
601.762	22927.65
602.12	23296.45
602.478	23712.03
602.836	23887.39
603.194	24284.9
603.552	24605.57
603.91	24801.49
604.268	25344.31
604.625	25650.29
604.983	26052.54
605.341	26191.51
605.698	26590.37
606.056	27067.65
606.413	27292.95
606.771	27714.19
607.128	27965.93
607.485	28150.79
607.843	28453.6
608.2	28901.95
608.557	29296.29
608.914	29436.18
609.272	29943.05
609.629	30155.25
609.986	30559.99
610.343	30555.92
610.7	31153.19
611.057	31328.33
611.414	31554.31
611.771	31793.63
612.127	32231.81
612.484	32336.89
612.841	32693.26
613.198	32748.18
613.554	33032.69
613.911	33462.51
614.267	33600.81
614.624	33666.57
614.98	33963.51
615.337	34266.1
615.693	34384.97
616.05	34616.38
616.406	35073.54
616.762	35028.57
617.118	35251.16
617.475	35391.27
617.831	35770.92
618.187	35819.51
618.543	36167.07
618.899	36478.02
619.255	36523.22
619.611	36529.1
619.967	36890.22
620.323	36998.01
620.678	37041.85
621.034	37197.33
621.39	37335.63
621.746	37356.64
622.101	37831.89
622.457	37693.59
622.812	37879.79
623.168	38125.44
623.523	38229.16
623.879	38420.35
624.234	38188.49
624.589	38490.63
624.945	38535.6
625.3	38732.43
625.655	38877.73
626.01	38878.19
626.365	38888.58
626.72	39004.74
627.075	39147.78
627.43	39179.87
627.785	39072.76
628.14	39418.29
628.495	39263.26
628.85	39312.53
629.205	39404.95
629.559	39799.29
629.914	39636.36
630.269	39811.72
630.623	39676.81
630.978	39661.44
631.332	40012.85
631.687	39958.61
632.041	39976.46
632.396	40070.02
632.75	39990.7
633.104	40026.18
633.459	39928.1
633.813	40030.47
634.167	40078.16
634.521	40104.6
634.875	40297.36
635.229	40259.39
635.583	40064.14
635.937	40140.07
636.291	39968.78
636.645	40175.33
636.999	40224.14
637.352	40227.08
637.706	40134.2
638.06	40080.19
638.413	40077.93
638.767	40154.99
639.121	40258.26
639.474	40153.63
639.828	40175.1
640.181	40309.56
640.534	40342.33
640.888	40246.96
641.241	40091.49
641.594	40249.22
641.947	40424.13
642.301	40273.86
642.654	40379.62
643.007	40354.08
643.36	40220.52
643.713	40336
644.066	40428.65
644.419	39994.32
644.771	39871.83
645.124	39556.59
645.477	39499.41
645.83	39202.7
646.182	39187.11
646.535	39178.52
646.888	39381.45
647.24	39214.9
647.593	39434.1
647.945	39387.1
648.298	39223.94
648.65	39138.74
649.002	39039.54
649.355	39277.05
649.707	39184.85
650.059	39446.76
650.411	39670.93
650.763	39865.05
651.115	40257.81
651.467	40112.5
651.819	40234.31
652.171	40123.35
652.523	39976.69
652.875	39994.54
653.227	39966.29
653.578	40326.74
653.93	40175.78
654.282	40033.18
654.633	39929.46
654.985	39866.64
655.337	39984.6
655.688	39980.53
656.039	40017.82
656.391	39912.28
656.742	39922.91
657.094	40006.74
657.445	40005.16
657.796	39918.84
658.147	39984.15
658.498	39958.61
658.849	39936.24
659.2	39880.87
659.551	39808.56
659.902	39941.21
660.253	39937.14
660.604	40007.2
660.955	39801.1
661.306	39935.33
661.656	39872.74
662.007	39930.59
662.358	39849.69
662.708	39903.47
663.059	39903.7
663.409	39676.58
663.76	39969.23
664.11	39965.84
664.461	40009.46
664.811	39929.01
665.161	39825.96
665.511	39719.97
665.862	39951.83
666.212	40038.61
666.562	39923.58
666.912	39838.61
667.262	39889.01
667.612	39862.79
667.962	39888.33
668.312	39797.48
668.662	39986.63
669.011	40046.29
669.361	39867.09
669.711	39840.42
670.06	39807.43
670.41	39716.36
670.76	39676.81
671.109	39781.44
671.459	39904.6
671.808	39820.08
672.157	39772.63
672.507	39647.21
672.856	39565.63
673.205	39581.9
673.554	39829.12
673.904	39629.81
674.253	39782.12
674.602	39625.74
674.951	39074.11
675.3	38999.31
675.649	39710.03
675.998	39492.41
676.346	39521.11
676.695	39563.37
677.044	39417.16
677.393	39518.17
677.741	39400.66
678.09	39422.35
678.438	39533.76
678.787	39418.29
679.135	39445.4
679.484	39051.97
679.832	39272.75
680.181	39212.19
680.529	39409.02
680.877	39109.37
681.225	39051.29
681.573	39280.21
681.922	39089.48
682.27	38950.28
682.618	39009.26
682.966	38778.08
683.314	38916.15
683.661	38797.74
684.009	38773.78
684.357	38573.11
684.705	38574.47
685.053	38647.68
685.4	38482.49
685.748	38460.57
686.095	38332.66
686.443	38103.74
686.79	38089.28
687.138	38263.29
687.485	38251.99
687.832	38023.29
688.18	38237.53
688.527	37972.45
688.874	37860.13
689.221	37686.58
689.568	37534.72
689.915	37589.63
690.262	37614.04
690.609	37585.79
690.956	37379.47
691.303	37301.51
691.65	37065.81
691.997	37159.14
692.344	37029.87
692.69	36957.11
693.037	36911.23
693.383	36721.18
693.73	36858.58
694.077	36826.04
694.423	36687.51
694.769	36503.11
695.116	36532.71
695.462	36624.01
695.808	36383.56
696.155	36392.83
696.501	36126.39
696.847	36253.4
697.193	35774.09
697.539	36004.14
697.885	35783.13
698.231	35658.61
698.577	35717.82
698.923	35704.03
699.269	35376.36
699.614	35240.77
699.96	35259.98
700.306	35266.08
700.651	35201.45
700.997	35029.93
701.342	34896.14
701.688	34933.43
702.033	34745.87
702.379	34661.8
702.724	34657.51
703.069	34655.02
703.415	34294.8
703.76	34328.25
704.105	34298.19
704.45	34275.14
704.795	34038.77
705.14	33982.04
705.485	34054.81
705.83	33768.26
706.175	33912.89
706.52	33795.61
706.865	33669.74
707.209	33640.81
707.554	33623.18
707.899	33632.9
708.243	33316.98
708.588	33333.25
708.932	33070.43
709.277	33241.5
709.621	33101.16
709.966	32890.55
710.31	32967.83
710.654	32807.61
710.998	32836.09
711.342	32886.48
711.687	32791.57
712.031	32659.59
712.375	32534.85
712.719	32674.51
713.063	32447.17
713.407	32637.9
713.75	32453.72
714.094	32354.97
714.438	32190.23
714.782	32237.68
715.125	32100.51
715.469	32015.54
715.812	31930.12
716.156	31781.42
716.499	31862.33
716.843	31836.79
717.186	31671.6
717.53	31792.5
717.873	31796.79
718.216	31741.65
718.559	31508.44
718.902	31384.37
719.246	31469.12
719.589	31296.01
719.932	31320.19
720.275	31255.56
720.617	31275
720.96	31053.53
721.303	31131.05
721.646	31189.12
721.989	30898.74
722.331	31109.58
722.674	30962.69
723.016	31069.13
723.359	30898.28
723.701	30968.11
724.044	30731.73
724.386	30486.99
724.729	30701
725.071	30682.24
725.413	30617.61
725.755	30513.43
726.097	30440.44
726.439	30357.73
726.782	30369.26
727.124	30382.82
727.465	30260.79
727.807	30293.55
728.149	30213.56
728.491	30101.24
728.833	30157.96
729.175	29986.9
729.516	29986.67
729.858	30007.01
730.199	30110.28
730.541	29929.5
730.882	29999.78
731.224	30021.7
731.565	29762.04
731.906	29787.58
732.248	29825.09
732.589	29757.07
732.93	29549.39
733.271	29571.54
733.612	29483.86
733.953	29536.29
734.294	29490.64
734.635	29418.1
734.976	29434.82
735.317	29292.45
735.658	29321.83
735.999	29235.28
736.339	29172.45
736.68	29168.16
737.021	29201.15
737.361	29139.01
737.702	29271.43
738.042	29070.08
738.383	29016.98
738.723	29077.54
739.063	28919.13
739.404	28982.4
739.744	28932.91
740.084	28908.05
740.424	28788.73
740.764	28814.04
741.104	28929.52
741.444	28718.68
741.784	28559.14
742.124	28788.06
742.464	28629.42
742.804	28629.42
743.143	28526.14
743.483	28439.14
743.823	28447.73
744.162	28438.91
744.502	28398.91
744.841	28356.2
745.181	28488.4
745.52	28277.56
745.86	28344.45
746.199	28260.39
746.538	28147.4
746.877	28281.86
747.216	28237.34
747.556	28151.24
747.895	28157.56
748.234	28123.89
748.573	28036.44
748.911	28066.95
749.25	28036.21
749.589	27845.03
749.928	27916.67
750.267	27922.09
750.605	27911.24
750.944	27783.56
751.283	27557.13
751.621	27761.42
751.96	27575.66
752.298	27565.04
752.636	27556.9
752.975	27345.83
753.313	27311.26
753.651	27438.94
753.989	27289.56
754.327	27250.47
754.666	27076.69
755.004	27089.12
755.342	27189.68
755.679	26982.23
756.017	26934.32
756.355	26983.36
756.693	26830.37
757.031	27107.65
757.368	26721.67
757.706	26777.71
758.044	26696.81
758.381	26700.43
758.719	26490.26
759.056	26588.79
759.394	26501.34
759.731	26329.36
760.068	26260.67
760.405	26102.03
760.743	26089.82
761.08	26177.73
761.417	25999.88
