Data from red_shiny_book_FLMS001491_00012.txt Node
Date: Wed Feb 08 15:23:42 GMT 2017
User: dcchb
Spectrometer: FLMS00149
Trigger mode: 0
Integration Time (sec): 2.000000E-2
Scans to average: 10
Electric dark correction enabled: true
Nonlinearity correction enabled: false
Boxcar width: 0
XAxis mode: Wavelengths
Number of Pixels in Spectrum: 2048
>>>>>Begin Spectral Data<<<<<
341.393	-15.17
341.776	-15.17
342.16	-15.17
342.543	-62.85
342.927	-55.17
343.31	-54.72
343.693	-62.85
344.077	-70.53
344.46	-63.53
344.843	-70.99
345.226	-57.65
345.61	-42.06
345.993	-11.78
346.376	-0.93
346.759	28.45
347.142	52.4
347.525	37.03
347.908	55.79
348.291	66.41
348.674	87.65
349.057	107.31
349.44	116.58
349.823	122.45
350.206	153.19
350.588	202.23
350.971	224.6
351.354	250.59
351.737	257.14
352.119	274.99
352.502	275.44
352.884	293.75
353.267	320.64
353.65	326.29
354.032	305.05
354.414	319.74
354.797	338.04
355.179	316.12
355.562	325.16
355.944	359.06
356.326	348.44
356.709	354.54
357.091	336.01
357.473	361.77
357.855	361.77
358.238	365.84
358.62	340.3
359.002	340.3
359.384	361.77
359.766	357.48
360.148	367.87
360.53	347.99
360.912	346.4
361.294	358.15
361.676	328.78
362.057	358.38
362.439	335.56
362.821	322.45
363.203	347.76
363.584	332.62
363.966	326.52
364.348	356.57
364.729	344.37
365.111	340.53
365.493	323.81
365.874	340.75
366.256	337.36
366.637	351.83
367.019	337.59
367.4	335.78
367.781	340.08
368.163	345.5
368.544	344.6
368.925	332.62
369.306	355.22
369.688	336.23
370.069	323.13
370.45	337.14
370.831	342.34
371.212	331.94
371.593	342.56
371.974	325.84
372.355	338.72
372.736	363.8
373.117	341.88
373.498	336.91
373.879	343.47
374.26	330.13
374.641	345.05
375.021	347.76
375.402	348.21
375.783	338.04
376.163	353.63
376.544	344.37
376.925	359.28
377.305	352.05
377.686	353.86
378.066	331.71
378.447	346.4
378.827	364.48
379.208	368.32
379.588	347.53
379.968	360.87
380.349	352.96
380.729	358.61
381.109	369.91
381.489	364.71
381.87	369.91
382.25	354.09
382.63	374.43
383.01	386.18
383.39	382.33
383.77	379.4
384.15	378.72
384.53	382.11
384.91	387.31
385.29	396.12
385.67	395.89
386.049	387.98
386.429	388.44
386.809	393.63
387.189	396.35
387.568	382.11
387.948	404.93
388.328	390.24
388.707	402
389.087	406.29
389.466	401.09
389.846	389.34
390.225	403.8
390.605	412.84
390.984	413.52
391.363	402.9
391.743	417.59
392.122	418.72
392.501	409
392.881	432.5
393.26	430.24
393.639	418.94
394.018	405.84
394.397	414.88
394.776	441.32
395.155	441.32
395.534	434.76
395.913	408.77
396.292	437.25
396.671	455.1
397.05	453.97
397.429	437.7
397.808	426.85
398.186	431.82
398.565	412.62
398.944	443.58
399.323	456
399.701	463.91
400.08	467.76
400.458	473.63
400.837	441.54
401.215	455.33
401.594	444.71
401.972	466.63
402.351	448.1
402.729	467.53
403.107	498.49
403.486	499.85
403.864	475.67
404.242	460.75
404.62	472.05
404.999	467.08
405.377	471.6
405.755	484.25
406.133	493.07
406.511	481.99
406.889	502.56
407.267	497.36
407.645	509.79
408.023	517.47
408.401	501.2
408.779	527.64
409.156	550.47
409.534	529.22
409.912	522.67
410.29	536
410.667	534.87
411.045	557.25
411.422	545.95
411.8	566.74
412.178	536.68
412.555	578.49
412.933	564.02
413.31	567.87
413.687	579.62
414.065	579.62
414.442	584.36
414.819	610.35
415.197	603.8
415.574	614.19
415.951	588.43
416.328	594.98
416.705	591.14
417.082	612.84
417.46	613.97
417.837	623.01
418.214	631.14
418.591	637.47
418.967	632.72
419.344	623.23
419.721	660.97
420.098	650.8
420.475	651.25
420.852	654.19
421.228	655.1
421.605	664.59
421.982	664.36
422.358	693.29
422.735	696.45
423.111	687.64
423.488	711.37
423.864	724.7
424.241	702.33
424.617	684.7
424.994	719.27
425.37	698.48
425.746	721.53
426.123	710.01
426.499	735.77
426.875	768.54
427.251	743.46
427.627	782.78
428.003	795.21
428.379	804.24
428.756	792.49
429.132	807.86
429.507	787.3
429.883	764.7
430.259	815.77
430.635	781.42
431.011	794.08
431.387	836.11
431.763	844.02
432.138	832.94
432.514	858.71
432.89	872.04
433.265	863.9
433.641	843.79
434.016	849.67
434.392	855.54
434.767	868.65
435.143	893.73
435.518	877.01
435.894	928.99
436.269	894.64
436.644	926.95
437.02	946.39
437.395	937.12
437.77	948.2
438.145	951.36
438.52	930.12
438.895	948.87
439.271	927.63
439.646	937.57
440.021	974.86
440.395	966.05
440.77	993.17
441.145	1003.11
441.52	1022.32
441.895	1033.39
442.27	1030
442.645	1009.66
443.019	1003.11
443.394	994.3
443.769	1004.69
444.143	994.75
444.518	1029.32
444.892	1030.91
445.267	1066.61
445.641	1047.85
446.016	1074.97
446.39	1065.93
446.764	1095.08
447.139	1058.47
447.513	1069.77
447.887	1052.15
448.262	1059.83
448.636	1040.17
449.01	1083.56
449.384	1092.37
449.758	1098.25
450.132	1114.74
450.506	1106.38
450.88	1168.98
451.254	1140.96
451.628	1121.07
452.002	1140.96
452.376	1150.22
452.75	1129.43
453.123	1135.54
453.497	1106.61
453.871	1124.69
454.244	1159.26
454.618	1195.87
454.992	1180.05
455.365	1214.86
455.739	1227.06
456.112	1239.94
456.486	1214.63
456.859	1258.7
457.232	1246.94
457.606	1206.95
457.979	1219.83
458.352	1202.88
458.725	1246.72
459.099	1217.11
459.472	1253.5
459.845	1298.92
460.218	1300.95
460.591	1330.11
460.964	1362.2
461.337	1369.65
461.71	1368.52
462.083	1374.85
462.456	1373.95
462.829	1335.53
463.201	1350.9
463.574	1331.24
463.947	1383.21
464.32	1376.66
464.692	1418.69
465.065	1417.11
465.438	1459.37
465.81	1486.71
466.183	1505.24
466.555	1525.36
466.928	1531.91
467.3	1490.33
467.672	1461.85
468.045	1510.89
468.417	1483.32
468.789	1477
469.161	1489.42
469.534	1496.2
469.906	1589.31
470.278	1604.22
470.65	1623.88
471.022	1669.76
471.394	1716.31
471.766	1710.66
472.138	1726.48
472.51	1750.66
472.882	1716.54
473.253	1717.21
473.625	1703.2
473.997	1714.73
474.369	1731.23
474.74	1749.3
475.112	1795.4
475.484	1832.92
475.855	1905.01
476.227	1949.3
476.598	2024.33
476.97	1999.47
477.341	2081.72
477.713	2048.28
478.084	2062.74
478.455	2051.22
478.827	2028.39
479.198	2044.44
479.569	2026.81
479.94	2117.66
480.311	2109.75
480.682	2167.82
481.053	2224.77
481.424	2321.72
481.795	2346.35
482.166	2448.49
482.537	2435.39
482.908	2488.27
483.279	2486.23
483.65	2495.95
484.021	2525.56
484.391	2493.92
484.762	2451.88
485.133	2469.74
485.503	2497.76
485.874	2561.94
486.244	2594.48
486.615	2686.91
486.985	2775.72
487.356	2885.77
487.726	2962.38
488.097	2991.08
488.467	3012.77
488.837	3028.37
489.207	3060
489.578	3029.72
489.948	3032.43
490.318	3007.12
490.688	3024.07
491.058	3021.14
491.428	3063.85
491.798	3103.39
492.168	3157.85
492.538	3259.32
492.908	3360.34
493.278	3450.28
493.648	3504.96
494.017	3564.17
494.387	3558.07
494.757	3586.32
495.126	3577.5
495.496	3558.75
495.866	3454.8
496.235	3494.57
496.605	3440.56
496.974	3459.99
497.344	3483.72
497.713	3538.41
498.082	3599.2
498.452	3703.15
498.821	3793.32
499.19	3873.09
499.559	3960.55
499.928	3959.64
500.298	4018.4
500.667	3990.38
501.036	3939.76
501.405	3913.32
501.774	3881.9
502.143	3801.23
502.512	3735.01
502.88	3780.89
503.249	3753.55
503.618	3785.63
503.987	3806.2
504.356	3938.4
504.724	4046.87
505.093	4095.68
505.462	4202.57
505.83	4231.27
506.199	4265.4
506.567	4343.36
506.936	4263.59
507.304	4289.35
507.672	4187.88
508.041	4108.11
508.409	4062.69
508.777	4015.01
509.145	4015.01
509.514	3999.41
509.882	4005.06
510.25	4096.14
510.618	4167.55
510.986	4250.26
511.354	4390.82
511.722	4468.78
512.09	4509.46
512.458	4497.71
512.826	4553.3
513.193	4564.37
513.561	4504.26
513.929	4485.5
514.297	4393.08
514.664	4327.09
515.032	4286.86
515.4	4279.41
515.767	4258.62
516.135	4273.98
516.502	4237.15
516.869	4389.46
517.237	4431.72
517.604	4556.91
517.972	4702.45
518.339	4804.37
518.706	4790.58
519.073	4833.74
519.44	4830.35
519.808	4871.71
520.175	4773.63
520.542	4789.45
520.909	4625.61
521.276	4561.21
521.643	4517.37
522.009	4483.24
522.376	4503.13
522.743	4560.98
523.11	4612.28
523.477	4707.64
523.843	4815.21
524.21	4928.66
524.577	5040.74
524.943	5172.27
525.31	5244.35
525.676	5267.63
526.043	5307.85
526.409	5287.52
526.776	5244.35
527.142	5221.98
527.508	5205.26
527.874	5057.01
528.241	5019.27
528.607	4942.21
528.973	4956.68
529.339	4986.28
529.705	5093.85
530.071	5190.12
530.437	5292.04
530.803	5413.61
531.169	5543.33
531.535	5686.6
531.901	5758.01
532.267	5852.7
532.632	5852.25
532.998	5953.49
533.364	5981.74
533.73	5866.26
534.095	5852.25
534.461	5748.07
534.826	5705.58
535.192	5661.52
535.557	5568.86
535.923	5578.58
536.288	5579.94
536.653	5667.39
537.019	5746.94
537.384	5826.49
537.749	6029.64
538.114	6125.46
538.479	6287.26
538.845	6417.43
539.21	6460.82
539.575	6513.92
539.94	6565.9
540.305	6597.76
540.67	6555.73
541.034	6523.19
541.399	6381.72
541.764	6292.01
542.129	6293.37
542.494	6159.13
542.858	6135.4
543.223	6099.92
543.587	6172.92
543.952	6241.84
544.316	6270.09
544.681	6400.03
545.045	6573.81
545.41	6712.56
545.774	6860.36
546.138	6988.26
546.503	7117.52
546.867	7147.13
547.231	7209.5
547.595	7160.01
547.959	7090.86
548.324	7058.54
548.688	6953.01
549.052	6837.31
549.416	6705.11
549.779	6611.32
550.143	6541.72
550.507	6585.56
550.871	6569.29
551.235	6630.53
551.599	6663.75
551.962	6777.19
552.326	6868.94
552.689	7052.44
553.053	7219.67
553.417	7282.72
553.78	7480.9
554.143	7540.79
554.507	7630.73
554.87	7624.18
555.234	7597.96
555.597	7440.45
555.96	7366.56
556.323	7221.25
556.686	7120.46
557.05	7072.55
557.413	7034.59
557.776	6939.68
558.139	6844.31
558.502	6921.82
558.865	6956.85
559.228	7049.73
559.59	7167.47
559.953	7313
560.316	7522.49
560.679	7752.76
561.041	7859.43
561.404	7986.2
561.767	8070.95
562.129	8140.77
562.492	8149.14
562.854	8116.14
563.217	8032.75
563.579	7924.51
563.941	7821.46
564.304	7735.81
564.666	7648.81
565.028	7469.15
565.39	7538.98
565.753	7436.84
566.115	7384.86
566.477	7378.76
566.839	7473.45
567.201	7640
567.563	7720.45
567.925	7993.21
568.287	8116.59
568.648	8330.83
569.01	8501.67
569.372	8678.84
569.734	8712.29
570.095	8767.2
570.457	8808.33
570.819	8861.89
571.18	8768.78
571.542	8660.76
571.903	8496.7
572.265	8432.97
572.626	8298.74
572.987	8245.18
573.349	8118.18
573.71	8076.82
574.071	8122.24
574.432	8196.82
574.794	8350.26
575.155	8452.18
575.516	8635.9
575.877	8823.02
576.238	9099.39
576.599	9380.52
576.96	9618.93
577.32	9818.24
577.681	9944.34
578.042	10144.79
578.403	10268.18
578.763	10315.41
579.124	10378.91
579.485	10406.48
579.845	10407.16
580.206	10347.04
580.566	10463.2
580.927	10518.57
581.287	10539.36
581.648	10615.06
582.008	10745.68
582.368	11004.65
582.728	11290.3
583.089	11562.83
583.449	11972.54
583.809	12438.29
584.169	12856.36
584.529	13304.48
584.889	13845.71
585.249	14400.05
585.609	14817.66
585.969	15378.1
586.329	15848.14
586.688	16338.3
587.048	16704.84
587.408	17094.89
587.768	17383.7
588.127	17661.43
588.487	18042.44
588.846	18351.58
589.206	18559.48
589.565	18973.71
589.925	19394.72
590.284	19748.61
590.643	20194.02
591.003	20809.14
591.362	21351.73
591.721	21841.43
592.08	22646.38
592.44	23289.08
592.799	24038.44
593.158	24525.43
593.517	25506.42
593.876	26207.64
594.235	26659.84
594.593	27469.08
594.952	28146.12
595.311	28617.98
595.67	29148.36
596.029	29820.2
596.387	30183.58
596.746	30689.33
597.104	30958.03
597.463	31391.69
597.822	31818.12
598.18	32164.32
598.538	32356.41
598.897	33008.82
599.255	33141.47
599.613	34057.61
599.972	34315.23
600.33	34967.19
600.688	35321.3
601.046	36107.95
601.404	36895.95
601.762	37478.76
602.12	38166.65
602.478	38795.79
602.836	39361.42
603.194	39684.8
603.552	40334.73
603.91	40737.66
604.268	41244.76
604.625	41465.55
604.983	42049.94
605.341	42068.7
605.698	42651.96
606.056	42986.64
606.413	43105.28
606.771	43428.89
607.128	43542.56
607.485	43623.91
607.843	43696
608.2	44094.18
608.557	44505.69
608.914	44580.04
609.272	45196.07
609.629	45493.46
609.986	45893.68
610.343	46170.96
610.7	46804.16
611.057	47066.98
611.414	47349.91
611.771	47841.2
612.127	48188.99
612.484	48362.32
612.841	48750.78
613.198	48686.83
613.554	48891.12
613.911	49351.44
614.267	49405.68
614.624	49378.79
614.98	49601.15
615.337	49743.75
615.693	49703.3
616.05	49753.69
616.406	49868.27
616.762	49797.76
617.118	49825.78
617.475	49836.85
617.831	50026.23
618.187	50147.58
618.543	50237.07
618.899	50624.4
619.255	50635.02
619.611	50760.22
619.967	51021.91
620.323	51295.12
620.678	51448.56
621.034	51458.96
621.39	51586.19
621.746	51769.68
622.101	52117.92
622.457	51964.03
622.812	52131.03
623.168	52200.41
623.523	52341.42
623.879	52333.96
624.234	52120.64
624.589	52172.84
624.945	52230.46
625.3	52276.56
625.655	52150.46
626.01	52092.84
626.365	52081.77
626.72	51947.53
627.075	51937.59
627.43	51891.94
627.785	51831.83
628.14	52023.91
628.495	52147.08
628.85	52096
629.205	52044.03
629.559	52428.88
629.914	52324.7
630.269	52516.78
630.623	52561.75
630.978	52634.07
631.332	52839.49
631.687	52994.51
632.041	52799.94
632.396	52961.07
632.75	52916.32
633.104	52933.04
633.459	52810.79
633.813	52849.2
634.167	52752.26
634.521	52687.17
634.875	52619.61
635.229	52481.53
635.583	52241.54
635.937	52164.7
636.291	52069.11
636.645	52071.82
636.999	51922.67
637.352	51946.18
637.706	51820.3
638.06	51812.62
638.413	51888.1
638.767	51747.31
639.121	51863.69
639.474	51757.71
639.828	51951.83
640.181	52089.68
640.534	52260.52
640.888	52194.76
641.241	52202.89
641.594	52227.3
641.947	52322.89
642.301	52321.31
642.654	52451.25
643.007	52459.38
643.36	52365.37
643.713	52277.02
644.066	52434.75
644.419	52098.04
644.771	51723.81
645.124	51367.43
645.477	51258.74
645.83	50867.33
646.182	50754.8
646.535	50615.59
646.888	50613.56
647.24	50387.8
647.593	50543.73
647.945	50485.2
648.298	50255.37
648.65	50211.53
649.002	50222.83
649.355	50344.86
649.707	50361.59
650.059	50466.67
650.411	51010.61
650.763	51131.06
651.115	51533.53
651.467	51378.06
651.819	51541.22
652.171	51499.18
652.523	51406.76
652.875	51503.25
653.227	51348.45
653.578	51637.71
653.93	51566.53
654.282	51395
654.633	51212.18
654.985	51302.35
655.337	51197.04
655.688	51141.9
656.039	51140.1
656.391	50822.36
656.742	50741.24
657.094	50680.9
657.445	50712.99
657.796	50601.58
658.147	50429.15
658.498	50491.75
658.849	50442.49
659.2	50368.14
659.551	50513.45
659.902	50501.47
660.253	50473.67
660.604	50759.54
660.955	50719.09
661.306	50899.65
661.656	50767.22
662.007	51014.9
662.358	51014.22
662.708	51079.76
663.059	51094.45
663.409	50899.42
663.76	51147.33
664.11	51179.42
664.461	51279.53
664.811	51257.61
665.161	51161.34
665.511	50915.92
665.862	50927.67
666.212	50869.14
666.562	50872.08
666.912	50666.89
667.262	50583.73
667.612	50283.4
667.962	50197.52
668.312	50211.98
668.662	50173.12
669.011	50100.8
669.361	49987.58
669.711	50009.5
670.06	49877.08
670.41	49917.3
670.76	49912.56
671.109	49969.51
671.459	50035.27
671.808	50045.89
672.157	50178.31
672.507	49985.32
672.856	50204.53
673.205	50322.26
673.554	50407.46
673.904	50443.84
674.253	50698.07
674.602	50584.18
674.951	50080.91
675.3	49941.71
675.649	50574.01
675.998	50473.67
676.346	50364.98
676.695	50465.76
677.044	50130.63
677.393	50073.01
677.741	50139.44
678.09	49832.79
678.438	49723.41
678.787	49743.3
679.135	49563.64
679.484	49204.33
679.832	49312.8
680.181	49001.17
680.529	49136.08
680.877	48889.08
681.225	48920.95
681.573	49128.62
681.922	48850.66
682.27	48823.77
682.618	48955.29
682.966	48884.56
683.314	49074.84
683.661	49085.01
684.009	48899.93
684.357	49021.96
684.705	49151.45
685.053	49259.47
685.4	49245
685.748	49087.72
686.095	49062.18
686.443	49020.15
686.79	49040.49
687.138	49054.5
687.485	49082.07
687.832	48791.46
688.18	48824.68
688.527	48612.48
688.874	48420.39
689.221	48233.28
689.568	48020.18
689.915	47879.62
690.262	47793.07
690.609	47466.07
690.956	47402.12
691.303	47333.64
691.65	46967.1
691.997	46960.32
692.344	46661.12
692.69	46766.2
693.037	46685.75
693.383	46332.99
693.73	46563.72
694.077	46476.94
694.423	46366.66
694.769	46370.5
695.116	46371.41
695.462	46383.16
695.808	46231.07
696.155	46514.68
696.501	46256.16
696.847	46257.29
697.193	46104.52
697.539	46338.64
697.885	46021.13
698.231	45969.61
698.577	46126.67
698.923	45980.23
699.269	45870.18
699.614	45661.14
699.96	45556.97
700.306	45486.69
700.651	45121.95
700.997	44999.24
701.342	44781.39
701.688	44742.52
702.033	44474.73
702.379	44342.76
702.724	44115.42
703.069	44079.26
703.415	43570.35
703.76	43504.14
704.105	43491.03
704.45	43343.69
704.795	43117.48
705.14	42951.61
705.485	42925.4
705.83	42806.08
706.175	43005.62
706.52	42810.15
706.865	42913.87
707.209	42950.48
707.554	42721.11
707.899	42989.12
708.243	42733.54
708.588	42780.09
708.932	42686.76
709.277	42800.2
709.621	42908.67
709.966	42656.03
710.31	42798.39
710.654	42402.25
710.998	42509.81
711.342	42456.26
711.687	42415.13
712.031	42236.6
712.375	41962.71
712.719	42049.49
713.063	41888.59
713.407	41942.6
713.75	41626.45
714.094	41434.14
714.438	41140.13
714.782	41115.95
715.125	40921.16
715.469	40779.01
715.812	40587.61
716.156	40315.3
716.499	40282.98
716.843	40351
717.186	39906.27
717.53	40184
717.873	40047.05
718.216	40015.19
718.559	39828.53
718.902	39741.98
719.246	39697.91
719.589	39639.16
719.932	39508.31
720.275	39848.64
720.617	39784.01
720.96	39827.63
721.303	39934.51
721.646	39956.44
721.989	39771.13
722.331	40082.99
722.674	39848.19
723.016	40046.6
723.359	39910.56
723.701	39960.95
724.044	39787.85
724.386	39565.49
724.729	39662.88
725.071	39581.53
725.413	39436.67
725.755	39432.38
726.097	39089.57
726.439	38815.45
726.782	38796.92
727.124	38837.59
727.465	38513.08
727.807	38381.79
728.149	38262.02
728.491	38021.57
728.833	38111.29
729.175	37827.23
729.516	37713.56
729.858	37603.5
730.199	37759.43
730.541	37451.64
730.882	37424.52
731.224	37524.86
731.565	37235.6
731.906	37310.18
732.248	37509.49
732.589	37315.15
732.93	37321.7
733.271	37467.24
733.612	37489.16
733.953	37453.9
734.294	37340.23
734.635	37351.31
734.976	37570.28
735.317	37484.18
735.658	37469.72
735.999	37552.88
736.339	37396.95
736.68	37497.06
737.021	37457.97
737.361	37385.66
737.702	37528.25
738.042	37340.46
738.383	37281.48
738.723	37324.41
739.063	37010.75
739.404	37080.35
739.744	36829.06
740.084	36641.95
740.424	36630.42
740.764	36449.18
741.104	36544.77
741.444	36209.64
741.784	36103.66
742.124	36004.67
742.464	35976.88
742.804	35782.99
743.143	35517.46
743.483	35634.29
743.823	35356.56
744.162	35313.85
744.502	35578.92
744.841	35203.79
745.181	35531.01
745.52	35136.9
745.86	35374.41
746.199	35259.38
746.538	35382.09
746.877	35455.54
747.216	35403.11
747.556	35371.47
747.895	35468.42
748.234	35572.37
748.573	35400.4
748.911	35461.41
749.25	35501.41
749.589	35261.64
749.928	35367.86
750.267	35468.87
750.605	35494.86
750.944	35388.19
751.283	35307.97
751.621	35385.71
751.96	35057.58
752.298	35026.17
752.636	34894.87
752.975	34755.89
753.313	34527.88
753.651	34699.85
753.989	34272.06
754.327	34157.27
754.666	34063.03
755.004	33964.73
755.342	33882.92
755.679	33752.76
756.017	33395.93
756.355	33438.19
756.693	33186.22
757.031	33200.68
757.368	33041.14
757.706	32925.43
758.044	32809.73
758.381	32794.82
758.719	32515.5
759.056	32609.74
759.394	32413.58
759.731	32375.62
