Data from red_cardboard_box_FLMS001491_00078.txt Node
Date: Wed Feb 08 11:33:07 GMT 2017
User: dcchb
Spectrometer: FLMS00149
Trigger mode: 0
Integration Time (sec): 2.000000E-2
Scans to average: 10
Electric dark correction enabled: true
Nonlinearity correction enabled: false
Boxcar width: 0
XAxis mode: Wavelengths
Number of Pixels in Spectrum: 2048
>>>>>Begin Spectral Data<<<<<
341.393	-10.75
341.776	-10.75
342.16	-10.75
342.543	-55.27
342.927	-73.57
343.31	-55.27
343.693	-74.93
344.077	-53.46
344.46	-67.02
344.843	-46.45
345.226	-39.67
345.61	-17.08
345.993	-25.21
346.376	-10.52
346.759	1.23
347.142	26.31
347.525	42.58
347.908	56.14
348.291	66.54
348.674	87.1
349.057	109.7
349.44	113.32
349.823	125.75
350.206	171.62
350.588	196.7
350.971	201.45
351.354	224.73
351.737	219.3
352.119	254.78
352.502	282.35
352.884	255.91
353.267	293.42
353.65	289.13
354.032	283.26
354.414	306.98
354.797	327.55
355.179	315.8
355.562	348.11
355.944	328.9
356.326	328.9
356.709	341.33
357.091	357.83
357.473	335.68
357.855	329.81
358.238	351.05
358.62	331.39
359.002	345.17
359.384	330.26
359.766	340.65
360.148	331.39
360.53	337.27
360.912	349.24
361.294	330.94
361.676	345.17
362.057	334.1
362.439	342.46
362.821	335.01
363.203	346.3
363.584	307.89
363.966	310.15
364.348	308.34
364.729	322.35
365.111	323.71
365.493	318.73
365.874	319.19
366.256	327.55
366.637	317.38
367.019	320.32
367.4	317.83
367.781	289.36
368.163	308.11
368.544	312.18
368.925	313.99
369.306	310.6
369.688	299.75
370.069	323.48
370.45	306.76
370.831	291.84
371.212	294.55
371.593	292.52
371.974	309.47
372.355	325.51
372.736	312.86
373.117	325.51
373.498	304.27
373.879	296.14
374.26	314.67
374.641	308.57
375.021	309.24
375.402	301.79
375.783	320.77
376.163	325.51
376.544	304.27
376.925	313.08
377.305	326.64
377.686	356.02
378.066	331.62
378.447	321.45
378.827	323.93
379.208	323.48
379.588	326.87
379.968	325.74
380.349	327.32
380.729	335.23
381.109	317.83
381.489	342.46
381.87	332.29
382.25	324.16
382.63	342.69
383.01	352.41
383.39	335.01
383.77	326.19
384.15	317.38
384.53	306.08
384.91	335.68
385.29	339.07
385.67	334.78
386.049	311.73
386.429	323.71
386.809	345.17
387.189	330.94
387.568	329.58
387.948	329.58
388.328	339.98
388.707	340.65
389.087	331.16
389.466	341.56
389.846	334.78
390.225	343.82
390.605	343.59
390.984	323.93
391.363	342.46
391.743	354.44
392.122	348.79
392.501	353.76
392.881	353.54
393.26	361.67
393.639	353.54
394.018	348.34
394.397	366.64
394.776	365.74
395.155	329.58
395.534	334.33
395.913	360.77
396.292	351.05
396.671	353.99
397.05	360.99
397.429	377.72
397.808	354.67
398.186	355.34
398.565	363.48
398.944	347.89
399.323	382.01
399.701	377.94
400.08	371.16
400.458	381.11
400.837	351.73
401.215	349.47
401.594	379.07
401.972	394.89
402.351	370.03
402.729	370.71
403.107	361.67
403.486	372.29
403.864	370.03
404.242	380.65
404.62	380.88
404.999	380.88
405.377	352.86
405.755	390.6
406.133	368.22
406.511	360.54
406.889	386.3
407.267	392.4
407.645	379.75
408.023	364.38
408.401	382.24
408.779	379.75
409.156	380.65
409.534	401.9
409.912	376.81
410.29	393.53
410.667	407.55
411.045	392.63
411.422	405.29
411.8	409.58
412.178	415.23
412.555	404.16
412.933	422.23
413.31	418.17
413.687	401.22
414.065	405.74
414.442	390.15
414.819	417.72
415.197	411.61
415.574	406.64
415.951	425.62
416.328	419.3
416.705	416.13
417.082	410.94
417.46	406.42
417.837	445.06
418.214	432.86
418.591	425.62
418.967	406.64
419.344	419.97
419.721	445.28
420.098	438.73
420.475	426.3
420.852	431.5
421.228	419.07
421.605	417.94
421.982	420.65
422.358	420.65
422.735	434.89
423.111	446.41
423.488	430.82
423.864	441.9
424.241	429.24
424.617	425.4
424.994	437.15
425.37	450.48
425.746	437.38
426.123	447.09
426.499	445.96
426.875	448.67
427.251	433.99
427.627	461.33
428.003	459.97
428.379	460.65
428.756	467.43
429.132	454.1
429.507	454.1
429.883	464.04
430.259	479.63
430.635	481.22
431.011	461.33
431.387	474.21
431.763	498.39
432.138	496.13
432.514	477.83
432.89	500.88
433.265	499.75
433.641	490.93
434.016	492.06
434.392	498.62
434.767	510.82
435.143	498.62
435.518	521.22
435.894	488.22
436.269	493.19
436.644	523.47
437.02	512.4
437.395	518.96
437.77	513.31
438.145	508.79
438.52	532.29
438.895	499.52
439.271	528.45
439.646	548.33
440.021	526.64
440.395	525.28
440.77	526.19
441.145	510.14
441.52	562.34
441.895	545.17
442.27	552.17
442.645	558.05
443.019	547.88
443.394	520.09
443.769	544.27
444.143	545.62
444.518	574.1
444.892	546.98
445.267	555.79
445.641	551.95
446.016	551.72
446.39	572.29
446.764	530.48
447.139	544.04
447.513	573.87
447.887	557.6
448.262	573.19
448.636	583.13
449.01	565.06
449.384	587.88
449.758	565.96
450.132	575.9
450.506	573.19
450.88	589.69
451.254	599.86
451.628	593.08
452.002	577.94
452.376	580.42
452.75	617.26
453.123	607.54
453.497	606.86
453.871	618.39
454.244	617.71
454.618	637.6
454.992	629.01
455.365	624.72
455.739	627.2
456.112	627.43
456.486	634.43
456.859	629.91
457.232	644.83
457.606	632.17
457.979	631.49
458.352	640.53
458.725	649.35
459.099	648.9
459.472	649.57
459.845	652.74
460.218	669.91
460.591	671.72
460.964	662.91
461.337	689.57
461.71	683.7
462.083	705.84
462.456	692.28
462.829	684.37
463.201	720.31
463.574	708.1
463.947	700.65
464.32	690.93
464.692	724.83
465.065	739.97
465.438	725.73
465.81	736.35
466.183	750.14
466.555	756.01
466.928	739.06
467.3	737.48
467.672	773.41
468.045	746.52
468.417	764.15
468.789	782.45
469.161	792.17
469.534	775.9
469.906	763.69
470.278	802.34
470.65	805.5
471.022	825.16
471.394	838.49
471.766	808.67
472.138	860.19
472.51	833.52
472.882	819.51
473.253	838.95
473.625	860.19
473.997	860.42
474.369	871.26
474.74	883.69
475.112	867.42
475.484	891.83
475.855	924.59
476.227	914.65
476.598	923.46
476.97	918.94
477.341	951.03
477.713	935.22
478.084	993.75
478.455	963.92
478.827	996.46
479.198	1008.43
479.569	1016.57
479.94	1003.91
480.311	1033.97
480.682	1036
481.053	1063.57
481.424	1076.23
481.795	1083.01
482.166	1097.7
482.537	1099.96
482.908	1131.37
483.279	1125.72
483.65	1132.95
484.021	1136.57
484.391	1146.96
484.762	1191.03
485.133	1175.89
485.503	1220.18
485.874	1216.34
486.244	1235.09
486.615	1268.09
486.985	1260.4
487.356	1272.61
487.726	1283.91
488.097	1283.91
488.467	1301.08
488.837	1321.65
489.207	1342.89
489.578	1322.78
489.948	1350.57
490.318	1383.34
490.688	1370.68
491.058	1412.49
491.428	1420.17
491.798	1426.5
492.168	1451.13
492.538	1421.53
492.908	1455.2
493.278	1453.17
493.648	1474.86
494.017	1491.13
494.387	1492.49
494.757	1517.35
495.126	1527.97
495.496	1552.15
495.866	1521.41
496.235	1567.52
496.605	1570.68
496.974	1607.06
497.344	1593.05
497.713	1611.36
498.082	1614.07
498.452	1622.88
498.821	1621.3
499.19	1647.97
499.559	1641.41
499.928	1624.24
500.298	1646.38
500.667	1689.55
501.036	1701.07
501.405	1676.66
501.774	1715.31
502.143	1724.12
502.512	1732.93
502.88	1741.07
503.249	1753.5
503.618	1738.36
503.987	1782.2
504.356	1778.36
504.724	1783.55
505.093	1795.08
505.462	1796.44
505.83	1801.18
506.199	1851.58
506.567	1850.9
506.936	1844.12
507.304	1874.85
507.672	1832.82
508.041	1915.3
508.409	1908.07
508.777	1937
509.145	1934.06
509.514	1936.77
509.882	1959.82
510.25	1923.21
510.618	1944.23
510.986	1979.71
511.354	1983.32
511.722	2002.76
512.09	1993.72
512.458	2027.16
512.826	2042.08
513.193	2054.51
513.561	2060.16
513.929	2056.54
514.297	2082.76
514.664	2132.7
515.032	2109.42
515.4	2123.66
515.767	2161.4
516.135	2141.74
516.502	2158.91
516.869	2200.94
517.237	2197.78
517.604	2222.19
517.972	2211.79
518.339	2258.12
518.706	2231.68
519.073	2278.91
519.44	2261.73
519.808	2322.07
520.175	2308.29
520.542	2325.91
520.909	2342.64
521.276	2330.21
521.643	2374.27
522.009	2409.98
522.376	2407.49
522.743	2426.48
523.11	2468.28
523.477	2431.45
523.843	2459.02
524.21	2462.63
524.577	2512.58
524.943	2490.65
525.31	2526.13
525.676	2550.09
526.043	2545.12
526.409	2561.16
526.776	2652.68
527.142	2623.98
527.508	2662.18
527.874	2679.35
528.241	2673.02
528.607	2715.96
528.973	2735.17
529.339	2735.17
529.705	2741.27
530.071	2794.15
530.437	2779.69
530.803	2792.12
531.169	2840.7
531.535	2824.43
531.901	2832.11
532.267	2822.85
532.632	2857.2
532.998	2868.27
533.364	2934.03
533.73	2923.86
534.095	2923.19
534.461	2934.48
534.826	2967.7
535.192	2983.75
535.557	3021.71
535.923	2994.37
536.288	3019.91
536.653	3051.32
537.019	3006.35
537.384	3071.43
537.749	3082.5
538.114	3109.4
538.479	3070.98
538.845	3124.76
539.21	3111.43
539.575	3120.47
539.94	3117.98
540.305	3158.21
540.67	3183.97
541.034	3182.84
541.399	3203.63
541.764	3208.38
542.129	3208.83
542.494	3219.45
542.858	3268.26
543.223	3271.88
543.587	3244.76
543.952	3299
544.316	3309.39
544.681	3321.37
545.045	3331.31
545.41	3396.62
545.774	3384.87
546.138	3369.05
546.503	3423.29
546.867	3411.31
547.231	3430.74
547.595	3452.44
547.959	3478.88
548.324	3467.8
548.688	3466
549.052	3516.62
549.416	3548.25
549.779	3515.49
550.143	3531.98
550.507	3581.93
550.871	3629.61
551.235	3599.78
551.599	3672.77
551.962	3666.44
552.326	3643.39
552.689	3688.82
553.053	3724.07
553.417	3688.59
553.78	3765.65
554.143	3739.89
554.507	3813.33
554.87	3789.6
555.234	3842.94
555.597	3842.48
555.96	3865.08
556.323	3901.92
556.686	3942.14
557.05	3979.88
557.413	3952.99
557.776	3947.34
558.139	4044.29
558.502	4047.68
558.865	4118.63
559.228	4110.27
559.59	4145.07
559.953	4133.1
560.316	4186.88
560.679	4231.63
561.041	4277.73
561.404	4283.38
561.767	4323.15
562.129	4375.13
562.492	4401.34
562.854	4447.44
563.217	4439.76
563.579	4517.72
563.941	4555.01
564.304	4584.61
564.666	4596.36
565.028	4589.36
565.39	4662.58
565.753	4712.07
566.115	4731.5
566.477	4772.18
566.839	4845.17
567.201	4916.58
567.563	4870.71
567.925	4949.12
568.287	4976.47
568.648	5013.53
569.01	5067.54
569.372	5109.8
569.734	5098.04
570.095	5233.63
570.457	5260.98
570.819	5265.95
571.18	5331.48
571.542	5378.26
571.903	5378.04
572.265	5481.31
572.626	5478.37
572.987	5613.96
573.349	5559.05
573.71	5667.75
574.071	5666.16
574.432	5789.55
574.794	5812.6
575.155	5868.65
575.516	5911.36
575.877	5936.67
576.238	6011.92
576.599	6059.6
576.96	6173.5
577.32	6220.05
577.681	6314.96
578.042	6368.52
578.403	6390.67
578.763	6542.53
579.124	6594.05
579.485	6631.11
579.845	6671.56
580.206	6730.09
580.566	6791.11
580.927	6918.34
581.287	7006.02
581.648	7069.29
582.008	7243.52
582.368	7269.96
582.728	7393.12
583.089	7447.13
583.449	7607.36
583.809	7657.52
584.169	7814.58
584.529	7926.67
584.889	8058.19
585.249	8085.54
585.609	8234.91
585.969	8421.8
586.329	8459.31
586.688	8640.1
587.048	8782.24
587.408	8908.34
587.768	9060.43
588.127	9175.9
588.487	9307.88
588.846	9527.08
589.206	9677.36
589.565	9782.67
589.925	9981.98
590.284	10236.67
590.643	10403.67
591.003	10566.83
591.362	10751.23
591.721	10886.59
592.08	11080.03
592.44	11294.94
592.799	11476.18
593.158	11723.41
593.517	12005.21
593.876	12148.71
594.235	12332.43
594.593	12597.51
594.952	12820.78
595.311	13075.69
595.67	13261.22
596.029	13568.1
596.387	13866.4
596.746	14110.24
597.104	14320.85
597.463	14505.25
597.822	14756.1
598.18	14941.85
598.538	15304.1
598.897	15474.04
599.255	15703.87
599.613	16210.52
599.972	16322.61
600.33	16519.44
600.688	16901.12
601.046	17107.22
601.404	17518.51
601.762	17673.31
602.12	17981.77
602.478	18263.8
602.836	18494.08
603.194	18792.6
603.552	18869.43
603.91	19131.57
604.268	19494.5
604.625	19650.88
604.983	19901.72
605.341	20202.28
605.698	20449.28
606.056	20674.81
606.413	20889.27
606.771	21154.12
607.128	21437.28
607.485	21670.72
607.843	21799.98
608.2	22153.87
608.557	22383.24
608.914	22533.29
609.272	22822.78
609.629	23068.64
609.986	23387.51
610.343	23371.69
610.7	23744.56
611.057	23952.01
611.414	24032.91
611.771	24158.33
612.127	24487.59
612.484	24618.21
612.841	24900.69
613.198	24924.64
613.554	25136.84
613.911	25394.01
614.267	25467.45
614.624	25559.43
614.98	25831.28
615.337	26051.39
615.693	26247.09
616.05	26185.4
616.406	26566.86
616.762	26671.71
617.118	26721.2
617.475	26914.42
617.831	26988.32
618.187	27111.02
618.543	27291.81
618.899	27552.82
619.255	27554.18
619.611	27658.81
619.967	27899.48
620.323	28007.5
620.678	27919.14
621.034	27997.55
621.39	28267.6
621.746	28063.77
622.101	28641.15
622.457	28523.19
622.812	28551.89
623.168	28712.11
623.523	28869.17
623.879	28939.68
624.234	28672.11
624.589	29095.61
624.945	29133.57
625.3	29305.54
625.655	29307.12
626.01	29427.35
626.365	29404.07
626.72	29349.84
627.075	29490.17
627.43	29561.36
627.785	29501.7
628.14	29640.9
628.495	29778.75
628.85	29762.03
629.205	29669.6
629.559	29845.19
629.914	29921.12
630.269	29973.77
630.623	29969.03
630.978	29868.69
631.332	30070.95
631.687	30071.17
632.041	30126.54
632.396	30182.81
632.75	30064.85
633.104	30168.12
633.459	30088.8
633.813	30126.31
634.167	30159.31
634.521	30200.21
634.875	30308.45
635.229	30323.37
635.583	30210.83
635.937	30104.39
636.291	30213.54
636.645	30234.78
636.999	30168.57
637.352	30340.54
637.706	30118.63
638.06	30295.35
638.413	30220.32
638.767	30222.58
639.121	30343.26
639.474	29950.5
639.828	30330.83
640.181	30349.36
640.534	30283.14
640.888	30238.85
641.241	30111.85
641.594	30216.71
641.947	30488.11
642.301	30273.88
642.654	30264.61
643.007	30260.09
643.36	30343.48
643.713	30267.1
644.066	30378.96
644.419	30240.66
644.771	29887.67
645.124	29681.13
645.477	29644.97
645.83	29492.88
646.182	29430.74
646.535	29368.37
646.888	29624.18
647.24	29325.88
647.593	29534.46
647.945	29602.26
648.298	29550.51
648.65	29534.92
649.002	29504.18
649.355	29532.43
649.707	29443.17
650.059	29688.13
650.411	29993.43
650.763	30206.99
651.115	30484.27
651.467	30206.08
651.819	30336.93
652.171	30191.17
652.523	30291.51
652.875	30144.84
653.227	30054
653.578	30371.05
653.93	30201.79
654.282	30192.3
654.633	30046.54
654.985	30230.26
655.337	30083.15
655.688	30185.29
656.039	30226.65
656.391	30006.99
656.742	29966.32
657.094	30022.36
657.445	30273.65
657.796	30073.43
658.147	30099.65
658.498	30069.36
658.849	30039.76
659.2	30001.34
659.551	30000.89
659.902	30087.22
660.253	30018.74
660.604	30165.18
660.955	29963.83
661.306	30211.73
661.656	30009.71
662.007	30012.42
662.358	30150.27
662.708	29956.83
663.059	29994.56
663.409	29798.64
663.76	30071.62
664.11	30140.1
664.461	30135.13
664.811	30123.6
665.161	30090.61
665.511	30089.7
665.862	30112.3
666.212	30096.93
666.562	30197.95
666.912	30136.93
667.262	30094
667.612	30081.57
667.962	30102.58
668.312	29959.31
668.662	30222.13
669.011	30152.07
669.361	30132.64
669.711	30121.11
670.06	30061.68
670.41	30022.81
670.76	29897.39
671.109	30105.07
671.459	29956.83
671.808	29903.95
672.157	30100.32
672.507	29865.53
672.856	29971.97
673.205	29985.07
673.554	30022.36
673.904	29912.08
674.253	30013.1
674.602	29823.72
674.951	29578.3
675.3	29505.09
675.649	29781.91
675.998	29850.61
676.346	29918.86
676.695	29997.73
677.044	29739.2
677.393	29765.42
677.741	29900.78
678.09	29770.62
678.438	29647.68
678.787	29822.59
679.135	29724.97
679.484	29645.65
679.832	29700.79
680.181	29577.17
680.529	29640.68
680.877	29536.95
681.225	29514.8
681.573	29647
681.922	29492.66
682.27	29555.25
682.618	29472.54
682.966	29302.38
683.314	29412.43
683.661	29299.44
684.009	29197.75
684.357	29071.2
684.705	29011.99
685.053	29017.87
685.4	29066.68
685.748	28865.55
686.095	28967.25
686.443	28670.98
686.79	28794.82
687.138	28937.42
687.485	28781.04
687.832	28623.98
688.18	28695.39
688.527	28645.9
688.874	28639.35
689.221	28537.2
689.568	28447.26
689.915	28293.37
690.262	28402.97
690.609	28301.73
690.956	28231.22
691.303	28182.41
691.65	27988.29
691.997	28096.08
692.344	27946.93
692.69	28002.98
693.037	27833.94
693.383	27686.15
693.73	27755.75
694.077	27718.01
694.423	27729.31
694.769	27567.28
695.116	27517.79
695.462	27456.1
695.808	27307.18
696.155	27428.08
696.501	27083.23
696.847	27248.65
697.193	27107.41
697.539	27096.56
697.885	26884.36
698.231	26859.51
698.577	26837.59
698.923	26911.48
699.269	26654.09
699.614	26541.32
699.96	26514.2
700.306	26525.73
700.651	26489.8
700.997	26352.4
701.342	26384.94
701.688	26352.63
702.033	26149.69
702.379	26262.91
702.724	26096.14
703.069	26146.53
703.415	25774.11
703.76	25835.58
704.105	25876.03
704.45	25743.38
704.795	25616.83
705.14	25563.49
705.485	25554.68
705.83	25468.58
706.175	25607.56
706.52	25471.07
706.865	25381.35
707.209	25378.64
707.554	25306.55
707.899	25329.6
708.243	25076.95
708.588	25034.92
708.932	25023.85
709.277	24997.18
709.621	25016.16
709.966	24826.56
710.31	24767.13
710.654	24678.77
710.998	24666.34
711.342	24737.3
711.687	24611.66
712.031	24583.86
712.375	24472.22
712.719	24482.84
713.063	24505.44
713.407	24429.74
713.75	24384.32
714.094	24376.41
714.438	24324.43
714.782	24245.11
715.125	24177.99
715.469	24283.98
715.812	24042.63
716.156	24084.44
716.499	24011.9
716.843	23959.47
717.186	23900.26
717.53	24018.68
717.873	23865.23
718.216	23794.05
718.559	23817.55
718.902	23646.93
719.246	23670.21
719.589	23620.49
719.932	23487.16
720.275	23472.48
720.617	23505.7
720.96	23464.79
721.303	23553.83
721.646	23475.41
721.989	23362.2
722.331	23415.98
722.674	23406.94
723.016	23343.89
723.359	23363.55
723.701	23373.04
724.044	23138.02
724.386	23059.83
724.729	23232.26
725.071	23130.79
725.413	23039.27
725.755	23018.25
726.097	23006.5
726.439	22947.74
726.782	22931.47
727.124	23034.97
727.465	22901.87
727.807	22815.09
728.149	22899.38
728.491	22721.08
728.833	22714.98
729.175	22698.26
729.516	22578.04
729.858	22580.75
730.199	22698.49
730.541	22542.56
730.882	22577.13
731.224	22605.61
731.565	22458.49
731.906	22484.48
732.248	22481.99
732.589	22294.65
732.93	22346.86
733.271	22432.73
733.612	22347.99
733.953	22371.71
734.294	22281.09
734.635	22163.58
734.976	22290.36
735.317	22124.04
735.658	22154.54
735.999	22178.5
736.339	22160.19
736.68	22169.91
737.021	22046.3
737.361	22025.28
737.702	22092.85
738.042	21922.46
738.383	21947.09
738.723	21899.86
739.063	21902.35
739.404	21974.66
739.744	21879.98
740.084	21766.53
740.424	21790.49
740.764	21849.92
741.104	21797.04
741.444	21717.49
741.784	21663.48
742.124	21663.71
742.464	21668.23
742.804	21633.2
743.143	21599.98
743.483	21663.48
743.823	21529.48
744.162	21526.31
744.502	21521.57
744.841	21325.41
745.181	21534.22
745.52	21463.94
745.86	21521.79
746.199	21346.43
746.538	21369.71
746.877	21426.88
747.216	21248.81
747.556	21301.91
747.895	21338.97
748.234	21230.95
748.573	21259.43
748.911	21180.33
749.25	21140.11
749.589	21062.6
749.928	21175.59
750.267	21030.96
750.605	21006.55
750.944	20873.45
751.283	21057.85
751.621	21027.34
751.96	20934.24
752.298	20899.21
752.636	20890.62
752.975	20678.65
753.313	20672.32
753.651	20835.48
753.989	20586.9
754.327	20607.92
754.666	20525.66
755.004	20576.73
755.342	20476.62
755.679	20411.99
756.017	20335.38
756.355	20427.13
756.693	20303.29
757.031	20393.91
757.368	20239.79
757.706	20246.57
758.044	20189.85
758.381	20104.2
758.719	19936.07
759.056	20136.97
759.394	20134.48
759.731	20003.19
760.068	19999.8
760.405	19907.15
760.743	19862.63
761.08	19907.82
761.417	19740.14
761.754	19729.52
