Data from red_cardboard_box_FLMS001491_00036.txt Node
Date: Wed Feb 08 11:32:05 GMT 2017
User: dcchb
Spectrometer: FLMS00149
Trigger mode: 0
Integration Time (sec): 2.000000E-2
Scans to average: 10
Electric dark correction enabled: true
Nonlinearity correction enabled: false
Boxcar width: 0
XAxis mode: Wavelengths
Number of Pixels in Spectrum: 2048
>>>>>Begin Spectral Data<<<<<
341.393	6.07
341.776	6.07
342.16	6.07
342.543	-50.2
342.927	-86.35
343.31	-49.07
343.693	-73.92
344.077	-55.62
344.46	-60.37
344.843	-69.18
345.226	-40.71
345.61	-14.27
345.993	-27.15
346.376	-11.78
346.759	2.01
347.142	14.43
347.525	40.87
347.908	53.76
348.291	76.58
348.674	96.47
349.057	117.93
349.44	136.69
349.823	144.15
350.206	162.91
350.588	179.4
350.971	217.14
351.354	236.35
351.737	229.8
352.119	273.64
352.502	266.18
352.884	265.28
353.267	302.11
353.65	276.12
354.032	297.82
354.414	309.57
354.797	310.47
355.179	302.79
355.562	349.79
355.944	321.09
356.326	331.49
356.709	328.78
357.091	334.43
357.473	347.53
357.855	340.3
358.238	354.09
358.62	337.36
359.002	338.72
359.384	331.94
359.766	346.86
360.148	341.88
360.53	345.73
360.912	325.39
361.294	326.97
361.676	334.43
362.057	325.84
362.439	316.8
362.821	313.41
363.203	317.7
363.584	324.93
363.966	333.07
364.348	321.55
364.729	349.57
365.111	318.83
365.493	307.99
365.874	320.19
366.256	308.44
366.637	300.3
367.019	313.41
367.4	301.66
367.781	315.44
368.163	286.97
368.544	304.6
368.925	327.42
369.306	322.45
369.688	310.02
370.069	321.32
370.45	316.8
370.831	301.66
371.212	307.99
371.593	305.95
371.974	296.01
372.355	309.79
372.736	300.75
373.117	305.73
373.498	313.41
373.879	307.76
374.26	295.11
374.641	313.18
375.021	300.53
375.402	325.84
375.783	311.83
376.163	343.24
376.544	328.32
376.925	323.81
377.305	319.74
377.686	317.93
378.066	315.44
378.447	319.74
378.827	320.19
379.208	336.91
379.588	310.25
379.968	318.61
380.349	313.86
380.729	319.06
381.109	331.04
381.489	316.57
381.87	316.8
382.25	329.68
382.63	336.01
383.01	350.92
383.39	336.23
383.77	342.56
384.15	319.51
384.53	332.84
384.91	342.79
385.29	331.94
385.67	326.29
386.049	351.15
386.429	347.76
386.809	338.95
387.189	338.95
387.568	338.72
387.948	338.49
388.328	338.72
388.707	340.3
389.087	346.4
389.466	351.83
389.846	363.35
390.225	373.75
390.605	356.57
390.984	362.45
391.363	345.95
391.743	340.98
392.122	369.91
392.501	347.76
392.881	345.05
393.26	358.61
393.639	368.1
394.018	357.7
394.397	348.21
394.776	344.37
395.155	353.86
395.534	362.45
395.913	359.74
396.292	363.8
396.671	366.29
397.05	372.62
397.429	370.36
397.808	381.88
398.186	360.19
398.565	375.78
398.944	357.7
399.323	360.64
399.701	367.65
400.08	367.19
400.458	353.63
400.837	354.31
401.215	380.98
401.594	343.01
401.972	374.2
402.351	373.3
402.729	376.01
403.107	385.72
403.486	381.2
403.864	376.23
404.242	363.35
404.62	384.59
404.999	359.06
405.377	383.01
405.755	389.79
406.133	392.96
406.511	403.8
406.889	398.61
407.267	397.93
407.645	396.8
408.023	412.62
408.401	404.93
408.779	389.79
409.156	418.72
409.534	396.12
409.912	396.12
410.29	388.66
410.667	399.96
411.045	403.12
411.422	397.48
411.8	416.46
412.178	428.21
412.555	417.36
412.933	432.28
413.31	411.71
413.687	446.74
414.065	422.33
414.442	426.63
414.819	419.4
415.197	444.93
415.574	423.46
415.951	428.21
416.328	435.67
416.705	425.05
417.082	439.96
417.46	441.77
417.837	444.93
418.214	417.14
418.591	431.37
418.967	433.18
419.344	435.89
419.721	450.36
420.098	425.05
420.475	432.73
420.852	432.95
421.228	452.39
421.605	439.06
421.982	460.98
422.358	462.33
422.735	454.2
423.111	460.3
423.488	452.84
423.864	463.69
424.241	467.08
424.617	466.63
424.994	444.48
425.37	456.91
425.746	475.67
426.123	472.73
426.499	497.36
426.875	489
427.251	484.93
427.627	491.03
428.003	500.75
428.379	490.81
428.756	495.78
429.132	486.51
429.507	481.54
429.883	497.13
430.259	502.11
430.635	498.94
431.011	490.58
431.387	531.71
431.763	521.99
432.138	515.21
432.514	519.73
432.89	521.77
433.265	505.04
433.641	528.09
434.016	534.19
434.392	545.27
434.767	540.3
435.143	529
435.518	542.33
435.894	544.59
436.269	548.66
436.644	554.99
437.02	559.28
437.395	557.47
437.77	564.25
438.145	550.01
438.52	589.11
438.895	562.89
439.271	548.88
439.646	573.29
440.021	575.32
440.395	574.19
440.77	591.82
441.145	572.39
441.52	596.34
441.895	609.45
442.27	594.53
442.645	602.44
443.019	612.39
443.394	587.75
443.769	593.63
444.143	591.82
444.518	601.76
444.892	583.91
445.267	603.57
445.641	609.9
446.016	589.11
446.39	626.17
446.764	594.76
447.139	593.85
447.513	619.39
447.887	619.62
448.262	632.95
448.636	608.77
449.01	631.82
449.384	653.74
449.758	625.94
450.132	623.23
450.506	635.89
450.88	642.89
451.254	632.05
451.628	673.85
452.002	677.24
452.376	663.23
452.75	658.03
453.123	658.26
453.497	650.8
453.871	689.67
454.244	683.12
454.618	698.71
454.992	684.02
455.365	705.26
455.739	686.06
456.112	688.32
456.486	711.59
456.859	713.4
457.232	707.3
457.606	700.97
457.979	707.75
458.352	709.11
458.725	727.86
459.099	724.25
459.472	742.78
459.845	738.94
460.218	759.27
460.591	753.4
460.964	740.74
461.337	760.18
461.71	757.24
462.083	784.13
462.456	778.26
462.829	765.6
463.201	788.43
463.574	768.31
463.947	779.16
464.32	816.9
464.692	791.82
465.065	814.64
465.438	811.25
465.81	816
466.183	811.48
466.555	844.7
466.928	831.36
467.3	830.01
467.672	858.03
468.045	866.16
468.417	856.67
468.789	853.51
469.161	870.46
469.534	887.63
469.906	908.2
470.278	879.04
470.65	896.22
471.022	914.98
471.394	908.2
471.766	925.6
472.138	931.92
472.51	948.65
472.882	933.73
473.253	967.86
473.625	983.22
473.997	959.27
474.369	986.16
474.74	983
475.112	1000.62
475.484	1032.26
475.855	1038.81
476.227	1024.58
476.598	1079.72
476.97	1061.19
477.341	1095.31
477.713	1093.5
478.084	1086.95
478.455	1107.74
478.827	1122.2
479.198	1162.88
479.569	1165.82
479.94	1180.51
480.311	1182.54
480.682	1201.07
481.053	1185.03
481.424	1244.01
481.795	1221.86
482.166	1230
482.537	1271.12
482.908	1294.63
483.279	1278.36
483.65	1279.03
484.021	1333.04
484.391	1325.13
484.762	1373.49
485.133	1354.29
485.503	1363.33
485.874	1394.06
486.244	1396.09
486.615	1433.38
486.985	1467.73
487.356	1487.84
487.726	1477.22
488.097	1467.5
488.467	1477.67
488.837	1570.1
489.207	1536.65
489.578	1571.91
489.948	1593.6
490.318	1583.88
490.688	1613.04
491.058	1626.14
491.428	1617.1
491.798	1646.71
492.168	1674.5
492.538	1685.58
492.908	1687.16
493.278	1701.17
493.648	1710.89
494.017	1752.02
494.387	1762.41
494.757	1785.24
495.126	1794.27
495.496	1787.04
495.866	1811
496.235	1834.73
496.605	1831.11
496.974	1835.18
497.344	1879.7
497.713	1865.91
498.082	1887.83
498.452	1889.41
498.821	1958.34
499.19	1929.86
499.559	1935.51
499.928	1924.21
500.298	1956.53
500.667	1976.19
501.036	1966.25
501.405	1983.2
501.774	1977.32
502.143	2040.82
502.512	2004.66
502.88	2010.09
503.249	2034.49
503.618	2078.34
503.987	2068.17
504.356	2073.82
504.724	2119.01
505.093	2113.14
505.462	2147.03
505.83	2124.21
506.199	2133.02
506.567	2193.59
506.936	2141.61
507.304	2206.47
507.672	2180.71
508.041	2189.97
508.409	2219.12
508.777	2285.56
509.145	2270.65
509.514	2252.12
509.882	2289.4
510.25	2279.23
510.618	2320.14
510.986	2305.67
511.354	2319.91
511.722	2346.58
512.09	2354.94
512.458	2367.37
512.826	2400.36
513.193	2384.32
513.561	2406.69
513.929	2425.44
514.297	2466.35
514.664	2467.7
515.032	2478.32
515.4	2512.22
515.767	2475.16
516.135	2524.2
516.502	2535.95
516.869	2524.65
517.237	2544.31
517.604	2573.46
517.972	2610.3
518.339	2591.09
518.706	2576.4
519.073	2652.11
519.44	2643.97
519.808	2674.03
520.175	2707.7
520.542	2714.02
520.909	2741.59
521.276	2725.78
521.643	2772.33
522.009	2770.75
522.376	2760.35
522.743	2823.4
523.11	2842.38
523.477	2857.98
523.843	2851.65
524.21	2908.14
524.577	2953.34
524.943	2948.82
525.31	2959.67
525.676	2993.34
526.043	3022.49
526.409	3055.48
526.776	3052.32
527.142	3058.2
527.508	3085.54
527.874	3092.77
528.241	3114.47
528.607	3138.87
528.973	3163.5
529.339	3180.91
529.705	3206.67
530.071	3241.24
530.437	3256.16
530.803	3283.95
531.169	3302.71
531.535	3319.66
531.901	3296.83
532.267	3304.07
532.632	3382.48
532.998	3375.25
533.364	3397.4
533.73	3369.15
534.095	3443.95
534.461	3423.16
534.826	3430.16
535.192	3505.87
535.557	3483.95
535.923	3505.64
536.288	3517.85
536.653	3534.79
537.019	3555.36
537.384	3556.49
537.749	3598.97
538.114	3607.11
538.479	3608.24
538.845	3637.84
539.21	3626.09
539.575	3678.29
539.94	3642.59
540.305	3723.26
540.67	3706.09
541.034	3701.8
541.399	3756.48
541.764	3791.28
542.129	3761.23
542.494	3766.65
542.858	3772.98
543.223	3852.07
543.587	3812.98
543.952	3845.29
544.316	3916.93
544.681	3882.13
545.045	3850.72
545.41	3930.94
545.774	3921.68
546.138	3942.24
546.503	3961.68
546.867	3960.09
547.231	4007.55
547.595	4053.2
547.959	4030.37
548.324	4023.37
548.688	4092.75
549.052	4059.53
549.416	4149.69
549.779	4134.78
550.143	4156.02
550.507	4145.17
550.871	4191.27
551.235	4232.18
551.599	4243.7
551.962	4238.05
552.326	4267.66
552.689	4293.64
553.053	4266.53
553.417	4325.73
553.78	4358.05
554.143	4410.03
554.507	4388.56
554.87	4418.39
555.234	4481.44
555.597	4484.15
555.96	4552.39
556.323	4535.9
556.686	4541.55
557.05	4586.74
557.413	4616.57
557.776	4663.8
558.139	4691.6
558.502	4703.58
558.865	4731.6
559.228	4797.36
559.59	4787.64
559.953	4810.01
560.316	4893.18
560.679	4894.53
561.041	4897.47
561.404	4936.57
561.767	5040.07
562.129	5055.43
562.492	5096.33
562.854	5093.4
563.217	5137.46
563.579	5215.88
563.941	5214.52
564.304	5313.05
564.666	5310.11
565.028	5356.67
565.39	5436.89
565.753	5450.9
566.115	5476.44
566.477	5529.54
566.839	5584.91
567.201	5627.39
567.563	5662.65
567.925	5747.84
568.287	5715.98
568.648	5786.71
569.01	5828.29
569.372	5885.92
569.734	5957.33
570.095	5989.64
570.457	6010.44
570.819	6101.96
571.18	6131.56
571.542	6227.38
571.903	6238.9
572.265	6345.79
572.626	6375.17
572.987	6401.84
573.349	6492
573.71	6545.11
574.071	6586.47
574.432	6705.33
574.794	6765.67
575.155	6777.65
575.516	6859.23
575.877	6926.12
576.238	6995.95
576.599	7020.13
576.96	7120.69
577.32	7210.63
577.681	7316.62
578.042	7310.97
578.403	7374.92
578.763	7514.8
579.124	7625.08
579.485	7694.23
579.845	7830.27
580.206	7939.65
580.566	7896.71
580.927	8078.18
581.287	8168.57
581.648	8251.51
582.008	8359.75
582.368	8410.6
582.728	8643.36
583.089	8709.35
583.449	8773.3
583.809	8938.04
584.169	9102.56
584.529	9069.56
584.889	9354.53
585.249	9471.81
585.609	9511.59
585.969	9729.43
586.329	9819.6
586.688	10018.92
587.048	10142.98
587.408	10256.2
587.768	10451.67
588.127	10670.88
588.487	10789.29
588.846	10962.17
589.206	11191.32
589.565	11340.24
589.925	11618.2
590.284	11844.41
590.643	12033.55
591.003	12213.66
591.362	12481.23
591.721	12632.86
592.08	12813.19
592.44	13117.59
592.799	13291.6
593.158	13529.56
593.517	13851.36
593.876	14012.94
594.235	14238.92
594.593	14554.84
594.952	14810.43
595.311	15009.75
595.67	15300.59
596.029	15678.2
596.387	15961.36
596.746	16216.72
597.104	16407.9
597.463	16688.35
597.822	17070.03
598.18	17228.45
598.538	17480.19
598.897	18058.93
599.255	18072.26
599.613	18539.6
599.972	18735.07
600.33	19111.79
600.688	19319.01
601.046	19690.3
601.404	19996.96
601.762	20199.67
602.12	20666.32
602.478	20853.89
602.836	21150.38
603.194	21456.81
603.552	21607.54
603.91	21979.05
604.268	22302.44
604.625	22593.28
604.983	22956.43
605.341	23063.09
605.698	23403.2
606.056	23771.32
606.413	23989.85
606.771	24385.32
607.128	24639.78
607.485	24789.38
607.843	25005.87
608.2	25342.58
608.557	25726.07
608.914	25924.49
609.272	26203.8
609.629	26379.62
609.986	26696.44
610.343	26862.54
610.7	27109.99
611.057	27390.44
611.414	27501.85
611.771	27842.63
612.127	28089.18
612.484	28198.55
612.841	28564.87
613.198	28545.21
613.554	28779.33
613.911	29023.39
614.267	29085.99
614.624	29405.75
614.98	29606.2
615.337	29749.7
615.693	29892.97
616.05	30029.46
616.406	30343.35
616.762	30432.39
617.118	30579.28
617.475	30765.26
617.831	30970.91
618.187	31164.58
618.543	31304.01
618.899	31587.62
619.255	31641.85
619.611	31664.68
619.967	31877.1
620.323	32117.32
620.678	32173.14
621.034	32196.64
621.39	32242.29
621.746	32263.76
622.101	32847.7
622.457	32495.39
622.812	32746.91
623.168	32960.24
623.523	33001.14
623.879	33235.93
624.234	33075.94
624.589	33374.69
624.945	33276.16
625.3	33582.59
625.655	33640.9
626.01	33579.2
626.365	33837.73
626.72	33687
627.075	33894.67
627.43	33933.09
627.785	33861
628.14	34094.89
628.495	34145.51
628.85	34192.52
629.205	34080.21
629.559	34385.28
629.914	34355.45
630.269	34396.81
630.623	34377.82
630.978	34244.5
631.332	34524.26
631.687	34659.4
632.041	34493.98
632.396	34592.73
632.75	34448.78
633.104	34606.07
633.459	34489.46
633.813	34611.27
634.167	34539.85
634.521	34558.61
634.875	34769.68
635.229	34661.21
635.583	34490.36
635.937	34627.31
636.291	34615.11
636.645	34713.41
636.999	34625.28
637.352	34706.63
637.706	34471.61
638.06	34796.12
638.413	34606.29
638.767	34674.54
639.121	34730.81
639.474	34504.83
639.828	34583.02
640.181	34859.85
640.534	34804.48
640.888	34559.06
641.241	34579.18
641.594	34666.86
641.947	34774.42
642.301	34644.03
642.654	34763.13
643.007	34660.98
643.36	34703.69
643.713	34589.8
644.066	34778.27
644.419	34614.43
644.771	34390.25
645.124	34050.83
645.477	34055.57
645.83	33915.92
646.182	33887.44
646.535	33787.56
646.888	33844.73
647.24	33629.14
647.593	34030.04
647.945	33913.88
648.298	33636.15
648.65	33652.87
649.002	33623.95
649.355	33851.96
649.707	33795.47
650.059	33894.45
650.411	34125.18
650.763	34448.33
651.115	34775.55
651.467	34482.91
651.819	34682.22
652.171	34506.86
652.523	34560.19
652.875	34450.82
653.227	34387.99
653.578	34674.09
653.93	34630.7
654.282	34397.71
654.633	34369.01
654.985	34496.92
655.337	34482.45
655.688	34365.62
656.039	34592.28
656.391	34215.8
656.742	34284.49
657.094	34474.77
657.445	34459.4
657.796	34358.16
658.147	34416.02
658.498	34432.29
658.849	34488.78
659.2	34312.97
659.551	34212.63
659.902	34490.14
660.253	34423.02
660.604	34391.84
660.955	34232.29
661.306	34408.11
661.656	34405.85
662.007	34352.74
662.358	34467.77
662.708	34311.84
663.059	34463.47
663.409	34169.24
663.76	34488.1
664.11	34509.35
664.461	34566.97
664.811	34442.46
665.161	34338.5
665.511	34326.3
665.862	34463.25
666.212	34562.68
666.562	34496.69
666.912	34474.09
667.262	34337.15
667.612	34418.05
667.962	34447.65
668.312	34444.49
668.662	34627.08
669.011	34376.02
669.361	34460.08
669.711	34501.89
670.06	34440.2
670.41	34179.86
670.76	34256.7
671.109	34303.48
671.459	34343.02
671.808	34302.57
672.157	34262.57
672.507	34091.28
672.856	34100.32
673.205	34324.27
673.554	34237.26
673.904	34144.61
674.253	34274.78
674.602	34124.72
674.951	33757.73
675.3	33615.36
675.649	34169.69
675.998	34029.59
676.346	34046.31
676.695	34192.29
677.044	33973.99
677.393	33957.04
677.741	34079.53
678.09	33904.62
678.438	33797.73
678.787	33948.68
679.135	33889.7
679.484	33710.5
679.832	33894.9
680.181	33694.45
680.529	33807.22
680.877	33765.19
681.225	33642.48
681.573	33837.73
681.922	33765.64
682.27	33527.23
682.618	33612.65
682.966	33339.66
683.314	33543.27
683.661	33432.99
684.009	33343.05
684.357	33235.26
684.705	33073.45
685.053	33140.57
685.4	33111.64
685.748	33021.25
686.095	33090.85
686.443	32892.44
686.79	32919.78
687.138	32833.91
687.485	32840.24
687.832	32739
688.18	32829.39
688.527	32558.21
688.874	32593.47
689.221	32547.59
689.568	32413.13
689.915	32409.97
690.262	32255.39
690.609	32135.4
690.956	32138.56
691.303	32031.9
691.65	31776.54
691.997	31917.1
692.344	31751.68
692.69	31872.58
693.037	31648.63
693.383	31651.34
693.73	31580.16
694.077	31529.54
694.423	31421.74
694.769	31396.43
695.116	31213.84
695.462	31304.01
695.808	31138.14
696.155	31161.19
696.501	31081.64
696.847	31041.19
697.193	30837.13
697.539	30883.68
697.885	30746.51
698.231	30647.08
698.577	30666.06
698.923	30587.87
699.269	30386.07
699.614	30244.6
699.96	30379.74
700.306	30219.52
700.651	30136.58
700.997	30058.84
701.342	29960.31
701.688	29935.68
702.033	29863.14
702.379	29797.38
702.724	29719.19
703.069	29753.09
703.415	29431.29
703.76	29598.06
704.105	29496.6
704.45	29383.83
704.795	29315.81
705.14	29252.08
705.485	29250.28
705.83	29167.79
706.175	29197.17
706.52	28983.62
706.865	28807.58
707.209	28901.13
707.554	28834.24
707.899	28882.15
708.243	28759.44
708.588	28694.81
708.932	28541.82
709.277	28462.27
709.621	28584.53
709.966	28126.46
710.31	28203.52
710.654	28135.96
710.998	28177.31
711.342	28117.65
711.687	28126.92
712.031	27905.68
712.375	27804.66
712.719	28037.65
713.063	27898.67
713.407	27926.24
713.75	27866.13
714.094	27706.36
714.438	27660.26
714.782	27714.95
715.125	27559.25
715.469	27549.53
715.812	27522.64
716.156	27288.97
716.499	27244.45
716.843	27255.07
717.186	27137.34
717.53	27305.47
717.873	27231.12
718.216	27142.99
718.559	26997.45
718.902	26871.58
719.246	26941.64
719.589	26862.54
719.932	26889.43
720.275	26827.51
720.617	26824.8
720.96	26688.54
721.303	26763.34
721.646	26778.7
721.989	26668.88
722.331	26629.55
722.674	26637.24
723.016	26591.81
723.359	26516.56
723.701	26461.65
724.044	26306.17
724.386	26317.47
724.729	26333.97
725.071	26347.75
725.413	26236.57
725.755	26178.04
726.097	26088.1
726.439	25966.97
726.782	26051.94
727.124	26151.37
727.465	25990.02
727.807	25988.67
728.149	25865.73
728.491	25856.69
728.833	25907.09
729.175	25743.02
729.516	25646.53
729.858	25725.85
730.199	25817.15
730.541	25733.76
730.882	25643.59
731.224	25795.23
731.565	25516.59
731.906	25473.88
732.248	25583.25
732.589	25391.39
732.93	25388.68
733.271	25427.1
733.612	25364.5
733.953	25430.94
734.294	25305.52
734.635	25243.15
734.976	25301
735.317	25186.2
735.658	25180.78
735.999	25213.32
736.339	25264.17
736.68	25195.47
737.021	25127.9
737.361	24955.25
737.702	25106.2
738.042	24947.56
738.383	24937.62
738.723	25003.38
739.063	24931.52
739.404	24773.33
739.744	24829.6
740.084	24752.32
740.424	24723.62
740.764	24635.48
741.104	24785.08
741.444	24580.34
741.784	24576.95
742.124	24540.12
742.464	24600.23
742.804	24522.72
743.143	24511.87
743.483	24511.42
743.823	24357.52
744.162	24375.6
744.502	24425.54
744.841	24316.39
745.181	24451.98
745.52	24238.43
745.86	24407.47
746.199	24151.43
746.538	24216.51
746.877	24247.24
747.216	24236.85
747.556	24218.77
747.895	24143.52
748.234	24078.21
748.573	23915.5
748.911	23986.23
749.25	23953.47
749.589	23865.11
749.928	23894.48
750.267	24042.28
750.605	23879.34
750.944	23765.9
751.283	23798.89
751.621	23836.86
751.96	23685.22
752.298	23590.31
752.636	23596.19
752.975	23405.46
753.313	23415.63
753.651	23527.49
753.989	23454.5
754.327	23421.05
754.666	23356.19
755.004	23334.05
755.342	23290.43
755.679	23283.43
756.017	23074.17
756.355	23300.15
756.693	22964.34
757.031	23087.95
757.368	23042.98
757.706	23000.27
758.044	22830.78
758.381	22819.94
758.719	22804.57
759.056	22741.07
759.394	22738.13
759.731	22584.91
760.068	22571.36
760.405	22500.62
760.743	22487.29
761.08	22430.57
761.417	22424.92
761.754	22271.48
762.091	22280.97
