Data from red_cardboard_box_FLMS001491_00055.txt Node
Date: Wed Feb 08 11:32:46 GMT 2017
User: dcchb
Spectrometer: FLMS00149
Trigger mode: 0
Integration Time (sec): 2.000000E-2
Scans to average: 10
Electric dark correction enabled: true
Nonlinearity correction enabled: false
Boxcar width: 0
XAxis mode: Wavelengths
Number of Pixels in Spectrum: 2048
>>>>>Begin Spectral Data<<<<<
341.393	-18.32
341.776	-18.32
342.16	-18.32
342.543	-53.57
342.927	-76.4
343.31	-77.98
343.693	-64.65
344.077	-63.06
344.46	-59
344.843	-47.92
345.226	-23.06
345.61	-35.27
345.993	-14.25
346.376	-3.86
346.759	2.25
347.142	47.44
347.525	37.05
347.908	49.7
348.291	55.35
348.674	90.15
349.057	107.1
349.44	128.8
349.823	143.03
350.206	167.89
350.588	191.17
350.971	209.92
351.354	218.74
351.737	250.15
352.119	257.15
352.502	257.61
352.884	274.55
353.267	286.31
353.65	308.68
354.032	303.71
354.414	314.55
354.797	315.46
355.179	329.69
355.562	338.06
355.944	356.59
356.326	328.34
356.709	327.66
357.091	338.06
357.473	352.29
357.855	366.53
358.238	348.23
358.62	340.77
359.002	330.15
359.384	331.5
359.766	333.99
360.148	356.13
360.53	324.95
360.912	312.97
361.294	356.36
361.676	340.77
362.057	348.68
362.439	336.25
362.821	336.25
363.203	325.63
363.584	323.59
363.966	334.67
364.348	331.5
364.729	313.42
365.111	317.94
365.493	320.66
365.874	324.27
366.256	308
366.637	322.69
367.019	321.79
367.4	309.58
367.781	322.92
368.163	316.59
368.544	318.17
368.925	310.94
369.306	326.76
369.688	305.51
370.069	303.93
370.45	305.29
370.831	318.17
371.212	308.9
371.593	296.7
371.974	315.23
372.355	317.27
372.736	306.19
373.117	326.76
373.498	310.26
373.879	313.88
374.26	323.82
374.641	332.86
375.021	332.18
375.402	306.87
375.783	324.05
376.163	334.89
376.544	342.58
376.925	338.28
377.305	338.51
377.686	326.76
378.066	322.01
378.447	334.89
378.827	333.99
379.208	344.61
379.588	325.63
379.968	338.73
380.349	340.32
380.729	335.8
381.109	337.83
381.489	338.06
381.87	350.71
382.25	373.54
382.63	345.29
383.01	336.93
383.39	327.21
383.77	354.78
384.15	351.16
384.53	334.67
384.91	323.37
385.29	346.64
385.67	345.97
386.049	352.29
386.429	352.29
386.809	346.42
387.189	353.65
387.568	344.61
387.948	363.37
388.328	356.13
388.707	361.56
389.087	340.77
389.466	360.88
389.846	351.39
390.225	347.32
390.605	356.36
390.984	362.24
391.363	371.05
391.743	363.82
392.122	362.24
392.501	344.38
392.881	359.75
393.26	358.39
393.639	372.18
394.018	359.98
394.397	365.4
394.776	360.2
395.155	373.54
395.534	369.92
395.913	374.44
396.292	390.03
396.671	380.54
397.05	370.15
397.429	391.16
397.808	369.69
398.186	394.55
398.565	385.96
398.944	387.55
399.323	371.73
399.701	396.81
400.08	399.52
400.458	397.94
400.837	404.72
401.215	365.4
401.594	384.61
401.972	378.28
402.351	373.76
402.729	389.13
403.107	402.69
403.486	364.95
403.864	396.13
404.242	397.26
404.62	408.11
404.999	396.36
405.377	387.32
405.755	413.08
406.133	413.31
406.511	423.7
406.889	390.94
407.267	411.73
407.645	411.73
408.023	429.58
408.401	421.67
408.779	416.92
409.156	411.73
409.534	428
409.912	417.6
410.29	417.6
410.667	444.27
411.045	422.35
411.422	428.68
411.8	456.02
412.178	431.61
412.555	433.65
412.933	430.26
413.31	436.13
413.687	451.27
414.065	441.78
414.442	456.92
414.819	460.54
415.197	476.13
415.574	452.4
415.951	465.51
416.328	453.76
416.705	463.02
417.082	471.84
417.46	467.32
417.837	461.67
418.214	457.37
418.591	484.72
418.967	456.7
419.344	468.22
419.721	459.18
420.098	469.8
420.475	475.45
420.852	491.5
421.228	487.43
421.605	471.61
421.982	496.02
422.358	488.56
422.735	502.35
423.111	488.11
423.488	500.54
423.864	505.96
424.241	504.15
424.617	513.42
424.994	504.83
425.37	513.19
425.746	515.9
426.123	503.7
426.499	521.78
426.875	521.55
427.251	503.7
427.627	541.67
428.003	526.98
428.379	545.28
428.756	506.41
429.132	545.06
429.507	528.11
429.883	532.4
430.259	567.43
430.635	532.4
431.011	555.68
431.387	548.67
431.763	570.37
432.138	561.1
432.514	548.22
432.89	562.23
433.265	582.57
433.641	585.06
434.016	584.83
434.392	572.63
434.767	591.38
435.143	576.69
435.518	604.49
435.894	591.38
436.269	590.48
436.644	616.69
437.02	607.65
437.395	624.38
437.77	626.18
438.145	618.27
438.52	601.55
438.895	610.14
439.271	628.67
439.646	633.19
440.021	645.62
440.395	660.53
440.77	642.91
441.145	653.3
441.52	659.4
441.895	658.05
442.27	635.22
442.645	644.71
443.019	649.23
443.394	657.37
443.769	679.29
444.143	663.7
444.518	668.89
444.892	673.64
445.267	666.41
445.641	667.31
446.016	667.31
446.39	675.22
446.764	681.55
447.139	668.44
447.513	698.95
447.887	674.09
448.262	696.46
448.636	679.29
449.01	699.63
449.384	709.8
449.758	700.08
450.132	719.97
450.506	713.41
450.88	719.97
451.254	702.34
451.628	724.71
452.002	744.37
452.376	736.01
452.75	734.88
453.123	737.59
453.497	746.86
453.871	743.02
454.244	770.81
454.618	746.63
454.992	781.89
455.365	768.78
455.739	786.86
456.112	790.93
456.486	775.78
456.859	777.82
457.232	793.19
457.606	779.63
457.979	829.12
458.352	830.02
458.725	811.04
459.099	833.64
459.472	831.38
459.845	829.12
460.218	840.87
460.591	860.98
460.964	860.98
461.337	874.31
461.71	855.33
462.083	867.99
462.456	863.69
462.829	858.72
463.201	882.9
463.574	865.95
463.947	894.2
464.32	897.82
464.692	933.29
465.065	898.72
465.438	924.93
465.81	932.39
466.183	919.74
466.555	929.68
466.928	964.03
467.3	979.17
467.672	987.76
468.045	980.07
468.417	966.06
468.789	981.2
469.161	1011.48
469.534	1033.86
469.906	1021.43
470.278	1019.62
470.65	1028.66
471.022	1060.75
471.394	1046.51
471.766	1084.93
472.138	1085.16
472.51	1078.6
472.882	1137.36
473.253	1105.27
473.625	1150.92
473.997	1154.08
474.369	1123.12
474.74	1155.21
475.112	1172.16
475.484	1193.17
475.855	1206.28
476.227	1231.14
476.598	1232.72
476.97	1234.76
477.341	1270.01
477.713	1269.33
478.084	1283.34
478.455	1311.36
478.827	1317.47
479.198	1321.76
479.569	1329.22
479.94	1338.26
480.311	1369.22
480.682	1418.03
481.053	1432.49
481.424	1437.69
481.795	1484.01
482.166	1494.86
482.537	1478.82
482.908	1526.73
483.279	1541.41
483.65	1517.01
484.021	1580.28
484.391	1596.78
484.762	1586.38
485.133	1609.66
485.503	1610.56
485.874	1658.93
486.244	1675.87
486.615	1707.06
486.985	1721.07
487.356	1712.26
487.726	1765.82
488.097	1779.15
488.467	1805.36
488.837	1813.27
489.207	1820.5
489.578	1890.56
489.948	1854.63
490.318	1899.82
490.688	1911.57
491.058	1918.58
491.428	1950.9
491.798	2000.39
492.168	2015.75
492.538	2024.34
492.908	2051.46
493.278	2064.79
493.648	2069.99
494.017	2076.32
494.387	2088.52
494.757	2112.02
495.126	2158.12
495.496	2144.11
495.866	2159.7
496.235	2169.87
496.605	2199.93
496.974	2219.81
497.344	2255.75
497.713	2235.41
498.082	2250.32
498.452	2253.03
498.821	2301.39
499.19	2308.63
499.559	2335.07
499.928	2333.48
500.298	2357.66
500.667	2373.71
501.036	2365.35
501.405	2371
501.774	2380.26
502.143	2420.49
502.512	2461.84
502.88	2459.81
503.249	2447.61
503.618	2471.11
503.987	2512.91
504.356	2497.77
504.724	2539.58
505.093	2576.42
505.462	2575.96
505.83	2585.68
506.199	2629.07
506.567	2650.54
506.936	2640.59
507.304	2658.22
507.672	2650.31
508.041	2662.29
508.409	2688.73
508.777	2716.75
509.145	2744.32
509.514	2755.17
509.882	2760.59
510.25	2740.03
510.618	2819.57
510.986	2806.01
511.354	2847.59
511.722	2903.41
512.09	2904.77
512.458	2904.99
512.826	2925.56
513.193	2923.3
513.561	2900.93
513.929	2959.68
514.297	2996.07
514.664	3028.38
515.032	3019.57
515.4	3068.83
515.767	3089.62
516.135	3085.33
516.502	3064.76
516.869	3099.79
517.237	3161.48
517.604	3168.04
517.972	3220.01
518.339	3199.45
518.706	3250.52
519.073	3231.09
519.44	3287.36
519.808	3305.66
520.175	3300.24
520.542	3377.75
520.909	3371.42
521.276	3375.04
521.643	3429.73
522.009	3454.81
522.376	3474.02
522.743	3530.97
523.11	3544.3
523.477	3562.15
523.843	3553.34
524.21	3632.88
524.577	3643.96
524.943	3668.59
525.31	3690.28
525.676	3714.24
526.043	3769.15
526.409	3756.95
526.776	3811.86
527.142	3762.15
527.508	3838.53
527.874	3910.62
528.241	3928.24
528.607	3895.7
528.973	3957.4
529.339	3982.71
529.705	3977.51
530.071	4051.4
530.437	4054.79
530.803	4065.64
531.169	4082.82
531.535	4109.93
531.901	4116.49
532.267	4124.85
532.632	4182.25
532.998	4228.8
533.364	4246.43
533.73	4253.89
534.095	4286.88
534.461	4319.87
534.826	4306.09
535.192	4340.21
535.557	4381.34
535.923	4389.93
536.288	4426.08
536.653	4453.65
537.019	4403.03
537.384	4438.74
537.749	4466.08
538.114	4538.4
538.479	4542.24
538.845	4536.14
539.21	4572.52
539.575	4557.83
539.94	4600.99
540.305	4621.56
540.67	4635.57
541.034	4690.48
541.399	4675.34
541.764	4720.77
542.129	4751.05
542.494	4777.71
542.858	4751.95
543.223	4817.26
543.587	4791.05
543.952	4821.1
544.316	4872.85
544.681	4875.56
545.045	4900.87
545.41	4966.86
545.774	4974.77
546.138	4959.86
546.503	5004.83
546.867	5070.36
547.231	5075.56
547.595	5066.97
547.959	5085.95
548.324	5133.86
548.688	5142.68
549.052	5151.71
549.416	5186.52
549.779	5207.98
550.143	5263.8
550.507	5290.24
550.871	5306.74
551.235	5365.72
551.599	5356.23
551.962	5426.06
552.326	5440.97
552.689	5441.42
553.053	5448.88
553.417	5512.38
553.78	5572.72
554.143	5542.44
554.507	5616.34
554.87	5642.78
555.234	5736.11
555.597	5683.45
555.96	5799.16
556.323	5778.14
556.686	5783.79
557.05	5908.08
557.413	5885.48
557.776	5996.21
558.139	5986.95
558.502	5989.43
558.865	6064.01
559.228	6109.66
559.59	6169.09
559.953	6169.09
560.316	6300.84
560.679	6327.05
561.041	6338.8
561.404	6443.88
561.767	6483.88
562.129	6457.44
562.492	6607.5
562.854	6571.79
563.217	6618.12
563.579	6692.69
563.941	6781.95
564.304	6799.13
564.666	6896.3
565.028	6937.43
565.39	6980.59
565.753	7009.29
566.115	7158.22
566.477	7153.47
566.839	7189.63
567.201	7376.06
567.563	7334.48
567.925	7427.59
568.287	7501.48
568.648	7509.39
569.01	7632.78
569.372	7745.32
569.734	7769.95
570.095	7875.49
570.457	7899.21
570.819	7998.87
571.18	8083.39
571.542	8130.39
571.903	8232.76
572.265	8317.96
572.626	8345.53
572.987	8427.56
573.349	8574.22
573.71	8652.19
574.071	8704.84
574.432	8735.58
574.794	8912.97
575.155	9001.56
575.516	9051.5
575.877	9157.26
576.238	9186.64
576.599	9353.19
576.96	9423.24
577.32	9571.26
577.681	9613.74
578.042	9761.76
578.403	9899.84
578.763	9957.24
579.124	10067.74
579.485	10242.43
579.845	10383.44
580.206	10398.58
580.566	10501.63
580.927	10659.37
581.287	10839.25
581.648	10984.56
582.008	11166.7
582.368	11261.38
582.728	11464.32
583.089	11610.08
583.449	11727.81
583.809	11923.74
584.169	12095.49
584.529	12222.49
584.889	12479.66
585.249	12673.78
585.609	12818.18
585.969	13115.8
586.329	13242.35
586.688	13531.16
587.048	13667.2
587.408	13859.73
587.768	14239.84
588.127	14375.88
588.487	14569.09
588.846	14907.62
589.206	15009.99
589.565	15378.11
589.925	15722.51
590.284	15989.85
590.643	16195.27
591.003	16565.2
591.362	16898.75
591.721	17194.11
592.08	17448.34
592.44	17900.98
592.799	18188.66
593.158	18498.03
593.517	18783.45
593.876	19091.91
594.235	19602.41
594.593	19814.15
594.952	20253.69
595.311	20559.22
595.67	20960.11
596.029	21431.96
596.387	21867.43
596.746	22191.04
597.104	22521.2
597.463	22807.3
597.822	23410.67
598.18	23687.27
598.538	24125.23
598.897	24592.33
599.255	24781.48
599.613	25468.92
599.972	25774.45
600.33	26225.74
600.688	26424.6
601.046	26931.71
601.404	27425.71
601.762	27879.93
602.12	28280.82
602.478	28681.27
602.836	29058.66
603.194	29233.34
603.552	29796.72
603.91	30037.84
604.268	30622.46
604.625	30932.05
604.983	31465.15
605.341	31785.36
605.698	32164.11
606.056	32677.32
606.413	32961.61
606.771	33471.65
607.128	33687.46
607.485	33873.22
607.843	34334.9
608.2	34768.79
608.557	35115.9
608.914	35220.75
609.272	35921.98
609.629	36174.18
609.986	36540.27
610.343	36811.9
610.7	37304.09
611.057	37522.16
611.414	37854.13
611.771	38007.12
612.127	38350.16
612.484	38637.84
612.841	38913.09
613.198	39056.36
613.554	39292.74
613.911	39723.01
614.267	40028.31
614.624	40116.22
614.98	40433.05
615.337	40775.64
615.693	40856.99
616.05	41132.92
616.406	41534.71
616.762	41550.31
617.118	41745.33
617.475	41986.23
617.831	42271.87
618.187	42342.15
618.543	42631.41
618.899	42986.88
619.255	42973.09
619.611	43087.67
619.967	43454.44
620.323	43684.49
620.678	43644.94
621.034	43713.64
621.39	43990.02
621.746	44021.65
622.101	44505.93
622.457	44248.99
622.812	44491.7
623.168	44697.12
623.523	44799.03
623.879	45071.34
624.234	44787.51
624.589	45013.27
624.945	45302.98
625.3	45316.08
625.655	45493.03
626.01	45520.6
626.365	45625.45
626.72	45517.66
627.075	45794.26
627.43	45772.34
627.785	45824.32
628.14	46030.19
628.495	46023.41
628.85	46117.19
629.205	45987.7
629.559	46308.82
629.914	46270.63
630.269	46329.84
630.623	46277.41
630.978	46181.6
631.332	46521.02
631.687	46634.24
632.041	46464.98
632.396	46572.55
632.75	46499.1
633.104	46644.64
633.459	46396.96
633.813	46579.55
634.167	46643.73
634.521	46556.95
634.875	46721.92
635.229	46567.57
635.583	46541.59
635.937	46524.19
636.291	46630.62
636.645	46634.92
636.999	46615.03
637.352	46707.46
637.706	46368.03
638.06	46716.72
638.413	46607.12
638.767	46596.5
639.121	46744.75
639.474	46516.28
639.828	46668.36
640.181	46671.53
640.534	46777.29
640.888	46705.2
641.241	46517.18
641.594	46587.46
641.947	46680.57
642.301	46706.33
642.654	46737.97
643.007	46783.84
643.36	46738.87
643.713	46715.14
644.066	46876.49
644.419	46659.55
644.771	46200.58
645.124	45913.58
645.477	45913.35
645.83	45585.91
646.182	45652.34
646.535	45472.24
646.888	45686.24
647.24	45399.7
647.593	45624.32
647.945	45664.55
648.298	45564.44
648.65	45292.35
649.002	45502.07
649.355	45606.24
649.707	45531.44
650.059	45703.19
650.411	46091.2
650.763	46185.44
651.115	46663.39
651.467	46551.08
651.819	46488.93
652.171	46482.83
652.523	46486.9
652.875	46487.35
653.227	46300.92
653.578	46532.77
653.93	46543.17
654.282	46445.54
654.633	46255.72
654.985	46498.42
655.337	46364.42
655.688	46438.31
656.039	46523.51
656.391	46156.06
656.742	46279.9
657.094	46328.71
657.445	46477.18
657.796	46289.16
658.147	46247.13
658.498	46276.06
658.849	46306.56
659.2	46133.01
659.551	45937.31
659.902	46185.89
660.253	46158.55
660.604	46266.79
660.955	46085.55
661.306	46364.87
661.656	46286.68
662.007	46248.04
662.358	46278.32
662.708	46224.53
663.059	46243.74
663.409	45892.34
663.76	46373
664.11	46245.32
664.461	46243.74
664.811	46393.12
665.161	46275.83
665.511	46171.43
665.862	46235.61
666.212	46220.92
666.562	46420.01
666.912	46222.05
667.262	46114.93
667.612	46238.09
667.962	46104.54
668.312	46097.98
668.662	46349.73
669.011	46253.23
669.361	46095.72
669.711	46207.58
670.06	46062.5
670.41	46164.2
670.76	45975.73
671.109	46122.39
671.459	46028.61
671.808	46067.93
672.157	46089.62
672.507	45959.91
672.856	45733.02
673.205	45943.41
673.554	45986.12
673.904	45969.4
674.253	46141.37
674.602	45872.9
674.951	45479.47
675.3	45150.89
675.649	45801.04
675.998	45766.01
676.346	45887.82
676.695	45914.48
677.044	45532.12
677.393	45753.36
677.741	45732.79
678.09	45850.08
678.438	45705.22
678.787	45768.27
679.135	45707.03
679.484	45492.35
679.832	45646.24
680.181	45262.3
680.529	45485.57
680.877	45291
681.225	45358.57
681.573	45517.21
681.922	45236.08
682.27	45082.19
682.618	45176.43
682.966	45195.63
683.314	45251.9
683.661	45044
684.009	44782.99
684.357	44715.87
684.705	44795.64
685.053	44703.9
685.4	44706.83
685.748	44496.44
686.095	44656.89
686.443	44398.82
686.79	44404.24
687.138	44428.87
687.485	44430.68
687.832	44170.8
688.18	44334.87
688.527	44208.77
688.874	43963.8
689.221	43928.55
689.568	43710.93
689.915	43785.5
690.262	43729.68
690.609	43686.97
690.956	43588.44
691.303	43375.34
691.65	43193.2
691.997	43327.43
692.344	43201.56
692.69	43097.84
693.037	43034.56
693.383	42719.54
693.73	42861.91
694.077	42697.17
694.423	42675.7
694.769	42502.82
695.116	42619.88
695.462	42450.4
695.808	42315.48
696.155	42360.23
696.501	41977.87
696.847	42058.77
697.193	41832.11
697.539	41835.72
697.885	41614.48
698.231	41569.29
698.577	41572
698.923	41512.79
699.269	41301.05
699.614	41139.7
699.96	41113.48
700.306	41101.96
700.651	40914.39
700.997	40857.67
701.342	40692.48
701.688	40586.04
702.033	40534.74
702.379	40544.91
702.724	40364.35
703.069	40536.77
703.415	40052.27
703.76	40068.54
704.105	40158.03
704.45	39953.96
704.795	39712.84
705.14	39645.05
705.485	39611.37
705.83	39377.93
706.175	39572.73
706.52	39461.32
706.865	39375.67
707.209	39208.45
707.554	39110.82
707.899	39079.18
708.243	38999.19
708.588	39006.64
708.932	38715.13
709.277	38707.67
709.621	38781.79
709.966	38442.82
710.31	38584.28
710.654	38227.23
710.998	38218.87
711.342	38315.36
711.687	38157.85
712.031	38091.19
712.375	37942.72
712.719	37932.77
713.063	37943.62
713.407	37996.95
713.75	37791.76
714.094	37734.36
714.438	37768.26
714.782	37623.18
715.125	37396.06
715.469	37418.44
715.812	37356.07
716.156	37109.07
716.499	37162.85
716.843	37238.1
717.186	36994.72
717.53	37156.97
717.873	37174.38
718.216	37030.65
718.559	36820.71
718.902	36571
719.246	36675.18
719.589	36631.34
719.932	36452.81
720.275	36496.43
720.617	36468.63
720.96	36448.07
721.303	36421.85
721.646	36349.99
721.989	36250.56
722.331	36373.04
722.674	36155.87
723.016	36156.55
723.359	36157.91
723.701	36162.42
724.044	35931.7
724.386	35795.88
724.729	35836.56
725.071	35847.4
725.413	35643.57
725.755	35750.01
726.097	35523.8
726.439	35394.54
726.782	35419.62
727.124	35510.69
727.465	35465.27
727.807	35249.23
728.149	35265.27
728.491	35287.19
728.833	35155.9
729.175	35031.38
729.516	34972.4
729.858	34987.31
730.199	34908.9
730.541	34825.96
730.882	34945.28
731.224	34992.51
731.565	34797.26
731.906	34818.73
732.248	34814.66
732.589	34589.81
732.93	34506.42
733.271	34533.77
733.612	34569.7
733.953	34579.19
734.294	34522.24
734.635	34438.63
734.976	34429.36
735.317	34254.23
735.658	34204.51
735.999	34293.1
736.339	34069.15
736.68	34189.37
737.021	34097.62
737.361	33969.94
737.702	34199.99
738.042	33957.74
738.383	33985.31
738.723	33913.9
739.063	33899.66
739.404	34018.3
739.744	33789.38
740.084	33706.9
740.424	33718.2
740.764	33649.27
741.104	33750.51
741.444	33559.56
741.784	33340.13
742.124	33529.27
742.464	33309.39
742.804	33334.02
743.143	33339.9
743.483	33207.7
743.823	33175.16
744.162	33204.54
744.502	33192.79
744.841	33051.32
745.181	33237.53
745.52	33107.82
745.86	33068.27
746.199	32998.67
746.538	32885.9
746.877	32983.75
747.216	32837.99
747.556	32927.03
747.895	32954.83
748.234	32684.1
748.573	32603.87
748.911	32647.04
749.25	32586.93
749.589	32524.33
749.928	32599.35
750.267	32529.3
750.605	32375.41
750.944	32353.26
751.283	32252.25
751.621	32337.21
751.96	32101.97
752.298	32112.36
752.636	32187.84
752.975	32012.93
753.313	31864.46
753.651	32141.97
753.989	31939.26
754.327	31843.44
754.666	31701.75
755.004	31725.93
755.342	31638.7
755.679	31684.58
756.017	31443.9
756.355	31615.65
756.693	31413.62
757.031	31461.53
757.368	31275.55
757.706	31188.32
758.044	31162.56
758.381	31031.03
758.719	30956.23
759.056	31037.81
759.394	30788.55
759.731	30661.78
760.068	30630.14
760.405	30568.45
760.743	30531.61
