Data from red_shiny_book_FLMS001491_00087.txt Node
Date: Wed Feb 08 15:25:30 GMT 2017
User: dcchb
Spectrometer: FLMS00149
Trigger mode: 0
Integration Time (sec): 2.000000E-2
Scans to average: 10
Electric dark correction enabled: true
Nonlinearity correction enabled: false
Boxcar width: 0
XAxis mode: Wavelengths
Number of Pixels in Spectrum: 2048
>>>>>Begin Spectral Data<<<<<
341.393	-8.14
341.776	-8.14
342.16	-8.14
342.543	-71.64
342.927	-64.63
343.31	-72.09
343.693	-60.34
344.077	-68.92
344.46	-57.63
344.843	-47.23
345.226	-26.67
345.61	-47
345.993	-23.5
346.376	-9.72
346.759	2.94
347.142	20.79
347.525	47.46
347.908	68.25
348.291	89.04
348.674	84.74
349.057	99.88
349.44	120.45
349.823	126.55
350.206	132.88
350.588	207.23
350.971	211.52
351.354	239.54
351.737	251.07
352.119	261.91
352.502	276.6
352.884	281.8
353.267	283.61
353.65	299.65
354.032	310.5
354.414	300.56
354.797	312.31
355.179	343.95
355.562	321.12
355.944	346.21
356.326	355.7
356.709	337.39
357.091	343.49
357.473	369.93
357.855	354.79
358.238	353.89
358.62	340.1
359.002	346.43
359.384	360.89
359.766	341.01
360.148	345.53
360.53	356.6
360.912	334.68
361.294	367.22
361.676	369.48
362.057	361.35
362.439	357.96
362.821	340.33
363.203	321.57
363.584	336.49
363.966	319.99
364.348	345.53
364.729	334.68
365.111	317.51
365.493	315.25
365.874	328.13
366.256	329.48
366.637	327
367.019	335.13
367.4	331.74
367.781	342.14
368.163	330.61
368.544	335.58
368.925	326.77
369.306	352.31
369.688	329.26
370.069	331.74
370.45	327.9
370.831	324.51
371.212	335.81
371.593	318.41
371.974	341.69
372.355	336.49
372.736	325.19
373.117	324.29
373.498	331.74
373.879	325.64
374.26	333.55
374.641	331.29
375.021	338.3
375.402	328.13
375.783	341.91
376.163	343.04
376.544	325.64
376.925	329.03
377.305	336.94
377.686	341.91
378.066	339.65
378.447	317.05
378.827	329.71
379.208	340.33
379.588	347.79
379.968	356.37
380.349	354.57
380.729	336.71
381.109	371.29
381.489	357.96
381.87	371.06
382.25	363.61
382.63	357.5
383.01	362.25
383.39	377.62
383.77	378.07
384.15	354.34
384.53	342.14
384.91	357.5
385.29	344.85
385.67	356.15
386.049	378.97
386.429	377.39
386.809	374.45
387.189	374
387.568	392.76
387.948	371.29
388.328	359.09
388.707	365.64
389.087	374.23
389.466	365.41
389.846	351.18
390.225	367.22
390.605	359.99
390.984	375.81
391.363	367.45
391.743	365.41
392.122	371.06
392.501	390.05
392.881	384.62
393.26	379.2
393.639	367.22
394.018	391.63
394.397	388.24
394.776	394.79
395.155	401.35
395.534	391.63
395.913	395.24
396.292	385.75
396.671	387.11
397.05	409.25
397.429	387.33
397.808	407.45
398.186	411.51
398.565	388.69
398.944	405.64
399.323	417.62
399.701	410.84
400.08	383.94
400.458	404.06
400.837	390.27
401.215	406.77
401.594	435.92
401.972	426.2
402.351	424.85
402.729	425.07
403.107	425.07
403.486	419.88
403.864	409.48
404.242	426.43
404.62	428.01
404.999	428.24
405.377	444.96
405.755	455.58
406.133	441.34
406.511	435.47
406.889	459.42
407.267	448.12
407.645	442.02
408.023	431.4
408.401	449.03
408.779	443.15
409.156	461.46
409.534	457.84
409.912	445.19
410.29	458.29
410.667	479.76
411.045	472.98
411.422	477.28
411.8	461.68
412.178	480.44
412.555	487.44
412.933	477.05
413.31	500.33
413.687	486.09
414.065	534.9
414.442	516.37
414.819	536.71
415.197	520.21
415.574	527.67
415.951	525.64
416.328	525.41
416.705	502.36
417.082	541.45
417.46	517.5
417.837	545.52
418.214	537.84
418.591	568.35
418.967	557.73
419.344	559.53
419.721	552.53
420.098	558.4
420.475	536.94
420.852	543.71
421.228	551.17
421.605	576.48
421.982	572.41
422.358	589.14
422.735	594.33
423.111	607.67
423.488	592.98
423.864	591.85
424.241	613.77
424.617	596.14
424.994	597.27
425.37	613.09
425.746	608.8
426.123	580.78
426.499	612.19
426.875	621
427.251	643.82
427.627	653.32
428.003	638.4
428.379	636.37
428.756	642.02
429.132	622.81
429.507	628.46
429.883	631.4
430.259	646.76
430.635	647.89
431.011	688.34
431.387	684.95
431.763	682.92
432.138	679.3
432.514	703.26
432.89	671.85
433.265	655.12
433.641	679.3
434.016	675.91
434.392	707.78
434.767	686.31
435.143	717.5
435.518	744.39
435.894	752.75
436.269	745.29
436.644	743.03
437.02	774.89
437.395	752.52
437.77	755.23
438.145	747.1
438.52	758.17
438.895	753.2
439.271	734.22
439.646	771.96
440.021	782.35
440.395	789.36
440.77	794.56
441.145	818.51
441.52	809.47
441.895	848.11
442.27	821.9
442.645	798.62
443.019	806.31
443.394	786.65
443.769	819.64
444.143	802.01
444.518	804.95
444.892	824.16
445.267	829.13
445.641	846.31
446.016	871.16
446.39	881.33
446.764	855.57
447.139	826.64
447.513	845.63
447.887	827.1
448.262	819.87
448.636	803.37
449.01	836.36
449.384	830.49
449.758	864.61
450.132	897.15
450.506	904.38
450.88	918.17
451.254	911.61
451.628	901.45
452.002	914.78
452.376	906.19
452.75	884.95
453.123	871.16
453.497	888.34
453.871	888.56
454.244	922.69
454.618	933.76
454.992	965.4
455.365	955.46
455.739	947.55
456.112	956.13
456.486	975.57
456.859	976.25
457.232	954.55
457.606	931.5
457.979	964.04
458.352	939.18
458.725	948.22
459.099	944.16
459.472	959.75
459.845	973.99
460.218	1005.62
460.591	1021.22
460.964	1030.93
461.337	1073.87
461.71	1058.96
462.083	1065.06
462.456	1036.58
462.829	1050.82
463.201	1016.7
463.574	1022.35
463.947	1021.89
464.32	1044.49
464.692	1077.94
465.065	1083.81
465.438	1111.84
465.81	1130.37
466.183	1137.82
466.555	1134.21
466.928	1157.26
467.3	1144.15
467.672	1153.87
468.045	1139.63
468.417	1137.37
468.789	1127.88
469.161	1110.71
469.534	1129.24
469.906	1169.23
470.278	1165.62
470.65	1236.58
471.022	1277.48
471.394	1279.29
471.766	1308.89
472.138	1315.9
472.51	1322
472.882	1287.42
473.253	1267.99
473.625	1284.71
473.997	1281.55
474.369	1265.05
474.74	1249.68
475.112	1283.13
475.484	1336.24
475.855	1345.5
476.227	1411.26
476.598	1467.31
476.97	1459.4
477.341	1537.36
477.713	1541.43
478.084	1522.67
478.455	1514.54
478.827	1508.66
479.198	1514.99
479.569	1490.58
479.94	1517.47
480.311	1525.61
480.682	1586.85
481.053	1594.53
481.424	1635.89
481.795	1677.24
482.166	1723.57
482.537	1773.96
482.908	1827.3
483.279	1851.25
483.65	1869.33
484.021	1874.98
484.391	1881.98
484.762	1817.13
485.133	1804.47
485.503	1807.64
485.874	1834.3
486.244	1828.43
486.615	1899.61
486.985	1911.36
487.356	1982.55
487.726	2044.92
488.097	2122.43
488.467	2176.67
488.837	2234.29
489.207	2242.65
489.578	2240.17
489.948	2258.7
490.318	2231.81
490.688	2191.58
491.058	2180.06
491.428	2237.23
491.798	2181.86
492.168	2212.37
492.538	2246.49
492.908	2279.71
493.278	2349.99
493.648	2416.21
494.017	2434.51
494.387	2580.95
494.757	2585.69
495.126	2642.19
495.496	2588.63
495.866	2620.95
496.235	2580.05
496.605	2544.57
496.974	2539.82
497.344	2495.53
497.713	2490.33
498.082	2448.07
498.452	2510.44
498.821	2539.59
499.19	2583.21
499.559	2679.03
499.928	2709.99
500.298	2790.89
500.667	2824.78
501.036	2885.8
501.405	2877.66
501.774	2851.45
502.143	2827.95
502.512	2803.32
502.88	2731
503.249	2702.75
503.618	2705.69
503.987	2710.21
504.356	2671.57
504.724	2693.26
505.093	2707.73
505.462	2747.27
505.83	2807.38
506.199	2865.24
506.567	2985.01
506.936	2999.47
507.304	3068.17
507.672	3079.47
508.041	3069.52
508.409	3017.77
508.777	3038.56
509.145	2964.22
509.514	2896.87
509.882	2899.13
510.25	2832.69
510.618	2812.58
510.986	2817.1
511.354	2860.26
511.722	2895.07
512.09	2988.62
512.458	3016.64
512.826	3097.77
513.193	3165.11
513.561	3205.79
513.929	3236.07
514.297	3270.42
514.664	3229.97
515.032	3203.31
515.4	3176.64
515.767	3118.79
516.135	3075.85
516.502	2965.8
516.869	2952.69
517.237	2966.02
517.604	2948.17
517.972	2981.16
518.339	3039.24
518.706	3075.17
519.073	3145.23
519.44	3245.34
519.808	3355.39
520.175	3375.73
520.542	3436.07
520.909	3455.73
521.276	3421.83
521.643	3408.27
522.009	3376.41
522.376	3313.59
522.743	3251.89
523.11	3189.52
523.477	3150.65
523.843	3097.55
524.21	3111.1
524.577	3139.35
524.943	3192.68
525.31	3255.73
525.676	3331.66
526.043	3449.17
526.409	3529.17
526.776	3617.31
527.142	3671.54
527.508	3779.11
527.874	3827.02
528.241	3818.88
528.607	3716.74
528.973	3685.55
529.339	3624.99
529.705	3598.1
530.071	3579.11
530.437	3513.58
530.803	3448.72
531.169	3426.8
531.535	3482.85
531.901	3516.74
532.267	3616.18
532.632	3691.88
532.998	3815.94
533.364	3950.4
533.73	4025.66
534.095	4135.94
534.461	4198.99
534.826	4241.92
535.192	4220.68
535.557	4227.46
535.923	4157.86
536.288	4117.63
536.653	3996.96
537.019	3949.95
537.384	3888.94
537.749	3835.38
538.114	3838.09
538.479	3847.13
538.845	3871.54
539.21	3957.64
539.575	4003.74
539.94	4179.33
540.305	4279.44
540.67	4332.99
541.034	4479.2
541.399	4500.67
541.764	4579.77
542.129	4675.81
542.494	4670.84
542.858	4594.23
543.223	4567.56
543.587	4496.38
543.952	4377.51
544.316	4370.28
544.681	4282.15
545.045	4175.03
545.41	4189.95
545.774	4175.26
546.138	4229.04
546.503	4297.74
546.867	4360.34
547.231	4434.69
547.595	4545.42
547.959	4675.81
548.324	4761.68
548.688	4874.45
549.052	4902.47
549.416	4968.91
549.779	4959.64
550.143	4965.07
550.507	4946.31
550.871	4902.24
551.235	4822.02
551.599	4725.53
551.962	4614.12
552.326	4518.3
552.689	4443.5
553.053	4407.34
553.417	4372.99
553.78	4456.83
554.143	4488.02
554.507	4543.61
554.87	4661.12
555.234	4777.95
555.597	4858.4
555.96	5017.5
556.323	5092.75
556.686	5159.86
557.05	5229.24
557.413	5255.46
557.776	5257.71
558.139	5257.71
558.502	5123.71
558.865	5060.88
559.228	4949.93
559.59	4870.38
559.953	4770.5
560.316	4752.19
560.679	4725.98
561.041	4675.13
561.404	4714.9
561.767	4712.19
562.129	4721.68
562.492	4914.67
562.854	4955.58
563.217	5087.78
563.579	5198.96
563.941	5363.93
564.304	5438.05
564.666	5543.58
565.028	5599.4
565.39	5558.5
565.753	5620.19
566.115	5575.22
566.477	5513.08
566.839	5465.17
567.201	5369.58
567.563	5292.52
567.925	5175.01
568.287	5078.28
568.648	5046.19
569.01	4992.64
569.372	5064.73
569.734	4994.22
570.095	5073.99
570.457	5183.82
570.819	5297.04
571.18	5419.29
571.542	5590.59
571.903	5716.91
572.265	5882.11
572.626	5967.3
572.987	6047.07
573.349	6111.03
573.71	6172.95
574.071	6153.51
574.432	6150.8
574.794	6161.87
575.155	6073.29
575.516	6001.42
575.877	5899.28
576.238	5788.77
576.599	5811.6
576.96	5786.06
577.32	5815.21
577.681	5870.81
578.042	5990.58
578.403	6068.09
578.763	6269.89
579.124	6465.59
579.485	6644.57
579.845	6889.54
580.206	7109.64
580.566	7327.72
580.927	7641.38
581.287	7852.9
581.648	8047.92
582.008	8249.73
582.368	8455.6
582.728	8506.44
583.089	8631.19
583.449	8795.7
583.809	8893.1
584.169	9098.97
584.529	9152.08
584.889	9440.66
585.249	9550.94
585.609	9702.57
585.969	10003.35
586.329	10247.87
586.688	10624.13
587.048	11042.2
587.408	11374.16
587.768	11880.14
588.127	12296.85
588.487	12820.45
588.846	13361
589.206	13752.41
589.565	14232.39
589.925	14873.51
590.284	15254.29
590.643	15600.95
591.003	16104.21
591.362	16540.58
591.721	16832.1
592.08	17274.35
592.44	17583.72
592.799	17831.85
593.158	18152.52
593.517	18436.8
593.876	18890.12
594.235	19087.18
594.593	19522.42
594.952	20057.78
595.311	20312.91
595.67	20918.55
596.029	21485.31
596.387	22061.11
596.746	22582.91
597.104	22983.8
597.463	23642.09
597.822	24238.01
598.18	24632.8
598.538	25327.92
598.897	25920.45
599.255	26118.86
599.613	27046.29
599.972	27133.52
600.33	27593.17
600.688	27861.64
601.046	28408.52
601.404	28745.91
601.762	28877.43
602.12	29371.21
602.478	29530.75
602.836	29889.84
603.194	29951.08
603.552	30344.74
603.91	30487.33
604.268	31085.06
604.625	31250.7
604.983	31795.32
605.341	32031.93
605.698	32530.9
606.056	33000.71
606.413	33425.79
606.771	33966.56
607.128	34496.04
607.485	34612.65
607.843	35107.55
608.2	35634.09
608.557	35955.89
608.914	36198.14
609.272	36554.52
609.629	36835.19
609.986	37222.75
610.343	37248.29
610.7	37453.25
611.057	37631.33
611.414	37691.44
611.771	37866.35
612.127	37981.15
612.484	37998.1
612.841	38329.61
613.198	38166
613.554	38323.96
613.911	38647.8
614.267	38829.94
614.624	39005.53
614.98	39406.42
615.337	39644.83
615.693	39930.25
616.05	40047.08
616.406	40617.92
616.762	40794.63
617.118	41070.56
617.475	41272.14
617.831	41555.74
618.187	41656.08
618.543	41953.25
618.899	42337.64
619.255	42228.95
619.611	41994.6
619.967	42459.67
620.323	42452.67
620.678	42264.43
621.034	42180.36
621.39	42166.8
621.746	42179.91
622.101	42480.01
622.457	42146.91
622.812	42097.88
623.168	42329.96
623.523	42435.27
623.879	42520.92
624.234	42507.13
624.589	42758.65
624.945	42891.08
625.3	43134.23
625.655	43229.37
626.01	43463.72
626.365	43449.93
626.72	43683.6
627.075	43718.17
627.43	43903.48
627.785	43899.64
628.14	44147.77
628.495	44140.53
628.85	44277.48
629.205	44146.18
629.559	44350.7
629.914	44075.45
630.269	44046.07
630.623	44013.31
630.978	43791.62
631.332	43782.13
631.687	43888.79
632.041	43590.04
632.396	43586.65
632.75	43491.96
633.104	43538.74
633.459	43229.6
633.813	43229.37
634.167	43371.51
634.521	43318.86
634.875	43494.68
635.229	43442.47
635.583	43529.93
635.937	43462.81
636.291	43653.54
636.645	43824.61
636.999	43828.9
637.352	43921.78
637.706	43849.02
638.06	44122.68
638.413	43989.8
638.767	43879.3
639.121	43957.04
639.474	43675.69
639.828	43835.91
640.181	43762.01
640.534	43721.11
640.888	43523.83
641.241	43167.45
641.594	43326.09
641.947	43196.83
642.301	43031.64
642.654	42919.32
643.007	42711.87
643.36	42814.47
643.713	42662.38
644.066	42775.6
644.419	42451.99
644.771	42298.77
645.124	41955.96
645.477	42011.78
645.83	41962.96
646.182	41683.42
646.535	41884.77
646.888	42028.27
647.24	41948.95
647.593	42301.49
647.945	42192.34
648.298	42116.86
648.65	42183.75
649.002	42043.19
649.355	42246.8
649.707	41976.75
650.059	42191.88
650.411	42562.27
650.763	42605.66
651.115	42744.19
651.467	42750.97
651.819	42495.38
652.171	42309.62
652.523	42212.22
652.875	41907.6
653.227	41821.05
653.578	41987.82
653.93	41873.48
654.282	41661.05
654.633	41433.03
654.985	41673.93
655.337	41681.84
655.688	41725.23
656.039	41891.78
656.391	41686.14
656.742	41677.77
657.094	41875.96
657.445	42215.61
657.796	42121.15
658.147	42173.58
658.498	42036.41
658.849	42370.19
659.2	42300.81
659.551	42373.35
659.902	42474.82
660.253	42383.74
660.604	42385.33
660.955	42221.94
661.306	42278.21
661.656	42113.69
662.007	42190.3
662.358	42006.13
662.708	41813.14
663.059	41644.33
663.409	41313.26
663.76	41637.1
664.11	41560.04
664.461	41387.61
664.811	41299.03
665.161	41231.91
665.511	41068.52
665.862	41133.38
666.212	41217.9
666.562	41272.81
666.912	41273.94
667.262	41285.24
667.612	41215.19
667.962	41467.38
668.312	41377.9
668.662	41613.82
669.011	41499.93
669.361	41656.08
669.711	41762.74
670.06	41659.24
670.41	41736.08
670.76	41739.24
671.109	41894.72
671.459	41915.73
671.808	41731.33
672.157	41803.65
672.507	41634.39
672.856	41382.19
673.205	41456.76
673.554	41357.1
673.904	41253.83
674.253	41375.41
674.602	41115.53
674.951	40555.09
675.3	40122.79
675.649	40679.38
675.998	40610.23
676.346	40473.29
676.695	40463.79
677.044	40247.53
677.393	40433.74
677.741	40450.46
678.09	40386.96
678.438	40311.48
678.787	40376.57
679.135	40489.33
679.484	40196.46
679.832	40571.14
680.181	40334.76
680.529	40606.39
680.877	40584.7
681.225	40634.86
681.573	40842.54
681.922	40687.52
682.27	40426.51
682.618	40646.39
682.966	40560.74
683.314	40768.42
683.661	40496.34
684.009	40261.99
684.357	40165.05
684.705	40245.27
685.053	40015.67
685.4	40041.89
685.748	39704.27
686.095	39527.1
686.443	39276.71
686.79	39136.15
687.138	39215.24
687.485	39010.5
687.832	38911.75
688.18	38828.58
688.527	38707
688.874	38612.54
689.221	38447.35
689.568	38404.41
689.915	38411.42
690.262	38279.9
690.609	38278.32
690.956	38270.63
691.303	38226.11
691.65	38188.6
691.997	38231.09
692.344	38154.93
692.69	38244.64
693.037	38351.53
693.383	37939.12
693.73	38255.04
694.077	38108.6
694.423	38147.92
694.769	37997.87
695.116	37894.37
695.462	37981.37
695.808	37633.36
696.155	37833.13
696.501	37371.9
696.847	37324.22
697.193	37055.75
697.539	37126.93
697.885	36794.51
698.231	36583.22
698.577	36496.22
698.923	36376.22
699.269	36131.03
699.614	35929.45
699.96	35866.18
700.306	35780.08
700.651	35646.07
700.997	35415.57
701.342	35345.74
701.688	35435.45
702.033	35170.83
702.379	35195.23
702.724	35160.88
703.069	35378.96
703.415	34949.59
703.76	34927.44
704.105	35102.81
704.45	34961.57
704.795	34807.9
705.14	34869.37
705.485	34855.81
705.83	34771.52
706.175	34980.78
706.52	34854.22
706.865	34822.59
707.209	34877.5
707.554	34715.47
707.899	34767
708.243	34614.01
708.588	34419.21
708.932	34233.9
709.277	34195.49
709.621	34104.87
709.966	33884.98
710.31	33875.72
710.654	33543.98
710.998	33617.2
711.342	33380.82
711.687	33244.1
712.031	33018.79
712.375	32898.12
712.719	32904.45
713.063	32754.17
713.407	32746.71
713.75	32655.86
714.094	32588.07
714.438	32301.75
714.782	32509.43
715.125	32307.17
715.469	32417.45
715.812	32204.58
716.156	32037.58
716.499	32318.25
716.843	32489.32
717.186	32253.62
717.53	32399.83
717.873	32478.69
718.216	32380.39
718.559	32319.15
718.902	32190.57
719.246	32261.75
719.589	32257.46
719.932	32166.16
720.275	32191.7
720.617	32163.22
720.96	32134.97
721.303	32020.63
721.646	32165.03
721.989	31784.47
722.331	32000.29
722.674	31852.27
723.016	31734.08
723.359	31594.65
723.701	31603.24
724.044	31251.16
724.386	31034.89
724.729	31148.33
725.071	31005.29
725.413	30765.29
725.755	30839.87
726.097	30650.49
726.439	30344.51
726.782	30328.24
727.124	30558.74
727.465	30223.61
727.807	30223.16
728.149	30279.43
728.491	30120.11
728.833	30204.86
729.175	29929.38
729.516	30109.94
729.858	30122.82
730.199	30245.31
730.541	30156.5
730.882	30184.52
731.224	30341.58
731.565	30185.87
731.906	30248.24
732.248	30330.05
732.589	30183.39
732.93	30034.01
733.271	30217.51
733.612	30266.1
733.953	30287.34
734.294	30078.98
734.635	30045.99
734.976	30053.45
735.317	29954.01
735.658	30004.41
735.999	29849.38
736.339	29741.14
736.68	29727.13
737.021	29638.99
737.361	29315.84
737.702	29495.5
738.042	29133.02
738.383	29217.76
738.723	29134.83
739.063	29016.41
739.404	29025.9
739.744	28902.29
740.084	28613.48
740.424	28783.65
740.764	28647.16
741.104	28697.78
741.444	28531.23
741.784	28383.43
742.124	28587.04
742.464	28430.89
742.804	28453.94
743.143	28471.34
743.483	28357.22
743.823	28326.26
744.162	28399.71
744.502	28467.95
744.841	28374.62
745.181	28467.05
745.52	28392.93
745.86	28421.63
746.199	28422.98
746.538	28499.82
746.877	28565.12
747.216	28545.24
747.556	28422.3
747.895	28476.31
748.234	28300.72
748.573	28331.91
748.911	28190.9
749.25	28334.17
749.589	28046.95
749.928	28074.06
750.267	28168.07
750.605	27953.39
750.944	27795.2
751.283	27630.01
751.621	27687.86
751.96	27381.65
752.298	27385.72
752.636	27334.2
752.975	27113.64
753.313	26995.67
753.651	26992.74
753.989	26785.74
754.327	26815.11
754.666	26616.25
755.004	26644.72
755.342	26723.37
755.679	26507.1
756.017	26386.88
756.355	26360.44
756.693	26234.11
757.031	26420.1
757.368	26175.13
757.706	26221.23
758.044	26202.93
758.381	26255.35
758.719	26197.73
759.056	26218.97
759.394	26120.67
759.731	26018.3
760.068	26027.79
760.405	26044.29
760.743	25911.41
761.08	26057.17
