Data from red_shiny_book_FLMS001491_00074.txt Node
Date: Wed Feb 08 15:25:21 GMT 2017
User: dcchb
Spectrometer: FLMS00149
Trigger mode: 0
Integration Time (sec): 2.000000E-2
Scans to average: 10
Electric dark correction enabled: true
Nonlinearity correction enabled: false
Boxcar width: 0
XAxis mode: Wavelengths
Number of Pixels in Spectrum: 2048
>>>>>Begin Spectral Data<<<<<
341.393	-22.74
341.776	-22.74
342.16	-22.74
342.543	-57.99
342.927	-73.59
343.31	-68.39
343.693	-68.16
344.077	-91.44
344.46	-60.25
344.843	-78.56
345.226	-45.56
345.61	-2.4
345.993	-15.73
346.376	7.32
346.759	-7.15
347.142	35.56
347.525	51.61
347.908	43.25
348.291	72.4
348.674	116.69
349.057	110.82
349.44	131.83
349.823	151.27
350.206	175.9
350.588	194.2
350.971	193.07
351.354	217.03
351.737	238.72
352.119	236.24
352.502	259.29
352.884	258.16
353.267	275.33
353.65	276.91
354.032	306.07
354.414	299.74
354.797	325.95
355.179	320.75
355.562	328.44
355.944	342.22
356.326	345.16
356.709	333.41
357.091	337.25
357.473	347.87
357.855	332.96
358.238	365.5
358.62	343.13
359.002	337.7
359.384	351.49
359.766	346.29
360.148	336.12
360.53	321.66
360.912	345.61
361.294	339.51
361.676	335.67
362.057	342.22
362.439	333.64
362.821	339.51
363.203	323.01
363.584	322.11
363.966	331.6
364.348	337.25
364.729	327.76
365.111	323.69
365.493	321.88
365.874	312.84
366.256	332.28
366.637	318.95
367.019	304.48
367.4	332.05
367.781	315.56
368.163	320.53
368.544	309.46
368.925	307.87
369.306	307.65
369.688	323.01
370.069	315.56
370.45	319.4
370.831	321.43
371.212	310.36
371.593	344.26
371.974	329.79
372.355	327.08
372.736	315.33
373.117	304.94
373.498	330.25
373.879	314.65
374.26	311.04
374.641	311.49
375.021	340.64
375.402	342
375.783	317.59
376.163	321.66
376.544	324.82
376.925	344.03
377.305	345.39
377.686	338.83
378.066	334.99
378.447	315.1
378.827	319.17
379.208	329.79
379.588	338.38
379.968	340.41
380.349	337.48
380.729	346.29
381.109	334.09
381.489	351.26
381.87	334.09
382.25	350.13
382.63	322.11
383.01	349.68
383.39	342.9
383.77	351.94
384.15	340.19
384.53	348.1
384.91	339.06
385.29	350.58
385.67	351.04
386.049	363.92
386.429	330.02
386.809	363.92
387.189	372.28
387.568	366.85
387.948	358.72
388.328	363.92
388.707	364.82
389.087	366.85
389.466	357.14
389.846	351.49
390.225	364.82
390.605	357.82
390.984	345.16
391.363	376.8
391.743	368.89
392.122	353.97
392.501	360.75
392.881	368.21
393.26	376.8
393.639	365.72
394.018	398.49
394.397	389.23
394.776	370.47
395.155	406.63
395.534	365.5
395.913	396.23
396.292	374.09
396.671	394.42
397.05	372.73
397.429	380.19
397.808	383.8
398.186	377.25
398.565	413.86
398.944	387.19
399.323	402.33
399.701	385.39
400.08	391.71
400.458	401.66
400.837	400.3
401.215	408.89
401.594	394.88
401.972	412.28
402.351	402.79
402.729	406.18
403.107	414.76
403.486	402.79
403.864	437.36
404.242	424.48
404.62	415.89
404.999	419.51
405.377	423.12
405.755	425.61
406.133	431.49
406.511	427.19
406.889	457.7
407.267	444.59
407.645	443.69
408.023	436.68
408.401	450.69
408.779	439.62
409.156	434.42
409.534	436.23
409.912	454.76
410.29	453.63
410.667	441.88
411.045	456.57
411.422	483.46
411.8	460.19
412.178	471.03
412.555	474.42
412.933	502.67
413.31	480.3
413.687	471.48
414.065	466.74
414.442	492.5
414.819	487.3
415.197	502.22
415.574	511.71
415.951	521.88
416.328	513.29
416.705	508.77
417.082	494.08
417.46	531.6
417.837	529.79
418.214	501.99
418.591	520.98
418.967	549
419.344	527.98
419.721	551.93
420.098	544.93
420.475	539.28
420.852	570.92
421.228	559.17
421.605	558.49
421.982	582.44
422.358	576.11
422.735	558.71
423.111	579.96
423.488	580.18
423.864	575.66
424.241	587.87
424.617	609.11
424.994	603.68
425.37	596.45
425.746	613.18
426.123	605.04
426.499	591.48
426.875	617.24
427.251	592.84
427.627	600.07
428.003	624.93
428.379	648.66
428.756	638.71
429.132	674.42
429.507	670.58
429.883	644.81
430.259	652.95
430.635	635.77
431.011	672.38
431.387	665.15
431.763	676.23
432.138	676.9
432.514	678.26
432.89	692.95
433.265	718.26
433.641	724.59
434.016	716.45
434.392	714.19
434.767	728.65
435.143	697.47
435.518	725.49
435.894	730.01
436.269	709.22
436.644	728.43
437.02	756.9
437.395	735.66
437.77	782.66
438.145	765.04
438.52	761.87
438.895	789.67
439.271	775.66
439.646	810.01
440.021	800.29
440.395	767.97
440.77	771.14
441.145	802.32
441.52	798.93
441.895	804.36
442.27	810.91
442.645	827.18
443.019	831.7
443.394	833.51
443.769	845.26
444.143	827.63
444.518	813.17
444.892	837.35
445.267	823.34
445.641	827.41
446.016	822.66
446.39	836.22
446.764	859.27
447.139	839.16
447.513	850.01
447.887	881.19
448.262	880.29
448.636	880.06
449.01	882.32
449.384	878.03
449.758	885.26
450.132	854.53
450.506	870.57
450.88	859.5
451.254	881.64
451.628	889.55
452.002	911.25
452.376	927.97
452.75	932.94
453.123	911.47
453.497	946.27
453.871	957.57
454.244	923.22
454.618	947.63
454.992	935.88
455.365	937.69
455.739	925.48
456.112	946.27
456.486	947.86
456.859	956.67
457.232	973.84
457.606	1009.32
457.979	1006.84
458.352	1021.3
458.725	1022.66
459.099	1010.23
459.472	1010.68
459.845	1031.47
460.218	1022.66
460.591	1014.52
460.964	1008.87
461.337	1007.29
461.71	1038.93
462.083	1055.65
462.456	1043.67
462.829	1104.69
463.201	1083.9
463.574	1108.76
463.947	1107.4
464.32	1117.34
464.692	1093.62
465.065	1101.98
465.438	1116.89
465.81	1105.14
466.183	1110.11
466.555	1108.3
466.928	1148.3
467.3	1134.74
467.672	1142.88
468.045	1210.22
468.417	1205.25
468.789	1219.71
469.161	1230.79
469.534	1257
469.906	1250.67
470.278	1240.05
470.65	1253.61
471.022	1243.67
471.394	1245.02
471.766	1244.35
472.138	1280.5
472.51	1272.82
472.882	1298.81
473.253	1311.69
473.625	1359.6
473.997	1400.5
474.369	1412.48
474.74	1429.65
475.112	1450.67
475.484	1457
475.855	1442.08
476.227	1478.01
476.598	1468.52
476.97	1461.74
477.341	1472.81
477.713	1494.06
478.084	1506.71
478.455	1562.76
478.827	1585.35
479.198	1645.01
479.569	1663.77
479.94	1731.34
480.311	1700.61
480.682	1770.66
481.053	1742.19
481.424	1756.87
481.795	1792.13
482.166	1761.85
482.537	1734.28
482.908	1765.46
483.279	1780.83
483.65	1820.83
484.021	1891.79
484.391	1906.7
484.762	1956.87
485.133	1993.93
485.503	2057.66
485.874	2078.9
486.244	2115.96
486.615	2132.91
486.985	2113.48
487.356	2161.38
487.726	2125.9
488.097	2146.02
488.467	2131.55
488.837	2189.63
489.207	2198.45
489.578	2197.32
489.948	2276.41
490.318	2292.23
490.688	2334.94
491.058	2428.95
491.428	2456.07
491.798	2518.66
492.168	2553.92
492.538	2564.76
492.908	2575.38
493.278	2594.37
493.648	2537.42
494.017	2560.02
494.387	2506.23
494.757	2543.07
495.126	2548.49
495.496	2572.9
495.866	2599.11
496.235	2672.56
496.605	2687.02
496.974	2732.22
497.344	2804.08
497.713	2868.94
498.082	2877.75
498.452	2922.72
498.821	2908.71
499.19	2892.89
499.559	2852.21
499.928	2834.59
500.298	2830.07
500.667	2823.29
501.036	2793.91
501.405	2850.41
501.774	2849.05
502.143	2856.51
502.512	2869.16
502.88	2946.67
503.249	2999.55
503.618	3062.83
503.987	3103.73
504.356	3145.09
504.724	3142.83
505.093	3113.9
505.462	3111.87
505.83	3072.77
506.199	3063.96
506.567	3057.41
506.936	3033.23
507.304	3023.06
507.672	2989.38
508.041	3028.25
508.409	3070.74
508.777	3124.52
509.145	3140.34
509.514	3174.69
509.882	3180.11
510.25	3270.28
510.618	3354.8
510.986	3334.23
511.354	3355.7
511.722	3332.65
512.09	3278.42
512.458	3263.73
512.826	3244.75
513.193	3230.51
513.561	3215.14
513.929	3147.57
514.297	3204.75
514.664	3204.75
515.032	3191.19
515.4	3301.01
515.767	3330.84
516.135	3376.27
516.502	3396.38
516.869	3468.02
517.237	3481.58
517.604	3490.61
517.972	3542.14
518.339	3548.24
518.706	3474.57
519.073	3456.27
519.44	3438.64
519.808	3410.62
520.175	3341.69
520.542	3339.43
520.909	3314.57
521.276	3332.43
521.643	3414.46
522.009	3412.42
522.376	3492.42
522.743	3543.04
523.11	3589.37
523.477	3678.18
523.843	3764.51
524.21	3775.58
524.577	3803.37
524.943	3846.99
525.31	3760.44
525.676	3804.5
526.043	3789.82
526.409	3728.12
526.776	3755.24
527.142	3694.45
527.508	3702.36
527.874	3665.3
528.241	3676.15
528.607	3709.14
528.973	3784.62
529.339	3823.94
529.705	3935.8
530.071	4019.19
530.437	4090.82
530.803	4123.59
531.169	4165.62
531.535	4197.04
531.901	4274.77
532.267	4251.72
532.632	4282.91
532.998	4162.01
533.364	4180.09
533.73	4182.35
534.095	4182.8
534.461	4120.88
534.826	4083.14
535.192	4105.74
535.557	4117.94
535.923	4182.12
536.288	4254.21
536.653	4360.65
537.019	4368.33
537.384	4465.5
537.749	4595.44
538.114	4617.82
538.479	4654.2
538.845	4677.7
539.21	4672.96
539.575	4691.49
539.94	4665.95
540.305	4687.65
540.67	4653.07
541.034	4592.73
541.399	4552.96
541.764	4513.64
542.129	4502.57
542.494	4554.99
542.858	4522.23
543.223	4582.34
543.587	4656.46
543.952	4705.95
544.316	4814.2
544.681	4826.17
545.045	4987.98
545.41	5048.77
545.774	5103.45
546.138	5153.4
546.503	5128.76
546.867	5148.88
547.231	5145.71
547.595	5112.94
547.959	5080.18
548.324	4974.19
548.688	4945.49
549.052	4876.79
549.416	4832.05
549.779	4826.4
550.143	4809.68
550.507	4900.07
550.871	4889
551.235	4892.84
551.599	5041.53
551.962	5027.52
552.326	5171.93
552.689	5217.8
553.053	5295.76
553.417	5333.73
553.78	5417.12
554.143	5420.96
554.507	5397.46
554.87	5392.71
555.234	5411.92
555.597	5237.46
555.96	5225.71
556.323	5171.25
556.686	5069.1
557.05	5109.55
557.413	5020.29
557.776	5051.48
558.139	5085.83
558.502	5064.58
558.865	5099.39
559.228	5208.99
559.59	5299.83
559.953	5339.83
560.316	5507.06
560.679	5518.13
561.041	5615.53
561.404	5710.67
561.767	5776.66
562.129	5702.08
562.492	5725.58
562.854	5723.32
563.217	5592.25
563.579	5583.67
563.941	5550.45
564.304	5513.39
564.666	5424.35
565.028	5398.81
565.39	5350.45
565.753	5363.11
566.115	5365.59
566.477	5381.19
566.839	5369.44
567.201	5541.86
567.563	5636.77
567.925	5678.58
568.287	5762.87
568.648	5889.65
569.01	6000.38
569.372	6092.81
569.734	6121.96
570.095	6182.75
570.457	6175.74
570.819	6179.36
571.18	6131.45
571.542	6127.38
571.903	6053.94
572.265	6028.17
572.626	5955.41
572.987	5860.95
573.349	5889.87
573.71	5879.03
574.071	5886.26
574.432	5929.87
574.794	5986.37
575.155	6008.06
575.516	6123.09
575.877	6291.9
576.238	6413.93
576.599	6547.94
576.96	6724.88
577.32	6875.38
577.681	7021.37
578.042	7137.75
578.403	7240.35
578.763	7323.73
579.124	7415.26
579.485	7474.69
579.845	7493
580.206	7559.89
580.566	7616.38
580.927	7674.91
581.287	7770.28
581.648	7864.74
582.008	8080.78
582.368	8133.43
582.728	8392.86
583.089	8575.9
583.449	8823.13
583.809	9113.52
584.169	9405.94
584.529	9812.71
584.889	10239.82
585.249	10464.89
585.609	10933.36
585.969	11324.76
586.329	11683.17
586.688	12125.87
587.048	12523.6
587.408	12837.49
587.768	13208.1
588.127	13465.49
588.487	13830.46
588.846	14150.9
589.206	14424.79
589.565	14799.47
589.925	15128.27
590.284	15470.19
590.643	15855.71
591.003	16184.74
591.362	16587.67
591.721	17001.9
592.08	17515.78
592.44	18111.02
592.799	18414.52
593.158	19085.68
593.517	19528.84
593.876	20229.84
594.235	20679.09
594.593	21219.64
594.952	21829.34
595.311	22269.78
595.67	22808.3
596.029	23346.82
596.387	23823.19
596.746	24330.74
597.104	24488.25
597.463	24925.98
597.822	25380.89
598.18	25696.13
598.538	25965.5
598.897	26432.61
599.255	26484.13
599.613	27264
599.972	27452.02
600.33	27872.57
600.688	28080.02
601.046	28669.84
601.404	29173.1
601.762	29597.27
602.12	30206.52
602.478	30594.08
602.836	31140.06
603.194	31335.98
603.552	31889.87
603.91	32159.01
604.268	32769.84
604.625	33047.13
604.983	33458.87
605.341	33793.55
605.698	34240.31
606.056	34604.6
606.413	34873.29
606.771	35197.8
607.128	35331.81
607.485	35490.23
607.843	35490.45
608.2	35912.81
608.557	36148.96
608.914	36316.64
609.272	36548.95
609.629	36755.28
609.986	37322.95
610.343	37171.54
610.7	37799.09
611.057	37983.27
611.414	38210.15
611.771	38532.63
612.127	38991.83
612.484	39305.49
612.841	39615.31
613.198	39628.87
613.554	39861.64
613.911	40348.85
614.267	40555.4
614.624	40726.92
614.98	40997.42
615.337	41255.05
615.693	41325.78
616.05	41457.75
616.406	41671.08
616.762	41643.28
617.118	41595.6
617.475	41688.71
617.831	41731.19
618.187	41829.27
618.543	41989.26
618.899	42121.92
619.255	42199.65
619.611	42139.99
619.967	42377.95
620.323	42601.68
620.678	42631.51
621.034	42575.46
621.39	42786.53
621.746	42942.68
622.101	43441.65
622.457	43323.92
622.812	43638.71
623.168	43709.22
623.523	44056.33
623.879	44144.23
624.234	44072.37
624.589	44277.56
624.945	44309.43
625.3	44449.09
625.655	44401.86
626.01	44434.17
626.365	44445.47
626.72	44274.4
627.075	44163.22
627.43	44240.96
627.785	44063.33
628.14	44015.42
628.495	44074.63
628.85	44091.13
629.205	44021.53
629.559	44195.76
629.914	44049.32
630.269	44125.48
630.623	44002.09
630.978	44041.41
631.332	44411.8
631.687	44396.43
632.041	44339.94
632.396	44607.5
632.75	44450.67
633.104	44687.95
633.459	44672.81
633.813	44652.02
634.167	44764.11
634.521	44846.36
634.875	44794.16
635.229	44671.23
635.583	44570.66
635.937	44660.15
636.291	44613.6
636.645	44491.8
636.999	44330.9
637.352	44454.51
637.706	44110.34
638.06	44108.76
638.413	43868.54
638.767	43903.79
639.121	43690.01
639.474	43510.58
639.828	43512.84
640.181	43473.74
640.534	43741.31
640.888	43477.36
641.241	43469.45
641.594	43588.32
641.947	43736.11
642.301	43680.74
642.654	43886.16
643.007	43984.69
643.36	44016.1
643.713	43969.32
644.066	44187.62
644.419	44068.76
644.771	43701.76
645.124	43451.6
645.477	43286.18
645.83	42951.95
646.182	42925.28
646.535	42797.15
646.888	42734.55
647.24	42548.57
647.593	42792.63
647.945	42567.78
648.298	42210.73
648.65	42124.4
649.002	41902.03
649.355	41892.09
649.707	41850.96
650.059	41869.49
650.411	42337.05
650.763	42419.76
651.115	42928.22
651.467	42819.3
651.819	42605.07
652.171	42683.48
652.523	42593.32
652.875	42652.75
653.227	42683.93
653.578	42927.77
653.93	43072.62
654.282	42958.96
654.633	42872.18
654.985	43073.08
655.337	43010.93
655.688	43109.91
656.039	43246.63
656.391	42804.61
656.742	42895.23
657.094	43130.7
657.445	42931.39
657.796	42847.32
658.147	42763.48
658.498	42664.05
658.849	42655.01
659.2	42554.45
659.551	42265.19
659.902	42384.28
660.253	42205.98
660.604	42167.34
660.955	41897.29
661.306	42011.18
661.656	41952.88
662.007	41977.06
662.358	41989.49
662.708	41934.8
663.059	41912.66
663.409	41834.92
663.76	42119.2
664.11	42186.77
664.461	42364.17
664.811	42373.89
665.161	42338.63
665.511	42276.94
665.862	42395.58
666.212	42555.58
666.562	42637.83
666.912	42518.51
667.262	42546.99
667.612	42395.81
667.962	42495.69
668.312	42405.52
668.662	42556.03
669.011	42295.02
669.361	42196.72
669.711	42142.93
670.06	41987.68
670.41	41763.51
670.76	41746.11
671.109	41768.03
671.459	41616.17
671.808	41509.73
672.157	41555.6
672.507	41280.58
672.856	41195.39
673.205	41211.2
673.554	41314.25
673.904	41167.82
674.253	41580.69
674.602	41277.19
674.951	40848.73
675.3	40693.03
675.649	41568.48
675.998	41396.06
676.346	41675.15
676.695	41654.13
677.044	41387.47
677.393	41573.23
677.741	41732.32
678.09	41683.28
678.438	41716.05
678.787	41722.83
679.135	41594.02
679.484	41509.05
679.832	41547.47
680.181	41362.39
680.529	41339.34
680.877	41128.95
681.225	40950.65
681.573	41115.84
681.922	40778.45
682.27	40700.03
682.618	40550.88
682.966	40429.3
683.314	40484.22
683.661	40202.87
684.009	40124.23
684.357	39951.35
684.705	39865.25
685.053	39971.24
685.4	39824.57
685.748	39669.32
686.095	39653.73
686.443	39600.85
686.79	39598.82
687.138	39711.13
687.485	39845.82
687.832	39672.04
688.18	39689.66
688.527	39654.18
688.874	39619.38
689.221	39639.04
689.568	39549.55
689.915	39645.82
690.262	39590.46
690.609	39709.1
690.956	39431.59
691.303	39511.81
691.65	39210.35
691.997	39203.12
692.344	38966.74
692.69	38837.26
693.037	38872.96
693.383	38507.32
693.73	38532.18
694.077	38277.95
694.423	38100.78
694.769	37958.86
695.116	37755.93
695.462	37717.51
695.808	37484.52
696.155	37518.19
696.501	37253.12
696.847	37313.45
697.193	36987.36
697.539	37102.16
697.885	36744.2
698.231	36714.6
698.577	36684.77
698.923	36746.69
699.269	36509.18
699.614	36468.96
699.96	36523.87
700.306	36551.21
700.651	36451.33
700.997	36458.56
701.342	36499.46
701.688	36339.24
702.033	36327.49
702.379	36394.83
702.724	36368.39
703.069	36297.44
703.415	35954.62
703.76	36022.64
704.105	36064.45
704.45	35842.98
704.795	35663.55
705.14	35541.75
705.485	35584.01
705.83	35278.03
706.175	35248.2
706.52	35085.49
706.865	34953.97
707.209	34865.38
707.554	34563.24
707.899	34664.03
708.243	34226.53
708.588	34231.28
708.932	34039.19
709.277	34035.35
709.621	33754.23
709.966	33676.26
710.31	33899.53
710.654	33413.22
710.998	33544.51
711.342	33667
711.687	33674.91
712.031	33519.2
712.375	33517.17
712.719	33543.84
713.063	33570.28
713.407	33667.9
713.75	33592.2
714.094	33592.87
714.438	33438.75
714.782	33606.88
715.125	33408.7
715.469	33562.37
715.812	33309.72
716.156	33226.56
716.499	33335.48
716.843	33211.87
717.186	33084.19
717.53	33191.53
717.873	33131.64
718.216	33025.43
718.559	32831.09
718.902	32609.62
719.246	32564.2
719.589	32429.51
719.932	32311.33
720.275	32240.14
720.617	32092.8
720.96	31990.88
721.303	31887.16
721.646	31937.78
721.989	31666.6
722.331	31707.05
722.674	31611.23
723.016	31587.73
723.359	31487.84
723.701	31501.18
724.044	31261.64
724.386	31154.29
724.729	31371.46
725.071	31327.4
725.413	31262.77
725.755	31264.8
726.097	31196.78
726.439	31098.48
726.782	31208.53
727.124	31315.19
727.465	31085.82
727.807	31191.13
728.149	31147.74
728.491	31127.4
728.833	31150.45
729.175	31171.24
729.516	31079.72
729.858	31108.19
730.199	31180.06
730.541	30959.95
730.882	30926.73
731.224	30913.85
731.565	30740.75
731.906	30691.26
732.248	30688.54
732.589	30587.98
732.93	30313.86
733.271	30278.61
733.612	30260.08
733.953	30240.42
734.294	30019.41
734.635	29956.36
734.976	29893.54
735.317	29604.96
735.658	29634.33
735.999	29618.29
736.339	29536.48
736.68	29661.23
737.021	29514.11
737.361	29454
737.702	29429.14
738.042	29291.97
738.383	29235.25
738.723	29336.71
739.063	29318.64
739.404	29425.75
739.744	29449.48
740.084	29260.33
740.424	29413.55
740.764	29382.36
741.104	29581.91
741.444	29393.89
741.784	29243.38
742.124	29553.21
742.464	29472.53
742.804	29425.75
743.143	29412.87
743.483	29352.53
743.823	29196.83
744.162	29274.12
744.502	29218.53
744.841	29259.2
745.181	29232.99
745.52	29118.19
745.86	29140.56
746.199	28845.2
746.538	28885.65
746.877	28821.25
747.216	28679.33
747.556	28525.89
747.895	28449.05
748.234	28295.61
748.573	28174.94
748.911	28217.87
749.25	28096.3
749.589	28070.53
749.928	27817.66
750.267	27849.52
750.605	27784.89
750.944	27710.77
751.283	27684.1
751.621	27723.65
751.96	27458.57
752.298	27490.89
752.636	27569.08
752.975	27351.68
753.313	27284.57
753.651	27437.1
753.989	27408.86
754.327	27279.59
754.666	27257.22
755.004	27304.68
755.342	27392.13
755.679	27246.37
756.017	27181.97
756.355	27303.55
756.693	27195.3
757.031	27322.3
757.368	27202.76
757.706	27141.07
758.044	27009.09
758.381	27073.95
758.719	26965.25
759.056	26896.78
759.394	26828.76
759.731	26609.78
760.068	26621.76
760.405	26478.26
760.743	26354.87
