Data from red_shiny_book_FLMS001491_00025.txt Node
Date: Wed Feb 08 15:24:38 GMT 2017
User: dcchb
Spectrometer: FLMS00149
Trigger mode: 0
Integration Time (sec): 2.000000E-2
Scans to average: 10
Electric dark correction enabled: true
Nonlinearity correction enabled: false
Boxcar width: 0
XAxis mode: Wavelengths
Number of Pixels in Spectrum: 2048
>>>>>Begin Spectral Data<<<<<
341.393	-18.9
341.776	-18.9
342.16	-18.9
342.543	-61.61
342.927	-53.25
343.31	-74.72
343.693	-61.16
344.077	-54.83
344.46	-82.62
344.843	-49.86
345.226	-54.15
345.61	-14.15
345.993	-2.63
346.376	6.41
346.759	15.9
347.142	21.1
347.525	35.79
347.908	34.43
348.291	70.82
348.674	85.73
349.057	123.92
349.44	149.01
349.823	130.7
350.206	163.7
350.588	201.89
350.971	205.05
351.354	226.07
351.737	252.28
352.119	263.58
352.502	267.87
352.884	280.98
353.267	289.34
353.65	293.18
354.032	283.24
354.414	315.33
354.797	343.13
355.179	317.59
355.562	336.12
355.944	332.73
356.326	343.58
356.709	354.43
357.091	340.64
357.473	359.85
357.855	344.48
358.238	351.04
358.62	336.8
359.002	356.23
359.384	344.26
359.766	334.54
360.148	336.12
360.53	352.84
360.912	332.96
361.294	328.44
361.676	341.32
362.057	368.44
362.439	334.09
362.821	312.62
363.203	315.33
363.584	345.39
363.966	330.92
364.348	336.8
364.729	327.08
365.111	322.11
365.493	336.57
365.874	340.87
366.256	312.39
366.637	325.95
367.019	309.23
367.4	311.04
367.781	333.64
368.163	325.95
368.544	343.35
368.925	312.84
369.306	313.52
369.688	312.39
370.069	317.59
370.45	313.52
370.831	314.43
371.212	316.23
371.593	338.83
371.974	325.5
372.355	329.34
372.736	335.22
373.117	325.27
373.498	345.61
373.879	319.85
374.26	327.53
374.641	351.04
375.021	335.67
375.402	313.3
375.783	351.71
376.163	330.02
376.544	333.64
376.925	357.36
377.305	346.74
377.686	342
378.066	342
378.447	365.5
378.827	348.55
379.208	351.49
379.588	351.71
379.968	347.65
380.349	341.54
380.729	351.71
381.109	348.55
381.489	336.12
381.87	354.43
382.25	355.78
382.63	349.91
383.01	364.37
383.39	367.08
383.77	355.56
384.15	345.61
384.53	372.28
384.91	373.86
385.29	365.05
385.67	351.26
386.049	373.63
386.429	366.18
386.809	380.41
387.189	389.45
387.568	385.16
387.948	374.99
388.328	377.02
388.707	386.97
389.087	391.49
389.466	376.12
389.846	392.84
390.225	391.94
390.605	379.28
390.984	390.81
391.363	382
391.743	393.75
392.122	391.26
392.501	408.44
392.881	406.63
393.26	398.04
393.639	410.02
394.018	419.73
394.397	391.71
394.776	399.4
395.155	418.83
395.534	388.78
395.913	411.83
396.292	401.43
396.671	411.15
397.05	416.8
397.429	440.53
397.808	414.09
398.186	422.67
398.565	399.17
398.944	430.36
399.323	455.89
399.701	410.47
400.08	444.37
400.458	434.42
400.837	448.66
401.215	430.58
401.594	424.48
401.972	451.82
402.351	435.33
402.729	457.02
403.107	462.22
403.486	443.91
403.864	457.7
404.242	467.64
404.62	459.06
404.999	490.24
405.377	472.84
405.755	454.99
406.133	484.82
406.511	491.37
406.889	502.44
407.267	481.88
407.645	481.65
408.023	505.38
408.401	462.45
408.779	510.13
409.156	508.32
409.534	502.44
409.912	510.81
410.29	498.6
410.667	507.87
411.045	502.67
411.422	517.13
411.8	538.83
412.178	530.92
412.555	543.35
412.933	545.83
413.31	549.67
413.687	553.06
414.065	560.97
414.442	562.78
414.819	572.27
415.197	566.85
415.574	580.18
415.951	588.77
416.328	612.27
416.705	612.05
417.082	604.36
417.46	630.35
417.837	603.23
418.214	605.49
418.591	621.76
418.967	629.67
419.344	619.73
419.721	646.4
420.098	666.51
420.475	659.73
420.852	674.87
421.228	654.3
421.605	641.65
421.982	668.32
422.358	662.44
422.735	683
423.111	673.29
423.488	695.21
423.864	684.59
424.241	723.46
424.617	718.94
424.994	713.96
425.37	741.53
425.746	716
426.123	729.78
426.499	739.73
426.875	713.29
427.251	729.78
427.627	742.89
428.003	750.12
428.379	773.17
428.756	765.04
429.132	766.62
429.507	751.7
429.883	782.44
430.259	783.57
430.635	767.52
431.011	786.73
431.387	796.45
431.763	812.49
432.138	821.08
432.514	836.67
432.89	860.85
433.265	878.71
433.641	886.39
434.016	871.7
434.392	894.98
434.767	870.12
435.143	898.14
435.518	865.15
435.894	874.19
436.269	920.06
436.644	925.71
437.02	926.16
437.395	960.29
437.77	981.08
438.145	958.03
438.52	948.08
438.895	995.31
439.271	957.57
439.646	978.82
440.021	964.35
440.395	985.82
440.77	991.7
441.145	986.27
441.52	1023.56
441.895	1053.16
442.27	1044.58
442.645	1056.78
443.019	1070.34
443.394	1033.96
443.769	1053.62
444.143	1031.02
444.518	1036.67
444.892	1031.92
445.267	1034.18
445.641	1068.98
446.016	1060.17
446.39	1110.79
446.764	1153.5
447.139	1127.51
447.513	1130.9
447.887	1126.83
448.262	1090.9
448.636	1094.07
449.01	1134.29
449.384	1117.12
449.758	1119.38
450.132	1137.68
450.506	1152.6
450.88	1168.64
451.254	1194.18
451.628	1230.56
452.002	1210.9
452.376	1256.55
452.75	1209.09
453.123	1217.23
453.497	1247.06
453.871	1202.99
454.244	1188.98
454.618	1206.15
454.992	1218.13
455.365	1241.18
455.739	1289.77
456.112	1321.18
456.486	1341.07
456.859	1340.84
457.232	1344.91
457.606	1319.82
457.979	1357.79
458.352	1329.54
458.725	1286.15
459.099	1330.22
459.472	1343.33
459.845	1367.96
460.218	1359.82
460.591	1400.27
460.964	1435.3
461.337	1484.34
461.71	1505.58
462.083	1545.13
462.456	1532.93
462.829	1508.52
463.201	1479.14
463.574	1451.57
463.947	1475.75
464.32	1462.19
464.692	1475.75
465.065	1520.95
465.438	1552.36
465.81	1570.66
466.183	1645.92
466.555	1709.87
466.928	1722.75
467.3	1678.68
467.672	1705.12
468.045	1725.24
468.417	1664
468.789	1648.85
469.161	1674.17
469.534	1684.33
469.906	1717.55
470.278	1739.7
470.65	1768.85
471.022	1838.45
471.394	1915.97
471.766	1941.73
472.138	1980.82
472.51	1998.45
472.882	2004.78
473.253	2009.98
473.625	2007.94
473.997	1972.01
474.369	1969.52
474.74	1958.23
475.112	1993.48
475.484	2037.77
475.855	2113.25
476.227	2137.2
476.598	2239.35
476.97	2294.49
477.341	2366.12
477.713	2391.43
478.084	2400.93
478.455	2438.44
478.827	2393.24
479.198	2401.15
479.569	2355.73
479.94	2381.27
480.311	2395.5
480.682	2457.2
481.053	2538.1
481.424	2588.72
481.795	2669.39
482.166	2772.67
482.537	2850.41
482.908	2971.76
483.279	2977.86
483.65	3019.67
484.021	3008.82
484.391	2974.02
484.762	2936.96
485.133	2866.45
485.503	2920.01
485.874	2953.45
486.244	2977.41
486.615	3076.16
486.985	3196.38
487.356	3310.51
487.726	3391.63
488.097	3534.23
488.467	3602.93
488.837	3658.52
489.207	3724.73
489.578	3710.04
489.948	3607.45
490.318	3599.09
490.688	3582.36
491.058	3559.31
491.428	3580.56
491.798	3626.88
492.168	3726.99
492.538	3814
492.908	3901.45
493.278	4045.63
493.648	4069.81
494.017	4250.59
494.387	4242.91
494.757	4342.34
495.126	4378.95
495.496	4326.3
495.866	4273.42
496.235	4221.67
496.605	4175.79
496.974	4161.56
497.344	4150.71
497.713	4170.82
498.082	4200.65
498.452	4315.45
498.821	4408.78
499.19	4569.68
499.559	4682.9
499.928	4811.48
500.298	4834.76
500.667	4890.13
501.036	4926.28
501.405	4844.7
501.774	4773.74
502.143	4676.35
502.512	4656.91
502.88	4626.4
503.249	4519.29
503.618	4582.34
503.987	4587.76
504.356	4676.12
504.724	4824.36
505.093	4902.78
505.462	5004.7
505.83	5119.5
506.199	5282.43
506.567	5350.68
506.936	5360.17
507.304	5328.08
507.672	5272.26
508.041	5167.86
508.409	5061.42
508.777	5021.65
509.145	4951.37
509.514	4874.98
509.882	4911.37
510.25	4966.28
510.618	5108.88
510.986	5193.62
511.354	5369.21
511.722	5508.64
512.09	5688.3
512.458	5717.45
512.826	5809.42
513.193	5753.61
513.561	5765.81
513.929	5713.83
514.297	5589.54
514.664	5508.41
515.032	5387.29
515.4	5304.8
515.767	5279.72
516.135	5299.15
516.502	5316.56
516.869	5445.59
517.237	5589.09
517.604	5659.37
517.972	5926.71
518.339	6040.15
518.706	6154.73
519.073	6228.4
519.44	6292.57
519.808	6300.26
520.175	6207.15
520.542	6160.6
520.909	5998.35
521.276	5820.72
521.643	5806.03
522.009	5694.62
522.376	5680.84
522.743	5733.49
523.11	5815.3
523.477	5974.16
523.843	6077.21
524.21	6286.93
524.577	6468.62
524.943	6661.6
525.31	6786.12
525.676	6955.61
526.043	6946.57
526.409	6970.75
526.776	6949.51
527.142	6800.58
527.508	6702.06
527.874	6593.81
528.241	6495.73
528.607	6409.41
528.973	6374.61
529.339	6425.68
529.705	6441.27
530.071	6559.01
530.437	6792.9
530.803	6973.23
531.169	7199.9
531.535	7297.97
531.901	7541.36
532.267	7684.63
532.632	7785.19
532.998	7849.37
533.364	7809.82
533.73	7670.62
534.095	7611.86
534.461	7450.51
534.826	7272.89
535.192	7124.87
535.557	7120.58
535.923	7077.41
536.288	7050.07
536.653	7179.33
537.019	7282.15
537.384	7467.01
537.749	7764.63
538.114	7934.34
538.479	8193.09
538.845	8327.55
539.21	8495.68
539.575	8520.31
539.94	8591.5
540.305	8483.7
540.67	8403.03
541.034	8248.23
541.399	8105.18
541.764	8006.43
542.129	7877.62
542.494	7752.2
542.858	7732.76
543.223	7673.33
543.587	7791.52
543.952	7925.53
544.316	8063.83
544.681	8186.54
545.045	8450.94
545.41	8712.85
545.774	8922.34
546.138	9027.64
546.503	9173.4
546.867	9196.91
547.231	9199.84
547.595	9138.83
547.959	8963.46
548.324	8832.62
548.688	8692.96
549.052	8507.66
549.416	8301.11
549.779	8228.34
550.143	8192.41
550.507	8180.21
550.871	8247.33
551.235	8276.03
551.599	8458.62
551.962	8645.96
552.326	8855.45
552.689	9105.83
553.053	9230.8
553.417	9449.78
553.78	9697.91
554.143	9642.32
554.507	9693.39
554.87	9523.68
555.234	9585.82
555.597	9378.6
555.96	9166.17
556.323	8956.46
556.686	8808.21
557.05	8683.92
557.413	8648.9
557.776	8606.41
558.139	8608.9
558.502	8677.6
558.865	8816.12
559.228	9048.43
559.59	9245.49
559.953	9417.24
560.316	9765.7
560.679	9916.66
561.041	10154.39
561.404	10261.51
561.767	10323.43
562.129	10188.52
562.492	10258.35
562.854	10071.91
563.217	9850.22
563.579	9741.98
563.941	9491.36
564.304	9344.7
564.666	9207.53
565.028	9093.18
565.39	9134.08
565.753	9107.42
566.115	9259.5
566.477	9411.14
566.839	9598.93
567.201	9793.95
567.563	9992.36
567.925	10346.93
568.287	10552.58
568.648	10783.98
569.01	10859.91
569.372	11012.68
569.734	11019.46
570.095	10913.02
570.457	10928.16
570.819	10712.35
571.18	10622.86
571.542	10488.17
571.903	10152.36
572.265	9986.04
572.626	9951.24
572.987	9826.72
573.349	9842.99
573.71	9970.67
574.071	9960.05
574.432	10196.43
574.794	10490.88
575.155	10673.02
575.516	10956.63
575.877	11394.14
576.238	11581.93
576.599	11854.01
576.96	12093.33
577.32	12266.88
577.681	12259.2
578.042	12426.65
578.403	12324.28
578.763	12280.21
579.124	12143.95
579.485	12084.96
579.845	11932.88
580.206	11916.16
580.566	11878.64
580.927	11847.68
581.287	11957.06
581.648	12087.45
582.008	12432.75
582.368	12810.6
582.728	13048.33
583.089	13594.98
583.449	14001.52
583.809	14554.05
584.169	15081.72
584.529	15583.18
584.889	16157.4
585.249	16485.75
585.609	16966.64
585.969	17351.72
586.329	17618.6
586.688	18005.71
587.048	18085.71
587.408	18462.65
587.768	18584.68
588.127	18890.89
588.487	18948.51
588.846	19468.27
589.206	19521.61
589.565	19863.52
589.925	20421.92
590.284	20805.64
590.643	21397.94
591.003	22178.26
591.362	22929.2
591.721	23531.44
592.08	24231.09
592.44	25029.26
592.799	25762.35
593.158	26555.09
593.517	27038.92
593.876	27662.86
594.235	28234.14
594.593	28719.78
594.952	29320.44
595.311	29499.2
595.67	29895.34
596.029	30461.88
596.387	30596.34
596.746	30989.1
597.104	31114.07
597.463	31406.49
597.822	31747.05
598.18	32173.25
598.538	32581.37
598.897	33328.02
599.255	33578.18
599.613	34716.69
599.972	35031.03
600.33	35888.63
600.688	36479.13
601.046	37263.29
601.404	37941.01
601.762	38497.6
602.12	39238.38
602.478	39781.19
602.836	40345.46
603.194	40595.63
603.552	40949.97
603.91	41060.47
604.268	41311.77
604.625	41525.77
604.983	41876.95
605.341	41800.34
605.698	42185.64
606.056	42358.52
606.413	42452.53
606.771	42804.38
607.128	42929.8
607.485	43214.99
607.843	43465.61
608.2	44089.77
608.557	44537.44
608.914	44874.84
609.272	45390.98
609.629	45876.84
609.986	46532.19
610.343	46747.1
610.7	47293.53
611.057	47642.67
611.414	47805.38
611.771	48149.78
612.127	48493.05
612.484	48531.24
612.841	48833.38
613.198	48713.83
613.554	48787.05
613.911	49014.62
614.267	48925.35
614.624	48859.37
614.98	48962.87
615.337	49108.4
615.693	48930.32
616.05	48992.47
616.406	49210.99
616.762	49053.71
617.118	49296.87
617.475	49582.28
617.831	49962.16
618.187	50094.81
618.543	50441.47
618.899	50681.24
619.255	50803.49
619.611	51004.17
619.967	51345.85
620.323	51697.71
620.678	51622.46
621.034	51622.46
621.39	51777.25
621.746	51897.03
622.101	52097.7
622.457	51843.69
622.812	51824.48
623.168	51930.02
623.523	51764.6
623.879	51860.64
624.234	51456.81
624.589	51596.02
624.945	51512.18
625.3	51629.24
625.655	51480.77
626.01	51516.24
626.365	51583.81
626.72	51605.51
627.075	51606.86
627.43	51771.38
627.785	51851.15
628.14	52081.65
628.495	52169.11
628.85	52264.47
629.205	52424.02
629.559	52699.94
629.914	52648.87
630.269	52764.35
630.623	52894.29
630.978	52811.8
631.332	52878.69
631.687	52968.18
632.041	52607.97
632.396	52720.05
632.75	52507.63
633.104	52397.58
633.459	52212.05
633.813	52077.36
634.167	51945.16
634.521	51885.73
634.875	51850.25
635.229	51684.15
635.583	51522.57
635.937	51570.93
636.291	51516.47
636.645	51573.19
636.999	51600.76
637.352	51829
637.706	51734.54
638.06	52114.42
638.413	52123.91
638.767	52160.75
639.121	52273.96
639.474	52170.69
639.828	52315.55
640.181	52400.97
640.534	52539.72
640.888	52438.25
641.241	52254.98
641.594	52314.19
641.947	52253.63
642.301	52136.57
642.654	52010.24
643.007	51928.44
643.36	51748.55
643.713	51504.72
644.066	51525.96
644.419	51296.82
644.771	51015.24
645.124	50544.97
645.477	50367.57
645.83	50247.13
646.182	50088.03
646.535	50062.95
646.888	50086.9
647.24	49926.23
647.593	50234.02
647.945	50367.12
648.298	50260.23
648.65	50394.92
649.002	50340
649.355	50716.49
649.707	50749.71
650.059	50885.98
650.411	51365.74
650.763	51422.24
651.115	51834.88
651.467	51630.14
651.819	51588.56
652.171	51434.89
652.523	51249.81
652.875	51199.87
653.227	51039.65
653.578	51062.92
653.93	50834.91
654.282	50686.21
654.633	50395.37
654.985	50281.25
655.337	50267.92
655.688	50144.75
656.039	50349.95
656.391	49999.67
656.742	50154.7
657.094	50078.99
657.445	50302.49
657.796	50264.98
658.147	50381.81
658.498	50339.1
658.849	50622.71
659.2	50587.68
659.551	50641.92
659.902	50854.79
660.253	50832.87
660.604	51118.29
660.955	50984.28
661.306	51099.98
661.656	50965.3
662.007	51080.32
662.358	51027.44
662.708	50928.01
663.059	50773.66
663.409	50487.12
663.76	50640.56
664.11	50430.62
664.461	50379.33
664.811	50192.44
665.161	50133
665.511	49747.93
665.862	49757.42
666.212	49764.2
666.562	49797.87
666.912	49577.76
667.262	49634.03
667.612	49530.31
667.962	49660.47
668.312	49687.82
668.662	49919.45
669.011	49903.41
669.361	49975.95
669.711	50114.7
670.06	50224.07
670.41	50161.25
670.76	50273.79
671.109	50539.09
671.459	50537.96
671.808	50518.53
672.157	50614.57
672.507	50488.02
672.856	50614.57
673.205	50469.72
673.554	50562.6
673.904	50326.9
674.253	50423.84
674.602	50151.76
674.951	49527.37
675.3	49205.12
675.649	49589.74
675.998	49529.63
676.346	49338
676.695	49477.43
677.044	48944.11
677.393	49050.55
677.741	48940.94
678.09	48843.09
678.438	48807.39
678.787	48892.81
679.135	48885.81
679.484	48789.08
679.832	48968.29
680.181	48885.81
680.529	49097.32
680.877	49031.79
681.225	49219.13
681.573	49514.04
681.922	49315.17
682.27	49324.44
682.618	49396.3
682.966	49389.75
683.314	49519.46
683.661	49444.66
684.009	49372.35
684.357	49356.75
684.705	49044.44
685.053	49123.76
685.4	49058.68
685.748	48712.25
686.095	48693.49
686.443	48355.2
686.79	48049.22
687.138	48113.4
687.485	47983.46
687.832	47696.91
688.18	47607.87
688.527	47292.63
688.874	47163.82
689.221	46952.52
689.568	46910.49
689.915	46770.38
690.262	46908.46
690.609	46687.67
690.956	46648.12
691.303	46731.96
691.65	46642.7
691.997	46649.25
692.344	46687.44
692.69	46922.69
693.037	47030.49
693.383	46805.63
693.73	47012.18
694.077	46821.23
694.423	46967.44
694.769	47037.72
695.116	46921.11
695.462	46822.13
695.808	46717.27
696.155	46738.06
696.501	46487.22
696.847	46209.04
697.193	45915.04
697.539	46028.03
697.885	45520.92
698.231	45236.41
698.577	45115.96
698.923	44989.86
699.269	44614.73
699.614	44283.44
699.96	44155.53
700.306	43975.2
700.651	43848.2
700.997	43681.42
701.342	43554.65
701.688	43482.78
702.033	43323.24
702.379	43326.63
702.724	43149.68
703.069	43444.14
703.415	43052.96
703.76	43239.17
704.105	43344.48
704.45	43306.74
704.795	43189.91
705.14	43278.04
705.485	43327.99
705.83	43263.35
706.175	43413.18
706.52	43375.67
706.865	43304.93
707.209	43179.51
707.554	43340.41
707.899	43287.99
708.243	42920.09
708.588	42942.68
708.932	42614.33
709.277	42633.31
709.621	42345.86
709.966	42108.58
710.31	42078.53
710.654	41650.74
710.998	41546.79
711.342	41393.35
711.687	41130.98
712.031	40709.75
712.375	40783.65
712.719	40558.57
713.063	40368.74
713.407	40384.33
713.75	40246.71
714.094	40424.11
714.438	40142.76
714.782	40228.63
715.125	40076.32
715.469	40164.23
715.812	39981.86
716.156	39827.74
716.499	40144.34
716.843	40365.8
717.186	40077
717.53	40362.87
717.873	40431.34
718.216	40367.84
718.559	40429.3
718.902	40199.25
719.246	40335.75
719.589	40328.06
719.932	40066.38
720.275	40238.35
720.617	40218.46
720.96	40260.5
721.303	40063.21
721.646	40025.92
721.989	39667.52
722.331	39631.13
722.674	39378.26
723.016	39217.81
723.359	39096.01
723.701	39087.42
724.044	38703.7
724.386	38409.24
724.729	38443.59
725.071	38133.55
725.413	37906.43
725.755	37829.37
726.097	37657.4
726.439	37610.17
726.782	37510.96
727.124	37788.02
727.465	37510.96
727.807	37517.06
728.149	37356.16
728.491	37436.61
728.833	37591.64
729.175	37483.39
729.516	37557.52
729.858	37731.52
730.199	37844.97
730.541	37790.28
730.882	37749.6
731.224	38002.48
731.565	37779.2
731.906	38003.83
732.248	38041.8
732.589	38029.59
732.93	37697.4
733.271	37728.36
733.612	37834.34
733.953	37701.01
734.294	37528.36
734.635	37419.67
734.976	37396.84
735.317	37152.78
735.658	37079.56
735.999	36941.26
736.339	36696.97
736.68	36731.55
737.021	36590.54
737.361	36172.92
737.702	36331.78
738.042	36231.45
738.383	35889.76
738.723	35958.69
739.063	35619.26
739.404	35690.67
739.744	35594.18
740.084	35487.51
740.424	35599.6
740.764	35360.28
741.104	35671.46
741.444	35422.43
741.784	35536.1
742.124	35586.72
742.464	35627.62
742.804	35527.29
743.143	35569.09
743.483	35580.17
743.823	35663.1
744.162	35646.61
744.502	35829.2
744.841	35750.78
745.181	35941.96
745.52	35923.43
745.86	35889.54
746.199	35896.32
746.538	35842.08
746.877	35866.94
747.216	35720.5
747.556	35654.06
747.895	35590.79
748.234	35371.58
748.573	35197.8
748.911	35213.17
749.25	35194.64
749.589	34760.98
749.928	34779.74
750.267	34655.22
750.605	34456.13
750.944	34442.12
751.283	34050.04
751.621	34182.46
751.96	33671.52
752.298	33690.5
752.636	33575.93
752.975	33447.57
753.313	33179.33
753.651	33312.2
753.989	33112.89
754.327	33114.24
754.666	32894.14
755.004	33130.51
755.342	33100.68
755.679	33006.67
756.017	32921.48
756.355	32975.26
756.693	32965.32
757.031	33142.04
757.368	32980.46
757.706	32989.27
758.044	33022.27
758.381	33078.99
758.719	33083.06
759.056	33108.59
