Data from red_cardboard_box_FLMS001491_00086.txt Node
Date: Wed Feb 08 11:33:16 GMT 2017
User: dcchb
Spectrometer: FLMS00149
Trigger mode: 0
Integration Time (sec): 2.000000E-2
Scans to average: 10
Electric dark correction enabled: true
Nonlinearity correction enabled: false
Boxcar width: 0
XAxis mode: Wavelengths
Number of Pixels in Spectrum: 2048
>>>>>Begin Spectral Data<<<<<
341.393	-39.84
341.776	-39.84
342.16	-39.84
342.543	-67.41
342.927	-76.9
343.31	-50.92
343.693	-63.35
344.077	-70.58
344.46	-68.32
344.843	-46.62
345.226	-46.4
345.61	-21.09
345.993	-20.18
346.376	-10.01
346.759	7.16
347.142	12.13
347.525	27.95
347.908	78.35
348.291	75.63
348.674	76.54
349.057	119.7
349.44	123.09
349.823	130.32
350.206	148.85
350.588	195.86
350.971	208.74
351.354	212.58
351.737	234.95
352.119	257.55
352.502	270.66
352.884	289.87
353.267	298.68
353.65	276.76
354.032	318.79
354.414	317.89
354.797	309.3
355.179	325.12
355.562	329.64
355.944	321.28
356.326	353.14
356.709	337.32
357.091	349.07
357.473	337.32
357.855	343.88
358.238	363.31
358.62	325.57
359.002	340.71
359.384	369.86
359.766	348.85
360.148	341.84
360.53	352.01
360.912	338.68
361.294	345.01
361.676	341.62
362.057	351.78
362.439	330.32
362.821	340.49
363.203	323.08
363.584	333.93
363.966	312.24
364.348	314.72
364.729	340.71
365.111	329.86
365.493	354.5
365.874	315.4
366.256	304.78
366.637	326.47
367.019	307.72
367.4	324.89
367.781	340.49
368.163	323.31
368.544	318.34
368.925	335.06
369.306	316.53
369.688	340.71
370.069	320.37
370.45	316.76
370.831	318.34
371.212	333.25
371.593	325.57
371.974	305.01
372.355	308.4
372.736	324.21
373.117	319.92
373.498	303.2
373.879	312.69
374.26	330.32
374.641	313.37
375.021	326.7
375.402	322.63
375.783	326.47
376.163	327.15
376.544	332.35
376.925	339.13
377.305	343.88
377.686	338.45
378.066	333.25
378.447	348.17
378.827	327.83
379.208	320.15
379.588	333.25
379.968	344.1
380.349	335.06
380.729	332.12
381.109	328.96
381.489	313.14
381.87	327.83
382.25	355.4
382.63	329.41
383.01	347.72
383.39	331.22
383.77	335.74
384.15	331.22
384.53	350.2
384.91	350.43
385.29	345.23
385.67	352.01
386.049	365.34
386.429	342.52
386.809	337.77
387.189	348.62
387.568	338.9
387.948	343.42
388.328	359.69
388.707	352.91
389.087	371.67
389.466	344.55
389.846	346.36
390.225	353.14
390.605	352.69
390.984	397.21
391.363	361.05
391.743	354.5
392.122	360.6
392.501	368.51
392.881	372.35
393.26	378.45
393.639	355.17
394.018	394.04
394.397	366.93
394.776	370.09
395.155	372.12
395.534	378.22
395.913	364.21
396.292	383.42
396.671	362.63
397.05	380.48
397.429	382.07
397.808	386.59
398.186	357.21
398.565	375.96
398.944	378.22
399.323	381.61
399.701	378.9
400.08	394.04
400.458	378.68
400.837	396.98
401.215	384.78
401.594	391.56
401.972	389.75
402.351	377.77
402.729	387.04
403.107	403.53
403.486	423.65
403.864	379.58
404.242	397.21
404.62	404.89
404.999	415.06
405.377	408.05
405.755	399.01
406.133	431.56
406.511	401.05
406.889	407.83
407.267	399.24
407.645	407.6
408.023	405.57
408.401	406.25
408.779	412.8
409.156	407.6
409.534	412.35
409.912	433.14
410.29	425.68
410.667	406.92
411.045	425.23
411.422	442.18
411.8	450.76
412.178	428.62
412.555	424.33
412.933	463.42
413.31	442.18
413.687	439.69
414.065	442.4
414.442	457.54
414.819	452.57
415.197	448.51
415.574	452.57
415.951	446.25
416.328	460.93
416.705	454.83
417.082	467.04
417.46	460.71
417.837	447.15
418.214	455.06
418.591	457.32
418.967	455.96
419.344	465.68
419.721	457.09
420.098	486.7
420.475	481.95
420.852	479.24
421.228	478.11
421.605	491.22
421.982	493.93
422.358	478.33
422.735	486.24
423.111	484.66
423.488	496.87
423.864	500.26
424.241	514.72
424.617	498.67
424.994	510.65
425.37	500.71
425.746	509.97
426.123	522.4
426.499	509.52
426.875	516.3
427.251	515.85
427.627	519.92
428.003	528.5
428.379	545.9
428.756	526.02
429.132	533.25
429.507	533.7
429.883	527.6
430.259	529.41
430.635	541.16
431.011	542.74
431.387	556.07
431.763	540.48
432.138	558.56
432.514	558.78
432.89	555.4
433.265	560.37
433.641	574.38
434.016	587.03
434.392	582.51
434.767	565.56
435.143	593.36
435.518	600.37
435.894	586.13
436.269	603.3
436.644	603.53
437.02	603.08
437.395	601.72
437.77	589.29
438.145	637.88
438.52	624.32
438.895	616.18
439.271	611.21
439.646	645.79
440.021	628.84
440.395	629.52
440.77	647.6
441.145	619.57
441.52	658.44
441.895	636.52
442.27	667.93
442.645	657.54
443.019	653.7
443.394	663.41
443.769	674.04
444.143	665.45
444.518	650.31
444.892	651.21
445.267	658.67
445.641	701.15
446.016	688.95
446.39	679.69
446.764	686.47
447.139	662.74
447.513	681.95
447.887	685.79
448.262	679.23
448.636	686.69
449.01	703.64
449.384	689.85
449.758	713.13
450.132	711.1
450.506	707.71
450.88	723.07
451.254	700.48
451.628	732.57
452.002	718.78
452.376	704.54
452.75	728.95
453.123	736.41
453.497	748.84
453.871	716.52
454.244	755.39
454.618	762.62
454.992	764.43
455.365	770.98
455.739	766.91
456.112	768.95
456.486	800.13
456.859	774.82
457.232	797.42
457.606	799.23
457.979	793.35
458.352	812.79
458.725	808.27
459.099	836.97
459.472	827.7
459.845	826.12
460.218	824.99
460.591	859.57
460.964	829.29
461.337	838.33
461.71	850.98
462.083	854.37
462.456	886.69
462.829	871.09
463.201	902.96
463.574	892.34
463.947	877.42
464.32	896.18
464.692	904.09
465.065	908.61
465.438	916.06
465.81	935.5
466.183	936.4
466.555	949.06
466.928	944.99
467.3	954.71
467.672	961.71
468.045	973.24
468.417	972.33
468.789	990.41
469.161	987.02
469.534	1019.79
469.906	1038.55
470.278	984.54
470.65	1021.82
471.022	1064.08
471.394	1045.55
471.766	1072.22
472.138	1068.83
472.51	1085.55
472.882	1084.65
473.253	1117.64
473.625	1126.68
473.997	1110.63
474.369	1154.93
474.74	1163.29
475.112	1153.8
475.484	1155.83
475.855	1207.13
476.227	1210.07
476.598	1227.47
476.97	1253.91
477.341	1225.43
477.713	1257.3
478.084	1284.64
478.455	1305.43
478.827	1303.62
479.198	1358.31
479.569	1322.38
479.94	1366.45
480.311	1373.23
480.682	1389.05
481.053	1435.6
481.424	1439.89
481.795	1466.11
482.166	1454.13
482.537	1471.76
482.908	1531.19
483.279	1508.36
483.65	1523.05
484.021	1542.94
484.391	1607.8
484.762	1582.03
485.133	1607.8
485.503	1587.68
485.874	1646.89
486.244	1630.62
486.615	1678.98
486.985	1676.95
487.356	1707.46
487.726	1727.57
488.097	1751.3
488.467	1767.11
488.837	1814.8
489.207	1820.45
489.578	1869.03
489.948	1869.94
490.318	1879.2
490.688	1888.92
491.058	1911.74
491.428	1933.89
491.798	1964.4
492.168	1994
492.538	1987.22
492.908	1995.13
493.278	2043.04
493.648	2037.16
494.017	2063.83
494.387	2079.65
494.757	2097.05
495.126	2125.75
495.496	2116.48
495.866	2165.07
496.235	2137.05
496.605	2177.5
496.974	2191.96
497.344	2210.49
497.713	2270.38
498.082	2241.23
498.452	2257.05
498.821	2285.52
499.19	2273.09
499.559	2303.15
499.928	2283.71
500.298	2341.11
500.667	2341.11
501.036	2323.48
501.405	2407.78
501.774	2368.45
502.143	2404.39
502.512	2378.17
502.88	2430.83
503.249	2441.9
503.618	2460.2
503.987	2458.4
504.356	2491.62
504.724	2484.38
505.093	2518.06
505.462	2513.54
505.83	2533.42
506.199	2559.86
506.567	2617.71
506.936	2557.38
507.304	2655.45
507.672	2614.1
508.041	2662.46
508.409	2673.08
508.777	2708.56
509.145	2699.07
509.514	2682.57
509.882	2745.85
510.25	2775
510.618	2767.54
510.986	2764.15
511.354	2807.54
511.722	2804.15
512.09	2881.66
512.458	2892.96
512.826	2852.96
513.193	2902.45
513.561	2901.77
513.929	2941.55
514.297	2978.16
514.664	2960.98
515.032	3004.14
515.4	3040.08
515.767	3020.41
516.135	3070.36
516.502	3063.8
516.869	3113.97
517.237	3102.22
517.604	3137.02
517.972	3139.96
518.339	3169.56
518.706	3191.71
519.073	3183.8
519.44	3245.04
519.808	3255.44
520.175	3262.22
520.542	3294.76
520.909	3300.63
521.276	3335.43
521.643	3414.75
522.009	3392.83
522.376	3436.45
522.743	3396.45
523.11	3457.24
523.477	3531.59
523.843	3551.25
524.21	3592.38
524.577	3601.87
524.943	3597.12
525.31	3649.78
525.676	3663.56
526.043	3702.2
526.409	3732.71
526.776	3758.93
527.142	3752.6
527.508	3825.82
527.874	3871.01
528.241	3867.17
528.607	3888.19
528.973	3897.23
529.339	3928.41
529.705	3914.18
530.071	3963.22
530.437	4030.33
530.803	4046.15
531.169	4054.74
531.535	4038.47
531.901	4090.44
532.267	4133.15
532.632	4139.71
532.998	4148.75
533.364	4187.84
533.73	4165.47
534.095	4211.57
534.461	4299.7
534.826	4267.39
535.192	4280.72
535.557	4369.53
535.923	4352.36
536.288	4420.83
536.653	4373.15
537.019	4392.13
537.384	4414.95
537.749	4452.92
538.114	4425.58
538.479	4450.66
538.845	4478.91
539.21	4489.08
539.575	4533.6
539.94	4538.57
540.305	4583.54
540.67	4578.79
541.034	4598.68
541.399	4589.64
541.764	4662.41
542.129	4643.42
542.494	4697.43
542.858	4749.86
543.223	4699.01
543.587	4752.12
543.952	4811.1
544.316	4813.36
544.681	4847.26
545.045	4867.6
545.41	4865.79
545.774	4919.35
546.138	4905.11
546.503	4905.11
546.867	4996.63
547.231	5010.19
547.595	5013.81
547.959	5062.85
548.324	5076.41
548.688	5111.21
549.052	5100.36
549.416	5101.04
549.779	5104.88
550.143	5155.95
550.507	5221.26
550.871	5261.49
551.235	5254.93
551.599	5309.62
551.962	5359.56
552.326	5371.99
552.689	5420.58
553.053	5404.53
553.417	5402.27
553.78	5450.41
554.143	5484.53
554.507	5543.29
554.87	5556.85
555.234	5588.71
555.597	5626.22
555.96	5698.08
556.323	5708.93
556.686	5733.79
557.05	5837.97
557.413	5809.72
557.776	5795.94
558.139	5908.93
558.502	5956.83
558.865	5981.92
559.228	6039.54
559.59	6041.58
559.953	6050.84
560.316	6218.97
560.679	6262.59
561.041	6300.1
561.404	6286.77
561.767	6361.8
562.129	6406.09
562.492	6421.91
562.854	6491.74
563.217	6559.53
563.579	6595.69
563.941	6694.67
564.304	6702.58
564.666	6799.3
565.028	6842.91
565.39	6898.73
565.753	6933.31
566.115	7062.79
566.477	7100.99
566.839	7150.7
567.201	7180.31
567.563	7289.91
567.925	7408.77
568.287	7400.41
568.648	7454.2
569.01	7490.58
569.372	7595.66
569.734	7640.18
570.095	7847.63
570.457	7817.12
570.819	7905.94
571.18	7997.23
571.542	8048.31
571.903	8078.36
572.265	8225.93
572.626	8260.73
572.987	8354.06
573.349	8429.54
573.71	8529.2
574.071	8612.81
574.432	8645.35
574.794	8801.05
575.155	8874.72
575.516	8945.23
575.877	9051.44
576.238	9141.38
576.599	9224.32
576.96	9385.45
577.32	9367.37
577.681	9549.73
578.042	9643.97
578.403	9741.59
578.763	9871.76
579.124	9999.21
579.485	10149.49
579.845	10193.33
580.206	10383.84
580.566	10438.98
580.927	10622.47
581.287	10749.25
581.648	10868.8
582.008	11068.79
582.368	11140.2
582.728	11314.21
583.089	11426.3
583.449	11595.78
583.809	11719.85
584.169	12062.44
584.529	12085.26
584.889	12438.02
585.249	12527.96
585.609	12663.55
585.969	12928.85
586.329	13059.92
586.688	13386.92
587.048	13521.83
587.408	13704.65
587.768	13966.34
588.127	14194.81
588.487	14424.63
588.846	14793.89
589.206	14992.3
589.565	15249.25
589.925	15540.99
590.284	15687.2
590.643	16000.19
591.003	16305.49
591.362	16690.56
591.721	16819.6
592.08	17173.49
592.44	17562.41
592.799	17871.1
593.158	18187.47
593.517	18474.7
593.876	18807.12
594.235	19059.32
594.593	19544.95
594.952	19827.66
595.311	20153.75
595.67	20632.16
596.029	20933.62
596.387	21314.62
596.746	21725.01
597.104	21895.17
597.463	22289.74
597.822	22826.45
598.18	23082.03
598.538	23396.6
598.897	23891.96
599.255	24054.89
599.613	24803.8
599.972	25024.58
600.33	25389.09
600.688	25599.03
601.046	26125.12
601.404	26596.07
601.762	26811.88
602.12	27410.73
602.478	27818.41
602.836	28089.59
603.194	28282.35
603.552	28600.99
603.91	28964.59
604.268	29435.77
604.625	29697.23
604.983	30140.83
605.341	30351.45
605.698	30882.73
606.056	31321.59
606.413	31588.25
606.771	31901.69
607.128	32259.19
607.485	32349.59
607.843	32620.99
608.2	33052.17
608.557	33489.9
608.914	33604.92
609.272	34054.85
609.629	34367.16
609.986	34857.54
610.343	34766.25
610.7	35421.37
611.057	35639.44
611.414	35827.46
611.771	35933.45
612.127	36350.61
612.484	36535.24
612.841	36796.93
613.198	36819.3
613.554	37134.77
613.911	37411.6
614.267	37776.34
614.624	37915.54
614.98	38081.87
615.337	38506.71
615.693	38579.93
616.05	38734.05
616.406	39143.76
616.762	39210.65
617.118	39322.06
617.475	39582.62
617.831	39840.46
618.187	39927.47
618.543	40095.82
618.899	40499.2
619.255	40516.38
619.611	40667.79
619.967	40876.37
620.323	41082.24
620.678	40960.43
621.034	41172.18
621.39	41152.07
621.746	41168.11
622.101	41843.12
622.457	41609.46
622.812	41772.39
623.168	41998.37
623.523	42190.46
623.879	42230.68
624.234	42046.96
624.589	42360.17
624.945	42256.9
625.3	42674.97
625.655	42709.99
626.01	42625.93
626.365	42729.43
626.72	42860.95
627.075	42967.84
627.43	42889.88
627.785	42974.84
628.14	43043.77
628.495	43216.65
628.85	43235.63
629.205	43278.11
629.559	43364.89
629.914	43275.4
630.269	43538.22
630.623	43475.4
630.978	43453.93
631.332	43690.76
631.687	43813.92
632.041	43603.53
632.396	43705.67
632.75	43587.03
633.104	43659.12
633.459	43588.39
633.813	43532.57
634.167	43654.15
634.521	43596.98
634.875	43930.3
635.229	43770.53
635.583	43558.11
635.937	43558.11
636.291	43659.8
636.645	43750.19
636.999	43580.03
637.352	43844.65
637.706	43486.24
638.06	43860.7
638.413	43652.34
638.767	43551.78
639.121	43738.21
639.474	43624.55
639.828	43741.6
640.181	43831.55
640.534	43794.94
640.888	43700.48
641.241	43594.04
641.594	43736.41
641.947	43778.21
642.301	43842.39
642.654	43813.01
643.007	43730.08
643.36	43747.93
643.713	43792.45
644.066	43884.88
644.419	43563.98
644.771	43243.31
645.124	42896.43
645.477	42863.89
645.83	42691.24
646.182	42475.42
646.535	42503.67
646.888	42707.96
647.24	42613.27
647.593	42613.5
647.945	42568.98
648.298	42572.37
648.65	42411.02
649.002	42422.54
649.355	42531.47
649.707	42437.68
650.059	42498.92
650.411	43008.29
650.763	43073.83
651.115	43493.48
651.467	43331.9
651.819	43309.3
652.171	43391.78
652.523	43433.82
652.875	43333.03
653.227	43256.19
653.578	43394.72
653.93	43499.58
654.282	43293.25
654.633	43167.16
654.985	43196.53
655.337	43188.85
655.688	43255.52
656.039	43451.22
656.391	43192.92
656.742	43274.27
657.094	43157.44
657.445	43320.82
657.796	43247.61
658.147	43057.78
658.498	43231.56
658.849	43267.72
659.2	43137.33
659.551	42999.93
659.902	43290.99
660.253	43174.61
660.604	43229.3
660.955	43015.75
661.306	43337.32
661.656	43157.44
662.007	43185.69
662.358	43226.14
662.708	43072.92
663.059	43167.61
663.409	42861.4
663.76	43229.75
664.11	43290.09
664.461	43236.53
664.811	43226.36
665.161	43127.83
665.511	43067.72
665.862	43138.91
666.212	43236.53
666.562	43160.6
666.912	43110.21
667.262	43026.37
667.612	43118.12
667.962	43079.7
668.312	43020.95
668.662	43236.76
669.011	43237.21
669.361	43180.26
669.711	43027.95
670.06	42975.97
670.41	42904.56
670.76	42846.26
671.109	42984.11
671.459	42874.28
671.808	42835.87
672.157	42978.69
672.507	42735.75
672.856	42898.69
673.205	42789.09
673.554	42861.4
673.904	42759.26
674.253	43014.17
674.602	42905.24
674.951	42279.04
675.3	42151.59
675.649	42764.23
675.998	42725.13
676.346	42728.52
676.695	42897.11
677.044	42520.17
677.393	42653.27
677.741	42574.63
678.09	42495.08
678.438	42474.74
678.787	42529.43
679.135	42527.17
679.484	42365.82
679.832	42394.29
680.181	42222.77
680.529	42383.45
680.877	42254.41
681.225	42215.32
681.573	42460.96
681.922	42093.74
682.27	42148.43
682.618	42100.29
682.966	42077.24
683.314	42083.34
683.661	42003.8
684.009	41825.04
684.357	41568.55
684.705	41527.65
685.053	41527.2
685.4	41532.62
685.748	41501.44
686.095	41396.81
686.443	41374.21
686.79	41289.69
687.138	41381.89
687.485	41176.7
687.832	40994.33
688.18	41215.57
688.527	41018.29
688.874	40950.49
689.221	40796.37
689.568	40849.7
689.915	40603.61
690.262	40693.55
690.609	40585.75
690.956	40367.68
691.303	40352.54
691.65	40248.81
691.997	40336.04
692.344	40118.87
692.69	39981.25
693.037	39917.75
693.383	39630.53
693.73	39805.21
694.077	39557.53
694.423	39609.06
694.769	39499
695.116	39352.12
695.462	39405.22
695.808	39259.46
696.155	39220.82
696.501	38940.37
696.847	38955.52
697.193	38545.36
697.539	38861.51
697.885	38565.47
698.231	38575.19
698.577	38549.88
698.923	38410.44
699.269	38388.75
699.614	38069.44
699.96	38077.12
700.306	38152.15
700.651	37939.5
700.997	37728.43
701.342	37671.48
701.688	37726.85
702.033	37473.07
702.379	37585.61
702.724	37503.35
703.069	37453.41
703.415	36967.09
703.76	37130.48
704.105	37153.53
704.45	37154.43
704.795	36727.33
705.14	36764.39
705.485	36852.29
705.83	36697.27
706.175	36639.64
706.52	36600.1
706.865	36445.75
707.209	36335.7
707.554	36198.53
707.899	36250.5
708.243	36111.3
708.588	36128.92
708.932	35878.08
709.277	35878.99
709.621	35881.47
709.966	35473.35
710.31	35691.87
710.654	35380.02
710.998	35438.32
711.342	35471.99
711.687	35426.12
712.031	35248.04
712.375	35067.48
712.719	35141.6
713.063	35210.08
713.407	35255.73
713.75	35079.68
714.094	34915.62
714.438	34804.66
714.782	34888.73
715.125	34662.75
715.469	34662.97
715.812	34471.11
716.156	34263.44
716.499	34327.61
716.843	34480.38
717.186	34354.51
717.53	34378.91
717.873	34335.3
718.216	34236.09
718.559	34040.84
718.902	33813.05
719.246	34187.96
719.589	33843.11
719.932	33744.58
720.275	33678.82
720.617	33553.4
720.96	33536
721.303	33686.28
721.646	33751.13
721.989	33533.51
722.331	33550.46
722.674	33417.58
723.016	33499.84
723.359	33325.15
723.701	33483.12
724.044	33259.17
724.386	33072.73
724.729	33150.02
725.071	33055.11
725.413	32995.22
725.755	33042.68
726.097	32735.34
726.439	32686.3
726.782	32907.31
727.124	33007.65
727.465	32729.24
727.807	32602.69
728.149	32581.22
728.491	32651.95
728.833	32540.32
729.175	32429.13
729.516	32402.47
729.858	32435.91
730.199	32414.9
730.541	32293.09
730.882	32220.78
731.224	32278.4
731.565	32032.76
731.906	32107.79
732.248	32229.14
732.589	32103.72
732.93	31987.56
733.271	31903.05
733.612	31894.91
733.953	31936.94
734.294	31845.65
734.635	31763.84
734.976	31933.1
735.317	31666.89
735.658	31660.34
735.999	31684.07
736.339	31645.2
736.68	31749.38
737.021	31543.05
737.361	31363.62
737.702	31631.87
738.042	31419.67
738.383	31240.69
738.723	31477.07
739.063	31412.44
739.404	31401.59
739.744	31194.14
740.084	31124.08
740.424	31252.89
740.764	31146.91
741.104	31208.6
741.444	30974.48
741.784	30991.66
742.124	30907.14
742.464	30989.62
742.804	30920.92
743.143	30803.64
743.483	30866.91
743.823	30692.46
744.162	30648.62
744.502	30698.78
744.841	30544.21
745.181	30674.83
745.52	30469.64
745.86	30567.71
746.199	30443.2
746.538	30403.2
746.877	30371.56
747.216	30537.88
747.556	30299.7
747.895	30512.12
748.234	30256.53
748.573	30276.65
748.911	30180.83
749.25	30019.71
749.589	29985.58
749.928	30125.92
750.267	30062.64
750.605	29864.45
750.944	29918.01
751.283	29828.98
751.621	29901.06
751.96	29705.81
752.298	29730.67
752.636	29729.32
752.975	29510.11
753.313	29487.52
753.651	29593.05
753.989	29414.75
754.327	29425.14
754.666	29304.24
755.004	29370
755.342	29398.03
755.679	29194.87
756.017	29046.85
756.355	29257.47
756.693	29068.54
757.031	29181.53
757.368	28996
757.706	28831.71
758.044	28809.57
758.381	28857.48
758.719	28683.02
759.056	28794.2
759.394	28511.95
759.731	28513.3
760.068	28372.97
760.405	28335.91
760.743	28267.66
761.08	28260.66
