Data from red_cardboard_box_FLMS001491_00087.txt Node
Date: Wed Feb 08 11:33:17 GMT 2017
User: dcchb
Spectrometer: FLMS00149
Trigger mode: 0
Integration Time (sec): 2.000000E-2
Scans to average: 10
Electric dark correction enabled: true
Nonlinearity correction enabled: false
Boxcar width: 0
XAxis mode: Wavelengths
Number of Pixels in Spectrum: 2048
>>>>>Begin Spectral Data<<<<<
341.393	-30.9
341.776	-30.9
342.16	-30.9
342.543	-56.67
342.927	-70.45
343.31	-54.86
343.693	-68.87
344.077	-54.86
344.46	-56.21
344.843	-50.56
345.226	-44.46
345.61	-12.6
345.993	-17.12
346.376	-11.24
346.759	-10.56
347.142	27.4
347.525	39.83
347.908	63.56
348.291	58.59
348.674	95.2
349.057	96.78
349.44	115.31
349.823	141.52
350.206	161.41
350.588	212.48
350.971	214.97
351.354	217.68
351.737	254.29
352.119	242.08
352.502	252.71
352.884	256.09
353.267	275.3
353.65	282.76
354.032	315.53
354.414	290.44
354.797	323.66
355.179	331.35
355.562	311.91
355.944	318.01
356.326	317.56
356.709	327.51
357.091	322.31
357.473	350.33
357.855	347.62
358.238	328.18
358.62	332.93
359.002	346.04
359.384	340.39
359.766	348.52
360.148	341.29
360.53	336.54
360.912	323.66
361.294	333.83
361.676	328.18
362.057	323.66
362.439	322.31
362.821	318.24
363.203	331.8
363.584	317.56
363.966	342.19
364.348	332.25
364.729	335.41
365.111	333.61
365.493	315.53
365.874	316.88
366.256	319.6
366.637	322.08
367.019	324.57
367.4	316.88
367.781	325.25
368.163	325.92
368.544	314.62
368.925	344
369.306	302.2
369.688	312.36
370.069	293.38
370.45	329.31
370.831	320.05
371.212	318.01
371.593	293.61
371.974	312.36
372.355	312.59
372.736	320.27
373.117	310.56
373.498	311.69
373.879	336.54
374.26	307.62
374.641	328.41
375.021	310.1
375.402	325.25
375.783	323.44
376.163	336.54
376.544	330.22
376.925	317.56
377.305	323.66
377.686	339.48
378.066	307.17
378.447	345.13
378.827	342.87
379.208	324.34
379.588	340.39
379.968	304
380.349	332.93
380.729	315.75
381.109	313.95
381.489	320.73
381.87	330.22
382.25	324.34
382.63	309.2
383.01	337.45
383.39	330.44
383.77	319.82
384.15	347.84
384.53	325.02
384.91	347.39
385.29	358.24
385.67	353.49
386.049	363.89
386.429	340.61
386.809	343.1
387.189	349.43
387.568	337
387.948	339.93
388.328	363.21
388.707	364.57
389.087	339.03
389.466	341.97
389.846	358.69
390.225	346.94
390.605	345.58
390.984	358.01
391.363	338.35
391.743	344.45
392.122	385.13
392.501	365.47
392.881	372.25
393.26	367.28
393.639	346.49
394.018	357.79
394.397	370.67
394.776	367.28
395.155	384.91
395.534	365.02
395.913	375.87
396.292	365.02
396.671	380.16
397.05	373.61
397.429	351.91
397.808	368.63
398.186	377.22
398.565	365.7
398.944	378.58
399.323	378.8
399.701	378.13
400.08	372.02
400.458	388.07
400.837	396.2
401.215	407.28
401.594	392.36
401.972	365.47
402.351	393.94
402.729	377.9
403.107	362.76
403.486	387.62
403.864	394.17
404.242	409.31
404.62	396.2
404.999	406.83
405.377	393.49
405.755	415.19
406.133	392.81
406.511	382.19
406.889	397.79
407.267	408.86
407.645	406.83
408.023	398.69
408.401	412.25
408.779	396.88
409.156	423.77
409.534	412.02
409.912	414.51
410.29	421.06
410.667	417.67
411.045	411.12
411.422	413.38
411.8	428.75
412.178	438.69
412.555	424.23
412.933	432.81
413.31	449.99
413.687	434.62
414.065	431.01
414.442	414.28
414.819	435.53
415.197	417.67
415.574	455.64
415.951	442.98
416.328	453.6
416.705	442.53
417.082	445.47
417.46	441.17
417.837	464.68
418.214	445.02
418.591	473.94
418.967	452.02
419.344	469.65
419.721	450.89
420.098	444.79
420.475	501.06
420.852	449.99
421.228	478.46
421.605	478.46
421.982	475.75
422.358	496.09
422.735	466.71
423.111	492.92
423.488	510.78
423.864	498.57
424.241	500.38
424.617	511.23
424.994	504.22
425.37	499.03
425.746	496.77
426.123	498.8
426.499	498.8
426.875	484.56
427.251	509.65
427.627	537.44
428.003	500.16
428.379	526.82
428.756	531.12
429.132	548.52
429.507	529.31
429.883	535.86
430.259	530.44
430.635	554.84
431.011	534.05
431.387	552.13
431.763	558.23
432.138	560.49
432.514	531.12
432.89	539.93
433.265	560.04
433.641	564.34
434.016	560.27
434.392	592.36
434.767	562.75
435.143	576.09
435.518	603.66
435.894	607.5
436.269	592.58
436.644	603.2
437.02	591.91
437.395	599.14
437.77	614.73
438.145	614.73
438.52	627.61
438.895	617.44
439.271	642.98
439.646	625.8
440.021	614.28
440.395	635.07
440.77	639.59
441.145	636.88
441.52	656.08
441.895	642.3
442.27	652.92
442.645	624.67
443.019	649.53
443.394	630.77
443.769	648.4
444.143	676.87
444.518	682.07
444.892	645.24
445.267	668.97
445.641	649.98
446.016	681.17
446.39	666.71
446.764	659.7
447.139	659.25
447.513	685.24
447.887	688.17
448.262	673.71
448.636	720.94
449.01	678
449.384	699.02
449.758	677.1
450.132	685.01
450.506	713.71
450.88	727.72
451.254	705.35
451.628	703.54
452.002	742.18
452.376	710.55
452.75	746.25
453.123	740.6
453.497	717.78
453.871	719.36
454.244	729.08
454.618	764.56
454.992	748.96
455.365	741.73
455.739	767.72
456.112	777.66
456.486	751
456.859	766.36
457.232	786.48
457.606	798
457.979	786.7
458.352	804.56
458.725	829.41
459.099	798.91
459.472	816.08
459.845	837.55
460.218	828.28
460.591	834.84
460.964	847.04
461.337	833.93
461.71	859.02
462.083	872.8
462.456	892.24
462.829	845.68
463.201	851.11
463.574	879.36
463.947	913.25
464.32	903.99
464.692	910.77
465.065	900.6
465.438	918
465.81	943.08
466.183	938.11
466.555	931.33
466.928	954.16
467.3	943.99
467.672	950.09
468.045	967.49
468.417	989.63
468.789	966.36
469.161	975.62
469.534	968.17
469.906	1022.4
470.278	1019.46
470.65	1002.29
471.022	1053.59
471.394	1061.5
471.766	1064.89
472.138	1060.82
472.51	1085.45
472.882	1077.09
473.253	1104.89
473.625	1109.86
473.997	1114.6
474.369	1156.86
474.74	1152.57
475.112	1142.17
475.484	1188.5
475.855	1175.17
476.227	1181.04
476.598	1220.59
476.97	1234.15
477.341	1249.97
477.713	1261.04
478.084	1272.57
478.455	1282.51
478.827	1286.8
479.198	1322.73
479.569	1353.02
479.94	1361.83
480.311	1360.7
480.682	1375.61
481.053	1414.03
481.424	1398.89
481.795	1429.4
482.166	1440.7
482.537	1463.29
482.908	1505.55
483.279	1531.54
483.65	1549.17
484.021	1532.45
484.391	1605.21
484.762	1583.07
485.133	1631.2
485.503	1653.8
485.874	1620.8
486.244	1667.58
486.615	1646.34
486.985	1685.66
487.356	1696.96
487.726	1727.24
488.097	1748.49
488.467	1730.41
488.837	1800.91
489.207	1815.6
489.578	1834.58
489.948	1838.88
490.318	1855.15
490.688	1879.33
491.058	1888.37
491.428	1935.15
491.798	1930.18
492.168	1956.62
492.538	1982.6
492.908	2013.34
493.278	2021.25
493.648	2028.48
494.017	2051.98
494.387	2077.74
494.757	2081.81
495.126	2107.12
495.496	2124.52
495.866	2109.15
496.235	2145.31
496.605	2182.82
496.974	2206.78
497.344	2188.47
497.713	2235.93
498.082	2253.33
498.452	2253.1
498.821	2272.77
499.19	2274.35
499.559	2327
499.928	2282.93
500.298	2303.05
500.667	2374.01
501.036	2349.15
501.405	2359.09
501.774	2381.91
502.143	2364.74
502.512	2355.47
502.88	2396.6
503.249	2428.69
503.618	2464.62
503.987	2470.05
504.356	2481.35
504.724	2478.86
505.093	2502.36
505.462	2509.82
505.83	2545.98
506.199	2542.14
506.567	2571.51
506.936	2560.89
507.304	2602.02
507.672	2611.51
508.041	2597.05
508.409	2647.22
508.777	2684.05
509.145	2676.14
509.514	2674.56
509.882	2719.53
510.25	2721.34
510.618	2786.65
510.986	2752.98
511.354	2814.9
511.722	2818.51
512.09	2854.67
512.458	2841.56
512.826	2871.39
513.193	2875.46
513.561	2909.13
513.929	2942.8
514.297	2960.2
514.664	2986.19
515.032	2977.83
515.4	3019.64
515.767	3016.47
516.135	3014.89
516.502	3038.39
516.869	3104.16
517.237	3103.48
517.604	3148.45
517.972	3178.28
518.339	3175.34
518.706	3177.6
519.073	3183.48
519.44	3182.12
519.808	3204.04
520.175	3253.08
520.542	3308.67
520.909	3312.29
521.276	3365.62
521.643	3382.57
522.009	3360.19
522.376	3422.79
522.743	3444.03
523.11	3492.85
523.477	3467.54
523.843	3533.3
524.21	3531.49
524.577	3569.23
524.943	3630.47
525.31	3620.53
525.676	3701.65
526.043	3686.06
526.409	3753.86
526.776	3770.35
527.142	3792.5
527.508	3778.71
527.874	3839.05
528.241	3818.49
528.607	3846.51
528.973	3887.86
529.339	3910.69
529.705	3974.64
530.071	3985.71
530.437	3997.24
530.803	4019.16
531.169	4008.99
531.535	4048.99
531.901	4052.38
532.267	4106.16
532.632	4126.73
532.998	4129.44
533.364	4174.18
533.73	4156.56
534.095	4255.09
534.461	4208.53
534.826	4241.53
535.192	4318.59
535.557	4321.52
535.923	4316.1
536.288	4366.04
536.653	4367.63
537.019	4383.44
537.384	4452.59
537.749	4424.8
538.114	4451.46
538.479	4467.74
538.845	4502.99
539.21	4502.99
539.575	4503.44
539.94	4551.35
540.305	4597.22
540.67	4599.94
541.034	4579.82
541.399	4670.22
541.764	4673.61
542.129	4690.33
542.494	4709.31
542.858	4706.15
543.223	4706.83
543.587	4709.76
543.952	4777.11
544.316	4786.15
544.681	4801.06
545.045	4862.08
545.41	4859.14
545.774	4882.64
546.138	4893.04
546.503	4923.32
546.867	4922.64
547.231	5029.75
547.595	4977.78
547.959	5014.39
548.324	5076.08
548.688	5053.93
549.052	5099.81
549.416	5100.04
549.779	5119.24
550.143	5183.2
550.507	5199.47
550.871	5293.7
551.235	5254.61
551.599	5314.94
551.962	5341.16
552.326	5345.45
552.689	5371.89
553.053	5389.52
553.417	5413.25
553.78	5514.49
554.143	5507.71
554.507	5505.22
554.87	5479.69
555.234	5627.03
555.597	5574.6
555.96	5720.81
556.323	5675.84
556.686	5749.51
557.05	5788.6
557.413	5785.89
557.776	5825.44
558.139	5921.26
558.502	5975.27
558.865	5976.62
559.228	5996.96
559.59	6053.68
559.953	6098.2
560.316	6238.31
560.679	6230.18
561.041	6264.52
561.404	6318.76
561.767	6377.74
562.129	6419.32
562.492	6513.78
562.854	6529.83
563.217	6523.5
563.579	6627.68
563.941	6675.14
564.304	6674.01
564.666	6793.32
565.028	6814.57
565.39	6923.26
565.753	6973.21
566.115	6991.96
566.477	7083.49
566.839	7138.4
567.201	7173.65
567.563	7219.3
567.925	7368.68
568.287	7392.18
568.648	7440.31
569.01	7530.03
569.372	7695.45
569.734	7640.99
570.095	7706.97
570.457	7836.23
570.819	7913.97
571.18	7921.66
571.542	8052.05
571.903	8079.39
572.265	8143.35
572.626	8257.47
572.987	8382.66
573.349	8406.62
573.71	8581.75
574.071	8586.5
574.432	8674.63
574.794	8807.51
575.155	8825.36
575.516	8831.91
575.877	9045.69
576.238	9101.74
576.599	9227.16
576.96	9305.8
577.32	9399.81
577.681	9531.33
578.042	9569.07
578.403	9768.39
578.763	9885.67
579.124	9940.36
579.485	10111.88
579.845	10183.97
580.206	10297.19
580.566	10432.78
580.927	10561.81
581.287	10792.99
581.648	10840
582.008	11054.46
582.368	11144.4
582.728	11343.94
583.089	11429.81
583.449	11533.99
583.809	11773.53
584.169	11949.57
584.529	12107.31
584.889	12417.81
585.249	12501.42
585.609	12658.93
585.969	12956.1
586.329	13037
586.688	13302.53
587.048	13560.38
587.408	13726.93
587.768	13920.82
588.127	14227.48
588.487	14437.87
588.846	14757.86
589.206	14921.92
589.565	15101.81
589.925	15507.22
590.284	15734.33
590.643	15973.65
591.003	16248.67
591.362	16704.93
591.721	16776.56
592.08	17107.63
592.44	17569.76
592.799	17876.65
593.158	18192.35
593.517	18433.02
593.876	18783.52
594.235	19098.54
594.593	19472.31
594.952	19835.69
595.311	20068.68
595.67	20449.46
596.029	20964.7
596.387	21338.03
596.746	21678.36
597.104	21862.08
597.463	22280.83
597.822	22839
598.18	23044.87
598.538	23357.41
598.897	23905.42
599.255	24049.59
599.613	24713.98
599.972	25017.7
600.33	25394.64
600.688	25608.65
601.046	26161.85
601.404	26615.63
601.762	26809.3
602.12	27290.86
602.478	27633.68
602.836	28067.79
603.194	28299.88
603.552	28662.58
603.91	28930.14
604.268	29380.07
604.625	29660.52
604.983	30167.85
605.341	30365.59
605.698	30895.74
606.056	31303.87
606.413	31471.55
606.771	31959.89
607.128	32233.56
607.485	32303.84
607.843	32704.96
608.2	33202.12
608.557	33487.09
608.914	33683.69
609.272	34041.2
609.629	34480.05
609.986	34849.54
610.343	34896.31
610.7	35416.07
611.057	35583.3
611.414	35708.5
611.771	35934.25
612.127	36294.92
612.484	36547.12
612.841	36760.22
613.198	36986.65
613.554	37216.48
613.911	37559.29
614.267	37717.26
614.624	37955.67
614.98	38108.66
615.337	38380.52
615.693	38428.88
616.05	38646.05
616.406	39057.79
616.762	39063.89
617.118	39298.01
617.475	39399.02
617.831	39759.92
618.187	39912.45
618.543	40153.8
618.899	40563.06
619.255	40554.7
619.611	40670.63
619.967	40930.96
620.323	41208.92
620.678	41056.15
621.034	41147.45
621.39	41283.72
621.746	41442.36
622.101	41869.24
622.457	41592.64
622.812	41779.3
623.168	41907.2
623.523	42084.15
623.879	42418.15
624.234	42114.66
624.589	42285.27
624.945	42341.09
625.3	42465.61
625.655	42640.07
626.01	42678.26
626.365	42820.85
626.72	42818.59
627.075	42931.13
627.43	43118.47
627.785	42934.75
628.14	43098.13
628.495	43143.55
628.85	43092.93
629.205	43120.73
629.559	43538.35
629.914	43181.97
630.269	43355.75
630.623	43272.14
630.978	43351.01
631.332	43657.21
631.687	43709.19
632.041	43530.89
632.396	43669.19
632.75	43654.95
633.104	43729.53
633.459	43472.13
633.813	43568.4
634.167	43572.47
634.521	43730.21
634.875	43831.22
635.229	43770.21
635.583	43590.1
635.937	43746.25
636.291	43649.98
636.645	43613.15
636.999	43650.21
637.352	43700.15
637.706	43562.07
638.06	43763.2
638.413	43662.41
638.767	43572.92
639.121	43788.51
639.474	43559.36
639.828	43685.91
640.181	43870.54
640.534	43816.53
640.888	43617.44
641.241	43477.11
641.594	43691.56
641.947	43751.67
642.301	43686.82
642.654	43686.59
643.007	43736.31
643.36	43708.96
643.713	43691.79
644.066	43811.56
644.419	43508.74
644.771	43282.99
645.124	42858.82
645.477	42828.53
645.83	42633.74
646.182	42499.73
646.535	42487.3
646.888	42737.24
647.24	42491.37
647.593	42757.12
647.945	42640.29
648.298	42502.67
648.65	42427.42
649.002	42379.51
649.355	42487.07
649.707	42378.83
650.059	42607.52
650.411	43010.23
650.763	43097.91
651.115	43518.23
651.467	43383.32
651.819	43452.02
652.171	43328.41
652.523	43241.86
652.875	43431
653.227	43149.43
653.578	43367.05
653.93	43376.09
654.282	43280.05
654.633	43165.25
654.985	43224.23
655.337	43362.76
655.688	43236.43
656.039	43441.85
656.391	43066.04
656.742	43251.12
657.094	43075.08
657.445	43364.79
657.796	43179.03
658.147	43216.1
658.498	43119.15
658.849	43334.74
659.2	43157.79
659.551	43042.09
659.902	43158.47
660.253	43114.63
660.604	43228.3
660.955	42963.22
661.306	43166.15
661.656	43165.02
662.007	43077.57
662.358	43251.35
662.708	43224
663.059	43156.21
663.409	43001.41
663.76	43233.72
664.11	43251.8
664.461	43263.1
664.811	43115.76
665.161	43101.97
665.511	43022.65
665.862	43029.21
666.212	43199.37
666.562	43239.6
666.912	43147.62
667.262	43171.8
667.612	43159.83
667.962	43078.7
668.312	42993.95
668.662	43198.24
669.011	43149.43
669.361	43084.35
669.711	43067.17
670.06	42988.3
670.41	42911.47
670.76	42866.05
671.109	43115.98
671.459	42990.56
671.808	42901.98
672.157	43119.6
672.507	42735.88
672.856	42695.88
673.205	42833.96
673.554	42981.07
673.904	42805.71
674.253	42931.13
674.602	42785.6
674.951	42324.59
675.3	42124.6
675.649	42773.62
675.998	42736.56
676.346	42728.2
676.695	42739.72
677.044	42467.41
677.393	42675.77
677.741	42603.68
678.09	42608.65
678.438	42507.19
678.787	42481.65
679.135	42565.49
679.484	42256.57
679.832	42410.47
680.181	42258.38
680.529	42338.15
680.877	42246.86
681.225	42269.23
681.573	42511.71
681.922	42155.56
682.27	41892.29
682.618	42085.73
682.966	41936.13
683.314	42063.13
683.661	41969.57
684.009	41794.66
684.357	41791.73
684.705	41586.76
685.053	41731.16
685.4	41478.51
685.748	41360.78
686.095	41421.11
686.443	41300.44
686.79	41073.33
687.138	41223.38
687.485	41362.13
687.832	41137.96
688.18	41116.72
688.527	40972.76
688.874	41009.83
689.221	40809.6
689.568	40697.52
689.915	40685.77
690.262	40612.77
690.609	40497.52
690.956	40368.94
691.303	40417.75
691.65	40179.56
691.997	40322.16
692.344	39960.81
692.69	39961.49
693.037	39976.18
693.383	39723.53
693.73	39839.23
694.077	39579.35
694.423	39543.65
694.769	39365.8
695.116	39401.05
695.462	39426.59
695.808	39164.9
696.155	39298.46
696.501	38921.52
696.847	39076.54
697.193	38658.25
697.539	38963.33
697.885	38668.42
698.231	38553.17
698.577	38599.49
698.923	38462.32
699.269	38144.14
699.614	38060.98
699.96	37980.75
700.306	38025.27
700.651	37968.32
700.997	37670.25
701.342	37689.46
701.688	37651.72
702.033	37488.11
702.379	37405.17
702.724	37346.87
703.069	37537.83
703.415	37053.09
703.76	37186.2
704.105	37094.67
704.45	36917.5
704.795	36789.15
705.14	36698.75
705.485	36770.39
705.83	36629.15
706.175	36548.47
706.52	36501.02
706.865	36441.81
707.209	36380.12
707.554	36092.67
707.899	36274.58
708.243	36045.44
708.588	36110.97
708.932	35838.44
709.277	35836.4
709.621	35779.23
709.966	35570.42
710.31	35650.19
710.654	35448.84
710.998	35401.84
711.342	35490.2
711.687	35302.18
712.031	35179.92
712.375	35118.23
712.719	35210.2
713.063	35242.97
713.407	35115.74
713.75	34831.23
714.094	34991.45
714.438	34746.26
714.782	34794.62
715.125	34582.2
715.469	34699.03
715.812	34444.8
716.156	34365.25
716.499	34467.17
716.843	34354.86
717.186	34191.47
717.53	34454.97
717.873	34398.47
718.216	34184.69
718.559	34075.77
718.902	33881.88
719.246	33941.31
719.589	33895.44
719.932	33629.68
720.275	33728.89
720.617	33783.12
720.96	33679.17
721.303	33738.38
721.646	33652.5
721.989	33430.59
722.331	33585.39
722.674	33495.67
723.016	33429.69
723.359	33383.36
723.701	33207.54
724.044	33216.58
724.386	33116.7
724.729	33210.03
725.071	33192.18
725.413	33009.81
725.755	32974.78
726.097	32846.88
726.439	32793.54
726.782	32751.29
727.124	32842.81
727.465	32785.86
727.807	32738.86
728.149	32588.13
728.491	32645.53
728.833	32603.72
729.175	32344.74
729.516	32355.59
729.858	32290.28
730.199	32360.11
730.541	32257.51
730.882	32297.74
731.224	32292.09
731.565	32230.62
731.906	32117.86
732.248	32236.5
732.589	32013.9
732.93	31949.5
733.271	31991.98
733.612	31970.06
733.953	32043.96
734.294	31826.56
734.635	31688.94
734.976	31803.74
735.317	31802.61
735.658	31732.56
735.999	31670.18
736.339	31627.47
736.68	31745.66
737.021	31589.73
737.361	31503.86
737.702	31566.91
738.042	31455.73
738.383	31282.4
738.723	31425.67
739.063	31308.61
739.404	31324.2
739.744	31299.8
740.084	31239.91
740.424	31192.91
740.764	31115.85
741.104	31206.69
741.444	31013.25
741.784	30914.27
742.124	30954.5
742.464	30947.49
742.804	30887.61
743.143	30819.13
743.483	30899.58
743.823	30608.52
744.162	30677.89
744.502	30592.47
744.841	30550.67
745.181	30756.76
745.52	30474.28
745.86	30603.32
746.199	30436.32
746.538	30421.86
746.877	30546.6
747.216	30435.41
747.556	30367.39
747.895	30373.5
748.234	30273.84
748.573	30101.41
748.911	30244.23
749.25	30121.07
749.589	29995.43
749.928	30066.16
750.267	30133.28
750.605	30056.67
750.944	29941.19
751.283	29794.53
751.621	29846.96
751.96	29661.2
752.298	29714.3
752.636	29733.06
752.975	29533.29
753.313	29509.34
753.651	29732.38
753.989	29440.41
754.327	29475.89
754.666	29353.18
755.004	29232.73
755.342	29366.74
755.679	29284.71
756.017	29090.82
756.355	29237.93
756.693	29048.56
757.031	29111.16
757.368	28927.43
757.706	28949.13
758.044	28837.26
758.381	28864.38
758.719	28689.02
759.056	28849.24
759.394	28635.24
759.731	28461.23
760.068	28451.06
760.405	28283.83
760.743	28201.8
761.08	28341.01
761.417	28237.96
