Data from red_shiny_book_FLMS001491_00033.txt Node
Date: Wed Feb 08 15:24:46 GMT 2017
User: dcchb
Spectrometer: FLMS00149
Trigger mode: 0
Integration Time (sec): 2.000000E-2
Scans to average: 10
Electric dark correction enabled: true
Nonlinearity correction enabled: false
Boxcar width: 0
XAxis mode: Wavelengths
Number of Pixels in Spectrum: 2048
>>>>>Begin Spectral Data<<<<<
341.393	4.52
341.776	4.52
342.16	4.52
342.543	-50.39
342.927	-72.54
343.31	-45.42
343.693	-73.9
344.077	-63.73
344.46	-53.56
344.843	-50.62
345.226	-40.45
345.61	-38.64
345.993	-13.78
346.376	-18.53
346.759	2.94
347.142	19.66
347.525	32.99
347.908	52.88
348.291	79.77
348.674	99.88
349.057	110.51
349.44	126.78
349.823	142.37
350.206	172.65
350.588	196.61
350.971	226.89
351.354	219.43
351.737	237.28
352.119	260.56
352.502	258.07
352.884	277.28
353.267	280.67
353.65	277.51
354.032	307.11
354.414	313.21
354.797	299.2
355.179	324.74
355.562	320.67
355.944	322.93
356.326	337.17
356.709	348.24
357.091	327
357.473	343.49
357.855	344.17
358.238	338.75
358.62	335.36
359.002	343.04
359.384	318.86
359.766	358.86
360.148	336.04
360.53	325.87
360.912	332.65
361.294	332.19
361.676	325.42
362.057	349.6
362.439	321.12
362.821	339.2
363.203	322.03
363.584	313.89
363.966	323.16
364.348	333.1
364.729	312.76
365.111	328.8
365.493	334.68
365.874	326.55
366.256	345.53
366.637	311.18
367.019	333.32
367.4	305.08
367.781	317.05
368.163	305.3
368.544	300.11
368.925	315.92
369.306	322.93
369.688	315.02
370.069	308.92
370.45	311.4
370.831	311.4
371.212	306.43
371.593	326.55
371.974	308.92
372.355	319.09
372.736	325.87
373.117	301.46
373.498	310.05
373.879	316.38
374.26	301.91
374.641	317.05
375.021	318.86
375.402	324.74
375.783	328.13
376.163	325.19
376.544	321.57
376.925	319.31
377.305	320.9
377.686	339.65
378.066	329.26
378.447	316.83
378.827	329.48
379.208	334.68
379.588	361.12
379.968	320.44
380.349	335.36
380.729	323.83
381.109	324.51
381.489	349.37
381.87	332.42
382.25	352.31
382.63	332.42
383.01	339.43
383.39	333.55
383.77	337.62
384.15	343.04
384.53	341.91
384.91	335.58
385.29	348.47
385.67	343.04
386.049	347.34
386.429	332.42
386.809	337.84
387.189	348.92
387.568	346.43
387.948	350.95
388.328	360.89
388.707	349.37
389.087	341.23
389.466	336.04
389.846	334.23
390.225	371.29
390.605	350.73
390.984	338.97
391.363	375.13
391.743	353.89
392.122	372.87
392.501	373.1
392.881	366.09
393.26	368.35
393.639	375.36
394.018	378.75
394.397	405.19
394.776	386.88
395.155	378.3
395.534	373.78
395.913	392.98
396.292	369.48
396.671	360.22
397.05	384.17
397.429	396.83
397.808	394.79
398.186	386.43
398.565	370.61
398.944	389.59
399.323	376.49
399.701	405.41
400.08	380.78
400.458	402.93
400.837	385.53
401.215	387.56
401.594	402.02
401.972	413.77
402.351	375.81
402.729	384.17
403.107	403.15
403.486	398.41
403.864	389.59
404.242	402.7
404.62	404.51
404.999	416.03
405.377	402.7
405.755	412.19
406.133	412.19
406.511	433.21
406.889	411.97
407.267	417.62
407.645	420.55
408.023	455.81
408.401	458.74
408.779	442.02
409.156	440.44
409.534	463.94
409.912	445.86
410.29	455.13
410.667	461.68
411.045	442.02
411.422	455.58
411.8	459.87
412.178	467.11
412.555	463.49
412.933	499.42
413.31	460.55
413.687	486.99
414.065	486.09
414.442	475.47
414.819	490.38
415.197	498.07
415.574	516.37
415.951	512.75
416.328	497.84
416.705	500.55
417.082	508.46
417.46	517.73
417.837	522.92
418.214	541
418.591	504.39
418.967	516.37
419.344	526.54
419.721	541.68
420.098	544.84
420.475	561.34
420.852	536.48
421.228	555.01
421.605	556.82
421.982	557.95
422.358	564.5
422.735	562.02
423.111	588.91
423.488	581.68
423.864	564.96
424.241	593.88
424.617	602.92
424.994	580.55
425.37	593.43
425.746	572.87
426.123	593.43
426.499	601.79
426.875	595.24
427.251	577.61
427.627	611.28
428.003	602.02
428.379	618.51
428.756	626.65
429.132	621.45
429.507	631.4
429.883	635.24
430.259	638.18
430.635	646.54
431.011	635.92
431.387	646.76
431.763	647.44
432.138	653.09
432.514	634.33
432.89	666.42
433.265	678.4
433.641	670.49
434.016	705.97
434.392	686.99
434.767	715.91
435.143	727.66
435.518	700.77
435.894	709.36
436.269	711.17
436.644	729.02
437.02	731.05
437.395	723.37
437.77	734.9
438.145	750.04
438.52	758.62
438.895	764.27
439.271	743.94
439.646	764.5
440.021	760.88
440.395	760.43
440.77	761.11
441.145	778.06
441.52	771.28
441.895	772.18
442.27	787.78
442.645	796.14
443.019	782.8
443.394	813.31
443.769	791.39
444.143	815.35
444.518	822.58
444.892	804.95
445.267	818.28
445.641	811.5
446.016	799.3
446.39	828.23
446.764	858.96
447.139	823.71
447.513	833.42
447.887	828.23
448.262	840.66
448.636	850.6
449.01	848.79
449.384	881.56
449.758	839.07
450.132	853.31
450.506	865.06
450.88	871.62
451.254	870.03
451.628	874.1
452.002	868.23
452.376	906.87
452.75	879.07
453.123	889.69
453.497	901.67
453.871	885.85
454.244	911.16
454.618	890.6
454.992	891.5
455.365	899.19
455.739	908
456.112	895.12
456.486	911.16
456.859	932.18
457.232	931.95
457.606	940.99
457.979	954.55
458.352	986.87
458.725	973.08
459.099	962.46
459.472	980.09
459.845	978.73
460.218	969.92
460.591	973.08
460.964	967.88
461.337	976.7
461.71	984.83
462.083	1005.4
462.456	1011.5
462.829	1031.84
463.201	1018.28
463.574	1011.95
463.947	1035.9
464.32	1063.25
464.692	1024.15
465.065	1051.72
465.438	1038.16
465.81	1040.2
466.183	1067.54
466.555	1094.66
466.928	1065.06
467.3	1083.36
467.672	1127.43
468.045	1151.61
468.417	1158.39
468.789	1138.95
469.161	1159.07
469.534	1164.04
469.906	1147.77
470.278	1153.19
470.65	1166.75
471.022	1198.39
471.394	1168.33
471.766	1201.1
472.138	1230.93
472.51	1253.3
472.882	1271.6
473.253	1274.32
473.625	1308.89
473.997	1289.91
474.369	1302.34
474.74	1318.16
475.112	1325.84
475.484	1333.07
475.855	1341.89
476.227	1323.36
476.598	1356.12
476.97	1389.34
477.341	1396.57
477.713	1420.98
478.084	1440.87
478.455	1493.07
478.827	1487.19
479.198	1540.98
479.569	1559.73
479.94	1567.19
480.311	1570.81
480.682	1570.35
481.053	1565.38
481.424	1610.58
481.795	1630.92
482.166	1613.97
482.537	1655.78
482.908	1674.08
483.279	1711.14
483.65	1760.18
484.021	1820.52
484.391	1845.83
484.762	1853.74
485.133	1832.95
485.503	1836.11
485.874	1849.44
486.244	1889.44
486.615	1881.08
486.985	1935.77
487.356	1953.85
487.726	1962.89
488.097	2001.08
488.467	2044.01
488.837	2067.74
489.207	2138.93
489.578	2182.77
489.948	2163.78
490.318	2231.81
490.688	2218.47
491.058	2225.93
491.428	2270.45
491.798	2263.22
492.168	2285.82
492.538	2308.41
492.908	2308.87
493.278	2309.54
493.648	2328.98
494.017	2344.8
494.387	2406.04
494.757	2448.75
495.126	2468.86
495.496	2499.82
495.866	2528.97
496.235	2549.09
496.605	2602.42
496.974	2600.38
497.344	2613.04
497.713	2580.05
498.082	2590.21
498.452	2586.6
498.821	2583.66
499.19	2604.68
499.559	2616.43
499.928	2641.06
500.298	2669.76
500.667	2686.71
501.036	2735.52
501.405	2763.77
501.774	2772.36
502.143	2798.57
502.512	2783.2
502.88	2810.55
503.249	2808.06
503.618	2797.67
503.987	2810.77
504.356	2816.65
504.724	2802.86
505.093	2770.77
505.462	2775.97
505.83	2765.13
506.199	2819.36
506.567	2865.01
506.936	2892.35
507.304	2977.77
507.672	2959.24
508.041	2994.95
508.409	2996.76
508.777	2985.23
509.145	2979.58
509.514	2947.95
509.882	2974.39
510.25	2917.89
510.618	2937.55
510.986	2954.95
511.354	2938.45
511.722	2952.01
512.09	2999.7
512.458	2951.11
512.826	3006.93
513.193	3006.93
513.561	3064.55
513.929	3077.89
514.297	3144.32
514.664	3102.97
515.032	3107.71
515.4	3126.7
515.767	3104.1
516.135	3095.74
516.502	3032.91
516.869	3069.3
517.237	3050.54
517.604	3008.51
517.972	3084.44
518.339	3064.78
518.706	3099.35
519.073	3103.87
519.44	3138.9
519.808	3167.6
520.175	3210.09
520.542	3221.84
520.909	3311.55
521.276	3276.98
521.643	3244.89
522.009	3290.53
522.376	3314.94
522.743	3257.99
523.11	3255.28
523.477	3242.17
523.843	3189.97
524.21	3223.87
524.577	3275.85
524.943	3264.32
525.31	3319.91
525.676	3342.06
526.043	3414.15
526.409	3479.68
526.776	3469.97
527.142	3502.05
527.508	3548.61
527.874	3627.7
528.241	3605.1
528.607	3596.74
528.973	3536.63
529.339	3523.3
529.705	3510.19
530.071	3570.98
530.437	3554.93
530.803	3539.57
531.169	3555.84
531.535	3590.19
531.901	3618.44
532.267	3731.43
532.632	3730.52
532.998	3817.3
533.364	3886
533.73	3904.53
534.095	3953.34
534.461	3937.07
534.826	3987.92
535.192	3982.27
535.557	4024.3
535.923	3958.54
536.288	3968.48
536.653	3955.15
537.019	3929.84
537.384	3952.66
537.749	3961.03
538.114	3972.1
538.479	3956.28
538.845	4027.24
539.21	4079.44
539.575	4156.95
539.94	4200.57
540.305	4261.13
540.67	4282.37
541.034	4310.17
541.399	4353.11
541.764	4379.32
542.129	4403.73
542.494	4424.06
542.858	4389.04
543.223	4363.05
543.587	4354.91
543.952	4352.65
544.316	4300.9
544.681	4304.29
545.045	4284.63
545.41	4331.41
545.774	4390.62
546.138	4399.43
546.503	4442.6
546.867	4503.84
547.231	4608.24
547.595	4632.87
547.959	4699.99
548.324	4738.63
548.688	4703.61
549.052	4731.63
549.416	4724.85
549.779	4684.17
550.143	4669.48
550.507	4658.18
550.871	4611.86
551.235	4534.8
551.599	4585.42
551.962	4491.18
552.326	4514.23
552.689	4544.29
553.053	4510.62
553.417	4584.29
553.78	4679.42
554.143	4724.17
554.507	4748.12
554.87	4832.42
555.234	4865.63
555.597	4838.97
555.96	4901.79
556.323	4914.67
556.686	4923.26
557.05	4927.1
557.413	4859.53
557.776	4798.74
558.139	4818.86
558.502	4765.52
558.865	4764.39
559.228	4752.19
559.59	4726.88
559.953	4678.97
560.316	4801.23
560.679	4735.47
561.041	4869.7
561.404	4883.26
561.767	4937.05
562.129	4979.76
562.492	5071.96
562.854	5083.71
563.217	5121.45
563.579	5128.68
563.941	5198.06
564.304	5158.28
564.666	5175.91
565.028	5141.79
565.39	5116.93
565.753	5078.28
566.115	5035.35
566.477	5003.48
566.839	4990.83
567.201	5014.11
567.563	5009.59
567.925	5000.77
568.287	5000.55
568.648	5101.56
569.01	5200.99
569.372	5220.65
569.734	5267.43
570.095	5406.86
570.457	5426.75
570.819	5559.63
571.18	5546.97
571.542	5598.95
571.903	5507.43
572.265	5625.61
572.626	5570.48
572.987	5589.91
573.349	5552.4
573.71	5555.79
574.071	5556.92
574.432	5506.07
574.794	5597.59
575.155	5580.19
575.516	5603.47
575.877	5642.56
576.238	5732.05
576.599	5818.15
576.96	5958.94
577.32	6086.39
577.681	6177.24
578.042	6355.54
578.403	6545.14
578.763	6609.54
579.124	6767.05
579.485	6929.76
579.845	7050.21
580.206	7131.34
580.566	7282.29
580.927	7327.72
581.287	7454.49
581.648	7600.7
582.008	7796.18
582.368	7861.04
582.728	8074.82
583.089	8242.04
583.449	8413.34
583.809	8759.54
584.169	9018.75
584.529	9296.25
584.889	9748.22
585.249	9987.31
585.609	10423.23
585.969	10844.46
586.329	11156.99
586.688	11647.6
587.048	12012.34
587.408	12453.23
587.768	12888.47
588.127	13212.08
588.487	13654.56
588.846	14166.63
589.206	14333.86
589.565	14837.58
589.925	15262.42
590.284	15599.14
590.643	16012.01
591.003	16414.94
591.362	16946.67
591.721	17332.2
592.08	17752.75
592.44	18325.39
592.799	18833.4
593.158	19376.44
593.517	19895.07
593.876	20438.33
594.235	21065.89
594.593	21555.82
594.952	22146.54
595.311	22659.97
595.67	23244.13
596.029	23923.44
596.387	24385.12
596.746	24941.94
597.104	25391.2
597.463	25614.24
597.822	26237.5
598.18	26550.26
598.538	27079.51
598.897	27531.25
599.255	27730.34
599.613	28528.74
599.972	28754.72
600.33	29307.7
600.688	29791.76
601.046	30290.73
601.404	30739.3
601.762	31146.98
602.12	31851.59
602.478	32239.6
602.836	32751.68
603.194	33070.99
603.552	33538.55
603.91	33951.65
604.268	34571.97
604.625	34851.96
604.983	35328.79
605.341	35651.49
605.698	36062.33
606.056	36478.14
606.413	36618.92
606.771	37185.46
607.128	37665.22
607.485	37632.46
607.843	37957.19
608.2	38230.18
608.557	38601.92
608.914	38641.7
609.272	39127.11
609.629	39377.5
609.986	39784.72
610.343	39935.22
610.7	40563
611.057	40732.26
611.414	40841.19
611.771	41315.75
612.127	41682.29
612.484	41996.41
612.841	42349.85
613.198	42349.17
613.554	42754.36
613.911	43044.97
614.267	43320.89
614.624	43316.6
614.98	43513.43
615.337	43942.35
615.693	43995.23
616.05	43922.23
616.406	44381.88
616.762	44201.32
617.118	44348.66
617.475	44453.29
617.831	44523.35
618.187	44671.59
618.543	44863.68
618.899	45102.54
619.255	45149.55
619.611	45246.27
619.967	45528.07
620.323	45754.96
620.678	45743.2
621.034	45842.86
621.39	46039.24
621.746	46081.27
622.101	46634.03
622.457	46592
622.812	46633.8
623.168	46817.98
623.523	46893.23
623.879	47201.02
624.234	46867.47
624.589	47057.07
624.945	47069.5
625.3	47137.97
625.655	47107.91
626.01	47118.76
626.365	47193.56
626.72	47143.17
627.075	47015.71
627.43	47125.09
627.785	46906.79
628.14	47045.09
628.495	47210.51
628.85	47105.65
629.205	47026.33
629.559	47519.88
629.914	47251.19
630.269	47424.52
630.623	47278.76
630.978	47526.66
631.332	47635.81
631.687	47901.79
632.041	47761.46
632.396	47940.89
632.75	47736.37
633.104	47759.2
633.459	47740.67
633.813	47616.6
634.167	47745.41
634.521	47592.19
634.875	47730.95
635.229	47672.42
635.583	47367.57
635.937	47396.49
636.291	47416.83
636.645	47169.16
636.999	47082.15
637.352	47172.09
637.706	46951.76
638.06	47161.02
638.413	47103.85
638.767	46995.83
639.121	46995.83
639.474	46828.6
639.828	47001.25
640.181	47005.54
640.534	47142.49
640.888	47221.58
641.241	47074.69
641.594	47100.91
641.947	47211.41
642.301	47153.11
642.654	47130.74
643.007	47291.41
643.36	47242.37
643.713	47147.46
644.066	47309.04
644.419	47009.61
644.771	46760.8
645.124	46293.47
645.477	46199.24
645.83	46029.07
646.182	45681.74
646.535	45445.58
646.888	45480.39
647.24	45299.83
647.593	45522.19
647.945	45354.74
648.298	45223.67
648.65	45108.87
649.002	44946.84
649.355	45093.73
649.707	45148.19
650.059	45351.58
650.411	45862.52
650.763	45905.01
651.115	46488.27
651.467	46258.9
651.819	46220.48
652.171	46354.71
652.523	46225.23
652.875	46226.36
653.227	46161.27
653.578	46485.33
653.93	46352.23
654.282	46095.96
654.633	45944.33
654.985	46005.34
655.337	45949.98
655.688	46061.84
656.039	46007.38
656.391	45608.74
656.742	45611.46
657.094	45644.9
657.445	45758.57
657.796	45479.03
658.147	45467.96
658.498	45391.8
658.849	45345.02
659.2	45375.76
659.551	45325.59
659.902	45444.68
660.253	45363.33
660.604	45537.56
660.955	45316.55
661.306	45771.45
661.656	45540.5
662.007	45603.32
662.358	45597.67
662.708	45658.46
663.059	45679.93
663.409	45453.49
663.76	45828.4
664.11	45815.52
664.461	45735.29
664.811	45781.62
665.161	45634.96
665.511	45482.42
665.862	45439.71
666.212	45626.37
666.562	45497.11
666.912	45353.16
667.262	45227.29
667.612	45230
667.962	45065.03
668.312	44972.15
668.662	45125.59
669.011	45011.47
669.361	44906.84
669.711	44910.91
670.06	44820.06
670.41	44601.54
670.76	44787.07
671.109	44959.5
671.459	44906.62
671.808	44882.66
672.157	45026.16
672.507	44933.96
672.856	44947.52
673.205	45010.79
673.554	45152.26
673.904	44948.2
674.253	45267.51
674.602	45106.16
674.951	44580.75
675.3	44413.97
675.649	45151.81
675.998	44985.03
676.346	44799.05
676.695	44966.5
677.044	44670.01
677.393	44728.54
677.741	44694.42
678.09	44457.14
678.438	44293.75
678.787	44396.12
679.135	44256.24
679.484	43955.45
679.832	44173.75
680.181	43865.97
680.529	43903.93
680.877	43869.81
681.225	43728.79
681.573	44033.19
681.922	43827.77
682.27	43720.66
682.618	43820.99
682.966	43805.4
683.314	43825.06
683.661	43865.06
684.009	43653.77
684.357	43755.01
684.705	43806.98
685.053	43712.52
685.4	43674.56
685.748	43486.09
686.095	43551.17
686.443	43475.69
686.79	43381.01
687.138	43418.97
687.485	43363.15
687.832	43155.48
688.18	43169.71
688.527	42917.29
688.874	42906.44
689.221	42618.77
689.568	42583.06
689.915	42268.04
690.262	42395.72
690.609	42092.45
690.956	41965.22
691.303	41974.04
691.65	41655.85
691.997	41599.13
692.344	41454.28
692.69	41385.8
693.037	41471.23
693.383	41118.24
693.73	41379.48
694.077	41068.07
694.423	40995.53
694.769	41014.97
695.116	41064.46
695.462	41181.52
695.808	40907.85
696.155	41029.88
696.501	40832.6
696.847	40694.75
697.193	40518.71
697.539	40755.54
697.885	40496.56
698.231	40358.71
698.577	40523
698.923	40209.34
699.269	40096.8
699.614	39957.14
699.96	39779.07
700.306	39813.19
700.651	39548.56
700.997	39412.75
701.342	39247.1
701.688	39187.44
702.033	38943.16
702.379	38979.31
702.724	38763.5
703.069	38732.54
703.415	38348.6
703.76	38318.99
704.105	38293.91
704.45	38247.58
704.795	38016.85
705.14	37844.43
705.485	37919
705.83	37788.16
706.175	37837.2
706.52	37711.1
706.865	37809.63
707.209	37698.67
707.554	37509.75
707.899	37742.28
708.243	37599.69
708.588	37527.15
708.932	37412.8
709.277	37419.36
709.621	37402.18
709.966	37329.19
710.31	37309.53
710.654	36948.86
710.998	37001.96
711.342	37081.96
711.687	36874.51
712.031	36801.29
712.375	36512.94
712.719	36558.59
713.063	36464.8
713.407	36495.54
713.75	36269.55
714.094	36340.97
714.438	35973.74
714.782	35943.91
715.125	35740.08
715.469	35750.7
715.812	35565.39
716.156	35296.25
716.499	35402.23
716.843	35421.67
717.186	35057.16
717.53	35394.1
717.873	35352.06
718.216	35300.09
718.559	35131.05
718.902	34912.08
719.246	35039.98
719.589	35027.1
719.932	34858.97
720.275	35038.85
720.617	34879.08
720.96	34895.81
721.303	35071.17
721.646	35085.86
721.989	34861.46
722.331	34932.87
722.674	34823.94
723.016	34819.88
723.359	34759.31
723.701	34719.31
724.044	34496.04
724.386	34392.09
724.729	34464.86
725.071	34276.39
725.413	34207.69
725.755	34263.51
726.097	33914.36
726.439	33854.03
726.782	33663.75
727.124	33754.37
727.465	33674.59
727.807	33410.19
728.149	33284.55
728.491	33190.54
728.833	33186.92
729.175	33059.47
729.516	33105.8
729.858	33023.09
730.199	33063.09
730.541	33007.27
730.882	32961.17
731.224	33128.62
731.565	32768.86
731.906	32880.94
732.248	32874.39
732.589	32827.84
732.93	32773.6
733.271	32784.22
733.612	32846.82
733.953	32949.19
734.294	32788.97
734.635	32803.43
734.976	32934.05
735.317	32775.41
735.658	32787.39
735.999	32601.4
736.339	32691.34
736.68	32791.68
737.021	32594.85
737.361	32373.39
737.702	32462.65
738.042	32402.54
738.383	32379.49
738.723	32275.99
739.063	32214.75
739.404	32172.26
739.744	31910.57
740.084	31927.75
740.424	31771.82
740.764	31779.5
741.104	31826.73
741.444	31580.64
741.784	31421.09
742.124	31565.05
742.464	31401.66
742.804	31296.58
743.143	31334.32
743.483	31185.85
743.823	31149.69
744.162	31227.2
744.502	31012.97
744.841	31021.56
745.181	31229.24
745.52	31106.98
745.86	31111.5
746.199	31028.11
746.538	31069.92
746.877	31187.43
747.216	31200.08
747.556	30922.35
747.895	31128.45
748.234	30861.34
748.573	30921.22
748.911	30950.82
749.25	30990.15
749.589	30738.4
749.928	30903.82
750.267	30794.67
750.605	30691.17
750.944	30674.45
751.283	30530.95
751.621	30506.09
751.96	30243.27
752.298	30352.2
752.636	30227.45
752.975	30024.75
753.313	29911.76
753.651	29966.44
753.989	29769.39
754.327	29622.95
754.666	29522.84
755.004	29454.14
755.342	29440.58
755.679	29327.14
756.017	29184.32
756.355	29052.12
756.693	28976.64
757.031	29078.56
757.368	28766.02
757.706	28921.73
758.044	28726.48
758.381	28881.05
758.719	28763.99
759.056	28866.59
759.394	28562.19
759.731	28505.92
760.068	28509.98
760.405	28447.61
760.743	28518.57
761.08	28585.46
