Data from red_shiny_book_FLMS001491_00026.txt Node
Date: Wed Feb 08 15:24:38 GMT 2017
User: dcchb
Spectrometer: FLMS00149
Trigger mode: 0
Integration Time (sec): 2.000000E-2
Scans to average: 10
Electric dark correction enabled: true
Nonlinearity correction enabled: false
Boxcar width: 0
XAxis mode: Wavelengths
Number of Pixels in Spectrum: 2048
>>>>>Begin Spectral Data<<<<<
341.393	-10.92
341.776	-10.92
342.16	-10.92
342.543	-33.52
342.927	-81.65
343.31	-60.41
343.693	-81.65
344.077	-69.45
344.46	-59.28
344.843	-37.58
345.226	-47.3
345.61	-28.54
345.993	-33.06
346.376	-13.63
346.759	27.73
347.142	22.53
347.525	47.39
347.908	60.72
348.291	67.27
348.674	101.17
349.057	104.11
349.44	107.95
349.823	138.91
350.206	149.08
350.588	213.03
350.971	198.12
351.354	230.43
351.737	233.6
352.119	261.62
352.502	260.49
352.884	281.05
353.267	279.24
353.65	284.44
354.032	291.67
354.414	300.71
354.797	291.9
355.179	330.77
355.562	338.68
355.944	344.55
356.326	333.25
356.709	341.84
357.091	355.4
357.473	349.52
357.855	359.47
358.238	349.3
358.62	352.91
359.002	344.33
359.384	356.76
359.766	349.98
360.148	362.41
360.53	348.39
360.912	309.07
361.294	348.62
361.676	356.3
362.057	334.16
362.439	327.6
362.821	318.57
363.203	342.97
363.584	340.26
363.966	327.83
364.348	330.77
364.729	319.92
365.111	319.24
365.493	317.44
365.874	338.23
366.256	316.98
366.637	323.08
367.019	320.82
367.4	310.88
367.781	318.57
368.163	326.25
368.544	327.38
368.925	314.05
369.306	313.14
369.688	312.69
370.069	338
370.45	338.45
370.831	320.37
371.212	306.36
371.593	320.82
371.974	335.06
372.355	300.49
372.736	330.09
373.117	334.16
373.498	318.34
373.879	309.07
374.26	307.72
374.641	309.3
375.021	321.28
375.402	339.81
375.783	322.18
376.163	345.46
376.544	351.33
376.925	355.63
377.305	366.25
377.686	321.5
378.066	333.03
378.447	356.3
378.827	335.97
379.208	345.46
379.588	322.86
379.968	324.67
380.349	338
380.729	320.15
381.109	347.04
381.489	347.26
381.87	334.38
382.25	344.78
382.63	364.21
383.01	336.42
383.39	335.06
383.77	361.28
384.15	337.55
384.53	362.41
384.91	344.78
385.29	370.77
385.67	363.08
386.049	381.61
386.429	363.08
386.809	368.51
387.189	386.13
387.568	358.79
387.948	361.73
388.328	363.54
388.707	388.17
389.087	376.19
389.466	380.94
389.846	383.2
390.225	372.8
390.605	371.22
390.984	388.62
391.363	369.19
391.743	367.83
392.122	393.59
392.501	386.81
392.881	390.88
393.26	389.07
393.639	396.76
394.018	406.7
394.397	413.03
394.776	392.46
395.155	396.08
395.534	388.39
395.913	403.53
396.292	413.25
396.671	415.06
397.05	395.63
397.429	418.22
397.808	408.51
398.186	452.12
398.565	423.42
398.944	416.19
399.323	416.87
399.701	429.07
400.08	418
400.458	428.17
400.837	434.04
401.215	450.31
401.594	432.23
401.972	443.08
402.351	450.31
402.729	418.68
403.107	450.09
403.486	445.57
403.864	444.66
404.242	447.38
404.62	463.42
404.999	468.84
405.377	457.77
405.755	487.37
406.133	481.72
406.511	459.35
406.889	471.33
407.267	467.04
407.645	495.96
408.023	509.75
408.401	470.65
408.779	504.55
409.156	516.3
409.534	503.87
409.912	486.47
410.29	508.16
410.667	505
411.045	511.33
411.422	519.69
411.8	523.76
412.178	539.12
412.555	538.45
412.933	542.74
413.31	566.69
413.687	539.35
414.065	554.72
414.442	555.4
414.819	553.59
415.197	578.9
415.574	588.39
415.951	578.67
416.328	613.92
416.705	609.4
417.082	614.83
417.46	600.14
417.837	605.56
418.214	627.48
418.591	613.92
418.967	604.66
419.344	626.58
419.721	630.42
420.098	629.52
420.475	646.69
420.852	655.28
421.228	640.59
421.605	663.19
421.982	655.51
422.358	657.99
422.735	656.86
423.111	657.99
423.488	665.67
423.864	693.92
424.241	696.86
424.617	719.46
424.994	734.37
425.37	693.02
425.746	681.49
426.123	697.76
426.499	722.4
426.875	688.72
427.251	729.63
427.627	719.23
428.003	740.7
428.379	770.3
428.756	770.98
429.132	770.76
429.507	774.6
429.883	771.43
430.259	766.01
430.635	771.43
431.011	778.44
431.387	803.52
431.763	811.43
432.138	824.09
432.514	828.61
432.89	843.97
433.265	855.05
433.641	877.65
434.016	846.69
434.392	860.25
434.767	881.49
435.143	857.53
435.518	869.96
435.894	882.39
436.269	928.49
436.644	914.48
437.02	932.79
437.395	935.95
437.77	971.2
438.145	959.68
438.52	970.75
438.895	970.98
439.271	967.59
439.646	963.29
440.021	959.45
440.395	963.29
440.77	951.77
441.145	964.2
441.52	1007.36
441.895	1044.87
442.27	1041.48
442.645	1042.61
443.019	1067.92
443.394	1055.49
443.769	1043.07
444.143	1026.57
444.518	1030.18
444.892	1018.21
445.267	1016.85
445.641	1067.92
446.016	1057.98
446.39	1090.07
446.764	1099.34
447.139	1113.57
447.513	1151.09
447.887	1108.15
448.262	1092.78
448.636	1118.54
449.01	1113.12
449.384	1117.19
449.758	1104.53
450.132	1126.91
450.506	1112.89
450.88	1169.84
451.254	1183.4
451.628	1186.56
452.002	1231.31
452.376	1233.8
452.75	1220.46
453.123	1224.98
453.497	1185.43
453.871	1177.75
454.244	1209.16
454.618	1203.29
454.992	1235.15
455.365	1241.25
455.739	1306.34
456.112	1318.76
456.486	1308.14
456.859	1331.19
457.232	1362.38
457.606	1349.72
457.979	1357.41
458.352	1344.98
458.725	1326
459.099	1331.87
459.472	1329.84
459.845	1318.09
460.218	1379.1
460.591	1423.62
460.964	1447.35
461.337	1474.01
461.71	1501.13
462.083	1514.01
462.456	1507.91
462.829	1514.47
463.201	1505.2
463.574	1447.35
463.947	1465.43
464.32	1441.02
464.692	1490.29
465.065	1504.75
465.438	1583.16
465.81	1610.51
466.183	1623.62
466.555	1690.73
466.928	1703.39
467.3	1707.91
467.672	1694.35
468.045	1714.69
468.417	1678.98
468.789	1624.29
469.161	1667.46
469.534	1675.59
469.906	1724.18
470.278	1724.63
470.65	1768.24
471.022	1860.67
471.394	1904.51
471.766	1951.74
472.138	1974.57
472.51	2002.81
472.882	2022.25
473.253	2003.27
473.625	1997.17
473.997	1944.06
474.369	1933.21
474.74	1946.77
475.112	1984.06
475.484	2042.81
475.855	2073.32
476.227	2162.36
476.598	2218.85
476.97	2279.42
477.341	2357.83
477.713	2427.44
478.084	2409.13
478.455	2445.06
478.827	2393.31
479.198	2352.18
479.569	2375.23
479.94	2371.17
480.311	2370.26
480.682	2452.29
481.053	2509.02
481.424	2592.86
481.795	2685.96
482.166	2803.7
482.537	2853.87
482.908	2928.67
483.279	2944.03
483.65	3004.14
484.021	3009.79
484.391	2956.69
484.762	2938.61
485.133	2920.76
485.503	2877.14
485.874	2937.25
486.244	3016.57
486.615	3050.92
486.985	3184.48
487.356	3281.43
487.726	3392.83
488.097	3539.95
488.467	3632.6
488.837	3671.7
489.207	3699.04
489.578	3720.06
489.948	3628.08
490.318	3621.76
490.688	3520.74
491.058	3563
491.428	3550.57
491.798	3603.45
492.168	3673.05
492.538	3820.17
492.908	3873.5
493.278	4030.78
493.648	4089.09
494.017	4198.92
494.387	4317.33
494.757	4354.17
495.126	4339.02
495.496	4319.14
495.866	4316.2
496.235	4194.62
496.605	4151.91
496.974	4138.8
497.344	4114.4
497.713	4147.16
498.082	4272.36
498.452	4308.29
498.821	4399.59
499.19	4556.42
499.559	4680.03
499.928	4790.54
500.298	4898.78
500.667	4926.35
501.036	4901.04
501.405	4852.23
501.774	4710.54
502.143	4695.63
502.512	4581.28
502.88	4592.8
503.249	4494.5
503.618	4546.93
503.987	4655.4
504.356	4707.15
504.724	4798.67
505.093	4896.52
505.462	5075.95
505.83	5155.95
506.199	5277.53
506.567	5366.34
506.936	5331.31
507.304	5371.09
507.672	5266.68
508.041	5174.26
508.409	5054.26
508.777	4993.92
509.145	4936.3
509.514	4862.4
509.882	4950.31
510.25	4964.32
510.618	5095.39
510.986	5208.83
511.354	5367.7
511.722	5538.54
512.09	5710.06
512.458	5679.33
512.826	5828.7
513.193	5771.53
513.561	5748.7
513.929	5690.63
514.297	5637.97
514.664	5472.33
515.032	5402.05
515.4	5340.13
515.767	5278.43
516.135	5326.79
516.502	5264.2
516.869	5408.15
517.237	5589.84
517.604	5690.63
517.972	5889.94
518.339	6046.1
518.706	6173.33
519.073	6260.33
519.44	6326.99
519.808	6267.34
520.175	6184.4
520.542	6137.17
520.909	6009.94
521.276	5881.13
521.643	5790.51
522.009	5727.24
522.376	5741.7
522.743	5741.25
523.11	5791.87
523.477	5948.02
523.843	6041.13
524.21	6299.88
524.577	6432.98
524.943	6653.99
525.31	6825.29
525.676	6909.58
526.043	7034.55
526.409	6975.57
526.776	6922.01
527.142	6873.42
527.508	6704.39
527.874	6590.26
528.241	6488.57
528.607	6413.55
528.973	6397.5
529.339	6332.64
529.705	6464.62
530.071	6597.72
530.437	6773.99
530.803	6977.6
531.169	7177.37
531.535	7294.65
531.901	7513.86
532.267	7647.41
532.632	7797.92
532.998	7875.65
533.364	7785.49
533.73	7736.22
534.095	7547.98
534.461	7458.72
534.826	7270.25
535.192	7162.68
535.557	7079.74
535.923	7077.48
536.288	7075
536.653	7224.15
537.019	7270.7
537.384	7489.68
537.749	7668.65
538.114	7960.17
538.479	8127.63
538.845	8312.25
539.21	8361.74
539.575	8584.79
539.94	8500.5
540.305	8460.95
540.67	8358.58
541.034	8264.57
541.399	8078.36
541.764	7961.75
542.129	7822.32
542.494	7774.41
542.858	7651.03
543.223	7694.19
543.587	7769.22
543.952	7837.92
544.316	8053.28
544.681	8257.79
545.045	8519.03
545.41	8730.55
545.774	8905.46
546.138	9052.35
546.503	9137.32
546.867	9170.54
547.231	9291.89
547.595	9173.93
547.959	8994.5
548.324	8846.7
548.688	8687.16
549.052	8541.4
549.416	8357.22
549.779	8214.63
550.143	8177.34
550.507	8207.62
550.871	8249.66
551.235	8338.24
551.599	8509.08
551.962	8632.92
552.326	8863.43
552.689	9097.77
553.053	9274.49
553.417	9428.83
553.78	9696.62
554.143	9673.57
554.507	9671.31
554.87	9669.73
555.234	9552.45
555.597	9252.79
555.96	9163.98
556.323	9001.5
556.686	8854.16
557.05	8670.44
557.413	8606.03
557.776	8583.21
558.139	8613.04
558.502	8705.01
558.865	8816.87
559.228	9036.3
559.59	9209.4
559.953	9430.87
560.316	9767.13
560.679	9923.28
561.041	10104.52
561.404	10218.19
561.767	10335.25
562.129	10228.14
562.492	10233.78
562.854	10110.85
563.217	9887.35
563.579	9683.06
563.941	9531.66
564.304	9372.56
564.666	9249.63
565.028	9134.83
565.39	9096.87
565.753	9106.58
566.115	9189.52
566.477	9399.68
566.839	9589.96
567.201	9730.75
567.563	10054.13
567.925	10326.44
568.287	10539.54
568.648	10721.46
569.01	10885.52
569.372	11011.39
569.734	11003.93
570.095	10947.89
570.457	10840.77
570.819	10717.39
571.18	10599.65
571.542	10412.31
571.903	10150.17
572.265	10061.36
572.626	9943.85
572.987	9827.24
573.349	9819.56
573.71	9933.23
574.071	10029.72
574.432	10224.52
574.794	10511.74
575.155	10732.3
575.516	11001.45
575.877	11320.76
576.238	11574.31
576.599	11843.23
576.96	12058.6
577.32	12277.8
577.681	12365.93
578.042	12371.36
578.403	12330
578.763	12247.97
579.124	12129.78
579.485	12095.2
579.845	11928.88
580.206	11929.79
580.566	11815.66
580.927	11804.82
581.287	11955.1
581.648	12071.48
582.008	12411.58
582.368	12749.65
582.728	13098.12
583.089	13475.28
583.449	13996.62
583.809	14520.45
584.169	15075.92
584.529	15524.04
584.889	16202.89
585.249	16461.42
585.609	16890.33
585.969	17424.78
586.329	17712.46
586.688	17951.77
587.048	18259.34
587.408	18350.18
587.768	18594.02
588.127	18746.56
588.487	19025.42
588.846	19415.46
589.206	19493.43
589.565	20007.31
589.925	20402.56
590.284	20821.75
590.643	21402.3
591.003	22140.36
591.362	22823.96
591.721	23497.84
592.08	24253.3
592.44	25002.66
592.799	25846.03
593.158	26404.21
593.517	27159.22
593.876	27685.98
594.235	28366.42
594.593	28780.64
594.952	29231.25
595.311	29413.17
595.67	29924.79
596.029	30330.66
596.387	30531.78
596.746	30939.68
597.104	31189.17
597.463	31399.33
597.822	31899.43
598.18	32138.52
598.538	32620.99
598.897	33397.7
599.255	33522.44
599.613	34621.39
599.972	35176.63
600.33	35868.36
600.688	36344.74
601.046	37166.64
601.404	37990.34
601.762	38479.14
602.12	39239.12
602.478	39686.12
602.836	40222.37
603.194	40529.71
603.552	40934.45
603.91	40984.61
604.268	41544.83
604.625	41433.42
604.983	41794.08
605.341	41860.98
605.698	42154.3
606.056	42439.94
606.413	42346.61
606.771	42767.84
607.128	42973.94
607.485	43264.55
607.843	43449.86
608.2	44135.27
608.557	44499.32
608.914	44846.89
609.272	45477.38
609.629	45967.53
609.986	46488.2
610.343	46842.77
610.7	47433.94
611.057	47570.2
611.414	47947.37
611.771	48061.49
612.127	48600.01
612.484	48567.47
612.841	48727.46
613.198	48733.56
613.554	48711.19
613.911	48892.43
614.267	48779.21
614.624	48818.53
614.98	49015.59
615.337	49032.99
615.693	48964.29
616.05	49076.61
616.406	49235.47
616.762	49186.66
617.118	49270.05
617.475	49451.28
617.831	49959.29
618.187	50181.43
618.543	50355.22
618.899	50731.93
619.255	50813.73
619.611	51006.05
619.967	51337.79
620.323	51624.56
620.678	51640.15
621.034	51701.62
621.39	51820.71
621.746	51745.69
622.101	52119.91
622.457	51937.55
622.812	51933.93
623.168	51954.27
623.523	51775.74
623.879	51808.51
624.234	51417.56
624.589	51594.73
624.945	51598.35
625.3	51557.9
625.655	51512.7
626.01	51543.43
626.365	51523.32
626.72	51501.85
627.075	51636.76
627.43	51814.39
627.785	51848.06
628.14	52080.59
628.495	52092.34
628.85	52318.78
629.205	52456.18
629.559	52723.51
629.914	52600.13
630.269	52805.32
630.623	52765.55
630.978	52736.62
631.332	52939.78
631.687	52877.18
632.041	52761.48
632.396	52710.86
632.75	52518.1
633.104	52477.19
633.459	52111.55
633.813	52080.82
634.167	51973.25
634.521	51894.84
634.875	51896.42
635.229	51728.06
635.583	51608.29
635.937	51578.91
636.291	51620.49
636.645	51681.73
636.999	51592.47
637.352	51848.96
637.706	51824.56
638.06	52012.12
638.413	51974.83
638.767	52029.07
639.121	52228.61
639.474	52239.23
639.828	52321.94
640.181	52398.55
640.534	52501.15
640.888	52416.4
641.241	52328.72
641.594	52265.67
641.947	52307.03
642.301	52062.74
642.654	52139.8
643.007	51930.77
643.36	51743.43
643.713	51606.71
644.066	51507.5
644.419	51224.8
644.771	50887.4
645.124	50571.71
645.477	50410.13
645.83	50183.92
646.182	50143.7
646.535	50040.65
646.888	50040.42
647.24	50007.88
647.593	50354.99
647.945	50269.57
648.298	50262.56
648.65	50379.4
649.002	50488.55
649.355	50665.04
649.707	50719.27
650.059	51021.86
650.411	51443.1
650.763	51524.45
651.115	51745.91
651.467	51679.93
651.819	51580.49
652.171	51453.04
652.523	51230.22
652.875	51255.08
653.227	50988.42
653.578	51146.16
653.93	50927.18
654.282	50638.6
654.633	50369.23
654.985	50234.09
655.337	50337.59
655.688	50247.87
656.039	50344.37
656.391	50025.05
656.742	50088.1
657.094	50187.54
657.445	50332.84
657.796	50286.74
658.147	50310.47
658.498	50391.37
658.849	50632.95
659.2	50651.03
659.551	50638.37
659.902	50895.99
660.253	50932.6
660.604	51013.96
660.955	50966.5
661.306	51130.11
661.656	51046.27
662.007	51020.73
662.358	50988.65
662.708	50875.88
663.059	50799.27
663.409	50492.16
663.76	50625.26
664.11	50463.69
664.461	50408.1
664.811	50196.35
665.161	50065.73
665.511	49849.92
665.862	49775.12
666.212	49779.86
666.562	49731.73
666.912	49609.47
667.262	49581.45
667.612	49557.72
667.962	49746.64
668.312	49647.21
668.662	49948.67
669.011	49906.19
669.361	50095.34
669.711	50063.02
670.06	50259.62
670.41	50191.38
670.76	50339.17
671.109	50559.5
671.459	50627.75
671.808	50551.37
672.157	50641.08
672.507	50476.12
672.856	50438.83
673.205	50426.4
673.554	50511.37
673.904	50450.13
674.253	50427.53
674.602	50074.09
674.951	49484.96
675.3	49357.05
675.649	49686.76
675.998	49556.14
676.346	49363.38
676.695	49389.14
677.044	49016.95
677.393	49058.3
677.741	48964.74
678.09	48841.13
678.438	48692.21
678.787	48798.19
679.135	48898.53
679.484	48706.9
679.832	49007.91
680.181	48903.05
680.529	49006.32
680.877	48977.4
681.225	49247.22
681.573	49512.98
681.922	49389.37
682.27	49355.92
682.618	49424.17
682.966	49472.53
683.314	49530.15
683.661	49591.39
684.009	49304.17
684.357	49263.72
684.705	49172.65
685.053	49120.22
685.4	49050.62
685.748	48665.54
686.095	48574.7
686.443	48384.19
686.79	48125.9
687.138	48035.73
687.485	48007.93
687.832	47614.72
688.18	47655.17
688.527	47338.8
688.874	47200.04
689.221	47056.09
689.568	46891.35
689.915	46753.95
690.262	46939.26
690.609	46774.97
690.956	46717.35
691.303	46823.33
691.65	46694.75
691.997	46735.88
692.344	46630.57
692.69	46847.74
693.037	46959.6
693.383	46820.62
693.73	46935.87
694.077	46721.41
694.423	46935.42
694.769	46861.52
695.116	46779.26
695.462	46986.04
695.808	46716.22
696.155	46767.51
696.501	46361.2
696.847	46287.53
697.193	45852.06
697.539	45917.59
697.885	45607.32
698.231	45289.59
698.577	45302.02
698.923	45029.25
699.269	44551.98
699.614	44351.08
699.96	44223.4
700.306	44076.51
700.651	43825.9
700.997	43624.55
701.342	43477.88
701.688	43581.38
702.033	43293.93
702.379	43404.44
702.724	43288.51
703.069	43459.8
703.415	43077.21
703.76	43236.53
704.105	43229.08
704.45	43418
704.795	43329.41
705.14	43428.84
705.485	43328.28
705.83	43287.38
706.175	43348.62
706.52	43191.34
706.865	43240.6
707.209	43388.85
707.554	43122.64
707.899	43253.71
708.243	42968.97
708.588	42865.47
708.932	42519.94
709.277	42508.87
709.621	42423.67
709.966	41982.55
710.31	42033.4
710.654	41422.8
710.998	41526.75
711.342	41402.91
711.687	41108.45
712.031	40962.69
712.375	40570.16
712.719	40634.12
713.063	40430.96
713.407	40641.8
713.75	40286.33
714.094	40161.36
714.438	40213.11
714.782	40338.98
715.125	40071.42
715.469	40188.48
715.812	40021.25
716.156	39988.26
716.499	40153.9
716.843	40349.38
717.186	39987.13
717.53	40368.81
717.873	40463.27
718.216	40454.46
718.559	40364.07
718.902	40262.15
719.246	40305.76
719.589	40233.67
719.932	40175.6
720.275	40189.61
720.617	40166.56
720.96	40162.04
721.303	40086.11
721.646	39992.55
721.989	39604.31
722.331	39760.69
722.674	39474.37
723.016	39148.28
723.359	39082.07
723.701	39051.78
724.044	38645.24
724.386	38245.03
724.729	38517.33
725.071	38062.66
725.413	38003.68
725.755	37963.45
726.097	37699.73
726.439	37631.26
726.782	37564.82
727.124	37709.67
727.465	37428.55
727.807	37459.06
728.149	37489.11
728.491	37389.45
728.833	37609.56
729.175	37445.95
729.516	37512.84
729.858	37767.75
730.199	37817.24
730.541	37794.87
730.882	37847.97
731.224	37988.76
731.565	37814.75
731.906	37990.12
732.248	38130.9
732.589	37840.52
732.93	37762.78
733.271	37796.9
733.612	37718.49
733.953	37746.96
734.294	37540.86
734.635	37330.7
734.976	37460.19
735.317	37229.46
735.658	37009.8
735.999	36888.9
736.339	36775.69
736.68	36721.22
737.021	36470.61
737.361	36215.25
737.702	36263.83
738.042	36076.95
738.383	35961.02
738.723	35918.53
739.063	35703.62
739.404	35686.67
739.744	35512.22
740.084	35448.26
740.424	35553.57
740.764	35521.48
741.104	35655.72
741.444	35441.03
741.784	35451.65
742.124	35589.73
742.464	35529.39
742.804	35584.76
743.143	35641.7
743.483	35632.21
743.823	35520.13
744.162	35634.25
744.502	35882.38
744.841	35791.3
745.181	35874.01
745.52	35805.77
745.86	35991.3
746.199	35935.48
746.538	35860.91
746.877	35859.55
747.216	35751.08
747.556	35633.12
747.895	35547.47
748.234	35462.05
748.573	35273.35
748.911	35222.28
749.25	35149.29
749.589	34843.98
749.928	34678.79
750.267	34662.52
750.605	34521.28
750.944	34420.27
751.283	34071.58
751.621	34060.95
751.96	33711.59
752.298	33654.86
752.636	33571.02
752.975	33360.41
753.313	33235.67
753.651	33295.1
753.989	33079.51
754.327	33130.81
754.666	32964.26
755.004	32982.79
755.342	33119.96
755.679	33018.72
756.017	32931.27
756.355	33059.85
756.693	32839.07
757.031	33138.27
757.368	32918.84
757.706	33059.63
758.044	32977.37
758.381	33094.43
758.719	32999.74
759.056	33022.34
