Data from red_cardboard_box_FLMS001491_00051.txt Node
Date: Wed Feb 08 11:32:45 GMT 2017
User: dcchb
Spectrometer: FLMS00149
Trigger mode: 0
Integration Time (sec): 2.000000E-2
Scans to average: 10
Electric dark correction enabled: true
Nonlinearity correction enabled: false
Boxcar width: 0
XAxis mode: Wavelengths
Number of Pixels in Spectrum: 2048
>>>>>Begin Spectral Data<<<<<
341.393	-12.68
341.776	-12.68
342.16	-12.68
342.543	-80.25
342.927	-67.6
343.31	-81.83
343.693	-49.97
344.077	-70.08
344.46	-57.88
344.843	-50.2
345.226	-36.19
345.61	-37.77
345.993	-36.86
346.376	-27.82
346.759	11.04
347.142	34.55
347.525	47.2
347.908	60.31
348.291	87.43
348.674	82.23
349.057	125.84
349.44	110.25
349.823	146.41
350.206	161.55
350.588	185.5
350.971	230.93
351.354	251.49
351.737	238.38
352.119	253.75
352.502	255.33
352.884	275.9
353.267	287.42
353.65	279.51
354.032	298.27
354.414	296.46
354.797	302.79
355.179	300.75
355.562	312.05
355.944	318.38
356.326	340.98
356.709	326.97
357.091	331.71
357.473	344.6
357.855	343.92
358.238	331.04
358.62	359.06
359.002	357.93
359.384	354.09
359.766	358.15
360.148	345.5
360.53	342.56
360.912	329.91
361.294	345.5
361.676	335.33
362.057	356.12
362.439	335.78
362.821	329.68
363.203	354.76
363.584	331.26
363.966	301.43
364.348	327.65
364.729	331.04
365.111	323.35
365.493	343.47
365.874	318.83
366.256	325.39
366.637	316.35
367.019	312.51
367.4	311.15
367.781	312.96
368.163	325.61
368.544	316.35
368.925	313.18
369.306	317.25
369.688	342.34
370.069	325.61
370.45	312.51
370.831	337.14
371.212	320.87
371.593	337.82
371.974	326.06
372.355	311.83
372.736	326.06
373.117	334.43
373.498	326.29
373.879	327.87
374.26	328.32
374.641	313.64
375.021	328.32
375.402	308.44
375.783	329.91
376.163	342.56
376.544	322.45
376.925	312.28
377.305	317.7
377.686	327.65
378.066	333.97
378.447	341.66
378.827	296.91
379.208	345.27
379.588	325.39
379.968	323.81
380.349	346.63
380.729	313.86
381.109	331.04
381.489	335.78
381.87	338.27
382.25	340.98
382.63	338.49
383.01	351.83
383.39	356.35
383.77	326.06
384.15	323.81
384.53	325.39
384.91	358.15
385.29	356.35
385.67	346.4
386.049	340.3
386.429	350.47
386.809	352.73
387.189	360.41
387.568	332.84
387.948	348.21
388.328	337.14
388.707	346.86
389.087	348.44
389.466	357.7
389.846	354.99
390.225	363.58
390.605	360.41
390.984	365.39
391.363	367.19
391.743	359.96
392.122	356.12
392.501	349.57
392.881	353.41
393.26	357.7
393.639	351.83
394.018	360.64
394.397	355.22
394.776	365.39
395.155	366.74
395.534	361.54
395.913	361.77
396.292	361.77
396.671	382.33
397.05	381.2
397.429	370.13
397.808	377.81
398.186	363.58
398.565	368.32
398.944	388.44
399.323	375.33
399.701	372.62
400.08	390.24
400.458	382.79
400.837	371.71
401.215	395.44
401.594	399.06
401.972	396.12
402.351	379.4
402.729	391.83
403.107	378.04
403.486	376.46
403.864	387.53
404.242	397.93
404.62	382.56
404.999	383.46
405.377	393.86
405.755	383.69
406.133	414.65
406.511	397.93
406.889	422.33
407.267	411.26
407.645	412.84
408.023	407.64
408.401	417.36
408.779	411.26
409.156	417.81
409.534	424.37
409.912	432.28
410.29	418.27
410.667	425.27
411.045	422.33
411.422	442.22
411.8	413.07
412.178	424.37
412.555	438.6
412.933	457.36
413.31	463.91
413.687	457.59
414.065	451.49
414.442	443.58
414.819	439.51
415.197	443.35
415.574	448.32
415.951	440.41
416.328	469.56
416.705	459.62
417.082	443.35
417.46	454.2
417.837	430.69
418.214	443.8
418.591	468.89
418.967	472.05
419.344	463.01
419.721	485.16
420.098	477.47
420.475	459.62
420.852	476.12
421.228	469.34
421.605	498.94
421.982	484.25
422.358	491.03
422.735	464.37
423.111	458.04
423.488	483.8
423.864	500.3
424.241	510.47
424.617	513.63
424.994	510.47
425.37	517.02
425.746	501.88
426.123	503.69
426.499	535.78
426.875	516.12
427.251	522.44
427.627	536
428.003	521.77
428.379	530.35
428.756	541.88
429.132	529
429.507	540.75
429.883	551.14
430.259	537.58
430.635	552.05
431.011	562.67
431.387	576
431.763	576
432.138	559.96
432.514	570.58
432.89	569.67
433.265	562.22
433.641	577.13
434.016	578.26
434.392	576.91
434.767	616
435.143	599.73
435.518	603.35
435.894	608.32
436.269	603.8
436.644	590.69
437.02	614.87
437.395	613.51
437.77	643.34
438.145	623.23
438.52	626.62
438.895	628.88
439.271	614.19
439.646	635.66
440.021	626.62
440.395	643.8
440.77	619.84
441.145	658.26
441.52	650.12
441.895	667.52
442.27	652.38
442.645	650.8
443.019	662.78
443.394	639.95
443.769	654.87
444.143	670.91
444.518	658.71
444.892	673.17
445.267	684.25
445.641	674.76
446.016	675.66
446.39	681.08
446.764	684.47
447.139	688.99
447.513	666.39
447.887	674.53
448.262	703
448.636	704.59
449.01	713.4
449.384	708.43
449.758	695.77
450.132	680.18
450.506	714.76
450.88	716.79
451.254	706.85
451.628	728.99
452.002	717.92
452.376	727.86
452.75	741.65
453.123	750.23
453.497	731.25
453.871	747.07
454.244	755.21
454.618	770.35
454.992	743
455.365	757.47
455.739	784.58
456.112	736
456.486	783.45
456.859	795.43
457.232	796.56
457.606	781.19
457.979	808.54
458.352	815.77
458.725	807.41
459.099	818.48
459.472	814.19
459.845	821.19
460.218	833.4
460.591	830.23
460.964	853.51
461.337	866.39
461.71	856.45
462.083	888.76
462.456	869.78
462.829	900.74
463.201	853.51
463.574	875.2
463.947	884.92
464.32	894.86
464.692	938.25
465.065	934.41
465.438	905.94
465.81	951.59
466.183	930.34
466.555	968.53
466.928	937.12
467.3	971.02
467.672	973.96
468.045	1002.88
468.417	971.02
468.789	990.68
469.161	1009.21
469.534	997.23
469.906	1029.32
470.278	999.95
470.65	1067.06
471.022	1057.35
471.394	1072.71
471.766	1049.21
472.138	1107.51
472.51	1091.92
472.882	1101.86
473.253	1132.6
473.625	1133.05
473.997	1134.41
474.369	1172.14
474.74	1152.48
475.112	1155.42
475.484	1199.71
475.855	1197
476.227	1191.8
476.598	1223.22
476.97	1240.84
477.341	1274.29
477.713	1272.93
478.084	1292.59
478.455	1333.72
478.827	1330.56
479.198	1335.3
479.569	1362.87
479.94	1380.27
480.311	1396.32
480.682	1437.22
481.053	1429.54
481.424	1445.36
481.795	1458.24
482.166	1473.61
482.537	1508.18
482.908	1545.02
483.279	1509.08
483.65	1558.57
484.021	1583.21
484.391	1593.6
484.762	1605.13
485.133	1615.52
485.503	1632.02
485.874	1667.95
486.244	1690.32
486.615	1733.71
486.985	1724.67
487.356	1754.05
487.726	1776.2
488.097	1816.65
488.467	1826.14
488.837	1824.56
489.207	1869.08
489.578	1870.66
489.948	1892.8
490.318	1905.01
490.688	1911.11
491.058	1973.48
491.428	1991.78
491.798	1974.61
492.168	2001.28
492.538	2014.16
492.908	2059.35
493.278	2065
493.648	2067.04
494.017	2084.66
494.387	2082.18
494.757	2113.59
495.126	2157.66
495.496	2150.65
495.866	2168.73
496.235	2177.99
496.605	2185.68
496.974	2217.54
497.344	2267.71
497.713	2233.59
498.082	2263.64
498.452	2302.28
498.821	2336.18
499.19	2330.76
499.559	2331.44
499.928	2360.14
500.298	2375.5
500.667	2412.11
501.036	2406.24
501.405	2398.78
501.774	2413.69
502.143	2462.05
502.512	2460.25
502.88	2484.2
503.249	2497.99
503.618	2510.19
503.987	2510.41
504.356	2531.2
504.724	2555.38
505.093	2564.65
505.462	2616.85
505.83	2625.21
506.199	2627.02
506.567	2638.09
506.936	2645.1
507.304	2639.9
507.672	2676.96
508.041	2668.6
508.409	2709.73
508.777	2713.12
509.145	2771.2
509.514	2740.69
509.882	2796.73
510.25	2801.25
510.618	2844.87
510.986	2822.72
511.354	2869.5
511.722	2869.05
512.09	2892.78
512.458	2887.13
512.826	2920.8
513.193	2930.74
513.561	2983.85
513.929	2963.96
514.297	3028.37
514.664	3003.51
515.032	3100.68
515.4	3071.08
515.767	3076.28
516.135	3084.41
516.502	3073.79
516.869	3146.78
517.237	3174.35
517.604	3198.98
517.972	3198.31
518.339	3213.45
518.706	3252.77
519.073	3265.87
519.44	3280.56
519.808	3357.62
520.175	3320.79
520.542	3384.52
520.909	3353.56
521.276	3414.35
521.643	3449.15
522.009	3482.82
522.376	3497.51
522.743	3509.48
523.11	3556.94
523.477	3590.39
523.843	3582.48
524.21	3650.72
524.577	3665.64
524.943	3688.24
525.31	3690.04
525.676	3747.9
526.043	3739.76
526.409	3764.39
526.776	3847.33
527.142	3864.28
527.508	3881.9
527.874	3901.11
528.241	3928
528.607	3962.58
528.973	3958.06
529.339	3951.73
529.705	4017.72
530.071	4057.94
530.437	4089.13
530.803	4113.76
531.169	4142.01
531.535	4140.88
531.901	4201.44
532.267	4196.92
532.632	4210.93
532.998	4248.67
533.364	4305.62
533.73	4264.04
534.095	4303.81
534.461	4353.76
534.826	4336.35
535.192	4358.73
535.557	4417.71
535.923	4445.28
536.288	4487.31
536.653	4461.78
537.019	4492.28
537.384	4518.27
537.749	4547.42
538.114	4511.27
538.479	4556.01
538.845	4594.2
539.21	4564.15
539.575	4594.65
539.94	4643.69
540.305	4675.1
540.67	4671.71
541.034	4663.35
541.399	4752.39
541.764	4763.24
542.129	4776.12
542.494	4798.49
542.858	4830.35
543.223	4802.11
543.587	4847.3
543.952	4891.37
544.316	4907.41
544.681	4912.38
545.045	4949.22
545.41	4987.41
545.774	5041.65
546.138	5017.47
546.503	5041.2
546.867	5072.38
547.231	5124.13
547.595	5123
547.959	5154.64
548.324	5172.72
548.688	5165.94
549.052	5207.97
549.416	5224.92
549.779	5262.66
550.143	5343.11
550.507	5354.18
550.871	5332.71
551.235	5378.81
551.599	5445.03
551.962	5381.3
552.326	5494.29
552.689	5524.12
553.053	5480.28
553.417	5549.88
553.78	5618.58
554.143	5632.59
554.507	5674.62
554.87	5684.57
555.234	5727.5
555.597	5749.2
555.96	5798.46
556.323	5834.39
556.686	5874.85
557.05	5946.71
557.413	5921.62
557.776	6012.24
558.139	6036.2
558.502	6023.09
558.865	6112.13
559.228	6161.84
559.59	6196.64
559.953	6239.36
560.316	6343.31
560.679	6319.13
561.041	6424.44
561.404	6458.78
561.767	6539.23
562.129	6508.5
562.492	6628.72
562.854	6678.44
563.217	6677.54
563.579	6770.64
563.941	6813.58
564.304	6886.12
564.666	6910.75
565.028	6925.21
565.39	7063.06
565.753	7141.7
566.115	7174.7
566.477	7233.68
566.839	7293.11
567.201	7366.78
567.563	7428.25
567.925	7508.47
568.287	7558.19
568.648	7623.95
569.01	7719.54
569.372	7824.85
569.734	7851.74
570.095	7962.02
570.457	8042.02
570.819	8049.7
571.18	8070.04
571.542	8215.12
571.903	8316.82
572.265	8327.89
572.626	8439.75
572.987	8489.01
573.349	8601.33
573.71	8696.47
574.071	8757.93
574.432	8851.72
574.794	8964.93
575.155	9020.07
575.516	9083.12
575.877	9195.21
576.238	9326.28
576.599	9429.1
576.96	9504.13
577.32	9536.22
577.681	9671.81
578.042	9758.81
578.403	9914.29
578.763	10021.63
579.124	10212.81
579.485	10246.26
579.845	10440.6
580.206	10487.38
580.566	10606.47
580.927	10770.99
581.287	11014.6
581.648	11041.26
582.008	11193.58
582.368	11344.98
582.728	11512.66
583.089	11665.88
583.449	11851.19
583.809	11972.09
584.169	12195.36
584.529	12387.44
584.889	12646.42
585.249	12689.36
585.609	12929.58
585.969	13107.88
586.329	13365.04
586.688	13591.25
587.048	13784.47
587.408	14000.06
587.768	14238.47
588.127	14365.7
588.487	14694.05
588.846	15023.53
589.206	15187.82
589.565	15539.68
589.925	15893.57
590.284	16089.27
590.643	16430.5
591.003	16705.75
591.362	17032.52
591.721	17198.62
592.08	17638.83
592.44	17869.33
592.799	18310.22
593.158	18606.26
593.517	19001.96
593.876	19322.18
594.235	19563.07
594.593	20056.62
594.952	20398.76
595.311	20651.41
595.67	21116.03
596.029	21641.66
596.387	21932.5
596.746	22341.76
597.104	22569.55
597.463	22988.97
597.822	23506.92
598.18	23847.93
598.538	24113.46
598.897	24631.87
599.255	24844.74
599.613	25718.17
599.972	25822.57
600.33	26310.69
600.688	26568.76
601.046	27098.47
601.404	27562.41
601.762	27904.55
602.12	28530.97
602.478	28836.28
602.836	29308.35
603.194	29482.36
603.552	29926.19
603.91	30296.8
604.268	30965.94
604.625	31133.84
604.983	31647.73
605.341	31923.65
605.698	32388.05
606.056	32736.74
606.413	33161.36
606.771	33428.47
607.128	33822.36
607.485	34060.55
607.843	34516.58
608.2	34903.46
608.557	35342.55
608.914	35501.19
609.272	36173.03
609.629	36382.29
609.986	36834.71
610.343	36922.84
610.7	37614.58
611.057	37705.87
611.414	37959.65
611.771	38068.35
612.127	38619.97
612.484	38762.57
612.841	39047.76
613.198	39196
613.554	39498.82
613.911	39927.96
614.267	40058.58
614.624	40447.95
614.98	40688.39
615.337	40840.93
615.693	41246.8
616.05	41241.6
616.406	41683.4
616.762	41693.79
617.118	42007.68
617.475	42053.1
617.831	42435.92
618.187	42677.04
618.543	42725.18
618.899	43094.88
619.255	43249.68
619.611	43526.28
619.967	43586.62
620.323	43879.95
620.678	43778.93
621.034	43826.62
621.39	44204.23
621.746	44206.72
622.101	44697.1
622.457	44434.28
622.812	44693.94
623.168	44751.56
623.523	44907.27
623.879	45212.12
624.234	45001.5
624.589	45140.71
624.945	45312.9
625.3	45457.99
625.655	45625.21
626.01	45736.4
626.365	45758.54
626.72	45834.47
627.075	45876.51
627.43	46009.61
627.785	45942.04
628.14	46157.4
628.495	46304.97
628.85	46369.15
629.205	46169.61
629.559	46617.05
629.914	46460.9
630.269	46521.46
630.623	46455.93
630.978	46291.64
631.332	46639.2
631.687	46752.19
632.041	46706.31
632.396	46760.78
632.75	46619.08
633.104	46728.91
633.459	46619.54
633.813	46600.1
634.167	46650.27
634.521	46796.71
634.875	46841.45
635.229	46931.17
635.583	46688.69
635.937	46696.15
636.291	46710.61
636.645	46811.62
636.999	46819.76
637.352	46911.73
637.706	46633.55
638.06	46888.23
638.413	46820.44
638.767	46764.39
639.121	46956.48
639.474	46744.96
639.828	46849.81
640.181	46901.56
640.534	46922.13
640.888	46770.95
641.241	46794.67
641.594	46809.81
641.947	46991.96
642.301	46813.43
642.654	46882.58
643.007	46895.46
643.36	46884.84
643.713	46753.54
644.066	47033.54
644.419	46716.71
644.771	46311.52
645.124	46105.2
645.477	46045.99
645.83	45821.59
646.182	45758.99
646.535	45718.09
646.888	45915.37
647.24	45723.29
647.593	45917.63
647.945	45723.97
648.298	45675.38
648.65	45666.57
649.002	45566.68
649.355	45715.83
649.707	45658.21
650.059	45763.29
650.411	46262.94
650.763	46332.31
651.115	46901.11
651.467	46568.24
651.819	46725.97
652.171	46612.76
652.523	46647.11
652.875	46652.08
653.227	46365.98
653.578	46765.07
653.93	46665.19
654.282	46434.46
654.633	46433.1
654.985	46641.68
655.337	46563.27
655.688	46529.82
656.039	46682.81
656.391	46347.68
656.742	46463.16
657.094	46418.64
657.445	46628.35
657.796	46439.2
658.147	46377.51
658.498	46290.73
658.849	46483.72
659.2	46341.35
659.551	46277.85
659.902	46548.13
660.253	46349.04
660.604	46408.69
660.955	46248.02
661.306	46507.45
661.656	46369.6
662.007	46397.85
662.358	46446.66
662.708	46389.49
663.059	46476.72
663.409	46131.41
663.76	46525.53
664.11	46381.8
664.461	46536.6
664.811	46373.44
665.161	46412.99
665.511	46295.93
665.862	46262.94
666.212	46537.73
666.562	46508.13
666.912	46302.26
667.262	46343.16
667.612	46316.04
667.962	46419.77
668.312	46331.86
668.662	46468.13
669.011	46345.87
669.361	46243.73
669.711	46420.9
670.06	46259.09
670.41	46183.39
670.76	46218.87
671.109	46332.76
671.459	46271.52
671.808	46138.65
672.157	46301.58
672.507	46029.04
672.856	45971.87
673.205	46217.97
673.554	46263.61
673.904	46061.81
674.253	46222.03
674.602	46062.72
674.951	45594.25
675.3	45367.59
675.649	46091.19
675.998	45980.46
676.346	45951.76
676.695	46048.48
677.044	45904.08
677.393	46001.47
677.741	46069.04
678.09	45756.51
678.438	45882.83
678.787	45904.53
679.135	45888.26
679.484	45670.64
679.832	45696.62
680.181	45557.19
680.529	45686.68
680.877	45657.3
681.225	45554.25
681.573	45747.24
681.922	45553.8
682.27	45340.25
682.618	45301.38
682.966	45269.29
683.314	45437.65
683.661	45163.08
684.009	44886.93
684.357	45095.74
684.705	44909.3
685.053	45005.57
685.4	44989.07
685.748	44744.56
686.095	44579.14
686.443	44578.91
686.79	44561.51
687.138	44603.54
687.485	44614.62
687.832	44476.99
688.18	44448.07
688.527	44177.12
688.874	44204.46
689.221	44080.39
689.568	44052.37
689.915	43920.17
690.262	43970.79
690.609	43845.15
690.956	43659.39
691.303	43552.5
691.65	43389.34
691.997	43592.05
692.344	43117.48
692.69	43266.18
693.037	43223.02
693.383	42857.6
693.73	43049.69
694.077	42877.04
694.423	42776.47
694.769	42790.03
695.116	42721.79
695.462	42529.7
695.808	42458.74
696.155	42495.35
696.501	42333.55
696.847	42266.88
697.193	41975.14
697.539	41882.94
697.885	41718.65
698.231	41794.13
698.577	41772.66
698.923	41529.73
699.269	41362.05
699.614	41274.14
699.96	41349.84
700.306	41344.42
700.651	41007.26
700.997	40990.76
701.342	40819.01
701.688	40849.07
702.033	40586.48
702.379	40610.88
702.724	40607.72
703.069	40547.38
703.415	40191.68
703.76	40249.99
704.105	40186.71
704.45	40067.62
704.795	39814.29
705.14	39866.27
705.485	39700.4
705.83	39723.67
706.175	39723.45
706.52	39700.85
706.865	39487.07
707.209	39470.35
707.554	39172.5
707.899	39309.9
708.243	39124.37
708.588	39199.84
708.932	38785.39
709.277	38897.25
709.621	38968.44
709.966	38584.72
710.31	38829.46
710.654	38310.38
710.998	38549.01
711.342	38469.02
711.687	38155.13
712.031	38211.85
712.375	38036.26
712.719	38012.76
713.063	38002.59
713.407	38114.68
713.75	38006.43
714.094	37947.67
714.438	37664.07
714.782	37896.6
715.125	37589.72
715.469	37542.71
715.812	37504.07
716.156	37360.35
716.499	37399.67
716.843	37297.07
717.186	37156.73
717.53	37342.04
717.873	37272.89
718.216	37105.21
718.559	37141.37
718.902	36721.72
719.246	36852.79
719.589	36706.58
719.932	36595.62
720.275	36746.35
720.617	36688.95
720.96	36460.48
721.303	36503.64
721.646	36608.27
721.989	36337.77
722.331	36332.35
722.674	36376.64
723.016	36447.83
723.359	36245.8
723.701	36190.66
724.044	35959.25
724.386	35839.26
724.729	36046.48
725.071	35990.89
725.413	35814.17
725.755	35855.07
726.097	35695.98
726.439	35477.01
726.782	35575.99
727.124	35735.76
727.465	35416.22
727.807	35375.76
728.149	35505.25
728.491	35242.21
728.833	35396.33
729.175	35131.7
729.516	35368.08
729.858	35150.46
730.199	35164.24
730.541	35057.13
730.882	34972.61
731.224	35120.86
731.565	34910.92
731.906	34842.45
732.248	34932.16
732.589	34934.42
732.93	34707.31
733.271	34631.38
733.612	34609.23
733.953	34649.68
734.294	34557.26
734.635	34552.96
734.976	34636.35
735.317	34307.54
735.658	34368.56
735.999	34347.77
736.339	34295.57
736.68	34477.71
737.021	34344.38
737.361	34164.72
737.702	34298.5
738.042	34190.49
738.383	34068.23
738.723	34083.82
739.063	34001.79
739.404	34014.67
739.744	33946.65
740.084	33776.94
740.424	33861
740.764	33813.32
741.104	33909.14
741.444	33590.95
741.784	33539.65
742.124	33739.65
742.464	33596.38
742.804	33580.56
743.143	33503.95
743.483	33440.9
743.823	33227.57
744.162	33292.2
744.502	33245.65
744.841	33184.18
745.181	33281.81
745.52	33162.49
745.86	33275.48
746.199	33092.21
746.538	33073
746.877	33073
747.216	33060.8
747.556	32939.67
747.895	33097.18
748.234	32797.53
748.573	32825.32
748.911	32696.97
749.25	32828.04
749.589	32587.36
749.928	32612.67
750.267	32699.22
750.605	32619.23
750.944	32477.99
751.283	32382.62
751.621	32571.32
751.96	32313.92
752.298	32175.62
752.636	32260.14
752.975	32156.64
753.313	32070.77
753.651	32084.1
753.989	31994.38
754.327	31906.7
754.666	31848.17
755.004	31854.28
755.342	31782.19
755.679	31681.4
756.017	31531.57
756.355	31721.62
756.693	31635.3
757.031	31588.29
757.368	31371.35
757.706	31356.21
758.044	31149.44
758.381	31237.34
758.719	31096.56
759.056	31145.14
759.394	30994.19
759.731	30832.83
760.068	30967.29
760.405	30815.21
760.743	30472.16
761.08	30667.19
