Data from red_shiny_book_FLMS001491_00049.txt Node
Date: Wed Feb 08 15:24:55 GMT 2017
User: dcchb
Spectrometer: FLMS00149
Trigger mode: 0
Integration Time (sec): 2.000000E-2
Scans to average: 10
Electric dark correction enabled: true
Nonlinearity correction enabled: false
Boxcar width: 0
XAxis mode: Wavelengths
Number of Pixels in Spectrum: 2048
>>>>>Begin Spectral Data<<<<<
341.393	-19.82
341.776	-19.82
342.16	-19.82
342.543	-44.9
342.927	-69.31
343.31	-68.63
343.693	-72.02
344.077	-73.37
344.46	-72.02
344.843	-61.4
345.226	-30.89
345.61	-45.8
345.993	-27.05
346.376	-2.42
346.759	25.15
347.142	34.65
347.525	55.44
347.908	50.92
348.291	82.33
348.674	96.11
349.057	108.99
349.44	135.89
349.823	147.86
350.206	154.42
350.588	195.77
350.971	209.33
351.354	225.15
351.737	244.13
352.119	258.37
352.502	262.89
352.884	272.61
353.267	283.9
353.65	290.01
354.032	304.02
354.414	310.8
354.797	308.09
355.179	328.42
355.562	329.55
355.944	355.54
356.326	349.21
356.709	329.1
357.091	337.01
357.473	334.07
357.855	362.09
358.238	341.3
358.62	366.61
359.002	339.95
359.384	344.24
359.766	335.43
360.148	351.02
360.53	358.93
360.912	328.65
361.294	342.43
361.676	357.12
362.057	316.67
362.439	328.65
362.821	347.18
363.203	344.69
363.584	333.85
363.966	344.02
364.348	333.85
364.729	315.77
365.111	313.96
365.493	340.63
365.874	328.65
366.256	324.81
366.637	314.19
367.019	313.96
367.4	319.84
367.781	308.76
368.163	324.81
368.544	309.67
368.925	337.24
369.306	336.11
369.688	316.22
370.069	322.55
370.45	344.47
370.831	311.93
371.212	316.67
371.593	306.28
371.974	318.71
372.355	331.59
372.736	316.67
373.117	332.04
373.498	327.75
373.879	324.36
374.26	327.75
374.641	323
375.021	338.59
375.402	349.44
375.783	333.4
376.163	349.21
376.544	353.73
376.925	315.09
377.305	313.51
377.686	332.94
378.066	339.95
378.447	342.66
378.827	320.97
379.208	349.44
379.588	347.41
379.968	339.95
380.349	349.67
380.729	341.98
381.109	342.43
381.489	357.12
381.87	349.89
382.25	348.76
382.63	349.44
383.01	362.55
383.39	353.96
383.77	336.56
384.15	357.35
384.53	366.61
384.91	357.12
385.29	365.26
385.67	365.94
386.049	362.77
386.429	374.98
386.809	389.66
387.189	335.43
387.568	345.6
387.948	358.48
388.328	359.16
388.707	357.12
389.087	361.42
389.466	359.38
389.846	375.65
390.225	393.73
390.605	393.05
390.984	376.33
391.363	364.58
391.743	368.42
392.122	391.02
392.501	400.06
392.881	389.89
393.26	386.05
393.639	391.47
394.018	387.41
394.397	392.38
394.776	396.44
395.155	385.6
395.534	406.84
395.913	393.96
396.292	413.39
396.671	408.2
397.05	393.28
397.429	412.26
397.808	394.18
398.186	408.42
398.565	416.78
398.944	411.36
399.323	416.33
399.701	419.04
400.08	433.51
400.458	415.43
400.837	424.47
401.215	402.32
401.594	426.5
401.972	417.01
402.351	417.23
402.729	427.4
403.107	437.35
403.486	438.7
403.864	427.86
404.242	445.26
404.62	449.32
404.999	458.59
405.377	451.13
405.755	434.86
406.133	448.19
406.511	441.64
406.889	448.19
407.267	460.4
407.645	466.05
408.023	484.35
408.401	445.93
408.779	470.79
409.156	468.53
409.534	466.73
409.912	476.89
410.29	481.87
410.667	469.44
411.045	487.06
411.422	482.09
411.8	482.32
412.178	505.14
412.555	532.49
412.933	517.57
413.31	533.62
413.687	527.29
414.065	535.42
414.442	512.83
414.819	517.35
415.197	539.72
415.574	546.72
415.951	568.87
416.328	574.29
416.705	569.32
417.082	547.4
417.46	555.31
417.837	550.34
418.214	554.63
418.591	577.68
418.967	583.78
419.344	599.38
419.721	594.41
420.098	613.39
420.475	609.09
420.852	601.18
421.228	593.28
421.605	587.4
421.982	587.63
422.358	618.36
422.735	618.13
423.111	616.78
423.488	611.58
423.864	624.91
424.241	663.78
424.617	657.23
424.994	632.14
425.37	631.47
425.746	610.45
426.123	631.69
426.499	658.81
426.875	663.1
427.251	669.21
427.627	670.56
428.003	678.7
428.379	691.13
428.756	710.11
429.132	708.07
429.507	721.86
429.883	704.46
430.259	702.2
430.635	706.94
431.011	706.27
431.387	708.3
431.763	748.3
432.138	729.77
432.514	741.52
432.89	755.53
433.265	786.26
433.641	778.81
434.016	772.93
434.392	769.09
434.767	768.41
435.143	759.82
435.518	779.94
435.894	771.8
436.269	800.5
436.644	805.47
437.02	818.13
437.395	835.53
437.77	840.05
438.145	827.62
438.52	832.37
438.895	843.66
439.271	854.51
439.646	844.79
440.021	845.7
440.395	872.59
440.77	881.86
441.145	870.33
441.52	906.04
441.895	908.97
442.27	912.59
442.645	905.58
443.019	924.11
443.394	898.8
443.769	892.48
444.143	884.12
444.518	923.21
444.892	923.44
445.267	887.28
445.641	948.75
446.016	953.27
446.39	949.88
446.764	994.17
447.139	952.59
447.513	962.31
447.887	958.69
448.262	937
448.636	943.55
449.01	948.52
449.384	955.07
449.758	960.72
450.132	954.4
450.506	1008.41
450.88	1033.04
451.254	1025.13
451.628	1006.15
452.002	1020.83
452.376	1027.39
452.75	1035.75
453.123	1011.57
453.497	991.46
453.871	989.42
454.244	1027.16
454.618	1026.94
454.992	1041.85
455.365	1053.15
455.739	1084.34
456.112	1098.8
456.486	1109.65
456.859	1119.59
457.232	1090.21
457.606	1093.6
457.979	1100.38
458.352	1098.57
458.725	1092.25
459.099	1110.78
459.472	1088.86
459.845	1146.48
460.218	1160.94
460.591	1176.31
460.964	1193.71
461.337	1225.35
461.71	1199.59
462.083	1198.68
462.456	1227.16
462.829	1192.81
463.201	1195.29
463.574	1176.54
463.947	1189.42
464.32	1202.52
464.692	1236.87
465.065	1239.59
465.438	1280.26
465.81	1303.99
466.183	1334.72
466.555	1369.53
466.928	1351.67
467.3	1337.66
467.672	1343.76
468.045	1335.85
468.417	1337.21
468.789	1325.69
469.161	1352.35
469.534	1346.48
469.906	1377.66
470.278	1431.67
470.65	1454.27
471.022	1473.25
471.394	1500.14
471.766	1525.68
472.138	1523.65
472.51	1524.78
472.882	1535.85
473.253	1541.05
473.625	1525.68
473.997	1522.74
474.369	1544.89
474.74	1536.75
475.112	1577.43
475.484	1637.54
475.855	1646.81
476.227	1728.61
476.598	1785.56
476.97	1753.92
477.341	1834.6
477.713	1805.67
478.084	1785.56
478.455	1805.67
478.827	1820.59
479.198	1814.71
479.569	1827.82
479.94	1856.07
480.311	1882.51
480.682	1917.31
481.053	1997.76
481.424	2094.93
481.795	2106.91
482.166	2148.94
482.537	2137.87
482.908	2232.78
483.279	2249.28
483.65	2257.41
484.021	2231.88
484.391	2225.1
484.762	2227.36
485.133	2220.8
485.503	2232.33
485.874	2296.06
486.244	2332.44
486.615	2436.84
486.985	2501.47
487.356	2559.55
487.726	2627.57
488.097	2690.17
488.467	2708.02
488.837	2711.64
489.207	2689.27
489.578	2695.82
489.948	2696.95
490.318	2696.5
490.688	2666.89
491.058	2715.03
491.428	2727
491.798	2831.63
492.168	2870.28
492.538	2937.39
492.908	2998.86
493.278	3111.4
493.648	3108.46
494.017	3171.29
494.387	3174.45
494.757	3193.66
495.126	3171.96
495.496	3207.22
495.866	3135.58
496.235	3106.88
496.605	3096.94
496.974	3103.04
497.344	3133.77
497.713	3173.09
498.082	3254.67
498.452	3340.77
498.821	3439.3
499.19	3491.28
499.559	3528.57
499.928	3552.97
500.298	3601.78
500.667	3572.86
501.036	3535.12
501.405	3505.06
501.774	3474.78
502.143	3378.96
502.512	3408.79
502.88	3410.15
503.249	3381.22
503.618	3461.67
503.987	3528.11
504.356	3604.27
504.724	3680.2
505.093	3763.81
505.462	3798.39
505.83	3876.13
506.199	3873.42
506.567	3914.32
506.936	3833.42
507.304	3834.55
507.672	3757.71
508.041	3685.4
508.409	3690.82
508.777	3681.56
509.145	3636.59
509.514	3677.94
509.882	3752.51
510.25	3795.23
510.618	3848.33
510.986	3968.1
511.354	4062.11
511.722	4097.36
512.09	4158.38
512.458	4131.49
512.826	4100.75
513.193	4107.08
513.561	4053.75
513.929	3969.23
514.297	4003.13
514.664	3924.04
515.032	3853.98
515.4	3911.61
515.767	3884.26
516.135	3947.54
516.502	3968.55
516.869	4067.76
517.237	4185.5
517.604	4249.9
517.972	4353.18
518.339	4428.65
518.706	4404.25
519.073	4442.67
519.44	4444.7
519.808	4349.56
520.175	4250.13
520.542	4191.15
520.909	4207.42
521.276	4140.07
521.643	4115.44
522.009	4158.83
522.376	4185.05
522.743	4245.16
523.11	4329.22
523.477	4424.36
523.843	4490.12
524.21	4652.83
524.577	4688.53
524.943	4765.82
525.31	4870.9
525.676	4809.44
526.043	4849.21
526.409	4796.55
526.776	4766.05
527.142	4678.14
527.508	4646.28
527.874	4593.62
528.241	4542.1
528.607	4568.76
528.973	4581.19
529.339	4608.31
529.705	4789.55
530.071	4935.08
530.437	5058.02
530.803	5153.16
531.169	5261.18
531.535	5320.61
531.901	5416.65
532.267	5400.38
532.632	5396.99
532.998	5329.87
533.364	5346.82
533.73	5303.43
534.095	5219.82
534.461	5187.28
534.826	5055.08
535.192	5073.84
535.557	5128.52
535.923	5189.54
536.288	5209.2
536.653	5377.1
537.019	5486.03
537.384	5575.07
537.749	5671.33
538.114	5834.27
538.479	5900.71
538.845	5992.23
539.21	5964.21
539.575	5999.69
539.94	5921.5
540.305	5928.28
540.67	5852.35
541.034	5768.28
541.399	5629.3
541.764	5653.48
542.129	5586.82
542.494	5605.12
542.858	5683.99
543.223	5677.89
543.587	5767.83
543.952	5915.85
544.316	6053.24
544.681	6152.9
545.045	6298.89
545.41	6412.56
545.774	6472.44
546.138	6569.84
546.503	6544.53
546.867	6486.45
547.231	6439.68
547.595	6410.98
547.959	6322.16
548.324	6194.71
548.688	6153.81
549.052	6039.01
549.416	5951.1
549.779	5982.51
550.143	6046.47
550.507	6097.09
550.871	6226.8
551.235	6278.78
551.599	6388.83
551.962	6518.09
552.326	6613.23
552.689	6806.45
553.053	6797.18
553.417	6884.18
553.78	6923.96
554.143	6894.35
554.507	6861.13
554.87	6707.92
555.234	6721.48
555.597	6569.39
555.96	6487.58
556.323	6376.63
556.686	6270.87
557.05	6320.81
557.413	6276.29
557.776	6330.07
558.139	6476.28
558.502	6530.29
558.865	6660.23
559.228	6815.03
559.59	6918.76
559.953	7049.83
560.316	7209.6
560.679	7214.57
561.041	7359.43
561.404	7351.29
561.767	7352.42
562.129	7260.67
562.492	7193.78
562.854	7080.79
563.217	6969.83
563.579	6874.01
563.941	6794.02
564.304	6753.57
564.666	6746.11
565.028	6747.24
565.39	6763.51
565.753	6864.75
566.115	6959.21
566.477	7075.82
566.839	7235.13
567.201	7448.01
567.563	7487.33
567.925	7702.69
568.287	7823.37
568.648	7872.41
569.01	7905.17
569.372	7958.73
569.734	7836.93
570.095	7794.22
570.457	7665.41
570.819	7577.5
571.18	7514.45
571.542	7419.99
571.903	7333.66
572.265	7331.86
572.626	7224.06
572.987	7223.84
573.349	7326.21
573.71	7464.28
574.071	7595.13
574.432	7792.18
574.794	7996.7
575.155	8181.55
575.516	8384.93
575.877	8574.31
576.238	8768.2
576.599	8880.97
576.96	8985.37
577.32	8972.94
577.681	9102.2
578.042	9034.86
578.403	9049.55
578.763	8981.76
579.124	8955.09
579.485	8987.63
579.845	9021.3
580.206	9002.09
580.566	9047.97
580.927	9257.91
581.287	9433.95
581.648	9602.08
582.008	9881.84
582.368	10153.7
582.728	10610.64
583.089	10902.83
583.449	11328.13
583.809	11783.49
584.169	12156.36
584.529	12508.22
584.889	12910.01
585.249	13129.89
585.609	13405.82
585.969	13764.68
586.329	13985.69
586.688	14218.91
587.048	14518.11
587.408	14759.68
587.768	14986.34
588.127	15396.5
588.487	15569.38
588.846	16081.91
589.206	16351.28
589.565	16736.58
589.925	17344.25
590.284	17892.48
590.643	18418.12
591.003	19096.29
591.362	19743.28
591.721	20195.02
592.08	20928.79
592.44	21584.36
592.799	22234.06
593.158	22680.38
593.517	23305.9
593.876	23801.25
594.235	24267
594.593	24721
594.952	25196.02
595.311	25442.57
595.67	25853.18
596.029	26322.09
596.387	26758.69
596.746	27122.3
597.104	27335.85
597.463	27819.9
597.822	28534.69
598.18	28741.24
598.538	29292.86
598.897	29862.79
599.255	30224.13
599.613	31338.91
599.972	31685.11
600.33	32486.45
600.688	33004.85
601.046	33656.59
601.404	34339.73
601.762	34734.98
602.12	35351.91
602.478	35746.25
602.836	36282.28
603.194	36388.49
603.552	36694.02
603.91	37026.89
604.268	37456.94
604.625	37570.83
604.983	38040.88
605.341	38106.87
605.698	38558.83
606.056	38766.96
606.413	38967.41
606.771	39561.97
607.128	39853.71
607.485	40042.18
607.843	40383.42
608.2	41058.88
608.557	41473.56
608.914	41851.4
609.272	42429.24
609.629	42903.12
609.986	43394.41
610.343	43571.58
610.7	44082.08
611.057	44423.31
611.414	44528.84
611.771	44865.78
612.127	45167.02
612.484	45242.95
612.841	45498.08
613.198	45377.63
613.554	45564.3
613.911	45875.47
614.267	45709.83
614.624	45850.62
614.98	45979.88
615.337	46182.13
615.693	46110.5
616.05	46334.67
616.406	46706.87
616.762	46627.77
617.118	46823.02
617.475	47037.25
617.831	47416.45
618.187	47686.05
618.543	47901.64
618.899	48362.64
619.255	48439.7
619.611	48507.95
619.967	48848.5
620.323	49065.67
620.678	49146.57
621.034	49059.8
621.39	49076.07
621.746	49213.01
622.101	49708.82
622.457	49167.59
622.812	49306.57
623.168	49264.99
623.523	49226.57
623.879	49353.58
624.234	49142.06
624.589	49116.07
624.945	49124.65
625.3	49194.03
625.655	49267.7
626.01	49240.36
626.365	49327.59
626.72	49517.41
627.075	49476.28
627.43	49827.01
627.785	49785.2
628.14	49898.19
628.495	50031.52
628.85	50228.35
629.205	50176.6
629.559	50493.88
629.914	50446.88
630.269	50532.98
630.623	50387.67
630.978	50323.04
631.332	50579.98
631.687	50516.48
632.041	50340.22
632.396	50324.62
632.75	50112.65
633.104	50049.15
633.459	49831.53
633.813	49817.29
634.167	49808.03
634.521	49692.78
634.875	49755.37
635.229	49606.22
635.583	49478.54
635.937	49540.91
636.291	49583.85
636.645	49651.65
636.999	49658.2
637.352	49822.72
637.706	49733.9
638.06	50048.47
638.413	49915.82
638.767	49975.93
639.121	50030.17
639.474	50009.38
639.828	50066.78
640.181	50181.58
640.534	50139.77
640.888	50078.98
641.241	49846.67
641.594	49911.98
641.947	49907.91
642.301	49706.11
642.654	49793.79
643.007	49576.62
643.36	49452.56
643.713	49271.09
644.066	49384.99
644.419	49048.5
644.771	48760.82
645.124	48300.27
645.477	48217.79
645.83	48079.26
646.182	48057.34
646.535	47976.21
646.888	48113.61
647.24	47835.42
647.593	48282.42
647.945	48312.7
648.298	48123.55
648.65	48215.53
649.002	48208.29
649.355	48443.77
649.707	48344.11
650.059	48434.28
650.411	49045.11
650.763	49009.18
651.115	49407.36
651.467	49137.76
651.819	49161.49
652.171	48948.16
652.523	48835.17
652.875	48672.46
653.227	48438.8
653.578	48705.91
653.93	48420.49
654.282	48316.99
654.633	48146.38
654.985	48128.3
655.337	48231.57
655.688	48186.37
656.039	48115.42
656.391	47886.5
656.742	47957
657.094	48048.98
657.445	48244.68
657.796	48123.78
658.147	48311.12
658.498	48344.11
658.849	48558.12
659.2	48516.08
659.551	48480.38
659.902	48677.43
660.253	48695.74
660.604	48888.5
660.955	48568.51
661.306	48723.54
661.656	48586.36
662.007	48585.01
662.358	48497.55
662.708	48483.32
663.059	48370.55
663.409	47931.47
663.76	48235.19
664.11	48080.61
664.461	47928.3
664.811	47935.31
665.161	47724.47
665.511	47641.53
665.862	47703.45
666.212	47674.52
666.562	47685.82
666.912	47608.31
667.262	47398.6
667.612	47582.32
667.962	47643.11
668.312	47607.18
668.662	47860.73
669.011	47717.23
669.361	47825.25
669.711	47953.16
670.06	47951.13
670.41	47966.04
670.76	47938.25
671.109	48241.51
671.459	48017.57
671.808	48079.71
672.157	48124.23
672.507	47933.27
672.856	47887.4
673.205	47912.03
673.554	47873.39
673.904	47880.85
674.253	47834.97
674.602	47578.03
674.951	47033.41
675.3	46740.31
675.649	47252.39
675.998	47072.73
676.346	47036.8
676.695	47098.27
677.044	46680.43
677.393	46871.15
677.741	46865.28
678.09	46708.9
678.438	46700.99
678.787	46757.71
679.135	46813.53
679.484	46640.43
679.832	46863.02
680.181	46672.29
680.529	46805.17
680.877	46900.98
681.225	46884.71
681.573	47296.91
681.922	46973.3
682.27	47052.39
682.618	47017.82
682.966	47105.05
683.314	47077.25
683.661	47002.9
684.009	46789.12
684.357	46674.78
684.705	46523.37
685.053	46486.08
685.4	46219.42
685.748	46059.2
686.095	46017.84
686.443	45816.49
686.79	45692.43
687.138	45726.1
687.485	45602.71
687.832	45234.14
688.18	45244.53
688.527	45088.83
688.874	44994.37
689.221	44817.2
689.568	44715.96
689.915	44780.59
690.262	44768.16
690.609	44645.22
690.956	44643.64
691.303	44681.61
691.65	44649.07
691.997	44685
692.344	44480.03
692.69	44435.96
693.037	44637.54
693.383	44365.23
693.73	44582.18
694.077	44281.39
694.423	44494.72
694.769	44202.3
695.116	44250.43
695.462	44228.29
695.808	44030.1
696.155	43859.93
696.501	43529.32
696.847	43530.23
697.193	43323.45
697.539	43186.51
697.885	42872.62
698.231	42724.37
698.577	42688.89
698.923	42432.85
699.269	42194.22
699.614	41917.16
699.96	41810.72
700.306	41923.49
700.651	41497.06
700.997	41359.21
701.342	41467.45
701.688	41380
702.033	41281.25
702.379	41226.11
702.724	41261.81
703.069	41263.17
703.415	40911.76
703.76	41018.88
704.105	41177.74
704.45	41236.27
704.795	40902.27
705.14	40981.14
705.485	40995.38
705.83	40928.71
706.175	41099.33
706.52	40853.01
706.865	40886
707.209	40742.95
707.554	40633.58
707.899	40659.11
708.243	40383.19
708.588	40321.95
708.932	39991.56
709.277	39987.95
709.621	39847.16
709.966	39600.61
710.31	39458.92
710.654	39098.03
710.998	39068.87
711.342	39017.35
711.687	38813.74
712.031	38652.84
712.375	38377.14
712.719	38457.59
713.063	38314.32
713.407	38472.28
713.75	38292.4
714.094	38221.66
714.438	38170.82
714.782	38162.68
715.125	38081.78
715.469	38228.9
715.812	37978.06
716.156	37889.7
716.499	38049.47
716.843	38172.63
717.186	37987.32
717.53	38211.27
717.873	38230.03
718.216	38102.12
718.559	38227.77
718.902	37795.01
719.246	38147.09
719.589	37799.3
719.932	37618.52
720.275	37896.7
720.617	37856.02
720.96	37589.14
721.303	37585.07
721.646	37380.56
721.989	37250.39
722.331	37231.41
722.674	36960.91
723.016	36950.96
723.359	36789.61
723.701	36695.83
724.044	36452.22
724.386	36211.55
724.729	36299.46
725.071	36045.45
725.413	35983.08
725.755	35895.85
726.097	35725.23
726.439	35557.55
726.782	35723.43
727.124	35810.88
727.465	35664.22
727.807	35676.65
728.149	35680.49
728.491	35551.9
728.833	35662.41
729.175	35693.82
729.516	35677.78
729.858	35635.29
730.199	35759.13
730.541	35732.01
730.882	35805.23
731.224	35836.87
731.565	35750.99
731.906	35854.72
732.248	35829.41
732.589	35700.15
732.93	35550.32
733.271	35578.12
733.612	35660.15
733.953	35525.46
734.294	35333.83
734.635	35159.37
734.976	35138.81
735.317	34990.34
735.658	34892.26
735.999	34714.64
736.339	34531.14
736.68	34600.74
737.021	34443.46
737.361	34124.15
737.702	34243.24
738.042	33994.43
738.383	33948.33
738.723	34012.96
739.063	33768
739.404	33914.66
739.744	33782.23
740.084	33660.65
740.424	33760.54
740.764	33601.22
741.104	33774.1
741.444	33725.96
741.784	33638.51
742.124	33715.57
742.464	33843.7
742.804	33718.28
743.143	33669.47
743.483	33831.5
743.823	33655.91
744.162	33792.4
744.502	33706.98
744.841	33858.16
745.181	33840.31
745.52	33671.95
745.86	33744.04
746.199	33702.69
746.538	33656.36
746.877	33672.86
747.216	33575.68
747.556	33479.87
747.895	33473.77
748.234	33316.26
748.573	33121.23
748.911	33140.89
749.25	32912.65
749.589	32799.21
749.928	32758.53
750.267	32645.09
750.605	32545.43
750.944	32270.18
751.283	32226.79
751.621	32275.15
751.96	32026.8
752.298	31835.62
752.636	31887.37
752.975	31672.91
753.313	31508.85
753.651	31631.33
753.989	31452.8
754.327	31362.41
754.666	31366.25
755.004	31372.35
755.342	31355.63
755.679	31435.85
756.017	31271.11
756.355	31260.27
756.693	31233.37
757.031	31381.84
757.368	31212.58
757.706	31347.72
758.044	31229.08
758.381	31356.53
758.719	31226.37
759.056	31223.88
759.394	31190.66
759.731	31062.76
760.068	30992.48
