Data from red_shiny_book_FLMS001491_00072.txt Node
Date: Wed Feb 08 15:25:21 GMT 2017
User: dcchb
Spectrometer: FLMS00149
Trigger mode: 0
Integration Time (sec): 2.000000E-2
Scans to average: 10
Electric dark correction enabled: true
Nonlinearity correction enabled: false
Boxcar width: 0
XAxis mode: Wavelengths
Number of Pixels in Spectrum: 2048
>>>>>Begin Spectral Data<<<<<
341.393	2.23
341.776	2.23
342.16	2.23
342.543	-60.59
342.927	-40.48
343.31	-93.13
343.693	-79.35
344.077	-71.89
344.46	-61.5
344.843	-54.26
345.226	-26.24
345.61	-33.02
345.993	-8.16
346.376	8.79
346.759	14.43
347.142	11.95
347.525	36.81
347.908	46.98
348.291	92.62
348.674	101.44
349.057	114.55
349.44	128.1
349.823	137.14
350.206	155.22
350.588	195.9
350.971	233.19
351.354	221.66
351.737	254.43
352.119	246.52
352.502	265.05
352.884	273.41
353.267	298.49
353.65	285.61
354.032	334.43
354.414	305.5
354.797	319.29
355.179	320.42
355.562	316.57
355.944	322.68
356.326	354.31
356.709	333.75
357.091	349.34
357.473	334.2
357.855	331.04
358.238	350.25
358.62	361.54
359.002	353.41
359.384	349.57
359.766	333.52
360.148	343.69
360.53	338.27
360.912	350.7
361.294	340.3
361.676	312.73
362.057	347.76
362.439	332.17
362.821	333.75
363.203	326.06
363.584	328.1
363.966	332.84
364.348	335.1
364.729	318.16
365.111	336.69
365.493	326.29
365.874	317.48
366.256	336.69
366.637	303.24
367.019	320.64
367.4	329.68
367.781	325.61
368.163	323.58
368.544	317.48
368.925	314.54
369.306	325.84
369.688	329.23
370.069	309.34
370.45	316.57
370.831	315.44
371.212	297.14
371.593	316.8
371.974	312.73
372.355	327.65
372.736	333.97
373.117	326.74
373.498	326.06
373.879	313.86
374.26	316.57
374.641	325.39
375.021	314.99
375.402	320.87
375.783	344.14
376.163	322.45
376.544	306.63
376.925	309.57
377.305	350.47
377.686	337.59
378.066	337.14
378.447	335.1
378.827	343.24
379.208	337.82
379.588	331.71
379.968	352.73
380.349	358.83
380.729	333.75
381.109	342.56
381.489	350.25
381.87	335.56
382.25	344.14
382.63	329.23
383.01	319.74
383.39	345.5
383.77	352.73
384.15	339.62
384.53	363.13
384.91	340.53
385.29	336.91
385.67	343.47
386.049	359.06
386.429	354.31
386.809	347.99
387.189	362.22
387.568	351.83
387.948	336.91
388.328	354.76
388.707	353.63
389.087	348.66
389.466	343.69
389.846	353.86
390.225	365.61
390.605	357.25
390.984	378.94
391.363	371.04
391.743	392.73
392.122	379.62
392.501	371.04
392.881	389.11
393.26	349.79
393.639	352.05
394.018	369.45
394.397	390.02
394.776	364.03
395.155	383.24
395.534	389.11
395.913	384.82
396.292	391.6
396.671	390.7
397.05	392.28
397.429	387.31
397.808	387.08
398.186	397.93
398.565	402
398.944	404.03
399.323	410.58
399.701	401.32
400.08	408.77
400.458	397.48
400.837	409.9
401.215	432.95
401.594	376.46
401.972	398.15
402.351	425.5
402.729	409.9
403.107	430.02
403.486	443.12
403.864	435.21
404.242	415.33
404.62	412.39
404.999	426.85
405.377	403.35
405.755	423.24
406.133	416.68
406.511	423.69
406.889	426.4
407.267	442.67
407.645	437.93
408.023	456.23
408.401	416.01
408.779	439.28
409.156	453.75
409.534	438.6
409.912	454.88
410.29	464.59
410.667	460.3
411.045	470.47
411.422	467.08
411.8	491.71
412.178	490.35
412.555	474.31
412.933	475.44
413.31	502.33
413.687	477.02
414.065	489.9
414.442	502.33
414.819	510.24
415.197	488.09
415.574	505.5
415.951	521.31
416.328	521.99
416.705	531.03
417.082	536.45
417.46	542.56
417.837	528.77
418.214	529
418.591	531.48
418.967	524.7
419.344	557.47
419.721	546.17
420.098	571.03
420.475	556.79
420.852	572.61
421.228	559.51
421.605	558.38
421.982	560.86
422.358	577.13
422.735	564.93
423.111	575.1
423.488	604.7
423.864	592.5
424.241	629.79
424.617	621.42
424.994	599.05
425.37	594.98
425.746	590.01
426.123	614.64
426.499	624.36
426.875	602.22
427.251	625.94
427.627	614.19
428.003	635.21
428.379	641.54
428.756	635.66
429.132	637.47
429.507	647.86
429.883	658.26
430.259	670.69
430.635	662.1
431.011	653.29
431.387	644.7
431.763	664.36
432.138	712.72
432.514	698.26
432.89	673.85
433.265	717.47
433.641	701.87
434.016	709.33
434.392	758.14
434.767	731.25
435.143	705.49
435.518	709.11
435.894	713.4
436.269	712.27
436.644	749.1
437.02	725.6
437.395	769.22
437.77	753.4
438.145	766.51
438.52	789.78
438.895	785.71
439.271	769.22
439.646	794.3
440.021	790.01
440.395	790.23
440.77	781.65
441.145	806.28
441.52	796.11
441.895	805.37
442.27	816.9
442.645	820.29
443.019	817.58
443.394	812.38
443.769	845.83
444.143	834.07
444.518	821.65
444.892	810.57
445.267	826.62
445.641	828.88
446.016	828.65
446.39	832.27
446.764	841.76
447.139	870.68
447.513	874.07
447.887	880.4
448.262	887.41
448.636	886.5
449.01	888.54
449.384	879.95
449.758	861.42
450.132	881.98
450.506	867.07
450.88	895.09
451.254	879.04
451.628	905.71
452.002	907.29
452.376	927.18
452.75	925.82
453.123	941.87
453.497	951.59
453.871	949.55
454.244	942.77
454.618	938.03
454.992	942.09
455.365	923.34
455.739	932.15
456.112	962.43
456.486	958.59
456.859	960.17
457.232	980.28
457.606	1004.92
457.979	994.07
458.352	1007.63
458.725	1005.82
459.099	1056.89
459.472	1003.11
459.845	1014.41
460.218	1014.63
460.591	1023.45
460.964	995.43
461.337	1030.23
461.71	1067.97
462.083	1058.25
462.456	1059.83
462.829	1070.68
463.201	1088.98
463.574	1106.38
463.947	1119.04
464.32	1142.54
464.692	1104.58
465.065	1142.09
465.438	1119.26
465.81	1105.25
466.183	1108.19
466.555	1128.76
466.928	1137.12
467.3	1129.43
467.672	1163.33
468.045	1203.56
468.417	1210.11
468.789	1223.44
469.161	1241.52
469.534	1232.26
469.906	1243.55
470.278	1242.42
470.65	1272.93
471.022	1248.75
471.394	1268.19
471.766	1258.24
472.138	1259.6
472.51	1271.58
472.882	1300.28
473.253	1353.61
473.625	1347.51
473.997	1398.58
474.369	1414.62
474.74	1429.54
475.112	1441.97
475.484	1457.11
475.855	1460.5
476.227	1464.34
476.598	1455.07
476.97	1442.19
477.341	1483.77
477.713	1484.23
478.084	1512.47
478.455	1554.28
478.827	1582.75
479.198	1635.41
479.569	1623.88
479.94	1694.62
480.311	1719.25
480.682	1780.04
481.053	1759.47
481.424	1755.41
481.795	1759.02
482.166	1774.16
482.537	1756.76
482.908	1794.5
483.279	1778.46
483.65	1824.1
484.021	1887.15
484.391	1913.37
484.762	1964.44
485.133	1993.82
485.503	2031.56
485.874	2087.37
486.244	2061.61
486.615	2107.94
486.985	2132.8
487.356	2163.08
487.726	2152.23
488.097	2152.46
488.467	2153.81
488.837	2162.85
489.207	2201.27
489.578	2240.82
489.948	2259.57
490.318	2327.82
490.688	2367.37
491.058	2424.99
491.428	2465.67
491.798	2483.52
492.168	2549.51
492.538	2561.49
492.908	2569.17
493.278	2563.07
493.648	2536.63
494.017	2566.68
494.387	2553.12
494.757	2486.69
495.126	2557.42
495.496	2578.66
495.866	2610.07
496.235	2671.31
496.605	2697.98
496.974	2759
497.344	2800.8
497.713	2878.31
498.082	2860.01
498.452	2943.62
498.821	2939.56
499.19	2828.82
499.559	2853.23
499.928	2836.96
500.298	2849.39
500.667	2815.26
501.036	2800.58
501.405	2856.39
501.774	2844.19
502.143	2914.02
502.512	2925.09
502.88	2960.57
503.249	3017.52
503.618	3041.02
503.987	3133.45
504.356	3147.01
504.724	3130.28
505.093	3125.54
505.462	3121.02
505.83	3063.85
506.199	3069.95
506.567	3092.32
506.936	3026.56
507.304	3012.77
507.672	3037.63
508.041	3049.38
508.409	3046.45
508.777	3072.89
509.145	3135.93
509.514	3152.66
509.882	3255.03
510.25	3278.98
510.618	3305.65
510.986	3304.52
511.354	3349.49
511.722	3328.47
512.09	3333.9
512.458	3258.87
512.826	3249.38
513.193	3185.2
513.561	3191.98
513.929	3195.37
514.297	3202.6
514.664	3206.89
515.032	3215.93
515.4	3267
515.767	3342.26
516.135	3356.95
516.502	3364.63
516.869	3456.15
517.237	3441.01
517.604	3485.53
517.972	3505.42
518.339	3523.27
518.706	3509.26
519.073	3458.64
519.44	3448.92
519.808	3458.64
520.175	3368.47
520.542	3350.62
520.909	3347.23
521.276	3343.61
521.643	3382.48
522.009	3434.68
522.376	3508.81
522.743	3521.69
523.11	3617.28
523.477	3688.24
523.843	3717.16
524.21	3763.04
524.577	3775.24
524.943	3811.85
525.31	3791.96
525.676	3816.14
526.043	3824.5
526.409	3717.39
526.776	3727.11
527.142	3652.08
527.508	3638.52
527.874	3713.77
528.241	3716.71
528.607	3715.81
528.973	3791.28
529.339	3823.6
529.705	3953.99
530.071	4019.08
530.437	4068.34
530.803	4148.11
531.169	4193.31
531.535	4188.79
531.901	4240.09
532.267	4254.55
532.632	4225.17
532.998	4194.89
533.364	4188.79
533.73	4142.01
534.095	4078.96
534.461	4133.65
534.826	4139.52
535.192	4092.75
535.557	4163.7
535.923	4198.51
536.288	4271.95
536.653	4318.95
537.019	4411.38
537.384	4451.15
537.749	4517.37
538.114	4604.14
538.479	4674.88
538.845	4703.35
539.21	4675.78
539.575	4710.58
539.94	4662.22
540.305	4662.22
540.67	4625.16
541.034	4620.87
541.399	4561.89
541.764	4492.51
542.129	4519.85
542.494	4534.99
542.858	4565.95
543.223	4535.67
543.587	4591.72
543.952	4676.68
544.316	4786.96
544.681	4895.89
545.045	4958.49
545.41	5049.56
545.774	5047.52
546.138	5096.11
546.503	5096.79
546.867	5134.53
547.231	5125.94
547.595	5100.4
547.959	5064.25
548.324	4985.6
548.688	4905.61
549.052	4839.39
549.416	4882.1
549.779	4811.37
550.143	4852.05
550.507	4834.42
550.871	4918.49
551.235	4931.37
551.599	5025.6
551.962	5008.65
552.326	5153.28
552.689	5248.65
553.053	5251.59
553.417	5299.27
553.78	5433.28
554.143	5367.74
554.507	5405.25
554.87	5384.46
555.234	5370.23
555.597	5282.09
555.96	5214.07
556.323	5190.12
556.686	5104.47
557.05	5060.4
557.413	5025.38
557.776	4992.16
558.139	5040.74
558.502	5124.58
558.865	5116.67
559.228	5210.91
559.59	5236.44
559.953	5389.89
560.316	5480.96
560.679	5523.67
561.041	5586.94
561.404	5696.55
561.767	5698.13
562.129	5699.26
562.492	5791.68
562.854	5687.96
563.217	5676.43
563.579	5613.61
563.941	5564.12
564.304	5484.35
564.666	5455.2
565.028	5378.36
565.39	5337.91
565.753	5353.28
566.115	5374.52
566.477	5377.68
566.839	5401.19
567.201	5530.9
567.563	5587.4
567.925	5680.5
568.287	5793.04
568.648	5864.9
569.01	6005.69
569.372	6068.96
569.734	6063.99
570.095	6170.88
570.457	6187.15
570.819	6148.74
571.18	6125.69
571.542	6120.04
571.903	6060.83
572.265	6005.69
572.626	5941.74
572.987	5930.66
573.349	5854.73
573.71	5882.53
574.071	5913.26
574.432	5903.55
574.794	6042.3
575.155	6088.85
575.516	6167.95
575.877	6296.76
576.238	6439.12
576.599	6542.62
576.96	6724.99
577.32	6879.56
577.681	7062.61
578.042	7126.79
578.403	7223.06
578.763	7342.38
579.124	7352.55
579.485	7509.15
579.845	7556.61
580.206	7548.47
580.566	7668.24
580.927	7748.47
581.287	7785.53
581.648	7887.22
582.008	8048.35
582.368	8185.07
582.728	8393.2
583.089	8537.83
583.449	8775.33
583.809	9076.8
584.169	9464.58
584.529	9780.96
584.889	10181.17
585.249	10531.9
585.609	10862.29
585.969	11342.95
586.329	11759.66
586.688	12084.17
587.048	12488
587.408	12819.97
587.768	13158.5
588.127	13631.48
588.487	13855.43
588.846	14272.36
589.206	14460.38
589.565	14741.05
589.925	15074.6
590.284	15505.55
590.643	15783.29
591.003	16179.43
591.362	16605.18
591.721	16984.16
592.08	17497.14
592.44	17976.9
592.799	18513.61
593.158	19088.51
593.517	19593.81
593.876	20102.27
594.235	20677.62
594.593	21285.51
594.952	21790.81
595.311	22285.04
595.67	22847.73
596.029	23423.08
596.387	23879.57
596.746	24216.51
597.104	24546.22
597.463	24958.19
597.822	25466.87
598.18	25606.3
598.538	25991.6
598.897	26444.7
599.255	26539.84
599.613	27246.71
599.972	27481.51
600.33	27861.84
600.688	28097.76
601.046	28656.85
601.404	29163.27
601.762	29570.72
602.12	30121.67
602.478	30639.62
602.836	31048.19
603.194	31325.93
603.552	32007.94
603.91	32294.49
604.268	32723.63
604.625	33020.8
604.983	33644.28
605.341	33790.95
605.698	34257.83
606.056	34633.86
606.413	34836.34
606.771	35134.64
607.128	35396.33
607.485	35419.61
607.843	35608.98
608.2	35914.96
608.557	36229.08
608.914	36141.62
609.272	36649.63
609.629	36879.45
609.986	37284.42
610.343	37131.88
610.7	37804.63
611.057	38101.34
611.414	38137.5
611.771	38436.7
612.127	38937.93
612.484	39122.11
612.841	39544.92
613.198	39652.94
613.554	40082.08
613.911	40346.26
614.267	40572.92
614.624	40765.91
614.98	40913.25
615.337	41231.66
615.693	41233.92
616.05	41397.53
616.406	41758.42
616.762	41497.41
617.118	41620.8
617.475	41669.38
617.831	41807.91
618.187	41860.57
618.543	41839.78
618.899	42155.02
619.255	42051.3
619.611	42113.44
619.967	42404.73
620.323	42523.37
620.678	42526.76
621.034	42593.2
621.39	42863.93
621.746	42939.41
622.101	43463.46
622.457	43222.79
622.812	43626.17
623.168	43802.89
623.523	43891.02
623.879	44198.36
624.234	44016.22
624.589	44254.18
624.945	44227.51
625.3	44477.45
625.655	44311.57
626.01	44358.81
626.365	44420.05
626.72	44271.8
627.075	44210.33
627.43	44142.77
627.785	44102.09
628.14	44052.37
628.495	44126.5
628.85	43928.76
629.205	43891.02
629.559	44145.7
629.914	44041.98
630.269	44124.01
630.623	43978.7
630.978	43998.81
631.332	44336.66
631.687	44451.23
632.041	44424.57
632.396	44636.31
632.75	44470.44
633.104	44678.8
633.459	44514.06
633.813	44653.49
634.167	44560.16
634.521	44674.96
634.875	44897.1
635.229	44855.97
635.583	44585.69
635.937	44718.12
636.291	44456.66
636.645	44568.52
636.999	44396.54
637.352	44471.8
637.706	44021.19
638.06	44203.78
638.413	43977.8
638.767	43778.03
639.121	43749.56
639.474	43567.87
639.828	43521.54
640.181	43754.75
640.534	43670.01
640.888	43689.9
641.241	43352.28
641.594	43613.29
641.947	43789.78
642.301	43604.7
642.654	43775.54
643.007	43839.05
643.36	43829.1
643.713	44020.96
644.066	44071.36
644.419	43864.58
644.771	43708.43
645.124	43397.93
645.477	43296.46
645.83	42969.01
646.182	42905.96
646.535	42809.69
646.888	42806.53
647.24	42447.67
647.593	42644.05
647.945	42499.87
648.298	42317.05
648.65	41976.04
649.002	41866.67
649.355	41929.04
649.707	41762.49
650.059	41953.44
650.411	42401.12
650.763	42295.81
651.115	42863.25
651.467	42740.09
651.819	42651.05
652.171	42781.9
652.523	42597.04
652.875	42725.18
653.227	42540.77
653.578	42953.87
653.93	42918.84
654.282	42929.01
654.633	42810.37
654.985	42896.47
655.337	43093.75
655.688	43139.85
656.039	43112.51
656.391	42843.59
656.742	43018.05
657.094	42996.58
657.445	43028.22
657.796	42764.05
658.147	42736.25
658.498	42581.45
658.849	42529.02
659.2	42396.6
659.551	42352.76
659.902	42356.37
660.253	42241.8
660.604	42195.92
660.955	41994.57
661.306	42122.48
661.656	41983.73
662.007	41874.58
662.358	41864.41
662.708	41900.56
663.059	41991.41
663.409	41695.15
663.76	42114.57
664.11	42222.82
664.461	42399.53
664.811	42295.58
665.161	42492.19
665.511	42280.89
665.862	42386.65
666.212	42556.82
666.562	42652.41
666.912	42578.06
667.262	42434.56
667.612	42453.54
667.962	42530.15
668.312	42428.69
668.662	42533.77
669.011	42258.3
669.361	42232.76
669.711	42034.8
670.06	41888.14
670.41	41744.86
670.76	41709.84
671.109	41722.04
671.459	41661.93
671.808	41431.65
672.157	41537.64
672.507	41228.94
672.856	41205.22
673.205	41323.86
673.554	41301.26
673.904	41362.95
674.253	41578.09
674.602	41458.54
674.951	40929.74
675.3	40744.21
675.649	41503.06
675.998	41517.52
676.346	41537.18
676.695	41680.46
677.044	41443.63
677.393	41655.83
677.741	41657.18
678.09	41646.11
678.438	41676.62
678.787	41605.43
679.135	41687.24
679.484	41516.39
679.832	41557.75
680.181	41273.91
680.529	41284.31
680.877	41100.36
681.225	41028.5
681.573	41261.71
681.922	40821.27
682.27	40636.19
682.618	40542.41
682.966	40463.54
683.314	40509.87
683.661	40273.94
684.009	39991.46
684.357	39881.18
684.705	39769.55
685.053	39913.72
685.4	39853.16
685.748	39641.42
686.095	39797.8
686.443	39483.91
686.79	39590.8
687.138	39810.22
687.485	39884.8
687.832	39736.55
688.18	39841.86
688.527	39626.95
688.874	39688.42
689.221	39686.61
689.568	39596.9
689.915	39467.86
690.262	39624.47
690.609	39560.74
690.956	39520.97
691.303	39444.81
691.65	39236.23
691.997	39117.14
692.344	39032.62
692.69	38831.95
693.037	38836.46
693.383	38525.29
693.73	38583.59
694.077	38158.97
694.423	38071.74
694.769	37935.02
695.116	37835.36
695.462	37739.77
695.808	37491.42
696.155	37507.01
696.501	37204.19
696.847	37187.02
697.193	37003.52
697.539	37115.38
697.885	36809.17
698.231	36680.14
698.577	36629.74
698.923	36761.72
699.269	36493.02
699.614	36524.89
699.96	36448.73
700.306	36542.06
700.651	36408.05
700.997	36411.44
701.342	36499.13
701.688	36430.2
702.033	36395.17
702.379	36345.23
702.724	36304.55
703.069	36434.95
703.415	36103.66
703.76	36018.23
704.105	35975.97
704.45	35899.37
704.795	35728.75
705.14	35538.7
705.485	35474.75
705.83	35220.97
706.175	35289.67
706.52	35088.31
706.865	34939.62
707.209	34846.97
707.554	34524.94
707.899	34764.48
708.243	34300.31
708.588	34245.17
708.932	34108.45
709.277	33933.54
709.621	34001.79
709.966	33593.44
710.31	33717.5
710.654	33496.04
710.998	33631.4
711.342	33646.77
711.687	33572.65
712.031	33431.86
712.375	33365.65
712.719	33508.02
713.063	33491.29
713.407	33710.5
713.75	33546.66
714.094	33540.78
714.438	33528.36
714.782	33687
715.125	33445.19
715.469	33573.1
715.812	33375.59
716.156	33166.56
716.499	33277.06
716.843	33230.51
717.186	33044.3
717.53	33291.53
717.873	33021.02
718.216	33028.71
718.559	32832.1
718.902	32577.87
719.246	32576.52
719.589	32422.4
719.932	32263.98
720.275	32093.59
720.617	32083.42
720.96	31936.31
721.303	31823.54
721.646	31786.93
721.989	31603.21
722.331	31613.38
722.674	31623.77
723.016	31521.4
723.359	31368.19
723.701	31478.69
724.044	31286.38
724.386	31154.41
724.729	31175.88
725.071	31195.99
725.413	31207.06
725.755	31251.35
726.097	31240.96
726.439	31099.94
726.782	31158.7
727.124	31349.88
727.465	31210.68
727.807	31219.72
728.149	31138.59
728.491	31210.45
728.833	31155.08
729.175	31073.05
729.516	31132.71
729.858	31089.78
730.199	31148.98
730.541	30939.72
730.882	30934.07
731.224	30886.39
731.565	30656.34
731.906	30737.24
732.248	30492.73
732.589	30481.88
732.93	30412.96
733.271	30231.95
733.612	30244.37
733.953	30260.87
734.294	29942.24
734.635	29831.5
734.976	29943.59
735.317	29669.7
735.658	29580.89
735.999	29648.23
736.339	29688.23
736.68	29567.56
737.021	29519.2
737.361	29361.23
737.702	29470.84
738.042	29412.98
738.383	29381.12
738.723	29430.16
739.063	29447.79
739.404	29414.11
739.744	29411.18
740.084	29328.01
740.424	29487.33
740.764	29498.41
741.104	29455.24
741.444	29487.33
741.784	29318.52
742.124	29427.22
742.464	29417.05
742.804	29317.17
743.143	29360.78
743.483	29284.85
743.823	29219.09
744.162	29166.89
744.502	29286.21
744.841	29111.75
745.181	29173.44
745.52	28997.18
745.86	29072.2
746.199	28913.56
746.538	28773.9
746.877	28843.06
747.216	28665.88
747.556	28646.45
747.895	28521.26
748.234	28311.09
748.573	28198.33
748.911	28082.4
749.25	28079.69
749.589	27887.6
749.928	28026.13
750.267	27832.46
750.605	27750.65
750.944	27726.02
751.283	27490.32
751.621	27601.51
751.96	27465.46
752.298	27392.02
752.636	27463.88
752.975	27388.4
753.313	27335.07
753.651	27434.28
753.989	27413.49
754.327	27339.37
754.666	27141.4
755.004	27378.23
755.342	27313.6
755.679	27281.06
756.017	27169.2
756.355	27294.62
756.693	27330.78
757.031	27277.67
757.368	27189.99
757.706	27166.26
758.044	27024.35
758.381	27103.44
758.719	26978.25
759.056	26896.44
759.394	26763.79
759.731	26677.01
760.068	26594.75
760.405	26504.36
760.743	26554.3
