Data from red_shiny_book_FLMS001491_00084.txt Node
Date: Wed Feb 08 15:25:29 GMT 2017
User: dcchb
Spectrometer: FLMS00149
Trigger mode: 0
Integration Time (sec): 2.000000E-2
Scans to average: 10
Electric dark correction enabled: true
Nonlinearity correction enabled: false
Boxcar width: 0
XAxis mode: Wavelengths
Number of Pixels in Spectrum: 2048
>>>>>Begin Spectral Data<<<<<
341.393	-28.77
341.776	-28.77
342.16	-28.77
342.543	-61.99
342.927	-76.45
343.31	-61.99
343.693	-67.64
344.077	-71.93
344.46	-64.7
344.843	-42.1
345.226	-50.92
345.61	-30.13
345.993	-20.86
346.376	0.38
346.759	11.23
347.142	38.8
347.525	32.7
347.908	51.45
348.291	88.97
348.674	82.19
349.057	104.56
349.44	122.64
349.823	144.78
350.206	169.42
350.588	203.31
350.971	215.06
351.354	240.15
351.737	244.89
352.119	248.51
352.502	258.23
352.884	267.72
353.267	302.75
353.65	307.72
354.032	303.65
354.414	341.84
354.797	323.08
355.179	341.62
355.562	334.61
355.944	305.91
356.326	361.73
356.709	318.34
357.091	326.7
357.473	351.56
357.855	354.72
358.238	340.71
358.62	352.46
359.002	347.94
359.384	328.51
359.766	346.59
360.148	345.91
360.53	372.12
360.912	320.6
361.294	337.55
361.676	335.97
362.057	363.31
362.439	335.74
362.821	325.8
363.203	328.73
363.584	321.05
363.966	336.42
364.348	331.45
364.729	342.52
365.111	337.77
365.493	342.75
365.874	327.15
366.256	323.99
366.637	323.76
367.019	319.69
367.4	311.56
367.781	311.11
368.163	339.58
368.544	319.92
368.925	324.89
369.306	332.12
369.688	335.29
370.069	318.34
370.45	310.43
370.831	312.01
371.212	327.6
371.593	347.04
371.974	312.24
372.355	316.76
372.736	322.86
373.117	339.36
373.498	324.67
373.879	326.93
374.26	328.73
374.641	321.28
375.021	334.61
375.402	306.36
375.783	327.15
376.163	331.9
376.544	329.64
376.925	351.11
377.305	328.96
377.686	334.38
378.066	341.84
378.447	326.7
378.827	320.15
379.208	330.32
379.588	333.48
379.968	342.75
380.349	323.99
380.729	340.03
381.109	353.37
381.489	330.99
381.87	339.81
382.25	338.23
382.63	348.39
383.01	363.31
383.39	356.76
383.77	354.27
384.15	349.07
384.53	355.4
384.91	342.52
385.29	370.32
385.67	357.43
386.049	357.89
386.429	351.11
386.809	364.44
387.189	357.89
387.568	365.12
387.948	354.95
388.328	366.25
388.707	358.56
389.087	387.72
389.466	375.06
389.846	366.02
390.225	373.25
390.605	383.65
390.984	385
391.363	378
391.743	383.42
392.122	361.28
392.501	364.21
392.881	387.49
393.26	385.23
393.639	403.76
394.018	408.05
394.397	382.07
394.776	409.41
395.155	413.03
395.534	379.81
395.913	392.46
396.292	380.71
396.671	399.92
397.05	390.88
397.429	389.98
397.808	409.86
398.186	411.67
398.565	382.07
398.944	389.75
399.323	385.68
399.701	396.3
400.08	400.37
400.458	399.47
400.837	421.16
401.215	420.94
401.594	404.21
401.972	421.61
402.351	424.78
402.729	411.9
403.107	398.56
403.486	442.18
403.864	422.74
404.242	413.93
404.62	428.39
404.999	418
405.377	409.41
405.755	415.74
406.133	436.75
406.511	425.91
406.889	454.15
407.267	418.45
407.645	450.09
408.023	460.48
408.401	448.73
408.779	471.78
409.156	479.24
409.534	482.18
409.912	466.36
410.29	481.95
410.667	479.01
411.045	476.98
411.422	454.83
411.8	455.06
412.178	466.58
412.555	485.57
412.933	474.95
413.31	509.29
413.687	483.76
414.065	509.52
414.442	512.46
414.819	488.5
415.197	520.37
415.574	501.61
415.951	519.69
416.328	512.68
416.705	506.81
417.082	518.56
417.46	532.8
417.837	526.24
418.214	548.84
418.591	563.3
418.967	563.76
419.344	574.38
419.721	568.73
420.098	554.72
420.475	552.46
420.852	564.66
421.228	556.52
421.605	566.24
421.982	594.94
422.358	576.64
422.735	589.97
423.111	588.39
423.488	589.07
423.864	606.24
424.241	613.92
424.617	580.03
424.994	583.42
425.37	579.8
425.746	585.68
426.123	607.6
426.499	619.8
426.875	629.52
427.251	648.27
427.627	674.26
428.003	620.7
428.379	643.3
428.756	633.59
429.132	647.82
429.507	653.25
429.883	621.83
430.259	630.65
430.635	654.83
431.011	654.38
431.387	685.56
431.763	684.21
432.138	723.3
432.514	680.14
432.89	681.72
433.265	695.05
433.641	695.96
434.016	708.16
434.392	706.8
434.767	688.72
435.143	712.9
435.518	758.55
435.894	749.74
436.269	760.59
436.644	768.95
437.02	768.04
437.395	766.69
437.77	739.12
438.145	749.97
438.52	739.57
438.895	770.98
439.271	742.73
439.646	796.29
440.021	782.96
440.395	791.32
440.77	782.51
441.145	813.02
441.52	821.6
441.895	810.98
442.27	793.13
442.645	805.11
443.019	791.1
443.394	792.22
443.769	792.68
444.143	786.58
444.518	797.2
444.892	811.89
445.267	868.61
445.641	866.35
446.016	883.75
446.39	878.32
446.764	863.41
447.139	841.04
447.513	858.89
447.887	823.41
448.262	807.59
448.636	840.13
449.01	849.17
449.384	864.99
449.758	880.13
450.132	896.85
450.506	875.61
450.88	890.3
451.254	886.91
451.628	916.74
452.002	921.49
452.376	889.17
452.75	892.34
453.123	863.64
453.497	867.7
453.871	866.12
454.244	893.24
454.618	915.16
454.992	930.98
455.365	978.43
455.739	934.37
456.112	955.84
456.486	974.14
456.859	959.9
457.232	967.36
457.606	926.23
457.979	944.09
458.352	954.48
458.725	949.51
459.099	948.61
459.472	959.68
459.845	1011.65
460.218	1009.39
460.591	1033.8
460.964	1034.7
461.337	1058.21
461.71	1037.64
462.083	1055.49
462.456	1019.56
462.829	1020.24
463.201	999.23
463.574	987.47
463.947	1024.99
464.32	1000.81
464.692	1076.06
465.065	1087.36
465.438	1107.7
465.81	1142.27
466.183	1168.94
466.555	1181.82
466.928	1146.11
467.3	1160.8
467.672	1166.9
468.045	1140.69
468.417	1123.06
468.789	1080.35
469.161	1120.58
469.534	1141.37
469.906	1144.76
470.278	1181.59
470.65	1212.55
471.022	1246.9
471.394	1290.29
471.766	1287.35
472.138	1329.61
472.51	1339.1
472.882	1309.95
473.253	1295.04
473.625	1302.49
473.997	1259.56
474.369	1268.6
474.74	1276.96
475.112	1309.73
475.484	1328.03
475.855	1368.71
476.227	1398.54
476.598	1437.18
476.97	1494.58
477.341	1531.19
477.713	1552.43
478.084	1527.57
478.455	1520.12
478.827	1492.32
479.198	1530.06
479.569	1466.11
479.94	1522.15
480.311	1516.5
480.682	1550.4
481.053	1568.48
481.424	1652.32
481.795	1663.39
482.166	1743.61
482.537	1749.94
482.908	1821.35
483.279	1844.63
483.65	1871.52
484.021	1862.71
484.391	1874.68
484.762	1832.65
485.133	1799.2
485.503	1792.42
485.874	1821.12
486.244	1827.45
486.615	1898.64
486.985	1897.51
487.356	1986.77
487.726	2003.94
488.097	2097.73
488.467	2158.74
488.837	2214.11
489.207	2281
489.578	2265.63
489.948	2220.21
490.318	2186.99
490.688	2187.22
491.058	2199.65
491.428	2186.54
491.798	2190.38
492.168	2199.65
492.538	2234.9
492.908	2268.57
493.278	2356.03
493.648	2402.8
494.017	2504.72
494.387	2512.41
494.757	2605.28
495.126	2630.14
495.496	2624.49
495.866	2600.76
496.235	2595.34
496.605	2558.05
496.974	2530.71
497.344	2500.65
497.713	2442.35
498.082	2493.42
498.452	2505.85
498.821	2537.26
499.19	2586.53
499.559	2638.73
499.928	2698.84
500.298	2802.34
500.667	2866.07
501.036	2884.15
501.405	2880.53
501.774	2842.79
502.143	2870.81
502.512	2815.45
502.88	2765.73
503.249	2695.45
503.618	2695.23
503.987	2668.56
504.356	2668.56
504.724	2640.99
505.093	2718.73
505.462	2765.96
505.83	2780.2
506.199	2881.21
506.567	2963.92
506.936	3032.84
507.304	3086.18
507.672	3087.53
508.041	3061.09
508.409	3038.04
508.777	2998.95
509.145	2971.83
509.514	2883.24
509.882	2868.1
510.25	2805.73
510.618	2842.57
510.986	2825.17
511.354	2835.79
511.722	2877.37
512.09	2946.07
512.458	3028.1
512.826	3109.23
513.193	3147.64
513.561	3198.94
513.929	3216.34
514.297	3255.44
514.664	3269.67
515.032	3208.66
515.4	3166.85
515.767	3135.21
516.135	3047.98
516.502	2978.38
516.869	2969.12
517.237	2944.03
517.604	2944.03
517.972	2951.72
518.339	3025.39
518.706	3034.65
519.073	3144.93
519.44	3254.53
519.808	3293.63
520.175	3358.94
520.542	3402.33
520.909	3413.4
521.276	3384.02
521.643	3386.28
522.009	3391.25
522.376	3304.7
522.743	3262.67
523.11	3195.1
523.477	3100.19
523.843	3142.45
524.21	3090.02
524.577	3124.59
524.943	3179.05
525.31	3237.13
525.676	3406.17
526.043	3474.19
526.409	3535.88
526.776	3635.54
527.142	3691.13
527.508	3746.05
527.874	3793.95
528.241	3756.21
528.607	3691.36
528.973	3682.32
529.339	3633.28
529.705	3581.76
530.071	3536.33
530.437	3479.16
530.803	3435.32
531.169	3450.91
531.535	3477.8
531.901	3510.12
532.267	3595.77
532.632	3665.6
532.998	3843.22
533.364	3886.83
533.73	4037.11
534.095	4098.58
534.461	4178.58
534.826	4219.03
535.192	4237.78
535.557	4237.33
535.923	4114.62
536.288	4075.98
536.653	4022.65
537.019	3940.84
537.384	3916.44
537.749	3860.17
538.114	3840.05
538.479	3835.99
538.845	3887.06
539.21	3922.76
539.575	4025.36
539.94	4069.88
540.305	4256.09
540.67	4365.01
541.034	4463.77
541.399	4557.32
541.764	4631.9
542.129	4680.26
542.494	4648.39
542.858	4671.9
543.223	4574.95
543.587	4498.12
543.952	4409.08
544.316	4404.56
544.681	4261.74
545.045	4204.11
545.41	4238.69
545.774	4240.72
546.138	4216.54
546.503	4280.72
546.867	4298.57
547.231	4434.39
547.595	4577.21
547.959	4691.33
548.324	4727.49
548.688	4832.34
549.052	4904.66
549.416	4970.19
549.779	4974.26
550.143	4951.44
550.507	4967.93
550.871	4872.57
551.235	4776.07
551.599	4713.93
551.962	4609.53
552.326	4523.43
552.689	4439.36
553.053	4413.82
553.417	4368.85
553.78	4454.05
554.143	4520.04
554.507	4536.53
554.87	4659.02
555.234	4766.13
555.597	4891.33
555.96	4957.77
556.323	5082.28
556.686	5144.2
557.05	5242.05
557.413	5271.43
557.776	5233.46
558.139	5237.76
558.502	5126.35
558.865	5036.41
559.228	4939.69
559.59	4847.03
559.953	4807.71
560.316	4755.28
560.679	4682.29
561.041	4697.43
561.404	4675.74
561.767	4690.88
562.129	4724.55
562.492	4860.14
562.854	4903.3
563.217	5035.28
563.579	5172.45
563.941	5351.43
564.304	5435.27
564.666	5529.73
565.028	5571.99
565.39	5611.99
565.753	5633.23
566.115	5570.86
566.477	5494.25
566.839	5474.36
567.201	5365.66
567.563	5245.67
567.925	5147.14
568.287	5082.06
568.648	4990.08
569.01	4924.32
569.372	5017.88
569.734	5021.04
570.095	5044.09
570.457	5153.01
570.819	5264.2
571.18	5419
571.542	5578.77
571.903	5668.93
572.265	5861.7
572.626	5943.28
572.987	6053.33
573.349	6102.14
573.71	6181.24
574.071	6191.86
574.432	6143.04
574.794	6125.87
575.155	6032.99
575.516	5984.63
575.877	5846.33
576.238	5889.49
576.599	5829.83
576.96	5782.6
577.32	5859.44
577.681	5852.43
578.042	5910.51
578.403	6012.2
578.763	6239.09
579.124	6425.98
579.485	6685.63
579.845	6875.23
580.206	7101.21
580.566	7313.18
580.927	7548.66
581.287	7771.25
581.648	7985.71
582.008	8176.44
582.368	8386.15
582.728	8509.99
583.089	8629.76
583.449	8773.48
583.809	8925.8
584.169	9055.51
584.529	9140.93
584.889	9420.02
585.249	9486.69
585.609	9639.68
585.969	10002.6
586.329	10291.41
586.688	10591.74
587.048	10958.74
587.408	11390.59
587.768	11904.7
588.127	12292.26
588.487	12752.14
588.846	13423.98
589.206	13743.75
589.565	14221.25
589.925	14821.01
590.284	15223.48
590.643	15613.3
591.003	16025.5
591.362	16510
591.721	16855.76
592.08	17103.89
592.44	17606.02
592.799	17867.93
593.158	18117.65
593.517	18570.74
593.876	18834.46
594.235	19107.22
594.593	19551.05
594.952	20026.97
595.311	20423.12
595.67	20872.37
596.029	21409.54
596.387	21929.3
596.746	22581.93
597.104	22894.24
597.463	23681.11
597.822	24209.69
598.18	24730.35
598.538	25249.66
598.897	25861.62
599.255	26109.98
599.613	26949.5
599.972	27201.25
600.33	27526.21
600.688	27996.48
601.046	28329.35
601.404	28700.64
601.762	28874.65
602.12	29345.15
602.478	29567.74
602.836	29727.96
603.194	29868.07
603.552	30354.84
603.91	30454.5
604.268	30950.53
604.625	31267.81
604.983	31735.37
605.341	31951.86
605.698	32576.7
606.056	32930.59
606.413	33450.35
606.771	33920.17
607.128	34425.24
607.485	34661.39
607.843	35024.32
608.2	35623.85
608.557	36034.69
608.914	36109.94
609.272	36559.42
609.629	36824.05
609.986	37203.92
610.343	37145.17
610.7	37445.05
611.057	37414.31
611.414	37631.93
611.771	37757.58
612.127	37992.38
612.484	37915.54
612.841	38190.79
613.198	38188.3
613.554	38353.05
613.911	38654.73
614.267	38826.03
614.624	38925.91
614.98	39345.11
615.337	39756.62
615.693	39901.03
616.05	40207.01
616.406	40549.37
616.762	40715.92
617.118	40989.81
617.475	41138.28
617.831	41567.2
618.187	41781.2
618.543	41861.2
618.899	42138.93
619.255	42145.49
619.611	42294.86
619.967	42263.9
620.323	42514.07
620.678	42329.66
621.034	42061.2
621.39	42048.32
621.746	42152.04
622.101	42484.01
622.457	42187.75
622.812	42309.78
623.168	42361.53
623.523	42228.42
623.879	42637.23
624.234	42397.68
624.589	42665.25
624.945	42899.82
625.3	43089.19
625.655	43110.66
626.01	43464.78
626.365	43493.02
626.72	43639.23
627.075	43737.31
627.43	43863.63
627.785	43927.36
628.14	44189.5
628.495	44206
628.85	44255.49
629.205	44052.56
629.559	44383.62
629.914	44074.7
630.269	44078.77
630.623	43824.99
630.978	43783.86
631.332	43835.39
631.687	43666.58
632.041	43593.59
632.396	43515.17
632.75	43315.63
633.104	43434.49
633.459	43100.72
633.813	43208.51
634.167	43223.65
634.521	43350.65
634.875	43501.38
635.229	43442.18
635.583	43348.85
635.937	43638.56
636.291	43689.18
636.645	43829.06
636.999	43740.93
637.352	43958.32
637.706	43757.65
638.06	44041.03
638.413	43971.43
638.767	43831.09
639.121	44029.96
639.474	43674.71
639.828	43709.74
640.181	43804.43
640.534	43699.57
640.888	43546.13
641.241	43160.6
641.594	43136.2
641.947	43154.5
642.301	42986.14
642.654	42921.06
643.007	42835.41
643.36	42794.06
643.713	42661.86
644.066	42747.73
644.419	42539.83
644.771	42352.26
645.124	41899.84
645.477	41939.84
645.83	41854.87
646.182	41771.71
646.535	41787.76
646.888	41935.1
647.24	41940.97
647.593	42326.5
647.945	42046.96
648.298	42117.01
648.65	42065.94
649.002	41897.13
649.355	42204.47
649.707	41978.94
650.059	42036.11
650.411	42615.08
650.763	42412.15
651.115	42893.49
651.467	42557.45
651.819	42472.26
652.171	42148.88
652.523	42039.28
652.875	41972.39
653.227	41651.26
653.578	41925.15
653.93	41792.28
654.282	41557.25
654.633	41536.01
654.985	41526.52
655.337	41684.94
655.688	41649.91
656.039	41888.55
656.391	41589.34
656.742	41723.13
657.094	41866.85
657.445	42093.29
657.796	41975.32
658.147	42123.12
658.498	42221.64
658.849	42246.28
659.2	42251.93
659.551	42308.2
659.902	42489.66
660.253	42414.63
660.604	42360.62
660.955	42254.41
661.306	42341.41
661.656	42175.54
662.007	42011.71
662.358	41997.24
662.708	41792.05
663.059	41643.13
663.409	41335.11
663.76	41503.24
664.11	41505.73
664.461	41305.74
664.811	41329.24
665.161	41277.71
665.511	41161.11
665.862	41042.69
666.212	41353.19
666.562	41232.74
666.912	41181.9
667.262	41344.38
667.612	41229.58
667.962	41357.26
668.312	41315.68
668.662	41523.36
669.011	41463.92
669.361	41626.86
669.711	41665.95
670.06	41695.56
670.41	41608.78
670.76	41701.88
671.109	41764.48
671.459	41890.58
671.808	41636.57
672.157	41730.58
672.507	41437.26
672.856	41545.05
673.205	41320.65
673.554	41398.84
673.904	41158.4
674.253	41282.01
674.602	41036.36
674.951	40444.97
675.3	40097.18
675.649	40743.94
675.998	40586.43
676.346	40494.91
676.695	40459.66
677.044	40279.55
677.393	40461.69
677.741	40386.21
678.09	40384.18
678.438	40245.65
678.787	40423.27
679.135	40543.5
679.484	40304.86
679.832	40470.5
680.181	40453.33
680.529	40613.55
680.877	40483.16
681.225	40510.28
681.573	40757.28
681.922	40595.02
682.27	40461.46
682.618	40604.06
682.966	40516.38
683.314	40479.54
683.661	40402.71
684.009	40284.75
684.357	40172.66
684.705	40176.27
685.053	40015.15
685.4	39878.65
685.748	39518.89
686.095	39540.36
686.443	39242.06
686.79	39293.36
687.138	39301.27
687.485	39106.25
687.832	38915.97
688.18	38877.78
688.527	38626.03
688.874	38474.17
689.221	38391.46
689.568	38374.97
689.915	38288.41
690.262	38186.72
690.609	38295.65
690.956	38254.97
691.303	38237.57
691.65	38218.13
691.997	38282.99
692.344	38067.85
692.69	38152.6
693.037	38305.81
693.383	38047.29
693.73	38027.86
694.077	37945.6
694.423	38062.88
694.769	37955.77
695.116	37953.73
695.462	37916.45
695.808	37669.67
696.155	37684.36
696.501	37412.28
696.847	37436.01
697.193	37029.46
697.539	37020.2
697.885	36685.74
698.231	36542.7
698.577	36470.61
698.923	36418.86
699.269	36089.38
699.614	35816.61
699.96	35729.61
700.306	35788.59
700.651	35476.96
700.997	35487.36
701.342	35460.01
701.688	35292.79
702.033	35229.74
702.379	35184.99
702.724	35057.31
703.069	35158.55
703.415	34883.76
703.76	34975.96
704.105	34970.31
704.45	34938.9
704.795	34845.34
705.14	34876.75
705.485	34924.43
705.83	34749.52
706.175	34972.8
706.52	34797.21
706.865	34751.78
707.209	34819.58
707.554	34602.18
707.899	34763.31
708.243	34525.58
708.588	34376.65
708.932	34237
709.277	34168.52
709.621	34075.19
709.966	33886.04
710.31	33902.09
710.654	33556.11
710.998	33610.35
711.342	33539.61
711.687	33338.26
712.031	33102.56
712.375	32935.79
712.719	32904.6
713.063	32717.94
713.407	32796.13
713.75	32606.98
714.094	32479.53
714.438	32442.24
714.782	32421.9
715.125	32249.93
715.469	32367.44
715.812	32156.37
716.156	32171.51
716.499	32285.63
716.843	32319.31
717.186	32079.76
717.53	32389.59
717.873	32428.46
718.216	32384.61
718.559	32236.6
718.902	32159.31
719.246	32322.47
719.589	32180.33
719.932	32177.39
720.275	32196.6
720.617	32145.3
720.96	32017.39
721.303	32006.32
721.646	32000.44
721.989	31784.63
722.331	31836.38
722.674	31677.51
723.016	31581.92
723.359	31457.18
723.701	31543.96
724.044	31273.01
724.386	31001.6
724.729	31070.52
725.071	30910.98
725.413	30768.39
725.755	30678.9
726.097	30555.06
726.439	30303.31
726.782	30364.33
727.124	30490.43
727.465	30230.32
727.807	30155.97
728.149	30118.01
728.491	30068.07
728.833	30219.47
729.175	30118.01
729.516	30135.86
729.858	30078.91
730.199	30110.32
730.541	30122.53
730.882	30126.37
731.224	30258.12
731.565	30045.24
731.906	30242.07
732.248	30444.78
732.589	30121.4
732.93	30144.45
733.271	30064.68
733.612	30112.58
733.953	30064.45
734.294	30085.24
734.635	30021.51
734.976	30011.8
735.317	29970.89
735.658	29848.86
735.999	29954.62
736.339	29776.32
736.68	29759.82
737.021	29499.49
737.361	29426.73
737.702	29474.63
738.042	29331.59
738.383	29172.27
738.723	29238.71
739.063	28956.23
739.404	28966.17
739.744	28786.74
740.084	28696.12
740.424	28794.43
740.764	28660.19
741.104	28757.14
741.444	28488.45
741.784	28348.11
742.124	28501.33
742.464	28407.77
742.804	28442.35
743.143	28368.67
743.483	28391.5
743.823	28193.54
744.162	28307.66
744.502	28468.56
744.841	28244.61
745.181	28461.78
745.52	28444.38
745.86	28494.32
746.199	28423.81
746.538	28427.66
746.877	28506.07
747.216	28468.11
747.556	28370.26
747.895	28407.54
748.234	28324.83
748.573	28277.38
748.911	28247.55
749.25	28155.12
749.589	28036.48
749.928	28019.98
750.267	27987.89
750.605	27948.57
750.944	27767.56
751.283	27721.69
751.621	27668.58
751.96	27345.65
752.298	27385.2
752.636	27151.98
752.975	27046.45
753.313	26866.57
753.651	27010.07
753.989	26834.7
754.327	26708.61
754.666	26640.81
755.004	26514.26
755.342	26602.85
755.679	26526.46
756.017	26357.65
756.355	26423.42
756.693	26240.14
757.031	26330.76
757.368	26118.11
757.706	26158.11
758.044	26124.44
758.381	26171.9
758.719	26055.06
759.056	26150.2
759.394	26000.6
759.731	25976.65
760.068	26003.09
760.405	26009.87
760.743	25949.08
