Data from red_cardboard_box_FLMS001491_00023.txt Node
Date: Wed Feb 08 11:31:46 GMT 2017
User: dcchb
Spectrometer: FLMS00149
Trigger mode: 0
Integration Time (sec): 2.000000E-2
Scans to average: 10
Electric dark correction enabled: true
Nonlinearity correction enabled: false
Boxcar width: 0
XAxis mode: Wavelengths
Number of Pixels in Spectrum: 2048
>>>>>Begin Spectral Data<<<<<
341.393	-14.62
341.776	-14.62
342.16	-14.62
342.543	-43.32
342.927	-73.15
343.31	-60.94
343.693	-61.62
344.077	-82.41
344.46	-50.1
344.843	-50.1
345.226	-53.49
345.61	-26.6
345.993	-22.75
346.376	-27.5
346.759	11.14
347.142	25.38
347.525	47.98
347.908	69.67
348.291	80.07
348.674	96.11
349.057	105.15
349.44	117.58
349.823	132.95
350.206	170.46
350.588	192.38
350.971	223.34
351.354	227.41
351.737	233.74
352.119	255.88
352.502	276.22
352.884	262.44
353.267	284.81
353.65	295.43
354.032	312.15
354.414	294.3
354.797	298.82
355.179	323.23
355.562	327.75
355.944	323
356.326	332.72
356.709	331.59
357.091	333.17
357.473	344.92
357.855	366.39
358.238	350.34
358.62	362.09
359.002	346.73
359.384	353.28
359.766	360.97
360.148	358.48
360.53	343.79
360.912	318.48
361.294	344.02
361.676	350.12
362.057	338.14
362.439	360.97
362.821	311.25
363.203	318.71
363.584	344.47
363.966	329.33
364.348	329.1
364.729	322.55
365.111	320.97
365.493	304.7
365.874	320.29
366.256	312.15
366.637	310.8
367.019	336.11
367.4	337.24
367.781	323.23
368.163	321.87
368.544	305.37
368.925	316.67
369.306	342.89
369.688	342.43
370.069	335.66
370.45	308.31
370.831	324.13
371.212	307.18
371.593	323.45
371.974	308.76
372.355	294.53
372.736	339.27
373.117	331.81
373.498	328.65
373.879	314.41
374.26	333.4
374.641	320.51
375.021	281.19
375.402	325.26
375.783	320.51
376.163	324.13
376.544	348.99
376.925	345.37
377.305	329.1
377.686	316.9
378.066	315.32
378.447	311.7
378.827	332.27
379.208	322.77
379.588	351.93
379.968	353.96
380.349	340.17
380.729	342.89
381.109	344.24
381.489	332.49
381.87	339.04
382.25	348.31
382.63	352.15
383.01	334.75
383.39	349.89
383.77	351.93
384.15	354.19
384.53	348.31
384.91	355.77
385.29	353.73
385.67	339.72
386.049	353.73
386.429	337.24
386.809	334.98
387.189	346.5
387.568	344.02
387.948	355.09
388.328	367.74
388.707	353.51
389.087	338.37
389.466	363
389.846	358.71
390.225	354.41
390.605	370.46
390.984	378.37
391.363	372.94
391.743	368.87
392.122	364.35
392.501	377.69
392.881	358.93
393.26	367.52
393.639	365.48
394.018	363.22
394.397	381.08
394.776	375.2
395.155	388.76
395.534	370
395.913	362.32
396.292	390.12
396.671	376.33
397.05	371.36
397.429	388.53
397.808	368.42
398.186	386.5
398.565	396.9
398.944	370.68
399.323	379.72
399.701	366.39
400.08	393.28
400.458	392.15
400.837	378.82
401.215	406.16
401.594	397.57
401.972	404.81
402.351	390.57
402.729	381.76
403.107	400.96
403.486	395.09
403.864	404.13
404.242	405.48
404.62	423.79
404.999	401.64
405.377	416.56
405.755	409.1
406.133	400.96
406.511	394.18
406.889	399.16
407.267	412.94
407.645	425.6
408.023	428.99
408.401	435.54
408.779	430.79
409.156	415.43
409.534	422.66
409.912	414.75
410.29	438.03
410.667	439.83
411.045	459.95
411.422	435.31
411.8	451.81
412.178	437.57
412.555	446.84
412.933	452.94
413.31	441.19
413.687	487.74
414.065	478.25
414.442	441.64
414.819	456.1
415.197	473.96
415.574	458.82
415.951	485.03
416.328	473.96
416.705	471.7
417.082	485.03
417.46	478.02
417.837	490.91
418.214	494.97
418.591	484.8
418.967	487.97
419.344	494.75
419.721	493.39
420.098	493.62
420.475	505.82
420.852	512.6
421.228	494.52
421.605	495.2
421.982	493.62
422.358	508.76
422.735	529.1
423.111	513.28
423.488	508.98
423.864	515.09
424.241	530.45
424.617	520.51
424.994	525.71
425.37	530.45
425.746	533.16
426.123	541.53
426.499	550.34
426.875	506.5
427.251	551.02
427.627	538.36
428.003	551.69
428.379	540.62
428.756	549.21
429.132	579.04
429.507	562.09
429.883	579.04
430.259	575.2
430.635	553.73
431.011	567.97
431.387	584.91
431.763	597.57
432.138	594.63
432.514	587.85
432.89	593.5
433.265	614.74
433.641	596.89
434.016	620.85
434.392	616.78
434.767	610.45
435.143	642.54
435.518	652.93
435.894	632.82
436.269	639.83
436.644	660.62
437.02	667.4
437.395	640.05
437.77	664.91
438.145	662.88
438.52	646.38
438.895	675.76
439.271	666.27
439.646	679.83
440.021	685.93
440.395	668.75
440.77	656.78
441.145	678.24
441.52	719.6
441.895	682.76
442.27	702.88
442.645	695.19
443.019	721.18
443.394	690.45
443.769	672.37
444.143	706.49
444.518	716.21
444.892	726.15
445.267	712.37
445.641	700.62
446.016	733.61
446.39	744.23
446.764	704.01
447.139	720.73
447.513	720.96
447.887	724.8
448.262	729.99
448.636	774.74
449.01	739.26
449.384	746.04
449.758	775.19
450.132	739.03
450.506	776.1
450.88	750.11
451.254	751.92
451.628	783.33
452.002	786.94
452.376	792.37
452.75	793.04
453.123	774.06
453.497	779.49
453.871	811.35
454.244	811.8
454.618	803.67
454.992	813.61
455.365	802.76
455.739	823.1
456.112	830.11
456.486	852.03
456.859	853.16
457.232	835.53
457.606	854.29
457.979	866.71
458.352	899.93
458.725	864.68
459.099	881.4
459.472	895.87
459.845	909.2
460.218	903.1
460.591	938.8
460.964	920.27
461.337	932.93
461.71	907.17
462.083	935.64
462.456	955.98
462.829	921.63
463.201	954.85
463.574	968.86
463.947	976.54
464.32	988.97
464.692	971.57
465.065	989.88
465.438	1007.73
465.81	1005.47
466.183	1014.96
466.555	1011.12
466.928	1034.85
467.3	1033.72
467.672	1050.66
468.045	1058.57
468.417	1093.15
468.789	1071
469.161	1065.81
469.534	1130.66
469.906	1120.72
470.278	1103.54
470.65	1128.85
471.022	1165.92
471.394	1158.01
471.766	1166.14
472.138	1165.24
472.51	1170.21
472.882	1219.7
473.253	1217.67
473.625	1230.77
473.997	1241.85
474.369	1246.59
474.74	1271
475.112	1288.4
475.484	1284.56
475.855	1291.34
476.227	1336.53
476.598	1340.15
476.97	1361.62
477.341	1404.55
477.713	1380.6
478.084	1381.05
478.455	1406.59
478.827	1426.7
479.198	1457.89
479.569	1467.6
479.94	1501.05
480.311	1529.97
480.682	1513.03
481.053	1567.49
481.424	1548.28
481.795	1601.16
482.166	1618.79
482.537	1659.46
482.908	1658.11
483.279	1680.25
483.65	1656.75
484.021	1742.62
484.391	1753.7
484.762	1733.58
485.133	1776.3
485.503	1783.53
485.874	1834.6
486.244	1843.41
486.615	1836.41
486.985	1866.01
487.356	1927.48
487.726	1915.27
488.097	1960.25
488.467	1940.81
488.837	2019.45
489.207	2021.49
489.578	2034.37
489.948	2073.01
490.318	2101.71
490.688	2078.89
491.058	2138.09
491.428	2156.17
491.798	2204.08
492.168	2219.9
492.538	2215.61
492.908	2214.02
493.278	2267.13
493.648	2270.52
494.017	2298.32
494.387	2308.71
494.757	2332.44
495.126	2383.74
495.496	2345.09
495.866	2381.93
496.235	2418.99
496.605	2427.58
496.974	2433.9
497.344	2445.2
497.713	2480.23
498.082	2509.38
498.452	2518.87
498.821	2519.78
499.19	2549.83
499.559	2559.55
499.928	2577.86
500.298	2594.58
500.667	2651.75
501.036	2606.33
501.405	2652.2
501.774	2667.57
502.143	2654.46
502.512	2715.25
502.88	2720.23
503.249	2739.66
503.618	2784.63
503.987	2751.18
504.356	2747.79
504.724	2810.84
505.093	2782.14
505.462	2787.12
505.83	2814.91
506.199	2866.66
506.567	2949.82
506.936	2911.63
507.304	2970.39
507.672	2992.76
508.041	2942.37
508.409	3025.75
508.777	3038.41
509.145	3021.23
509.514	3066.66
509.882	3107.56
510.25	3097.39
510.618	3110.5
510.986	3137.16
511.354	3166.09
511.722	3150.72
512.09	3218.52
512.458	3201.57
512.826	3254.9
513.193	3257.84
513.561	3287.89
513.929	3307.33
514.297	3343.49
514.664	3360.66
515.032	3443.82
515.4	3385.74
515.767	3416.25
516.135	3441.11
516.502	3417.83
516.869	3488.57
517.237	3510.03
517.604	3499.64
517.972	3534.21
518.339	3556.14
518.706	3594.78
519.073	3598.62
519.44	3663.03
519.808	3677.04
520.175	3665.28
520.542	3719.29
520.909	3724.27
521.276	3761.1
521.643	3790.03
522.009	3853.3
522.376	3851.72
522.743	3890.36
523.11	3916.13
523.477	3966.07
523.843	4011.49
524.21	4020.53
524.577	4043.13
524.943	4051.72
525.31	4102.56
525.676	4097.82
526.043	4162.9
526.409	4215.33
526.776	4257.13
527.142	4254.42
527.508	4260.3
527.874	4318.83
528.241	4332.61
528.607	4371.03
528.973	4384.59
529.339	4408.32
529.705	4479.05
530.071	4485.83
530.437	4496.68
530.803	4477.02
531.169	4571.02
531.535	4584.58
531.901	4575.54
532.267	4646.95
532.632	4643.11
532.998	4707.97
533.364	4708.2
533.73	4731.47
534.095	4796.55
534.461	4828.42
534.826	4840.17
535.192	4846.5
535.557	4936.89
535.923	4906.61
536.288	4893.28
536.653	4921.3
537.019	4952.71
537.384	4973.95
537.749	5034.74
538.114	4969.21
538.479	5058.92
538.845	5092.37
539.21	5097.34
539.575	5097.79
539.94	5109.31
540.305	5185.25
540.67	5176.88
541.034	5211.91
541.399	5249.2
541.764	5264.11
542.129	5265.24
542.494	5281.06
542.858	5379.82
543.223	5318.8
543.587	5367.39
543.952	5390.44
544.316	5424.11
544.681	5439.48
545.045	5451
545.41	5523.99
545.774	5528.29
546.138	5541.62
546.503	5556.31
546.867	5605.35
547.231	5623.43
547.595	5643.99
547.959	5673.59
548.324	5696.19
548.688	5693.71
549.052	5769.64
549.416	5797.43
549.779	5834.72
550.143	5830.2
550.507	5928.05
550.871	5887.6
551.235	5961.04
551.599	6007.82
551.962	6043.3
552.326	6045.79
552.689	6063.64
553.053	6054.83
553.417	6095.96
553.78	6176.18
554.143	6169.85
554.507	6247.59
554.87	6266.57
555.234	6413.69
555.597	6386.12
555.96	6368.49
556.323	6417.75
556.686	6426.34
557.05	6505.21
557.413	6577.3
557.776	6576.85
558.139	6671.31
558.502	6665.43
558.865	6761.25
559.228	6808.48
559.59	6831.53
559.953	6856.84
560.316	6991.53
560.679	6968.02
561.041	7127.57
561.404	7128.7
561.767	7231.29
562.129	7193.55
562.492	7304.74
562.854	7257.51
563.217	7371.18
563.579	7409.59
563.941	7532.53
564.304	7637.61
564.666	7678.29
565.028	7779.3
565.39	7816.59
565.753	7904.72
566.115	7995.79
566.477	8013.65
566.839	8038.05
567.201	8125.05
567.563	8232.62
567.925	8339.74
568.287	8336.35
568.648	8418.15
569.01	8522.11
569.372	8584.7
569.734	8597.81
570.095	8734.08
570.457	8773.63
570.819	8932.94
571.18	8895.43
571.542	9074.41
571.903	9174.52
572.265	9208.42
572.626	9336.77
572.987	9391.24
573.349	9557.56
573.71	9567.5
574.071	9647.5
574.432	9831.9
574.794	10002.29
575.155	9958
575.516	10059.47
575.877	10157.54
576.238	10313.47
576.599	10399.8
576.96	10547.14
577.32	10641.15
577.681	10740.13
578.042	10883.17
578.403	10950.97
578.763	11177.63
579.124	11260.57
579.485	11369.72
579.845	11536.49
580.206	11632.31
580.566	11785.52
580.927	11926.54
581.287	12125.4
581.648	12208.56
582.008	12447.43
582.368	12596.12
582.728	12767.42
583.089	12894.42
583.449	13094.87
583.809	13299.61
584.169	13514.74
584.529	13699.82
584.889	13972.36
585.249	14112.47
585.609	14299.58
585.969	14630.19
586.329	14846.69
586.688	14953.58
587.048	15256.39
587.408	15541.36
587.768	15676.72
588.127	16015.02
588.487	16280.09
588.846	16508.79
589.206	16842.79
589.565	17124.37
589.925	17447.3
590.284	17626.73
590.643	18024.46
591.003	18351.45
591.362	18714.61
591.721	18919.8
592.08	19298.55
592.44	19690.85
592.799	19971.52
593.158	20240.89
593.517	20613.99
593.876	21041.78
594.235	21283.58
594.593	21692.83
594.952	22117.46
595.311	22414.62
595.67	22854.38
596.029	23305.67
596.387	23829.5
596.746	24152.43
597.104	24374.57
597.463	24847.1
597.822	25398.72
598.18	25499.06
598.538	25997.58
598.897	26525.47
599.255	26704.23
599.613	27424.66
599.972	27561.83
600.33	28061.48
600.688	28263.51
601.046	28921.57
601.404	29409.01
601.762	29586.86
602.12	30288.31
602.478	30699.6
602.836	30936.88
603.194	31172.13
603.552	31714.26
603.91	31951.09
604.268	32439.9
604.625	32842.82
604.983	33324.17
605.341	33455.01
605.698	34036.69
606.056	34410.24
606.413	34654.07
606.771	35121.63
607.128	35492.47
607.485	35581.51
607.843	35960.93
608.2	36449.06
608.557	36920.46
608.914	37054.92
609.272	37531.74
609.629	37824.39
609.986	38243.36
610.343	38279.29
610.7	38817.36
611.057	39150.68
611.414	39284.69
611.771	39535.08
612.127	39935.07
612.484	40120.37
612.841	40514.49
613.198	40666.35
613.554	40880.35
613.911	41205.99
614.267	41393.56
614.624	41505.42
614.98	41810.04
615.337	42338.62
615.693	42288.9
616.05	42521.89
616.406	42933.18
616.762	42980.18
617.118	43022.22
617.475	43276.45
617.831	43634.18
618.187	43878.01
618.543	43928.63
618.899	44297.66
619.255	44454.04
619.611	44511.67
619.967	44665.11
620.323	44833.47
620.678	44979
621.034	45054.03
621.39	45089.51
621.746	45281.82
622.101	45680.45
622.457	45537.63
622.812	45806.78
623.168	45908.69
623.523	45931.52
623.879	46139.2
624.234	46094.68
624.589	46251.96
624.945	46385.52
625.3	46363.6
625.655	46527.89
626.01	46736.02
626.365	46717.26
626.72	46809.01
627.075	46933.53
627.43	46893.53
627.785	46957.71
628.14	47039.29
628.495	47328.77
628.85	47134.2
629.205	47208.32
629.559	47385.72
629.914	47315.21
630.269	47384.59
630.623	47319.05
630.978	47354.98
631.332	47437.92
631.687	47632.26
632.041	47581.64
632.396	47665.94
632.75	47519.05
633.104	47576.45
633.459	47439.73
633.813	47612.38
634.167	47587.52
634.521	47629.78
634.875	47711.58
635.229	47572.83
635.583	47472.04
635.937	47562.44
636.291	47637.46
636.645	47746.16
636.999	47634.75
637.352	47655.99
637.706	47499.39
638.06	47669.1
638.413	47577.12
638.767	47527.18
639.121	47813.73
639.474	47519.95
639.828	47688.76
640.181	47561.31
640.534	47780.96
640.888	47634.98
641.241	47450.12
641.594	47616.9
641.947	47667.97
642.301	47586.16
642.654	47718.59
643.007	47626.84
643.36	47632.94
643.713	47555.2
644.066	47827.74
644.419	47524.7
644.771	47201.77
645.124	46713.19
645.477	46787.77
645.83	46599.75
646.182	46460.32
646.535	46484.72
646.888	46626.42
647.24	46422.35
647.593	46637.04
647.945	46520.88
648.298	46383.48
648.65	46403.14
649.002	46314.56
649.355	46572.18
649.707	46283.37
650.059	46633.19
650.411	46963.58
650.763	47105.05
651.115	47461.87
651.467	47332.16
651.819	47419.84
652.171	47315.89
652.523	47315.66
652.875	47307.98
653.227	47162.22
653.578	47402.44
653.93	47376.45
654.282	47094.88
654.633	47174.2
654.985	47298.49
655.337	47239.73
655.688	47213.29
656.039	47272.27
656.391	46988.21
656.742	47244.03
657.094	47175.78
657.445	47353.63
657.796	47258.72
658.147	47135.78
658.498	47154.76
658.849	47253.52
659.2	47004.94
659.551	46967.42
659.902	47112.73
660.253	47094.43
660.604	47120.64
660.955	46920.64
661.306	47035.44
661.656	46958.84
662.007	47150.24
662.358	47109.11
662.708	47046.07
663.059	47027.53
663.409	46909.57
663.76	47160.19
664.11	47232.28
664.461	47274.08
664.811	47178.49
665.161	47111.15
665.511	47055.56
665.862	47111.6
666.212	47128.55
666.562	47154.99
666.912	46934.43
667.262	47116.12
667.612	47116.57
667.962	47063.01
668.312	46920.64
668.662	47107.31
669.011	47102.56
669.361	47096.01
669.711	47110.02
670.06	47039.51
670.41	46958.61
670.76	46755.45
671.109	46947.54
671.459	46884.71
671.808	46882.23
672.157	46997.7
672.507	46657.83
672.856	46724.04
673.205	46757.71
673.554	46861.44
673.904	46788.44
674.253	47009.23
674.602	46770.59
674.951	46312.98
675.3	46019.88
675.649	46664.61
675.998	46625.29
676.346	46620.31
676.695	46724.27
677.044	46471.39
677.393	46544.16
677.741	46525.85
678.09	46487.21
678.438	46400.66
678.787	46462.58
679.135	46503.25
679.484	46279.53
679.832	46431.62
680.181	46290.6
680.529	46295.58
680.877	46189.82
681.225	46119.08
681.573	46401.11
681.922	45945.98
682.27	46050.61
682.618	45987.34
682.966	45942.14
683.314	45923.38
683.661	45769.94
684.009	45622.37
684.357	45526.78
684.705	45549.61
685.053	45544.18
685.4	45422.83
685.748	45277.75
686.095	45315.49
686.443	45178.77
686.79	45204.76
687.138	45135.83
687.485	45071.88
687.832	45038.89
688.18	45063.29
688.527	44894.03
688.874	44774.03
689.221	44773.13
689.568	44621.72
689.915	44545.34
690.262	44580.59
690.609	44357.32
690.956	44235.74
691.303	44207.95
691.65	43951.91
691.997	44037.33
692.344	43903.1
692.69	43892.93
693.037	43999.14
693.383	43493.16
693.73	43685.02
694.077	43392.15
694.423	43371.59
694.769	43269.44
695.116	43221.53
695.462	43148.99
695.808	42974.76
696.155	43004.59
696.501	42880.98
696.847	42850.7
697.193	42514.21
697.539	42636.46
697.885	42239.19
698.231	42272.63
698.577	42166.87
698.923	42208.23
699.269	41940.44
699.614	41789.03
699.96	41826.77
700.306	41735.47
700.651	41616.15
700.997	41556.72
701.342	41394.01
701.688	41311.3
702.033	41267.46
702.379	41120.35
702.724	40999.22
703.069	41145.2
703.415	40746.34
703.76	40642.39
704.105	40740.02
704.45	40680.13
704.795	40312.91
705.14	40332.34
705.485	40391.55
705.83	40147.72
706.175	40106.36
706.52	40009.41
706.865	39927.83
707.209	40057.55
707.554	39816.65
707.899	39792.92
708.243	39743.66
708.588	39734.17
708.932	39395.64
709.277	39410.56
709.621	39440.62
709.966	39047.18
710.31	39203.56
710.654	38945.94
710.998	39110
711.342	39039.95
711.687	38804.47
712.031	38648.55
712.375	38614.87
712.719	38588.66
713.063	38552.73
713.407	38844.7
713.75	38507.76
714.094	38575.33
714.438	38310.48
714.782	38397.48
715.125	38107.54
715.469	38324.03
715.812	37943.48
716.156	37844.5
716.499	37950.03
716.843	37917.04
717.186	37640.66
717.53	37865.06
717.873	37762.02
718.216	37646.99
718.559	37425.3
718.902	37290.16
719.246	37423.49
719.589	37296.04
719.932	37229.37
720.275	37122.26
720.617	37178.53
720.96	37170.62
721.303	37098.53
721.646	37092.65
721.989	36859.89
722.331	36957.52
722.674	36852.21
723.016	36851.76
723.359	36722.27
723.701	36827.35
724.044	36558.66
724.386	36351.66
724.729	36573.8
725.071	36470.75
725.413	36273.69
725.755	36299.91
726.097	36120.02
726.439	35921.61
726.782	36134.71
727.124	36284.09
727.465	35955.74
727.807	35995.06
728.149	35909.86
728.491	35915.74
728.833	35915.51
729.175	35783.31
729.516	35475.3
729.858	35585.35
730.199	35649.98
730.541	35696.99
730.882	35516.42
731.224	35596.2
731.565	35355.07
731.906	35504.45
732.248	35458.35
732.589	35295.41
732.93	35132.71
733.271	35042.99
733.612	35114.85
733.953	35111.69
734.294	35079.37
734.635	34947.17
734.976	35031.92
735.317	34898.36
735.658	34872.15
735.999	34813.17
736.339	34600.06
736.68	34794.86
737.021	34604.36
737.361	34525.26
737.702	34735.65
738.042	34500.86
738.383	34464.25
738.723	34490.69
739.063	34392.39
739.404	34378.83
739.744	34324.82
740.084	34304.03
740.424	34355.33
740.764	34252.05
741.104	34257.7
741.444	34026.75
741.784	33953.53
742.124	34135.9
742.464	34047.99
742.804	34004.15
743.143	33852.51
743.483	33900.87
743.823	33710.14
744.162	33616.14
744.502	33650.49
744.841	33650.26
745.181	33716.92
745.52	33494.11
745.86	33621.11
746.199	33367.55
746.538	33541.11
746.877	33448.91
747.216	33513.09
747.556	33313.09
747.895	33327.33
748.234	33194.9
748.573	33208.24
748.911	33171.4
749.25	33212.3
749.589	32989.94
749.928	33091.86
750.267	33039.88
750.605	32934.12
750.944	32871.52
751.283	32706.1
751.621	32785.42
751.96	32613.22
752.298	32684.41
752.636	32709.95
752.975	32436.51
753.313	32407.81
753.651	32529.61
753.989	32282.39
754.327	32308.15
754.666	32143.18
755.004	32139.79
755.342	32179.79
755.679	32105.67
756.017	31819.57
756.355	31913.13
756.693	31847.82
757.031	31825.45
757.368	31665.45
757.706	31643.53
758.044	31528.73
758.381	31473.14
758.719	31306.37
759.056	31523.08
759.394	31379.13
759.731	31059.37
760.068	31035.41
760.405	31016.88
