Data from red_cardboard_box_FLMS001491_00098.txt Node
Date: Wed Feb 08 11:33:26 GMT 2017
User: dcchb
Spectrometer: FLMS00149
Trigger mode: 0
Integration Time (sec): 2.000000E-2
Scans to average: 10
Electric dark correction enabled: true
Nonlinearity correction enabled: false
Boxcar width: 0
XAxis mode: Wavelengths
Number of Pixels in Spectrum: 2048
>>>>>Begin Spectral Data<<<<<
341.393	5.23
341.776	5.23
342.16	5.23
342.543	-56.24
342.927	-47.2
343.31	-75.9
343.693	-68.44
344.077	-71.16
344.46	-52.63
344.843	-39.97
345.226	-47.65
345.61	-48.11
345.993	-17.37
346.376	-9.69
346.759	19.46
347.142	18.78
347.525	49.52
347.908	53.13
348.291	91.55
348.674	92.91
349.057	105.56
349.44	107.82
349.823	130.87
350.206	153.7
350.588	184.43
350.971	228.72
351.354	222.62
351.737	245.67
352.119	270.3
352.502	282.51
352.884	307.59
353.267	281.6
353.65	303.75
354.032	326.35
354.414	312.79
354.797	315.5
355.179	348.72
355.562	344.43
355.944	339.91
356.326	344.65
356.709	350.3
357.091	352.11
357.473	342.62
357.855	361.15
358.238	357.53
358.62	355.05
359.002	330.19
359.384	349.62
359.766	344.2
360.148	330.64
360.53	353.92
360.912	346.46
361.294	340.81
361.676	346.69
362.057	355.27
362.439	341.49
362.821	343.52
363.203	352.56
363.584	323.41
363.966	325.44
364.348	318.21
364.729	331.32
365.111	315.95
365.493	311.88
365.874	359.11
366.256	316.86
366.637	342.17
367.019	340.13
367.4	324.31
367.781	313.01
368.163	330.87
368.544	316.86
368.925	322.96
369.306	337.19
369.688	328.83
370.069	315.95
370.45	344.2
370.831	333.8
371.212	335.39
371.593	311.88
371.974	331.32
372.355	329.06
372.736	339.45
373.117	330.19
373.498	314.6
373.879	336.74
374.26	312.56
374.641	316.86
375.021	337.19
375.402	306.01
375.783	340.13
376.163	327.48
376.544	323.86
376.925	322.05
377.305	323.18
377.686	339
378.066	334.26
378.447	360.47
378.827	347.36
379.208	340.36
379.588	346.23
379.968	348.27
380.349	347.36
380.729	350.3
381.109	324.09
381.489	345.1
381.87	357.08
382.25	354.37
382.63	351.66
383.01	364.31
383.39	328.61
383.77	344.65
384.15	330.64
384.53	360.02
384.91	380.36
385.29	348.04
385.67	369.96
386.049	351.43
386.429	357.08
386.809	353.24
387.189	324.31
387.568	352.79
387.948	381.71
388.328	370.19
388.707	355.5
389.087	355.27
389.466	363.63
389.846	371.09
390.225	382.39
390.605	375.16
390.984	360.02
391.363	369.74
391.743	380.13
392.122	371.77
392.501	360.47
392.881	364.99
393.26	383.75
393.639	378.55
394.018	372.45
394.397	378.78
394.776	387.36
395.155	377.87
395.534	395.05
395.913	363.63
396.292	385.1
396.671	374.48
397.05	400.92
397.429	391.66
397.808	381.71
398.186	385.78
398.565	390.98
398.944	409.73
399.323	389.85
399.701	413.12
400.08	388.27
400.458	398.21
400.837	410.64
401.215	383.07
401.594	395.27
401.972	408.61
402.351	404.31
402.729	422.62
403.107	405.67
403.486	423.07
403.864	414.93
404.242	416.51
404.62	423.97
404.999	426.01
405.377	416.51
405.755	425.1
406.133	416.74
406.511	453.58
406.889	443.63
407.267	411.32
407.645	405.44
408.023	423.52
408.401	429.17
408.779	426.46
409.156	431.43
409.534	444.54
409.912	440.47
410.29	449.96
410.667	445.21
411.045	436.85
411.422	453.12
411.8	443.63
412.178	464.65
412.555	456.51
412.933	434.37
413.31	457.64
413.687	470.98
414.065	472.11
414.442	472.11
414.819	483.18
415.197	470.52
415.574	462.39
415.951	490.64
416.328	479.34
416.705	491.54
417.082	479.79
417.46	491.09
417.837	489.51
418.214	477.76
418.591	483.18
418.967	479.34
419.344	502.16
419.721	493.12
420.098	511.88
420.475	490.64
420.852	509.17
421.228	509.17
421.605	504.65
421.982	517.08
422.358	510.98
422.735	536.96
423.111	513.01
423.488	531.31
423.864	531.31
424.241	532.67
424.617	531.77
424.994	520.92
425.37	555.04
425.746	533.8
426.123	524.53
426.499	541.26
426.875	557.53
427.251	545.32
427.627	551.88
428.003	568.6
428.379	544.65
428.756	574.25
429.132	583.29
429.507	594.36
429.883	570.41
430.259	602.27
430.635	563.18
431.011	593.68
431.387	616.96
431.763	605.66
432.138	598.2
432.514	606.34
432.89	614.7
433.265	632.78
433.641	619.45
434.016	630.75
434.392	636.4
434.767	637.53
435.143	626.23
435.518	673.91
435.894	641.59
436.269	634.36
436.644	659.67
437.02	681.82
437.395	669.16
437.77	668.03
438.145	693.12
438.52	673.46
438.895	690.63
439.271	686.79
439.646	678.65
440.021	702.83
440.395	680.69
440.77	708.94
441.145	686.56
441.52	713
441.895	703.74
442.27	710.29
442.645	702.83
443.019	694.25
443.394	732.21
443.769	707.35
444.143	737.64
444.518	724.53
444.892	727.47
445.267	734.47
445.641	735.38
446.016	730.63
446.39	748.03
446.764	749.61
447.139	724.98
447.513	734.02
447.887	765.88
448.262	757.97
448.636	767.69
449.01	762.95
449.384	765.21
449.758	778.54
450.132	771.76
450.506	760.01
450.88	796.17
451.254	800.46
451.628	787.13
452.002	819.44
452.376	821.25
452.75	805.88
453.123	818.76
453.497	790.97
453.871	800.91
454.244	848.37
454.618	870.97
454.992	838.2
455.365	863.96
455.739	877.29
456.112	857.41
456.486	878.2
456.859	887.01
457.232	882.04
457.606	867.8
457.979	881.36
458.352	921.81
458.725	903.28
459.099	917.97
459.472	945.77
459.845	923.39
460.218	934.47
460.591	942.83
460.964	953
461.337	946.22
461.71	964.52
462.083	973.56
462.456	999.1
462.829	1004.3
463.201	999.55
463.574	985.99
463.947	1040
464.32	1042.49
464.692	1040.23
465.065	1048.81
465.438	1053.33
465.81	1062.6
466.183	1056.05
466.555	1097.85
466.928	1071.86
467.3	1091.52
467.672	1088.36
468.045	1103.5
468.417	1104.86
468.789	1117.06
469.161	1143.28
469.534	1160.68
469.906	1162.94
470.278	1175.36
470.65	1154.8
471.022	1174.69
471.394	1221.01
471.766	1217.17
472.138	1234.35
472.51	1238.87
472.882	1244.74
473.253	1266.21
473.625	1289.03
473.997	1310.05
474.369	1328.35
474.74	1324.97
475.112	1344.4
475.484	1366.09
475.855	1359.09
476.227	1393.89
476.598	1408.58
476.97	1439.31
477.341	1475.24
477.713	1461.91
478.084	1467.33
478.455	1495.58
478.827	1507.79
479.198	1554.34
479.569	1569.25
479.94	1590.95
480.311	1626.65
480.682	1633.21
481.053	1698.97
481.424	1670.72
481.795	1700.32
482.166	1703.71
482.537	1729.47
482.908	1776.48
483.279	1818.29
483.65	1785.07
484.021	1820.77
484.391	1854.67
484.762	1877.94
485.133	1862.35
485.503	1918.62
485.874	1919.53
486.244	1977.38
486.615	1995.91
486.985	2002.91
487.356	2016.47
487.726	2056.47
488.097	2097.6
488.467	2100.76
488.837	2110.03
489.207	2156.81
489.578	2194.55
489.948	2204.94
490.318	2222.12
490.688	2251.72
491.058	2259.63
491.428	2304.37
491.798	2292.85
492.168	2354.77
492.538	2383.02
492.908	2408.33
493.278	2420.76
493.648	2434.99
494.017	2454.65
494.387	2453.07
494.757	2508.44
495.126	2530.81
495.496	2568.77
495.866	2550.02
496.235	2585.05
496.605	2617.13
496.974	2610.81
497.344	2636.8
497.713	2666.4
498.082	2664.36
498.452	2667.75
498.821	2707.08
499.19	2736.68
499.559	2743.46
499.928	2768.77
500.298	2793.85
500.667	2808.09
501.036	2832.27
501.405	2837.47
501.774	2869.56
502.143	2852.61
502.512	2899.16
502.88	2881.53
503.249	2925.83
503.618	2964.47
503.987	2981.64
504.356	2962.21
504.724	3009.21
505.093	3023
505.462	3036.11
505.83	3091.47
506.199	3059.61
506.567	3131.02
506.936	3079.27
507.304	3164.24
507.672	3169.44
508.041	3193.39
508.409	3202.43
508.777	3212.6
509.145	3233.16
509.514	3265.71
509.882	3278.59
510.25	3312.48
510.618	3325.82
510.986	3340.28
511.354	3348.64
511.722	3397.68
512.09	3441.52
512.458	3469.54
512.826	3428.64
513.193	3454.63
513.561	3475.87
513.929	3535.3
514.297	3528.52
514.664	3574.17
515.032	3604
515.4	3661.17
515.767	3618.01
516.135	3651.23
516.502	3634.51
516.869	3709.08
517.237	3737.33
517.604	3750.89
517.972	3754.96
518.339	3803.54
518.706	3850.77
519.073	3850.55
519.44	3877.89
519.808	3895.07
520.175	3878.34
520.542	3984.33
520.909	4035.4
521.276	4026.14
521.643	4058.23
522.009	4101.16
522.376	4095.06
522.743	4137.09
523.11	4221.39
523.477	4221.61
523.843	4213.25
524.21	4324.21
524.577	4343.42
524.943	4357.65
525.31	4399.23
525.676	4400.14
526.043	4478.78
526.409	4462.96
526.776	4521.49
527.142	4560.59
527.508	4589.51
527.874	4595.16
528.241	4633.8
528.607	4619.79
528.973	4698.44
529.339	4702.28
529.705	4770.3
530.071	4773.46
530.437	4813.69
530.803	4875.15
531.169	4889.39
531.535	4888.94
531.901	4855.27
532.267	4945.21
532.632	4983.17
532.998	4995.38
533.364	5033.57
533.73	5056.84
534.095	5059.78
534.461	5055.26
534.826	5108.82
535.192	5166.9
535.557	5272.66
535.923	5205.32
536.288	5196.28
536.653	5272.21
537.019	5225.88
537.384	5331.64
537.749	5340
538.114	5345.42
538.479	5404.41
538.845	5458.87
539.21	5384.52
539.575	5496.15
539.94	5437.63
540.305	5532.31
540.67	5497.96
541.034	5583.61
541.399	5587
541.764	5596.72
542.129	5606.43
542.494	5622.48
542.858	5681.23
543.223	5681.69
543.587	5734.11
543.952	5725.3
544.316	5775.24
544.681	5838.97
545.045	5841.91
545.41	5896.6
545.774	5935.69
546.138	5910.16
546.503	5942.92
546.867	5954.22
547.231	6020.43
547.595	6086.65
547.959	6068.12
548.324	6069.47
548.688	6124.61
549.052	6124.16
549.416	6160.32
549.779	6137.95
550.143	6237.83
550.507	6209.81
550.871	6306.3
551.235	6318.28
551.599	6372.74
551.962	6370.71
552.326	6451.84
552.689	6449.58
553.053	6464.94
553.417	6561.89
553.78	6574.32
554.143	6616.35
554.507	6644.15
554.87	6710.81
555.234	6782.22
555.597	6729.34
555.96	6790.36
556.323	6822.67
556.686	6879.85
557.05	6941.31
557.413	6957.59
557.776	6984.48
558.139	7051.37
558.502	7033.29
558.865	7134.98
559.228	7147.86
559.59	7260.63
559.953	7301.31
560.316	7370.46
560.679	7466.05
561.041	7584.24
561.404	7617.23
561.767	7609.32
562.129	7643.22
562.492	7784.23
562.854	7800.5
563.217	7872.36
563.579	7890.22
563.941	7956.88
564.304	8050.21
564.666	8087.05
565.028	8188.74
565.39	8279.36
565.753	8301.5
566.115	8344.44
566.477	8461.05
566.839	8498.79
567.201	8560.48
567.563	8682.74
567.925	8761.83
568.287	8796.41
568.648	8851.55
569.01	8995.5
569.372	9056.06
569.734	9070.07
570.095	9235.72
570.457	9290.86
570.819	9383.28
571.18	9400.46
571.542	9559.32
571.903	9660.34
572.265	9734.24
572.626	9788.02
572.987	9842.48
573.349	10009.26
573.71	10047
574.071	10138.29
574.432	10248.8
574.794	10428
575.155	10538.96
575.516	10552.75
575.877	10608.56
576.238	10719.29
576.599	10895.33
576.96	10972.4
577.32	11031.38
577.681	11124.93
578.042	11316.11
578.403	11375.77
578.763	11580.29
579.124	11682.66
579.485	11878.59
579.845	11993.84
580.206	12089.43
580.566	12249.2
580.927	12346.37
581.287	12599.7
581.648	12734.61
582.008	12901.16
582.368	13072.23
582.728	13191.09
583.089	13443.52
583.449	13563.74
583.809	13826.78
584.169	13980.23
584.529	14216.6
584.889	14419.08
585.249	14552.19
585.609	14785.63
585.969	15048.9
586.329	15206.86
586.688	15469.23
587.048	15673.74
587.408	15904.92
587.768	16134.75
588.127	16447.51
588.487	16667.61
588.846	17133.59
589.206	17327.93
589.565	17544.88
589.925	17836.17
590.284	18129.95
590.643	18469.15
591.003	18797.73
591.362	19127.43
591.721	19372.85
592.08	19767.42
592.44	20144.81
592.799	20562.88
593.158	20819.59
593.517	21213.93
593.876	21654.83
594.235	21936.85
594.593	22410.96
594.952	22736.83
595.311	23095.69
595.67	23432.41
596.029	24051.83
596.387	24387.86
596.746	24880.73
597.104	25107.16
597.463	25356.65
597.822	25877.99
598.18	26261.71
598.538	26667.35
598.897	27164.74
599.255	27484.96
599.613	28184.37
599.972	28425.72
600.33	28895.09
600.688	29085.82
601.046	29647.16
601.404	30174.83
601.762	30584.99
602.12	30996.28
602.478	31356.27
602.836	31889.81
603.194	32097.26
603.552	32618.38
603.91	32856.79
604.268	33441.86
604.625	33652.7
604.983	34386.02
605.341	34399.8
605.698	35042.04
606.056	35494.91
606.413	35745.08
606.771	36267.1
607.128	36599.07
607.485	36719.74
607.843	37124.93
608.2	37597.68
608.557	38019.59
608.914	38106.82
609.272	38650.09
609.629	38973.01
609.986	39279.45
610.343	39448.03
610.7	39957.4
611.057	40226.77
611.414	40484.16
611.771	40679.41
612.127	41163.24
612.484	41431.93
612.841	41757.8
613.198	41916.44
613.554	42002.09
613.911	42445.69
614.267	42628.74
614.624	42806.36
614.98	43059.69
615.337	43505.55
615.693	43536.51
616.05	43684.98
616.406	44053.56
616.762	44217.4
617.118	44322.7
617.475	44424.85
617.831	44924.27
618.187	45108.67
618.543	45180.76
618.899	45627.3
619.255	45532.62
619.611	45651.03
619.967	45951.36
620.323	46237.46
620.678	46138.48
621.034	46297.79
621.39	46414.85
621.746	46458.47
622.101	46966.48
622.457	46777.78
622.812	46949.98
623.168	47141.84
623.523	47152.01
623.879	47434.49
624.234	47288.05
624.589	47509.97
624.945	47609.62
625.3	47700.69
625.655	47799.9
626.01	47911.54
626.365	48030.63
626.72	47937.07
627.075	48107.69
627.43	48149.95
627.785	47982.04
628.14	48262.49
628.495	48359.66
628.85	48416.16
629.205	48348.36
629.559	48550.62
629.914	48478.08
630.269	48684.4
630.623	48511.52
630.978	48472.43
631.332	48763.04
631.687	48748.58
632.041	48789.03
632.396	48878.74
632.75	48632.65
633.104	48824.06
633.459	48675.58
633.813	48768.01
634.167	48807.78
634.521	48814.79
634.875	48952.41
635.229	48979.53
635.583	48804.85
635.937	48739.76
636.291	48688.92
636.645	48916.03
636.999	48866.99
637.352	48890.72
637.706	48663.61
638.06	48924.62
638.413	48839.65
638.767	48798.07
639.121	48925.75
639.474	48645.75
639.828	48756.03
640.181	48942.47
640.534	49052.52
640.888	48754.68
641.241	48654.79
641.594	48787.67
641.947	48881.45
642.301	48711.52
642.654	48870.16
643.007	48895.47
643.36	48890.95
643.713	48850.95
644.066	48880.1
644.419	48691.63
644.771	48451.41
645.124	47995.83
645.477	47954.7
645.83	47867.02
646.182	47852.33
646.535	47616.18
646.888	47885.1
647.24	47587.03
647.593	47819.34
647.945	47806.23
648.298	47546.8
648.65	47612.79
649.002	47434.94
649.355	47772.33
649.707	47590.42
650.059	47697.08
650.411	48181.59
650.763	48306.55
651.115	48677.62
651.467	48564.4
651.819	48637.39
652.171	48509.49
652.523	48550.62
652.875	48546.77
653.227	48419.32
653.578	48698.86
653.93	48592.87
654.282	48324.63
654.633	48352.2
654.985	48406.44
655.337	48425.65
655.688	48391.75
656.039	48614.34
656.391	48343.16
656.742	48389.04
657.094	48356.72
657.445	48506.1
657.796	48374.35
658.147	48263.84
658.498	48337.06
658.849	48380.45
659.2	48220.23
659.551	48233.34
659.902	48278.08
660.253	48265.2
660.604	48471.75
660.955	48212.32
661.306	48281.7
661.656	48388.81
662.007	48326.22
662.358	48209.38
662.708	48239.89
663.059	48225.88
663.409	47888.71
663.76	48283.96
664.11	48389.04
664.461	48302.94
664.811	48324.63
665.161	48257.06
665.511	48257.06
665.862	48231.75
666.212	48311.07
666.562	48378.64
666.912	48296.84
667.262	48193.79
667.612	48177.52
667.962	48282.37
668.312	48101.14
668.662	48305.88
669.011	48127.8
669.361	48137.75
669.711	48114.47
670.06	48074.24
670.41	48085.32
670.76	48006
671.109	48034.25
671.459	48061.82
671.808	48128.93
672.157	48176.61
672.507	47757.42
672.856	47799.45
673.205	47959.22
673.554	48076.73
673.904	47895.04
674.253	48081.93
674.602	47892.55
674.951	47466.12
675.3	47267.94
675.649	47938.2
675.998	47866.79
676.346	47958.54
676.695	47888.03
677.044	47750.19
677.393	47782.95
677.741	47720.58
678.09	47773.69
678.438	47692.33
678.787	47669.51
679.135	47680.58
679.484	47397.2
679.832	47646.69
680.181	47467.93
680.529	47585.22
680.877	47444.66
681.225	47355.39
681.573	47626.12
681.922	47233.36
682.27	47129.86
682.618	47324.89
682.966	47141.84
683.314	47243.98
683.661	47112.69
684.009	46971
684.357	46862.52
684.705	46703.43
685.053	46813.94
685.4	46687.39
685.748	46481.07
686.095	46454.17
686.443	46460.73
686.79	46359.49
687.138	46442.2
687.485	46372.37
687.832	46302.77
688.18	46228.42
688.527	46016.45
688.874	46059.38
689.221	46010.34
689.568	45760.41
689.915	45630.92
690.262	45776.23
690.609	45691.71
690.956	45492.39
691.303	45550.69
691.65	45394.54
691.997	45522
692.344	45074.78
692.69	45143.93
693.037	45268.22
693.383	44797.49
693.73	44928.11
694.077	44711.39
694.423	44681.34
694.769	44498.07
695.116	44600.21
695.462	44406.77
695.808	44308.92
696.155	44396.83
696.501	44063.28
696.847	44098.08
697.193	43769.95
697.539	44021.47
697.885	43742.61
698.231	43629.16
698.577	43638.43
698.923	43504.42
699.269	43220.36
699.614	43033.7
699.96	43112.57
700.306	43057.65
700.651	42885.45
700.997	42777.43
701.342	42758
701.688	42642.97
702.033	42529.98
702.379	42528.85
702.724	42471.23
703.069	42380.61
703.415	42088.19
703.76	42001.18
704.105	41998.02
704.45	41942.65
704.795	41725.03
705.14	41685.94
705.485	41757.35
705.83	41327.08
706.175	41598.71
706.52	41320.07
706.865	41247.08
707.209	41259.96
707.554	41080.08
707.899	41180.41
708.243	41014.54
708.588	40849.35
708.932	40559.87
709.277	40573.2
709.621	40688.9
709.966	40297.27
710.31	40477.61
710.654	40021.8
710.998	40135.47
711.342	40338.85
711.687	40066.09
712.031	39943.38
712.375	39873.78
712.719	39771.86
713.063	39824.97
713.407	39940.45
713.75	39716.05
714.094	39683.73
714.438	39438.54
714.782	39529.16
715.125	39292.55
715.469	39487.58
715.812	39246.91
716.156	38933.02
716.499	39031.32
716.843	39029.74
717.186	38672.01
717.53	38941.83
717.873	39021.6
718.216	38751.55
718.559	38519.24
718.902	38502.52
719.246	38553.59
719.589	38315.86
719.932	38283.32
720.275	38221.4
720.617	38157.22
720.96	38185.01
721.303	38227.95
721.646	38387.49
721.989	38047.16
722.331	38152.47
722.674	37866.83
723.016	37975.75
723.359	37830.22
723.701	37903.89
724.044	37544.58
724.386	37481.75
724.729	37666.61
725.071	37564.69
725.413	37459.83
725.755	37361.31
726.097	37282.66
726.439	37205.6
726.782	37186.4
727.124	37370.35
727.465	37076.12
727.807	37107.75
728.149	36920.19
728.491	36869.34
728.833	36862.11
729.175	36886.52
729.516	36701.44
729.858	36690.14
730.199	36680.19
730.541	36594.77
730.882	36634.09
731.224	36723.13
731.565	36454.66
731.906	36504.38
732.248	36558.62
732.589	36384.38
732.93	36071.62
733.271	36236.14
733.612	36137.84
733.953	36203.6
734.294	36061
734.635	36115.24
734.976	36188.68
735.317	35857.62
735.658	35807.9
735.999	35889.03
736.339	35687
736.68	35836.15
737.021	35787.79
737.361	35650.84
737.702	35788.24
738.042	35641.58
738.383	35412.88
738.723	35542.6
739.063	35348.7
739.404	35576.49
739.744	35472.99
740.084	35296.05
740.424	35325.88
740.764	35318.65
741.104	35489.04
741.444	35152.55
741.784	35071.42
742.124	35207.69
742.464	35154.36
742.804	35018.77
743.143	34992.55
743.483	34915.27
743.823	34801.15
744.162	34807.47
744.502	34781.03
744.841	34593.02
745.181	34921.14
745.52	34595.95
745.86	34713.92
746.199	34614.49
746.538	34605.67
746.877	34720.92
747.216	34553.24
747.556	34351.89
747.895	34383.53
748.234	34240.26
748.573	34118
748.911	34157.1
749.25	34234.61
749.589	34066.25
749.928	34070.09
750.267	34192.35
750.605	33963.43
750.944	33860.83
751.283	33801.4
751.621	33875.07
751.96	33759.14
752.298	33726.83
752.636	33618.81
752.975	33536.1
753.313	33302.88
753.651	33531.58
753.989	33289.32
754.327	33320.06
754.666	33151.02
755.004	33184.92
755.342	33217.91
755.679	33109.89
756.017	32873.51
756.355	32998.93
756.693	32850.01
757.031	32864.47
757.368	32670.58
757.706	32560.75
758.044	32474.43
758.381	32496.8
758.719	32377.48
759.056	32422.45
759.394	32366.18
759.731	32129.8
760.068	32002.8
760.405	31996.7
760.743	31910.6
