Data from red_shiny_book_FLMS001491_00027.txt Node
Date: Wed Feb 08 15:24:38 GMT 2017
User: dcchb
Spectrometer: FLMS00149
Trigger mode: 0
Integration Time (sec): 2.000000E-2
Scans to average: 10
Electric dark correction enabled: true
Nonlinearity correction enabled: false
Boxcar width: 0
XAxis mode: Wavelengths
Number of Pixels in Spectrum: 2048
>>>>>Begin Spectral Data<<<<<
341.393	-10.75
341.776	-10.75
342.16	-10.75
342.543	-66.57
342.927	-83.06
343.31	-67.47
343.693	-57.98
344.077	-64.08
344.46	-50.52
344.843	-61.14
345.226	-38.77
345.61	-33.8
345.993	-18.21
346.376	-6.68
346.759	-3.74
347.142	10.04
347.525	45.07
347.908	63.83
348.291	81.9
348.674	86.42
349.057	115.12
349.44	115.12
349.823	131.85
350.206	168.68
350.588	201.9
350.971	229.92
351.354	230.38
351.737	251.39
352.119	262.69
352.502	251.39
352.884	284.16
353.267	278.51
353.65	298.85
354.032	304.72
354.414	318.73
354.797	336.81
355.179	314.89
355.562	325.74
355.944	340.2
356.326	339.75
356.709	349.47
357.091	354.67
357.473	353.31
357.855	333.88
358.238	354.67
358.62	356.47
359.002	359.86
359.384	375.68
359.766	334.33
360.148	357.83
360.53	336.59
360.912	343.82
361.294	348.79
361.676	353.08
362.057	335.01
362.439	350.15
362.821	343.14
363.203	350.37
363.584	337.94
363.966	335.68
364.348	336.59
364.729	336.36
365.111	327.1
365.493	344.95
365.874	327.77
366.256	324.38
366.637	335.01
367.019	324.16
367.4	318.96
367.781	337.04
368.163	336.36
368.544	341.11
368.925	332.52
369.306	320.99
369.688	353.54
370.069	317.6
370.45	335.23
370.831	328.68
371.212	344.04
371.593	323.71
371.974	337.72
372.355	350.6
372.736	322.12
373.117	344.72
373.498	332.29
373.879	325.29
374.26	337.27
374.641	316.02
375.021	324.61
375.402	328.68
375.783	332.75
376.163	349.69
376.544	370.71
376.925	345.4
377.305	350.37
377.686	332.75
378.066	346.08
378.447	338.17
378.827	340.65
379.208	373.42
379.588	342.91
379.968	348.34
380.349	365.74
380.729	342.91
381.109	359.19
381.489	366.42
381.87	363.71
382.25	366.64
382.63	379.98
383.01	355.34
383.39	338.4
383.77	374.78
384.15	370.71
384.53	347.43
384.91	357.6
385.29	381.11
385.67	363.25
386.049	360.32
386.429	370.94
386.809	404.61
387.189	398.96
387.568	387.66
387.948	375.46
388.328	358.06
388.707	386.53
389.087	368.9
389.466	385.63
389.846	382.69
390.225	391.5
390.605	422.91
390.984	383.37
391.363	405.29
391.743	400.31
392.122	420.2
392.501	403.25
392.881	403.7
393.26	412.74
393.639	403.7
394.018	419.97
394.397	395.57
394.776	414.33
395.155	418.84
395.534	412.97
395.913	416.36
396.292	418.39
396.671	425.62
397.05	424.72
397.429	426.08
397.808	416.81
398.186	449.13
398.565	422.69
398.944	421.1
399.323	423.82
399.701	428.79
400.08	442.12
400.458	435.12
400.837	448.22
401.215	440.09
401.594	446.41
401.972	444.38
402.351	449.35
402.729	448.9
403.107	446.41
403.486	451.84
403.864	448.22
404.242	458.17
404.62	484.61
404.999	486.87
405.377	462.69
405.755	452.52
406.133	461.78
406.511	457.94
406.889	455
407.267	489.35
407.645	481.44
408.023	493.42
408.401	508.33
408.779	508.56
409.156	511.27
409.534	500.65
409.912	514.44
410.29	505.17
410.667	522.35
411.045	520.54
411.422	534.55
411.8	536.36
412.178	543.14
412.555	554.21
412.933	574.32
413.31	576.13
413.687	558.73
414.065	561.44
414.442	569.8
414.819	567.99
415.197	581.1
415.574	579.52
415.951	589.91
416.328	624.72
416.705	612.96
417.082	617.94
417.46	580.2
417.837	615.22
418.214	591.27
418.591	619.07
418.967	626.52
419.344	632.17
419.721	640.08
420.098	651.38
420.475	643.7
420.852	674.21
421.228	643.25
421.605	677.14
421.982	661.32
422.358	652.06
422.735	687.54
423.111	671.49
423.488	694.54
423.864	704.49
424.241	691.38
424.617	693.19
424.994	693.41
425.37	730.48
425.746	722.57
426.123	698.39
426.499	719.63
426.875	739.97
427.251	740.87
427.627	721.21
428.003	769.57
428.379	774.77
428.756	788.55
429.132	791.26
429.507	800.53
429.883	781.55
430.259	813.86
430.635	798.04
431.011	768.89
431.387	791.72
431.763	812.73
432.138	835.56
432.514	819.96
432.89	852.05
433.265	882.56
433.641	866.29
434.016	889.57
434.392	912.62
434.767	874.2
435.143	862.22
435.518	882.34
435.894	875.78
436.269	899.74
436.644	923.01
437.02	936.57
437.395	948.32
437.77	942
438.145	983.8
438.52	972.73
438.895	957.14
439.271	976.8
439.646	932.5
440.021	972.5
440.395	994.2
440.77	970.69
441.145	1014.31
441.52	1030.58
441.895	1045.72
442.27	1039.62
442.645	1033.97
443.019	1064.7
443.394	1052.05
443.769	1058.15
444.143	1040.3
444.518	1061.31
444.892	1052.27
445.267	1029
445.641	1061.09
446.016	1078.94
446.39	1123.01
446.764	1099.28
447.139	1102.22
447.513	1136.11
447.887	1126.85
448.262	1136.34
448.636	1083.23
449.01	1107.64
449.384	1113.52
449.758	1143.8
450.132	1114.65
450.506	1141.31
450.88	1190.35
451.254	1190.58
451.628	1197.58
452.002	1256.79
452.376	1219.05
452.75	1205.26
453.123	1221.76
453.497	1231.25
453.871	1170.01
454.244	1205.94
454.618	1201.42
454.992	1226.06
455.365	1275.32
455.739	1280.97
456.112	1329.78
456.486	1341.31
456.859	1319.39
457.232	1366.62
457.606	1339.95
457.979	1363.68
458.352	1327.75
458.725	1328.65
459.099	1310.8
459.472	1312.61
459.845	1363.9
460.218	1367.29
460.591	1403.9
460.964	1431.93
461.337	1471.47
461.71	1525.03
462.083	1497.91
462.456	1499.27
462.829	1497.01
463.201	1487.07
463.574	1480.51
463.947	1430.12
464.32	1480.06
464.692	1487.97
465.065	1516.9
465.438	1560.51
465.81	1608.64
466.183	1686.38
466.555	1682.77
466.928	1681.86
467.3	1729.32
467.672	1705.14
468.045	1719.38
468.417	1699.94
468.789	1670.11
469.161	1696.55
469.534	1675.31
469.906	1718.02
470.278	1727.51
470.65	1776.1
471.022	1848.64
471.394	1913.72
471.766	1974.06
472.138	1986.04
472.51	2019.25
472.882	2004.79
473.253	1996.43
473.625	1965.24
473.997	2002.31
474.369	1974.28
474.74	1953.27
475.112	1991.91
475.484	2012.7
475.855	2110.55
476.227	2174.05
476.598	2252.24
476.97	2289.08
477.341	2373.14
477.713	2407.49
478.084	2388.74
478.455	2435.97
478.827	2424.44
479.198	2409.98
479.569	2382.41
479.94	2394.61
480.311	2399.13
480.682	2463.54
481.053	2523.42
481.424	2612.01
481.795	2669.18
482.166	2743.3
482.537	2862.4
482.908	2949.4
483.279	2988.49
483.65	3013.35
484.021	3030.53
484.391	2970.87
484.762	2942.85
485.133	2895.39
485.503	2924.99
485.874	2960.7
486.244	2976.97
486.615	3111.43
486.985	3166.34
487.356	3313.91
487.726	3431.2
488.097	3544.86
488.467	3641.59
488.837	3705.99
489.207	3694.47
489.578	3681.81
489.948	3644.75
490.318	3628.7
490.688	3607.69
491.058	3587.8
491.428	3589.83
491.798	3583.73
492.168	3740.34
492.538	3797.97
492.908	3940.79
493.278	4075.92
493.648	4125.41
494.017	4214
494.387	4286.31
494.757	4371.28
495.126	4429.36
495.496	4323.83
495.866	4285.41
496.235	4203.15
496.605	4201.57
496.974	4170.38
497.344	4152.31
497.713	4129.71
498.082	4239.76
498.452	4369.02
498.821	4448.8
499.19	4554.56
499.559	4727.21
499.928	4800.88
500.298	4909.57
500.667	4911.83
501.036	4902.12
501.405	4844.04
501.774	4759.97
502.143	4668.22
502.512	4616.25
502.88	4565.85
503.249	4488.34
503.618	4512.52
503.987	4587.55
504.356	4665.51
504.724	4778.5
505.093	4910.48
505.462	5028.44
505.83	5204.48
506.199	5314.99
506.567	5353.4
506.936	5334.2
507.304	5353.4
507.672	5265.72
508.041	5183.69
508.409	5093.07
508.777	5039.74
509.145	4948.67
509.514	4865.51
509.882	4909.35
510.25	5001.32
510.618	5110.92
510.986	5247.64
511.354	5398.83
511.722	5528.77
512.09	5674.07
512.458	5735.99
512.826	5745.71
513.193	5747.07
513.561	5779.38
513.929	5648.99
514.297	5612.61
514.664	5515.89
515.032	5371.71
515.4	5320.18
515.767	5309.79
516.135	5276.8
516.502	5296.23
516.869	5479.73
517.237	5613.51
517.604	5738.03
517.972	5919.27
518.339	6034.52
518.706	6183.89
519.073	6250.1
519.44	6262.76
519.808	6273.15
520.175	6210.33
520.542	6146.38
520.909	6044.23
521.276	5885.37
521.643	5745.03
522.009	5688.99
522.376	5665.26
522.743	5729.67
523.11	5825.71
523.477	5979.6
523.843	6070.9
524.21	6332.59
524.577	6443.77
524.943	6710.88
525.31	6815.74
525.676	6962.4
526.043	6985.45
526.409	7036.98
526.776	6900.03
527.142	6826.59
527.508	6747.04
527.874	6617.55
528.241	6454.17
528.607	6446.26
528.973	6391.12
529.339	6328.97
529.705	6500.72
530.071	6582.07
530.437	6745.68
530.803	6920.14
531.169	7173.47
531.535	7366.46
531.901	7566.91
532.267	7686.45
532.632	7829.95
532.998	7838.54
533.364	7821.81
533.73	7699.56
534.095	7603.74
534.461	7478.09
534.826	7307.93
535.192	7143.19
535.557	7108.39
535.923	7030.42
536.288	7060.25
536.653	7203.3
537.019	7302.51
537.384	7507.25
537.749	7708.6
538.114	7971.19
538.479	8229.04
538.845	8398.52
539.21	8469.71
539.575	8518.52
539.94	8589.25
540.305	8552.64
540.67	8369.82
541.034	8257.06
541.399	8121.69
541.764	7964.86
542.129	7867.69
542.494	7782.72
542.858	7697.75
543.223	7669.5
543.587	7764.41
543.952	7856.62
544.316	8088.7
544.681	8283.72
545.045	8475.81
545.41	8706.76
545.774	8882.58
546.138	8992.63
546.503	9148.78
546.867	9189.24
547.231	9242.34
547.595	9167.09
547.959	9047.54
548.324	8845.29
548.688	8723.03
549.052	8546.77
549.416	8309.71
549.779	8243.05
550.143	8141.13
550.507	8206.89
550.871	8263.84
551.235	8266.77
551.599	8504.06
551.962	8686.2
552.326	8860.66
552.689	9125.73
553.053	9273.53
553.417	9415.22
553.78	9655.44
554.143	9663.8
554.507	9710.13
554.87	9624.03
555.234	9500.64
555.597	9363.69
555.96	9165.73
556.323	9001.22
556.686	8816.82
557.05	8623.6
557.413	8607.78
557.776	8555.35
558.139	8621.57
558.502	8705.63
558.865	8821.11
559.228	8963.93
559.59	9201.89
559.953	9504.26
560.316	9783.34
560.679	9931.82
561.041	10125.71
561.404	10262.88
561.767	10285.93
562.129	10172.71
562.492	10243.67
562.854	10058.37
563.217	9885.04
563.579	9678.71
563.941	9578.15
564.304	9362.56
564.666	9280.31
565.028	9102.91
565.39	9085.28
565.753	9167.09
566.115	9210.48
566.477	9366.41
566.839	9625.61
567.201	9751.48
567.563	10013.39
567.925	10354.4
568.287	10534.06
568.648	10770.89
569.01	10835.97
569.372	11037.55
569.734	11005.69
570.095	10999.58
570.457	10906.25
570.819	10761.17
571.18	10601.63
571.542	10444.12
571.903	10226.5
572.265	10033.73
572.626	9877.58
572.987	9787.64
573.349	9855.43
573.71	9907.86
574.071	10056.33
574.432	10245.71
574.794	10549.65
575.155	10732.92
575.516	11015.63
575.877	11302.17
576.238	11569.29
576.599	11886.79
576.96	12105.32
577.32	12177.86
577.681	12278.87
578.042	12410.17
578.403	12275.71
578.763	12206.78
579.124	12211.08
579.485	12173.11
579.845	11964.98
580.206	11879.79
580.566	11840.47
580.927	11886.79
581.287	11985.55
581.648	12161.59
582.008	12445.65
582.368	12792.3
582.728	13138.74
583.089	13506.64
583.449	14041.09
583.809	14515.42
584.169	15035.86
584.529	15510.88
584.889	16100.01
585.249	16490.74
585.609	16858.19
585.969	17488.23
586.329	17659.07
586.688	17986.29
587.048	18159.4
587.408	18344.48
587.768	18622.43
588.127	18809.1
588.487	18989.88
588.846	19473.94
589.206	19566.14
589.565	19853.36
589.925	20425.1
590.284	20803.17
590.643	21368.12
591.003	22163.81
591.362	22854.64
591.721	23495.98
592.08	24189.97
592.44	25001.93
592.799	25784.28
593.158	26423.81
593.517	27104.92
593.876	27722.99
594.235	28328.85
594.593	28709.85
594.952	29247.69
595.311	29445.43
595.67	29903.27
596.029	30485.4
596.387	30679.07
596.746	30842.68
597.104	31120.18
597.463	31420.06
597.822	31896.89
598.18	32158.8
598.538	32551.33
598.897	33274.25
599.255	33590.18
599.613	34686.64
599.972	35049.12
600.33	35802.1
600.688	36338.13
601.046	37176.3
601.404	37902.38
601.762	38526.32
602.12	39289.01
602.478	39826.4
602.836	40379.83
603.194	40527.17
603.552	40914.05
603.91	41054.61
604.268	41414.38
604.625	41443.3
604.983	41877.64
605.341	41784.99
605.698	42095.04
606.056	42412.09
606.413	42351.53
606.771	42784.28
607.128	43075.58
607.485	43199.19
607.843	43532.51
608.2	44118.26
608.557	44522.32
608.914	44847.96
609.272	45499.47
609.629	46079.11
609.986	46481.36
610.343	46752.77
610.7	47333.54
611.057	47556.59
611.414	47971.04
611.771	48093.75
612.127	48533.06
612.484	48483.34
612.841	48889.66
613.198	48803.79
613.554	48819.61
613.911	48865.03
614.267	48865.03
614.624	48858.48
614.98	48877.91
615.337	49199.03
615.693	48936.89
616.05	49026.61
616.406	49165.13
616.762	49211.69
617.118	49365.13
617.475	49503.2
617.831	49789.07
618.187	50123.53
618.543	50347.02
618.899	50669.5
619.255	50850.97
619.611	51005.31
619.967	51382.48
620.323	51572.3
620.678	51626.31
621.034	51710.38
621.39	51712.64
621.746	51819.08
622.101	52157.6
622.457	51903.37
622.812	51863.37
623.168	51899.3
623.523	51908.56
623.879	51866.76
624.234	51549.48
624.589	51581.57
624.945	51624.05
625.3	51613.66
625.655	51589.93
626.01	51574.34
626.365	51682.36
626.72	51685.52
627.075	51636.48
627.43	51768
627.785	51796.93
628.14	52033.53
628.495	52260.42
628.85	52355.11
629.205	52514.2
629.559	52713.52
629.914	52713.06
630.269	52722.33
630.623	52836.22
630.978	52758.71
631.332	52876.67
631.687	52895.66
632.041	52711.03
632.396	52685.04
632.75	52480.53
633.104	52478.72
633.459	52132.29
633.813	52036.7
634.167	51877.15
634.521	51796.93
634.875	51848.91
635.229	51761.68
635.583	51508.12
635.937	51665.41
636.291	51489.14
636.645	51707.21
636.999	51673.54
637.352	51786.99
637.706	51689.14
638.06	52064.04
638.413	52071.72
638.767	52132.06
639.121	52275.56
639.474	52111.95
639.828	52424.71
640.181	52513.97
640.534	52437.36
640.888	52360.3
641.241	52365.73
641.594	52351.72
641.947	52250.48
642.301	52143.36
642.654	52039.63
643.007	51989.47
643.36	51751.05
643.713	51568.46
644.066	51492.08
644.419	51260.45
644.771	50916.27
645.124	50566.9
645.477	50438.55
645.83	50168.72
646.182	50108.16
646.535	49990.2
646.888	50088.73
647.24	49975.28
647.593	50210.08
647.945	50277.87
648.298	50280.36
648.65	50307.7
649.002	50355.39
649.355	50660.69
649.707	50713.34
650.059	51017.06
650.411	51410.95
650.763	51469.71
651.115	51748.79
651.467	51685.75
651.819	51486.88
652.171	51498.63
652.523	51257.96
652.875	51135.48
653.227	50976.61
653.578	51131.86
653.93	50787.46
654.282	50566.45
654.633	50344.09
654.985	50241.94
655.337	50361.49
655.688	50143.19
656.039	50303.41
656.391	50021.38
656.742	50052.79
657.094	50137.76
657.445	50370.53
657.796	50314.71
658.147	50326.01
658.498	50436.96
658.849	50633.8
659.2	50553.8
659.551	50537.98
659.902	50902.04
660.253	50892.09
660.604	51051.19
660.955	50958.31
661.306	51082.6
661.656	50975.48
662.007	50978.42
662.358	51040.56
662.708	50917.18
663.059	50851.87
663.409	50537.75
663.76	50716.51
664.11	50582.05
664.461	50380.24
664.811	50218.67
665.161	50027.48
665.511	49817.77
665.862	49843.99
666.212	49888.5
666.562	49752.46
666.912	49605.57
667.262	49565.58
667.612	49600.38
667.962	49563.32
668.312	49692.58
668.662	49934.83
669.011	49955.17
669.361	49889.18
669.711	50171.66
670.06	50207.59
670.41	50293.47
670.76	50251.88
671.109	50522.39
671.459	50495.04
671.808	50532.1
672.157	50683.74
672.507	50516.96
672.856	50397.42
673.205	50500.24
673.554	50503.63
673.904	50230.87
674.253	50428.38
674.602	50201.94
674.951	49568.29
675.3	49259.59
675.649	49686.7
675.998	49605.12
676.346	49368.74
676.695	49270.67
677.044	49097.56
677.393	49060.5
677.741	49012.37
678.09	48967.62
678.438	48775.09
678.787	48868.64
679.135	48905.03
679.484	48765.82
679.832	48935.76
680.181	48863.67
680.529	49047.85
680.877	49109.32
681.225	49171.01
681.573	49429.99
681.922	49243.55
682.27	49435.86
682.618	49536.88
682.966	49430.21
683.314	49632.69
683.661	49439.02
684.009	49295.3
684.357	49286.71
684.705	49176.21
685.053	49139.15
685.4	49023.22
685.748	48763.34
686.095	48621.87
686.443	48346.85
686.79	48113.86
687.138	48126.52
687.485	48050.59
687.832	47712.97
688.18	47536.02
688.527	47254.9
688.874	47157.28
689.221	47101.91
689.568	46933.1
689.915	46836.83
690.262	46802.71
690.609	46801.13
690.956	46696.5
691.303	46752.99
691.65	46610.17
691.997	46802.26
692.344	46576.28
692.69	46736.27
693.037	46882.48
693.383	46773.33
693.73	47045.42
694.077	46932.42
694.423	46983.72
694.769	46736.5
695.116	46841.58
695.462	46826.44
695.808	46734.01
696.155	46742.6
696.501	46404.98
696.847	46167.7
697.193	45881.83
697.539	45881.38
697.885	45466.47
698.231	45313.71
698.577	45176.09
698.923	45031.68
699.269	44595.76
699.614	44299.5
699.96	44169.78
700.306	43904.03
700.651	43878.95
700.997	43632.85
701.342	43664.04
701.688	43528.67
702.033	43242.58
702.379	43376.81
702.724	43292.52
703.069	43505.4
703.415	43026.09
703.76	43261.33
704.105	43313.99
704.45	43362.57
704.795	43289.13
705.14	43207.78
705.485	43369.58
705.83	43250.49
706.175	43407.55
706.52	43295.23
706.865	43299.07
707.209	43388.56
707.554	43267.66
707.899	43299.07
708.243	42923.94
708.588	42948.12
708.932	42642.14
709.277	42517.4
709.621	42254.58
709.966	41998.32
710.31	42028.15
710.654	41581.15
710.998	41406.92
711.342	41440.82
711.687	41182.97
712.031	40900.94
712.375	40625.7
712.719	40650.78
713.063	40401.07
713.407	40495.08
713.75	40308.19
714.094	40368.08
714.438	40109.55
714.782	40155.43
715.125	40132.38
715.469	40186.61
715.812	40057.35
716.156	40061.87
716.499	40076.56
716.843	40326.5
717.186	40026.39
717.53	40332.37
717.873	40478.36
718.216	40407.62
718.559	40321.98
718.902	40232.94
719.246	40443.78
719.589	40322.43
719.932	40133.05
720.275	40152.94
720.617	40265.71
720.96	40016.67
721.303	40036.56
721.646	39976.45
721.989	39557.93
722.331	39717.92
722.674	39395
723.016	39238.16
723.359	39081.56
723.701	38955.46
724.044	38550.72
724.386	38342.37
724.729	38465.75
725.071	38121.13
725.413	37986.9
725.755	38000.23
726.097	37618.54
726.439	37534.93
726.782	37462.16
727.124	37663.74
727.465	37423.75
727.807	37508.04
728.149	37462.84
728.491	37541.03
728.833	37588.04
729.175	37654.7
729.516	37571.09
729.858	37625.32
730.199	37858.76
730.541	37750.29
730.882	37768.6
731.224	37922.04
731.565	37863.96
731.906	37893.57
732.248	38009.27
732.589	37923.4
732.93	37684.31
733.271	37805.21
733.612	37735.6
733.953	37802.04
734.294	37569.05
734.635	37383.07
734.976	37477.98
735.317	37231.44
735.658	37098.11
735.999	37004.1
736.339	36831.22
736.68	36738.79
737.021	36445.02
737.361	36266.04
737.702	36274.17
738.042	36126.83
738.383	35954.86
738.723	35992.82
739.063	35679.39
739.404	35758.93
739.744	35527.75
740.084	35443.46
740.424	35577.02
740.764	35409.56
741.104	35562.78
741.444	35489.56
741.784	35376.57
742.124	35460.41
742.464	35620.41
742.804	35606.39
743.143	35594.87
743.483	35673.96
743.823	35523.46
744.162	35747.86
744.502	35765.03
744.841	35680.74
745.181	36014.97
745.52	35827.86
745.86	35946.5
746.199	35873.73
746.538	35701.76
746.877	35839.83
747.216	35915.54
747.556	35679.61
747.895	35654.98
748.234	35435.78
748.573	35358.27
748.911	35185.39
749.25	34998.5
749.589	34944.04
749.928	34833.76
750.267	34756.47
750.605	34548.12
750.944	34311.29
751.283	34096.6
751.621	34015.7
751.96	33765.76
752.298	33559.44
752.636	33620.01
752.975	33244.87
753.313	33302.73
753.651	33381.14
753.989	33095.27
754.327	33064.54
754.666	32808.95
755.004	33016.18
755.342	33117.87
755.679	33134.37
756.017	32874.26
756.355	33030.64
756.693	32990.64
757.031	33145.22
757.368	33093.47
757.706	33170.98
758.044	33030.64
758.381	33092.56
758.719	33015.28
