Data from red_shiny_book_FLMS001491_00050.txt Node
Date: Wed Feb 08 15:24:55 GMT 2017
User: dcchb
Spectrometer: FLMS00149
Trigger mode: 0
Integration Time (sec): 2.000000E-2
Scans to average: 10
Electric dark correction enabled: true
Nonlinearity correction enabled: false
Boxcar width: 0
XAxis mode: Wavelengths
Number of Pixels in Spectrum: 2048
>>>>>Begin Spectral Data<<<<<
341.393	0.72
341.776	0.72
342.16	0.72
342.543	-60.97
342.927	-66.85
343.31	-59.62
343.693	-82.22
344.077	-37.92
344.46	-61.42
344.843	-42.67
345.226	-32.73
345.61	-43.57
345.993	-30.24
346.376	8.18
346.759	17.67
347.142	28.06
347.525	25.13
347.908	64
348.291	71
348.674	89.08
349.057	87.27
349.44	110.77
349.823	148.06
350.206	155.52
350.588	202.52
350.971	204.33
351.354	229.41
351.737	241.39
352.119	253.82
352.502	277.32
352.884	279.13
353.267	263.09
353.65	283.88
354.032	313.25
354.414	310.99
354.797	316.42
355.179	330.43
355.562	325.23
355.944	299.24
356.326	333.59
356.709	329.75
357.091	330.88
357.473	346.25
357.855	342.41
358.238	342.18
358.62	339.69
359.002	340.6
359.384	333.59
359.766	359.81
360.148	349.64
360.53	358.45
360.912	337.89
361.294	337.21
361.676	335.4
362.057	347.6
362.439	334.95
362.821	336.08
363.203	332.01
363.584	342.86
363.966	336.76
364.348	314.84
364.729	331.56
365.111	327.04
365.493	342.86
365.874	344.67
366.256	331.11
366.637	328.85
367.019	305.57
367.4	315.74
367.781	318.45
368.163	320.03
368.544	324.78
368.925	314.84
369.306	316.42
369.688	329.98
370.069	319.81
370.45	316.42
370.831	293.14
371.212	307.38
371.593	327.72
371.974	336.3
372.355	327.27
372.736	322.97
373.117	317.55
373.498	344.44
373.879	336.08
374.26	314.38
374.641	313.03
375.021	330.2
375.402	326.81
375.783	315.29
376.163	351.9
376.544	315.74
376.925	338.34
377.305	342.41
377.686	329.75
378.066	329.07
378.447	327.04
378.827	360.03
379.208	338.11
379.588	360.26
379.968	341.5
380.349	329.98
380.729	336.08
381.109	330.43
381.489	351.67
381.87	338.79
382.25	358.68
382.63	328.4
383.01	333.14
383.39	349.64
383.77	359.81
384.15	328.85
384.53	347.83
384.91	370.2
385.29	382.63
385.67	363.65
386.049	345.12
386.429	358.9
386.809	386.25
387.189	360.03
387.568	379.02
387.948	352.58
388.328	368.17
388.707	388.96
389.087	372.46
389.466	363.87
389.846	363.2
390.225	366.81
390.605	402.29
390.984	367.94
391.363	372.01
391.743	360.03
392.122	390.09
392.501	395.96
392.881	367.72
393.26	392.57
393.639	398
394.018	388.51
394.397	393.25
394.776	400.48
395.155	406.59
395.534	383.08
395.913	394.61
396.292	391.9
396.671	406.59
397.05	424.66
397.429	422.4
397.808	412.69
398.186	417.43
398.565	419.92
398.944	416.08
399.323	421.73
399.701	414.49
400.08	418.56
400.458	422.4
400.837	430.99
401.215	407.94
401.594	423.99
401.972	427.6
402.351	421.05
402.729	424.44
403.107	430.31
403.486	450.88
403.864	442.97
404.242	444.1
404.62	443.42
404.999	460.82
405.377	459.24
405.755	457.43
406.133	425.34
406.511	460.82
406.889	429.41
407.267	455.62
407.645	454.72
408.023	479.35
408.401	490.88
408.779	491.78
409.156	479.13
409.534	488.17
409.912	485
410.29	474.15
410.667	475.74
411.045	494.72
411.422	517.32
411.8	501.95
412.178	515.96
412.555	525.23
412.933	530.65
413.31	538.33
413.687	530.2
414.065	517.77
414.442	516.19
414.819	519.8
415.197	504.66
415.574	555.73
415.951	546.47
416.328	575.39
416.705	541.72
417.082	564.32
417.46	572.23
417.837	558.9
418.214	554.83
418.591	564.32
418.967	570.87
419.344	602.51
419.721	573.59
420.098	596.41
420.475	594.15
420.852	581.72
421.228	588.95
421.605	593.93
421.982	624.43
422.358	606.13
422.735	613.59
423.111	617.2
423.488	616.75
423.864	642.74
424.241	627.6
424.617	654.94
424.994	646.58
425.37	644.09
425.746	653.81
426.123	629.86
426.499	643.87
426.875	651.32
427.251	688.84
427.627	680.25
428.003	695.62
428.379	686.58
428.756	702.4
429.132	698.1
429.507	695.62
429.883	726.8
430.259	687.93
430.635	697.2
431.011	716.86
431.387	728.38
431.763	721.38
432.138	748.05
432.514	744.66
432.89	763.41
433.265	772.45
433.641	766.58
434.016	757.54
434.392	738.33
434.767	751.21
435.143	770.64
435.518	786.01
435.894	803.19
436.269	798.44
436.644	823.75
437.02	832.34
437.395	823.07
437.77	867.59
438.145	857.65
438.52	848.83
438.895	824.43
439.271	817.87
439.646	847.03
440.021	842.51
440.395	859.91
440.77	852.68
441.145	886.12
441.52	905.1
441.895	918.44
442.27	914.14
442.645	902.62
443.019	907.82
443.394	917.76
443.769	908.04
444.143	872.56
444.518	899.91
444.892	880.92
445.267	932.45
445.641	946.91
446.016	923.63
446.39	952.11
446.764	985.55
447.139	944.65
447.513	936.74
447.887	937.64
448.262	948.49
448.636	928.15
449.01	945.1
449.384	970.86
449.758	935.39
450.132	972.22
450.506	1004.99
450.88	990.3
451.254	1021.03
451.628	1005.89
452.002	1021.26
452.376	1016.74
452.75	1049.05
453.123	1002.28
453.497	1033.69
453.871	1018.09
454.244	1038.21
454.618	1063.07
454.992	1046.79
455.365	1049.05
455.739	1110.3
456.112	1112.56
456.486	1109.17
456.859	1129.28
457.232	1090.64
457.606	1096.06
457.979	1073.23
458.352	1080.01
458.725	1090.18
459.099	1117.75
459.472	1126.11
459.845	1130.18
460.218	1154.36
460.591	1181.03
460.964	1184.64
461.337	1213.8
461.71	1209.95
462.083	1232.1
462.456	1186.45
462.829	1167.7
463.201	1178.77
463.574	1172.67
463.947	1186.45
464.32	1217.19
464.692	1230.97
465.065	1249.5
465.438	1283.17
465.81	1300.57
466.183	1302.83
466.555	1313.45
466.928	1368.37
467.3	1331.08
467.672	1335.37
468.045	1361.81
468.417	1329.5
468.789	1317.97
469.161	1323.85
469.534	1350.52
469.906	1396.84
470.278	1433.9
470.65	1432.32
471.022	1452.21
471.394	1522.04
471.766	1539.44
472.138	1547.57
472.51	1559.55
472.882	1541.92
473.253	1517.74
473.625	1548.25
473.997	1517.52
474.369	1544.18
474.74	1528.82
475.112	1564.52
475.484	1663.73
475.855	1674.12
476.227	1712.99
476.598	1727.45
476.97	1779.88
477.341	1833.89
477.713	1830.5
478.084	1785.31
478.455	1807.45
478.827	1808.58
479.198	1856.26
479.569	1830.28
479.94	1856.94
480.311	1871.41
480.682	1922.93
481.053	1985.53
481.424	2058.97
481.795	2042.7
482.166	2135.81
482.537	2187.1
482.908	2217.61
483.279	2225.75
483.65	2228.23
484.021	2253.54
484.391	2230.94
484.762	2219.42
485.133	2224.84
485.503	2235.92
485.874	2287.21
486.244	2336.03
486.615	2413.99
486.985	2462.35
487.356	2548.9
487.726	2603.82
488.097	2668.22
488.467	2706.86
488.837	2707.99
489.207	2718.61
489.578	2680.42
489.948	2666.86
490.318	2690.59
490.688	2681.1
491.058	2712.51
491.428	2749.12
491.798	2801.55
492.168	2888.1
492.538	2939.63
492.908	3012.39
493.278	3071.15
493.648	3083.58
494.017	3145.5
494.387	3139.62
494.757	3151.82
495.126	3199.96
495.496	3144.59
495.866	3128.32
496.235	3102.79
496.605	3113.63
496.974	3104.14
497.344	3155.21
497.713	3178.26
498.082	3250.35
498.452	3371.93
498.821	3404.25
499.19	3477.24
499.559	3519.05
499.928	3539.84
500.298	3561.98
500.667	3592.26
501.036	3526.28
501.405	3547.29
501.774	3439.95
502.143	3429.56
502.512	3411.48
502.88	3420.29
503.249	3418.26
503.618	3447.86
503.987	3547.29
504.356	3576.22
504.724	3649.21
505.093	3718.36
505.462	3810.79
505.83	3843.78
506.199	3874.74
506.567	3919.49
506.936	3827.96
507.304	3831.13
507.672	3761.75
508.041	3694.63
508.409	3699.38
508.777	3643.56
509.145	3644.47
509.514	3688.53
509.882	3710.91
510.25	3799.94
510.618	3863.9
510.986	3924.46
511.354	4067.96
511.722	4134.17
512.09	4137.11
512.458	4166.26
512.826	4101.18
513.193	4101.18
513.561	4016.43
513.929	3997.68
514.297	3959.03
514.664	3928.53
515.032	3887.17
515.4	3921.3
515.767	3911.58
516.135	3970.79
516.502	4004
516.869	4091.69
517.237	4207.16
517.604	4239.7
517.972	4383.88
518.339	4386.59
518.706	4411.45
519.073	4380.94
519.44	4437.67
519.808	4372.13
520.175	4300.49
520.542	4224.11
520.909	4182.31
521.276	4109.31
521.643	4126.94
522.009	4161.06
522.376	4212.36
522.743	4246.26
523.11	4328.97
523.477	4374.62
523.843	4526.93
524.21	4666.81
524.577	4697.09
524.943	4776.41
525.31	4852.12
525.676	4888.05
526.043	4789.97
526.409	4800.59
526.776	4732.8
527.142	4650.77
527.508	4639.24
527.874	4602.18
528.241	4561.5
528.607	4572.13
528.973	4589.07
529.339	4625.68
529.705	4779.35
530.071	4896.86
530.437	5062.28
530.803	5152.22
531.169	5225.22
531.535	5311.32
531.901	5329.85
532.267	5433.12
532.632	5422.72
532.998	5381.37
533.364	5406.68
533.73	5242.39
534.095	5186.12
534.461	5220.47
534.826	5134.37
535.192	5116.52
535.557	5106.57
535.923	5176.18
536.288	5251.88
536.653	5358.55
537.019	5480.8
537.384	5553.12
537.749	5707.46
538.114	5818.87
538.479	5936.38
538.845	5971.64
539.21	5968.25
539.575	5919.21
539.94	5951.3
540.305	5926.44
540.67	5797.86
541.034	5692.77
541.399	5663.17
541.764	5708.59
542.129	5662.94
542.494	5556.73
542.858	5639.89
543.223	5739.78
543.587	5793.56
543.952	5891.86
544.316	6064.06
544.681	6216.83
545.045	6297.96
545.41	6446.88
545.774	6502.7
546.138	6521.23
546.503	6556.48
546.867	6497.05
547.231	6497.5
547.595	6400.1
547.959	6297.96
548.324	6202.82
548.688	6130.5
549.052	6042.6
549.416	5992.2
549.779	5939.77
550.143	5975.7
550.507	6106.1
550.871	6169.6
551.235	6236.04
551.599	6434
551.962	6536.82
552.326	6678.28
552.689	6813.87
553.053	6866.75
553.417	6876.47
553.78	6962.57
554.143	6845.29
554.507	6815.23
554.87	6762.8
555.234	6628.57
555.597	6545.18
555.96	6498.85
556.323	6372.53
556.686	6343.38
557.05	6342.7
557.413	6300.67
557.776	6353.55
558.139	6404.62
558.502	6550.15
558.865	6613.65
559.228	6785.17
559.59	6914.21
559.953	7008.67
560.316	7226.52
560.679	7251.83
561.041	7335.22
561.404	7332.28
561.767	7365.05
562.129	7292.05
562.492	7198.5
562.854	7124.15
563.217	6954.44
563.579	6862.23
563.941	6793.76
564.304	6691.84
564.666	6695.01
565.028	6671.96
565.39	6738.17
565.753	6838.28
566.115	6976.36
566.477	7071.72
566.839	7232.85
567.201	7396.23
567.563	7491.82
567.925	7745.15
568.287	7777.01
568.648	7910.57
569.01	7863.34
569.372	7977.91
569.734	7786.05
570.095	7856.11
570.457	7678.26
570.819	7566.62
571.18	7535.44
571.542	7435.1
571.903	7344.71
572.265	7299.51
572.626	7224.49
572.987	7225.16
573.349	7334.09
573.71	7471.26
574.071	7606.62
574.432	7810.68
574.794	8023.11
575.155	8218.81
575.516	8351.91
575.877	8529.99
576.238	8660.61
576.599	8871.67
576.96	8911.9
577.32	9010.88
577.681	9033.93
578.042	9052.69
578.403	8994.38
578.763	9027.6
579.124	8926.36
579.485	9021.5
579.845	8999.35
580.206	9004.33
580.566	9052.23
580.927	9243.64
581.287	9354.37
581.648	9649.73
582.008	9932.66
582.368	10199.55
582.728	10584.4
583.089	10904.16
583.449	11341.67
583.809	11790.47
584.169	12208.99
584.529	12499.83
584.889	12921.51
585.249	13181.39
585.609	13340.93
585.969	13773.69
586.329	14002.84
586.688	14277.86
587.048	14611.64
587.408	14837.39
587.768	15040.1
588.127	15326.65
588.487	15665.39
588.846	16099.96
589.206	16306.96
589.565	16755.99
589.925	17374.95
590.284	17828.95
590.643	18332.44
591.003	19061.69
591.362	19717.26
591.721	20304.14
592.08	20939.38
592.44	21541.62
592.799	22239.46
593.158	22704.08
593.517	23278.75
593.876	23764.39
594.235	24321.21
594.593	24685.72
594.952	25256.1
595.311	25478.69
595.67	25919.36
596.029	26460.59
596.387	26772.9
596.746	27169.27
597.104	27509.15
597.463	27945.3
597.822	28505.73
598.18	28780.3
598.538	29275.43
598.897	30009.42
599.255	30187.05
599.613	31338.43
599.972	31816.61
600.33	32345.41
600.688	32847.31
601.046	33541.31
601.404	34260.38
601.762	34699.92
602.12	35333.12
602.478	35848.82
602.836	36334.45
603.194	36505.98
603.552	36893.99
603.91	36924.04
604.268	37443.58
604.625	37784.36
604.983	38058.48
605.341	38032.26
605.698	38551.57
606.056	39008.73
606.413	39068.62
606.771	39439.68
607.128	39852.55
607.485	40109.27
607.843	40339.77
608.2	40996.48
608.557	41502.68
608.914	41871.71
609.272	42380.17
609.629	42889.54
609.986	43252.69
610.343	43514.83
610.7	44179.67
611.057	44390.51
611.414	44607.68
611.771	44986.43
612.127	45206.09
612.484	45254.67
612.841	45515.91
613.198	45443.82
613.554	45489.02
613.911	45775.56
614.267	45791.15
614.624	45927.2
614.98	45925.39
615.337	46183.69
615.693	46254.19
616.05	46434.3
616.406	46612.83
616.762	46764.91
617.118	46868.87
617.475	47147.28
617.831	47433.82
618.187	47697.77
618.543	47930.08
618.899	48345.89
619.255	48411.65
619.611	48643.51
619.967	48874.24
620.323	49055.48
620.678	49059.09
621.034	49119.43
621.39	49081.69
621.746	49196.04
622.101	49548.57
622.457	49153.1
622.812	49286.43
623.168	49318.52
623.523	49285.07
623.879	49310.61
624.234	49106.1
624.589	49245.98
624.945	49149.03
625.3	49237.17
625.655	49115.81
626.01	49306.54
626.365	49362.13
626.72	49438.52
627.075	49505.18
627.43	49676.93
627.785	49706.98
628.14	49963.47
628.495	50098.61
628.85	50179.51
629.205	50223.13
629.559	50457.7
629.914	50366.63
630.269	50501.99
630.623	50399.4
630.978	50355.55
631.332	50461.77
631.687	50517.13
632.041	50210.93
632.396	50373.86
632.75	50105.84
633.104	50195.56
633.459	49927.09
633.813	49760.99
634.167	49764.16
634.521	49671.73
634.875	49753.76
635.229	49700.43
635.583	49477.84
635.937	49598.06
636.291	49507.22
636.645	49626.76
636.999	49723.48
637.352	49820.2
637.706	49807.32
638.06	49966.86
638.413	49976.36
638.767	49928.22
639.121	50128.22
639.474	49918.28
639.828	50043.7
640.181	50109.01
640.534	50246.18
640.888	50096.58
641.241	49873.53
641.594	49957.82
641.947	49989.24
642.301	49657.72
642.654	49678.96
643.007	49562.36
643.36	49355.81
643.713	49231.29
644.066	49393.09
644.419	49016.15
644.771	48812.32
645.124	48471.54
645.477	48240.58
645.83	48100.92
646.182	47963.08
646.535	47995.62
646.888	48082.62
647.24	47925.56
647.593	48252.33
647.945	48224.31
648.298	48233.8
648.65	48196.06
649.002	48163.52
649.355	48436.06
649.707	48361.71
650.059	48420.01
650.411	48909.26
650.763	48986.78
651.115	49394.22
651.467	49229.48
651.819	49092.54
652.171	48937.51
652.523	48794.01
652.875	48644.87
653.227	48561.25
653.578	48660.68
653.93	48523.74
654.282	48301.82
654.633	48090.98
654.985	48129.17
655.337	48131.88
655.688	48091.89
656.039	48236.74
656.391	47854.15
656.742	48031.77
657.094	48033.58
657.445	48292.11
657.796	48247.36
658.147	48339.34
658.498	48292.33
658.849	48467.02
659.2	48611.19
659.551	48522.38
659.902	48743.17
660.253	48581.36
660.604	48787.91
660.955	48467.02
661.306	48773.22
661.656	48589.27
662.007	48645.77
662.358	48542.95
662.708	48446.9
663.059	48295.04
663.409	48077.2
663.76	48218.66
664.11	48017.31
664.461	48006.69
664.811	47984.77
665.161	47726.02
665.511	47676.3
665.862	47691.44
666.212	47775.06
666.562	47667.26
666.912	47669.75
667.262	47600.82
667.612	47490.55
667.962	47730.09
668.312	47648.06
668.662	47976.86
669.011	47883.98
669.361	47947.71
669.711	48049.4
670.06	47949.06
670.41	48022.96
670.76	47943.87
671.109	48206.23
671.459	48120.13
671.808	48093.24
672.157	48208.72
672.507	47883.98
672.856	48024.99
673.205	47978.67
673.554	47919.01
673.904	47605.12
674.253	47826.81
674.602	47718.79
674.951	47017.11
675.3	46764.24
675.649	47215.98
675.998	47124.68
676.346	47011.91
676.695	47153.6
677.044	46752.03
677.393	46968.75
677.741	46902.09
678.09	46752.71
678.438	46674.52
678.787	46744.35
679.135	46978.02
679.484	46668.19
679.832	46910.45
680.181	46760.39
680.529	47015.98
680.877	46870.9
681.225	46872.48
681.573	47341.4
681.922	47073.38
682.27	46975.3
682.618	47080.61
682.966	47086.49
683.314	47023.89
683.661	46970.33
684.009	46732.6
684.357	46769.66
684.705	46525.82
685.053	46545.71
685.4	46359.05
685.748	46049.9
686.095	46139.17
686.443	45777.6
686.79	45695.11
687.138	45685.85
687.485	45638.62
687.832	45358.85
688.18	45399.53
688.527	44961.57
688.874	44959.99
689.221	44799.99
689.568	44831.63
689.915	44631.19
690.262	44748.02
690.609	44717.74
690.956	44720.67
691.303	44696.95
691.65	44592.99
691.997	44649.26
692.344	44533.56
692.69	44602.71
693.037	44569.27
693.383	44372.43
693.73	44585.99
694.077	44260.57
694.423	44375.15
694.769	44383.73
695.116	44319.33
695.462	44165.89
695.808	44054.03
696.155	43955.27
696.501	43596.18
696.847	43599.8
697.193	43187.61
697.539	43305.12
697.885	42958.23
698.231	42661.75
698.577	42678.47
698.923	42359.38
699.269	42214.75
699.614	42025.38
699.96	41951.93
700.306	41853.41
700.651	41784.93
700.997	41399.18
701.342	41332.97
701.688	41377.26
702.033	41298.62
702.379	41430.37
702.724	41157.6
703.069	41355.57
703.415	40943.6
703.76	41119.41
704.105	41278.51
704.45	41136.36
704.795	40968
705.14	41008
705.485	40999.19
705.83	40859.08
706.175	41009.13
706.52	40875.58
706.865	40753.55
707.209	40824.96
707.554	40643.95
707.899	40643.95
708.243	40382.03
708.588	40307.91
708.932	39974.13
709.277	39967.13
709.621	39920.8
709.966	39537.53
710.31	39501.15
710.654	39054.16
710.998	39058.22
711.342	39105
711.687	38789.98
712.031	38570.78
712.375	38503.66
712.719	38558.58
713.063	38304.12
713.407	38501.85
713.75	38224.57
714.094	38183.9
714.438	38217.34
714.782	38239.04
715.125	38087.18
715.469	38220.51
715.812	38058.48
716.156	37920.85
716.499	37951.36
716.843	38115.88
717.186	37960.17
717.53	38314.74
717.873	38275.42
718.216	38181.64
718.559	38034.75
718.902	37864.36
719.246	38026.61
719.589	37896.45
719.932	37789.78
720.275	37762.89
720.617	37770.12
720.96	37527.87
721.303	37517.47
721.646	37442.45
721.989	37215.79
722.331	37272.96
722.674	37141.44
723.016	36947.55
723.359	36711.85
723.701	36656.03
724.044	36381.46
724.386	36244.74
724.729	36276.38
725.071	36017.4
725.413	36044.52
725.755	36002.03
726.097	35867.57
726.439	35589.62
726.782	35668.48
727.124	35729.95
727.465	35669.39
727.807	35662.38
728.149	35668.71
728.491	35587.81
728.833	35735.37
729.175	35739.44
729.516	35699.89
729.858	35639.56
730.199	35797.29
730.541	35828.7
730.882	35672.32
731.224	35802.26
731.565	35753.68
731.906	35716.62
732.248	35872.32
732.589	35591.87
732.93	35536.06
733.271	35538.32
733.612	35585.55
733.953	35417.42
734.294	35332.67
734.635	35095.16
734.976	35135.84
735.317	34963.19
735.658	34893.59
735.999	34747.15
736.339	34597.55
736.68	34645.91
737.021	34329.76
737.361	34125.92
737.702	34251.12
738.042	34185.13
738.383	34033.95
738.723	34153.49
739.063	33875.08
739.404	33961.86
739.744	33740.85
740.084	33787.85
740.424	33820.17
740.764	33721.87
741.104	33771.13
741.444	33659.72
741.784	33618.82
742.124	33755.76
742.464	33751.7
742.804	33750.57
743.143	33595.77
743.483	33768.42
743.823	33586.28
744.162	33757.12
744.502	33758.7
744.841	33712.15
745.181	33892.94
745.52	33700.63
745.86	33870.79
746.199	33654.52
746.538	33655.88
746.877	33753.73
747.216	33597.58
747.556	33432.16
747.895	33443.68
748.234	33266.74
748.573	33084.6
748.911	33108.55
749.25	33098.61
749.589	32585.17
749.928	32711.5
750.267	32650.48
750.605	32497.94
750.944	32350.15
751.283	32208.46
751.621	32234.9
751.96	31909.71
752.298	31903.38
752.636	31778.64
752.975	31658.42
753.313	31594.92
753.651	31755.14
753.989	31463.85
754.327	31516.28
754.666	31327.81
755.004	31426.79
755.342	31466.11
755.679	31401.02
756.017	31309.73
756.355	31389.5
756.693	31445.32
757.031	31396.5
757.368	31208.71
757.706	31389.95
758.044	31231.09
758.381	31318.99
758.719	31230.18
759.056	31375.26
759.394	31280.12
759.731	31076.97
760.068	30904.09
760.405	30938.21
