Data from red_cardboard_box_FLMS001491_00077.txt Node
Date: Wed Feb 08 11:33:06 GMT 2017
User: dcchb
Spectrometer: FLMS00149
Trigger mode: 0
Integration Time (sec): 2.000000E-2
Scans to average: 10
Electric dark correction enabled: true
Nonlinearity correction enabled: false
Boxcar width: 0
XAxis mode: Wavelengths
Number of Pixels in Spectrum: 2048
>>>>>Begin Spectral Data<<<<<
341.393	-20.65
341.776	-20.65
342.16	-20.65
342.543	-64.72
342.927	-46.86
343.31	-83.92
343.693	-62.68
344.077	-77.37
344.46	-63.81
344.843	-48.45
345.226	-52.96
345.61	-43.7
345.993	-16.58
346.376	-1.89
346.759	15.96
347.142	35.62
347.525	38.33
347.908	72.68
348.291	71.55
348.674	106.35
349.057	110.87
349.44	132.34
349.823	126.01
350.206	164.2
350.588	175.28
350.971	180.7
351.354	222.73
351.737	234.26
352.119	259.34
352.502	276.07
352.884	277.42
353.267	286.91
353.65	286.69
354.032	281.04
354.414	297.76
354.797	318.32
355.179	317.87
355.562	311.77
355.944	313.35
356.326	323.52
356.709	330.3
357.091	319.91
357.473	331.66
357.855	328.04
358.238	343.41
358.62	344.54
359.002	326.91
359.384	343.64
359.766	331.21
360.148	322.17
360.53	336.86
360.912	330.53
361.294	329.4
361.676	327.82
362.057	319.91
362.439	316.52
362.821	329.62
363.203	318.78
363.584	326.69
363.966	322.84
364.348	309.74
364.729	303.18
365.111	321.04
365.493	319
365.874	294.37
366.256	314.26
366.637	312
367.019	295.95
367.4	285.11
367.781	297.31
368.163	298.66
368.544	304.54
368.925	294.37
369.306	319.45
369.688	312
370.069	312.9
370.45	301.38
370.831	304.99
371.212	287.59
371.593	304.09
371.974	295.95
372.355	287.14
372.736	294.37
373.117	296.63
373.498	311.55
373.879	303.64
374.26	312.22
374.641	317.87
375.021	298.66
375.402	315.39
375.783	297.76
376.163	300.92
376.544	302.96
376.925	314.26
377.305	314.94
377.686	304.77
378.066	326.23
378.447	323.3
378.827	320.58
379.208	307.7
379.588	324.2
379.968	319.68
380.349	357.19
380.729	316.52
381.109	330.3
381.489	319.45
381.87	308.83
382.25	318.1
382.63	311.77
383.01	336.4
383.39	338.21
383.77	330.98
384.15	328.49
384.53	297.99
384.91	304.09
385.29	336.63
385.67	327.36
386.049	320.58
386.429	335.73
386.809	334.82
387.189	324.2
387.568	311.09
387.948	326.01
388.328	335.95
388.707	316.29
389.087	338.21
389.466	345.67
389.846	333.47
390.225	340.47
390.605	324.65
390.984	333.24
391.363	353.58
391.743	345.22
392.122	334.37
392.501	349.74
392.881	325.1
393.26	347.02
393.639	348.61
394.018	326.91
394.397	367.82
394.776	335.5
395.155	348.83
395.534	349.06
395.913	351.54
396.292	361.04
396.671	350.87
397.05	356.52
397.429	349.51
397.808	361.04
398.186	356.74
398.565	352.22
398.944	342.51
399.323	342.51
399.701	362.62
400.08	334.37
400.458	352.45
400.837	360.13
401.215	350.19
401.594	365.33
401.972	348.83
402.351	371.2
402.729	373.92
403.107	363.52
403.486	356.52
403.864	342.51
404.242	375.95
404.62	363.52
404.999	357.19
405.377	370.3
405.755	354.26
406.133	376.85
406.511	368.72
406.889	391.54
407.267	380.7
407.645	383.18
408.023	379.34
408.401	376.18
408.779	390.19
409.156	381.83
409.534	397.42
409.912	395.84
410.29	393.8
410.667	396.29
411.045	407.81
411.422	370.53
411.8	404.88
412.178	399.45
412.555	416.63
412.933	395.84
413.31	407.14
413.687	377.31
414.065	401.26
414.442	398.55
414.819	392.67
415.197	392.22
415.574	403.07
415.951	425.89
416.328	418.66
416.705	405.1
417.082	402.62
417.46	427.47
417.837	440.81
418.214	419.79
418.591	416.63
418.967	409.4
419.344	436.06
419.721	421.15
420.098	420.02
420.475	427.93
420.852	433.58
421.228	435.38
421.605	432.22
421.982	443.97
422.358	425.44
422.735	420.47
423.111	450.3
423.488	464.76
423.864	423.18
424.241	438.77
424.617	430.64
424.994	431.54
425.37	455.95
425.746	452.33
426.123	471.09
426.499	431.32
426.875	456.63
427.251	450.52
427.627	462.95
428.003	453.01
428.379	461.82
428.756	443.07
429.132	459.11
429.507	462.05
429.883	469.06
430.259	457.98
430.635	462.05
431.011	485.55
431.387	476.06
431.763	481.48
432.138	477.42
432.514	497.98
432.89	487.59
433.265	495.27
433.641	462.95
434.016	519.45
434.392	485.78
434.767	493.91
435.143	515.61
435.518	489.85
435.894	512.67
436.269	504.53
436.644	521.26
437.02	495.04
437.395	527.81
437.77	501.15
438.145	504.76
438.52	519.68
438.895	521.26
439.271	554.93
439.646	547.47
440.021	561.48
440.395	549.28
440.77	532.78
441.145	508.83
441.52	527.36
441.895	531.43
442.27	543.63
442.645	522.16
443.019	543.18
443.394	534.59
443.769	545.21
444.143	528.71
444.518	535.04
444.892	566.68
445.267	568.71
445.641	552.67
446.016	540.47
446.39	563.06
446.764	561.48
447.139	575.27
447.513	556.96
447.887	582.95
448.262	552.9
448.636	575.72
449.01	578.43
449.384	571.65
449.758	559.45
450.132	570.07
450.506	588.6
450.88	592.44
451.254	574.14
451.628	584.98
452.002	584.98
452.376	603.06
452.75	571.88
453.123	610.07
453.497	571.65
453.871	599.45
454.244	599.45
454.618	611.42
454.992	618.66
455.365	620.24
455.739	628.6
456.112	626.79
456.486	615.04
456.859	632.67
457.232	641.03
457.606	632.22
457.979	652.78
458.352	657.98
458.725	645.32
459.099	655.94
459.472	649.16
459.845	685.32
460.218	675.15
460.591	673.12
460.964	677.64
461.337	668.82
461.71	668.82
462.083	688.03
462.456	693.68
462.829	688.03
463.201	675.15
463.574	688.03
463.947	688.94
464.32	702.95
464.692	730.74
465.065	709.73
465.438	741.14
465.81	722.83
466.183	729.84
466.555	737.52
466.928	758.99
467.3	758.09
467.672	749.27
468.045	767.35
468.417	748.37
468.789	768.93
469.161	773.91
469.534	774.81
469.906	804.41
470.278	809.61
470.65	783.4
471.022	817.97
471.394	807.13
471.766	813.91
472.138	837.63
472.51	865.88
472.882	850.97
473.253	844.86
473.625	853.68
473.997	857.29
474.369	847.35
474.74	911.76
475.112	897.29
475.484	898.42
475.855	915.37
476.227	908.37
476.598	925.99
476.97	927.35
477.341	943.17
477.713	950.85
478.084	962.15
478.455	967.35
478.827	1004.41
479.198	998.53
479.569	1000.57
479.94	1013.22
480.311	1039.89
480.682	1039.66
481.053	1057.74
481.424	1077.18
481.795	1091.19
482.166	1101.13
482.537	1098.64
482.908	1106.33
483.279	1147
483.65	1144.52
484.021	1155.82
484.391	1171.41
484.762	1173.9
485.133	1191.75
485.503	1209.6
485.874	1193.78
486.244	1217.74
486.615	1257.28
486.985	1226.55
487.356	1260.9
487.726	1270.84
488.097	1317.85
488.467	1287.57
488.837	1311.52
489.207	1326.89
489.578	1349.03
489.948	1337.51
490.318	1372.31
490.688	1377.05
491.058	1411.4
491.428	1399.65
491.798	1425.87
492.168	1465.64
492.538	1449.14
492.908	1477.62
493.278	1488.69
493.648	1474.23
494.017	1481.68
494.387	1484.62
494.757	1505.41
495.126	1535.24
495.496	1528.46
495.866	1561.23
496.235	1532.76
496.605	1569.37
496.974	1588.8
497.344	1612.3
497.713	1615.92
498.082	1603.04
498.452	1614.79
498.821	1628.57
499.19	1654.11
499.559	1653.21
499.928	1664.28
500.298	1660.66
500.667	1686.65
501.036	1673.54
501.405	1712.19
501.774	1703.83
502.143	1719.42
502.512	1722.58
502.88	1743.37
503.249	1753.99
503.618	1749.7
503.987	1744.05
504.356	1809.59
504.724	1784.28
505.093	1817.95
505.462	1829.7
505.83	1798.06
506.199	1839.87
506.567	1879.19
506.936	1862.24
507.304	1872.63
507.672	1878.06
508.041	1848.68
508.409	1882.8
508.777	1916.02
509.145	1950.15
509.514	1940.43
509.882	1951.28
510.25	1937.94
510.618	1992.41
510.986	1933.42
511.354	2013.42
511.722	2008.68
512.09	1985.4
512.458	2002.35
512.826	2059.07
513.193	2066.75
513.561	2042.8
513.929	2069.47
514.297	2101.55
514.664	2083.02
515.032	2105.85
515.4	2126.86
515.767	2149.46
516.135	2149.69
516.502	2148.56
516.869	2198.5
517.237	2194.66
517.604	2197.82
517.972	2213.87
518.339	2237.82
518.706	2230.59
519.073	2234.88
519.44	2264.94
519.808	2300.65
520.175	2305.17
520.542	2337.93
520.909	2316.69
521.276	2368.89
521.643	2389.91
522.009	2401.89
522.376	2406.86
522.743	2406.86
523.11	2433.75
523.477	2429.91
523.843	2480.53
524.21	2508.1
524.577	2532.05
524.943	2520.07
525.31	2525.5
525.676	2565.05
526.043	2574.99
526.409	2610.47
526.776	2594.2
527.142	2608.21
527.508	2659.96
527.874	2691.6
528.241	2694.08
528.607	2680.97
528.973	2718.04
529.339	2734.08
529.705	2720.97
530.071	2756
530.437	2778.37
530.803	2784.02
531.169	2823.34
531.535	2777.92
531.901	2844.81
532.267	2853.63
532.632	2890.46
532.998	2858.6
533.364	2897.47
533.73	2898.14
534.095	2927.3
534.461	2947.86
534.826	2953.06
535.192	2972.49
535.557	2994.64
535.923	3004.58
536.288	2985.83
536.653	3063.34
537.019	3017.69
537.384	3064.24
537.749	3085.94
538.114	3054.07
538.479	3101.08
538.845	3116.22
539.21	3120.96
539.575	3113.28
539.94	3174.07
540.305	3185.14
540.67	3206.38
541.034	3196.67
541.399	3199.15
541.764	3222.66
542.129	3231.69
542.494	3226.05
542.858	3268.98
543.223	3241.64
543.587	3256.78
543.952	3329.77
544.316	3287.96
544.681	3308.53
545.045	3350.56
545.41	3351.24
545.774	3330.68
546.138	3376.55
546.503	3400.5
546.867	3437.79
547.231	3435.53
547.595	3421.07
547.959	3449.09
548.324	3520.95
548.688	3515.08
549.052	3539.48
549.416	3523.66
549.779	3546.71
550.143	3530.22
550.507	3572.7
550.871	3601.18
551.235	3613.61
551.599	3664.68
551.962	3657.22
552.326	3675.75
552.689	3691.12
553.053	3709.42
553.417	3693.6
553.78	3764.56
554.143	3720.04
554.507	3783.54
554.87	3868.97
555.234	3831.23
555.597	3815.41
555.96	3863.99
556.323	3899.25
556.686	3900.15
557.05	3966.14
557.413	3949.87
557.776	3991.45
558.139	4038.68
558.502	4056.76
558.865	4038.68
559.228	4078.45
559.59	4130.88
559.953	4168.62
560.316	4219.01
560.679	4246.58
561.041	4269.63
561.404	4287.26
561.767	4325.23
562.129	4348.73
562.492	4378.33
562.854	4439.35
563.217	4400.03
563.579	4496.97
563.941	4566.35
564.304	4553.47
564.666	4631.66
565.028	4638.66
565.39	4683.86
565.753	4687.93
566.115	4751.88
566.477	4769.51
566.839	4825.55
567.201	4871.88
567.563	4893.57
567.925	4947.58
568.287	4999.78
568.648	5004.76
569.01	5056.05
569.372	5129.95
569.734	5156.62
570.095	5228.03
570.457	5215.15
570.819	5284.75
571.18	5278.42
571.542	5371.07
571.903	5432.77
572.265	5478.19
572.626	5538.07
572.987	5573.33
573.349	5611.07
573.71	5632.31
574.071	5717.28
574.432	5783.72
574.794	5849.25
575.155	5863.26
575.516	5906.65
575.877	6002.24
576.238	6056.93
576.599	6073.65
576.96	6214.22
577.32	6178.51
577.681	6263.48
578.042	6295.79
578.403	6433.19
578.763	6477.49
579.124	6561.1
579.485	6650.81
579.845	6692.62
580.206	6733.52
580.566	6849.45
580.927	6912.95
581.287	7037.24
581.648	7085.83
582.008	7233.17
582.368	7303.45
582.728	7373.05
583.089	7486.05
583.449	7606.27
583.809	7671.58
584.169	7832.93
584.529	7954.51
584.889	8063.66
585.249	8135.07
585.609	8267.49
585.969	8368.51
586.329	8472.01
586.688	8682.62
587.048	8795.39
587.408	8931.66
587.768	9051.2
588.127	9219.11
588.487	9337.97
588.846	9552.21
589.206	9639.21
589.565	9822.26
589.925	10020.44
590.284	10198.29
590.643	10386.08
591.003	10575.91
591.362	10782.68
591.721	10937.48
592.08	11141.32
592.44	11328.88
592.799	11655.65
593.158	11693.62
593.517	11901.07
593.876	12212.02
594.235	12399.59
594.593	12636.42
594.952	12889.07
595.311	13070.98
595.67	13275.05
596.029	13656.96
596.387	13883.62
596.746	14146.44
597.104	14253.1
597.463	14494.45
597.822	14854.44
598.18	15067.77
598.538	15270.02
598.897	15653.97
599.255	15743.46
599.613	16243.78
599.972	16346.38
600.33	16754.28
600.688	16803.77
601.046	17137.77
601.404	17511.55
601.762	17657.08
602.12	18094.58
602.478	18317.4
602.836	18490.5
603.194	18625.87
603.552	19006.65
603.91	19071.73
604.268	19490.7
604.625	19675.56
604.983	20063.34
605.341	20116
605.698	20553.5
606.056	20745.13
606.413	20827.62
606.771	21193.26
607.128	21363.65
607.485	21528.39
607.843	21807.48
608.2	22177.41
608.557	22373.79
608.914	22525.2
609.272	22778.98
609.629	23128.12
609.986	23327.44
610.343	23413.31
610.7	23845.84
611.057	23704.6
611.414	24017.59
611.771	24259.39
612.127	24563.79
612.484	24665.26
612.841	24907.96
613.198	24950.67
613.554	25204.68
613.911	25439.7
614.267	25543.2
614.624	25704.1
614.98	25874.94
615.337	25975.73
615.693	26113.35
616.05	26279
616.406	26601.7
616.762	26607.8
617.118	26690.51
617.475	26808.02
617.831	27039.43
618.187	27262.48
618.543	27377.95
618.899	27537.27
619.255	27593.54
619.611	27767.09
619.967	27947.88
620.323	28031.49
620.678	28041.89
621.034	28097.93
621.39	28137.93
621.746	28218.83
622.101	28619.5
622.457	28417.47
622.812	28595.55
623.168	28794.41
623.523	28870.12
623.879	28937.69
624.234	29005.03
624.589	29097.23
624.945	29046.84
625.3	29304.91
625.655	29229.66
626.01	29396.2
626.365	29429.42
626.72	29490.67
627.075	29540.38
627.43	29653.15
627.785	29568.86
628.14	29786.93
628.495	29837.55
628.85	29747.61
629.205	29779.92
629.559	30023.98
629.914	29922.97
630.269	29907.83
630.623	29936.76
630.978	29866.47
631.332	30140.14
631.687	30219.01
632.041	30148.5
632.396	30211.55
632.75	30150.53
633.104	30159.57
633.459	30139.46
633.813	30135.85
634.167	30203.87
634.521	30202.51
634.875	30322.51
635.229	30323.41
635.583	30272.79
635.937	30285.67
636.291	30070.31
636.645	30263.07
636.999	30231.89
637.352	30268.5
637.706	30176.07
638.06	30247.03
638.413	30291.77
638.767	30162.51
639.121	30381.72
639.474	30173.13
639.828	30252.45
640.181	30284.99
640.534	30290.19
640.888	30368.83
641.241	30184.43
641.594	30328.61
641.947	30381.26
642.301	30308.72
642.654	30348.27
643.007	30262.62
643.36	30204.32
643.713	30352.56
644.066	30416.52
644.419	30193.92
644.771	29961.39
645.124	29783.99
645.477	29649.76
645.83	29576.09
646.182	29447.28
646.535	29513.49
646.888	29612.47
647.24	29491.12
647.593	29632.81
647.945	29603.43
648.298	29593.04
648.65	29465.81
649.002	29427.84
649.355	29554.62
649.707	29465.81
650.059	29532.47
650.411	29953.48
650.763	30110.76
651.115	30419.68
651.467	30295.62
651.819	30151.89
652.171	30196.41
652.523	30232.34
652.875	30216.07
653.227	30244.77
653.578	30413.13
653.93	30281.83
654.282	30128.84
654.633	30061.95
654.985	30155.73
655.337	30243.87
655.688	30166.13
656.039	30229.18
656.391	30002.74
656.742	30004.55
657.094	30062.18
657.445	30121.84
657.796	30072.34
658.147	30033.48
658.498	29985.79
658.849	30116.86
659.2	30079.35
659.551	29984.44
659.902	30184.21
660.253	30205.45
660.604	30101.95
660.955	29911.67
661.306	30133.59
661.656	29979.24
662.007	30199.35
662.358	30010.65
662.708	30134.04
663.059	30138.33
663.409	29908.73
663.76	30113.02
664.11	30169.97
664.461	30130.2
664.811	30235.5
665.161	30105.34
665.511	30044.1
665.862	30064.21
666.212	30193.25
666.562	30159.57
666.912	30168.61
667.262	30096.53
667.612	30038.67
667.962	30111.44
668.312	30082.06
668.662	30247.03
669.011	30211.32
669.361	30189.4
669.711	30189.86
670.06	30025.57
670.41	30041.61
670.76	29931.56
671.109	30196.64
671.459	30043.87
671.808	29984.44
672.157	30076.64
672.507	29897.21
672.856	29959.58
673.205	29963.42
673.554	30051.78
673.904	29954.38
674.253	30113.93
674.602	29919.35
674.951	29605.69
675.3	29383.55
675.649	29858.11
675.998	29924.78
676.346	29855.63
676.695	30000.26
677.044	29816.53
677.393	29891.56
677.741	29765.69
678.09	29899.02
678.438	29614.5
678.787	29760.04
679.135	29879.13
679.484	29595.75
679.832	29627.16
680.181	29549.87
680.529	29726.37
680.877	29579.7
681.225	29492.25
681.573	29625.8
681.922	29551.91
682.27	29352.59
682.618	29431.46
682.966	29259.94
683.314	29462.64
683.661	29288.86
684.009	29183.33
684.357	29114.63
684.705	29094.74
685.053	29213.61
685.4	29062.43
685.748	28979.49
686.095	28831.93
686.443	28832.15
686.79	28815.65
687.138	28835.77
687.485	28862.66
687.832	28755.77
688.18	28807.52
688.527	28628.99
688.874	28574.98
689.221	28553.29
689.568	28502.22
689.915	28319.85
690.262	28448.66
690.609	28282.34
690.956	28225.61
691.303	28222
691.65	28033.98
691.997	28073.53
692.344	27815.68
692.69	27871.05
693.037	27941.33
693.383	27700.66
693.73	27770.03
694.077	27665.63
694.423	27596.03
694.769	27630.83
695.116	27558.06
695.462	27526.88
695.808	27340.21
696.155	27460.66
696.501	27245.53
696.847	27245.3
697.193	27045.08
697.539	27184.29
697.885	26789.72
698.231	26871.07
698.577	26855.71
698.923	26901.35
699.269	26691.64
699.614	26558.31
699.96	26566.22
700.306	26581.82
700.651	26390.18
700.997	26468.37
701.342	26296.62
701.688	26293.24
702.033	26165.1
702.379	26243.97
702.724	26120.58
703.069	26076.29
703.415	25793.81
703.76	25886.24
704.105	25869.52
704.45	25782.51
704.795	25751.55
705.14	25651.22
705.485	25552.46
705.83	25491
706.175	25563.31
706.52	25467.95
706.865	25387.04
707.209	25416.87
707.554	25366.48
707.899	25325.13
708.243	25151.12
708.588	25201.51
708.932	24923.78
709.277	24945.25
709.621	25017.34
709.966	24886.94
710.31	24901.63
710.654	24660.51
710.998	24791.35
711.342	24697.12
711.687	24661.41
712.031	24543.22
712.375	24523.79
712.719	24409.44
713.063	24448.31
713.407	24521.3
713.75	24409.67
714.094	24424.81
714.438	24349.33
714.782	24394.98
715.125	24185.04
715.469	24336.68
715.812	24103.91
716.156	24033.41
716.499	23993.18
716.843	24045.84
717.186	23813.98
717.53	24060.3
717.873	24018.27
718.216	23795.45
718.559	23748.44
718.902	23625.96
719.246	23650.14
719.589	23678.61
719.932	23537.83
720.275	23578.96
720.617	23393.88
720.96	23523.82
721.303	23560.43
721.646	23498.73
721.989	23253.99
722.331	23495.34
722.674	23326.76
723.016	23378.51
723.359	23381.22
723.701	23379.64
724.044	23185.07
724.386	23096.26
724.729	23239.53
725.071	23117.05
725.413	23103.71
725.755	23046.31
726.097	22980.78
726.439	22941.01
726.782	22908.69
727.124	23054.22
727.465	22954.11
727.807	22829.15
728.149	22883.61
728.491	22771.07
728.833	22860.11
729.175	22736.27
729.516	22649.04
729.858	22613.33
730.199	22540.79
730.541	22612.2
730.882	22678.64
731.224	22644.52
731.565	22552.77
731.906	22538.53
732.248	22505.31
732.589	22412.89
732.93	22424.18
733.271	22326.56
733.612	22401.59
733.953	22303.28
734.294	22298.09
734.635	22304.41
734.976	22334.47
735.317	22178.54
735.658	22193.68
735.999	22244.53
736.339	22103.74
736.68	22209.27
737.021	22054.25
737.361	21968.83
737.702	22167.02
738.042	22027.81
738.383	21985.33
738.723	22017.42
739.063	21861.94
739.404	22061.93
739.744	22030.3
740.084	21836.18
740.424	21823.75
740.764	21736.29
741.104	21762.73
741.444	21720.93
741.784	21613.58
742.124	21764.09
742.464	21692.23
742.804	21631.44
743.143	21636.18
743.483	21570.65
743.823	21525.68
744.162	21512.12
744.502	21595.96
744.841	21484.1
745.181	21535.62
745.52	21417.21
745.86	21561.83
746.199	21379.47
746.538	21421.5
746.877	21375.62
747.216	21292.91
747.556	21352.8
747.895	21413.82
748.234	21245.91
748.573	21159.58
748.911	21127.04
749.25	21263.54
749.589	21095.63
749.928	21137.44
750.267	21016.76
750.605	21057.21
750.944	21101.06
751.283	20946.03
751.621	20956.65
751.96	20875.98
752.298	20861.97
752.636	20858.35
752.975	20786.26
753.313	20680.28
753.651	20814.28
753.989	20633.05
754.327	20595.31
754.666	20603.22
755.004	20555.08
755.342	20494.74
755.679	20455.2
756.017	20385.37
756.355	20467.63
756.693	20404.58
757.031	20477.57
757.368	20297.01
757.706	20195.77
758.044	20208.42
758.381	20146.28
758.719	20146.73
759.056	20219.04
759.394	19991.48
759.731	20008.2
760.068	19949.67
760.405	19833.52
760.743	19834.65
761.08	19847.53
761.417	19713.07
