Data from red_cardboard_box_FLMS001491_00025.txt Node
Date: Wed Feb 08 11:31:46 GMT 2017
User: dcchb
Spectrometer: FLMS00149
Trigger mode: 0
Integration Time (sec): 2.000000E-2
Scans to average: 10
Electric dark correction enabled: true
Nonlinearity correction enabled: false
Boxcar width: 0
XAxis mode: Wavelengths
Number of Pixels in Spectrum: 2048
>>>>>Begin Spectral Data<<<<<
341.393	-31.02
341.776	-31.02
342.16	-31.02
342.543	-52.48
342.927	-80.05
343.31	-72.14
343.693	-94.52
344.077	-67.85
344.46	-55.87
344.843	-79.38
345.226	-41.41
345.61	-27.63
345.993	-9.77
346.376	-0.06
346.759	7.63
347.142	37.68
347.525	47.4
347.908	64.8
348.291	83.78
348.674	92.82
349.057	114.52
349.44	122.65
349.823	131.69
350.206	165.81
350.588	187.96
350.971	208.07
351.354	245.13
351.737	245.13
352.119	261.63
352.502	262.54
352.884	274.29
353.267	305.25
353.65	302.53
354.032	308.41
354.414	317.22
354.797	317.9
355.179	324
355.562	322.65
355.944	350.67
356.326	351.35
356.709	343.89
357.091	359.93
357.473	361.97
357.855	354.74
358.238	351.12
358.62	360.39
359.002	347.28
359.384	346.6
359.766	343.21
360.148	355.41
360.53	337.34
360.912	355.87
361.294	325.58
361.676	331.01
362.057	324.68
362.439	346.83
362.821	330.1
363.203	340.27
363.584	331.46
363.966	318.58
364.348	314.74
364.729	339.6
365.111	326.26
365.493	324.23
365.874	312.93
366.256	332.59
366.637	320.16
367.019	330.56
367.4	302.99
367.781	333.95
368.163	327.62
368.544	324.45
368.925	324.23
369.306	328.52
369.688	306.83
370.069	308.64
370.45	327.62
370.831	314.96
371.212	316.77
371.593	306.15
371.974	305.92
372.355	303.44
372.736	289.43
373.117	325.36
373.498	341.63
373.879	309.99
374.26	335.3
374.641	326.26
375.021	309.09
375.402	328.07
375.783	312.48
376.163	297.11
376.544	315.19
376.925	326.04
377.305	313.38
377.686	329.88
378.066	318.58
378.447	345.92
378.827	352.48
379.208	314.51
379.588	334.4
379.968	302.99
380.349	329.43
380.729	320.16
381.109	322.65
381.489	335.75
381.87	330.1
382.25	355.41
382.63	342.99
383.01	335.75
383.39	328.97
383.77	343.89
384.15	346.38
384.53	331.01
384.91	354.51
385.29	338.01
385.67	347.96
386.049	352.7
386.429	342.31
386.809	351.57
387.189	368.75
387.568	361.52
387.948	345.47
388.328	355.87
388.707	346.15
389.087	370.33
389.466	343.66
389.846	358.8
390.225	349.31
390.605	345.47
390.984	368.3
391.363	357.22
391.743	351.35
392.122	361.97
392.501	358.58
392.881	360.39
393.26	362.65
393.639	372.14
394.018	383.89
394.397	364.23
394.776	370.78
395.155	368.3
395.534	357.67
395.913	373.04
396.292	362.19
396.671	380.27
397.05	377.33
397.429	375.53
397.808	379.14
398.186	385.02
398.565	389.76
398.944	366.49
399.323	374.62
399.701	383.89
400.08	375.53
400.458	380.95
400.837	389.99
401.215	375.07
401.594	374.4
401.972	387.73
402.351	392.7
402.729	387.05
403.107	395.41
403.486	397.45
403.864	406.94
404.242	391.8
404.62	409.65
404.999	416.66
405.377	415.07
405.755	422.76
406.133	417.79
406.511	414.4
406.889	401.06
407.267	397.22
407.645	399.48
408.023	427.5
408.401	416.66
408.779	424.79
409.156	416.43
409.534	404.9
409.912	432.25
410.29	461.85
410.667	447.84
411.045	428.41
411.422	427.95
411.8	448.52
412.178	454.62
412.555	443.32
412.933	452.36
413.31	461.17
413.687	432.25
414.065	459.59
414.442	446.71
414.819	460.72
415.197	464.11
415.574	466.6
415.951	458.69
416.328	458.46
416.705	470.89
417.082	476.32
417.46	459.82
417.837	479.93
418.214	482.87
418.591	481.96
418.967	459.14
419.344	496.88
419.721	497.56
420.098	492.36
420.475	496.2
420.852	500.72
421.228	492.81
421.605	478.8
421.982	474.73
422.358	486.26
422.735	511.57
423.111	496.65
423.488	511.57
423.864	523.77
424.241	499.59
424.617	520.83
424.994	528.52
425.37	498.46
425.746	545.92
426.123	549.08
426.499	518.12
426.875	538.23
427.251	533.26
427.627	542.3
428.003	529.87
428.379	537.1
428.756	561.06
429.132	552.25
429.507	566.71
429.883	556.99
430.259	556.54
430.635	578.69
431.011	570.55
431.387	583.21
431.763	594.73
432.138	611.45
432.514	601.28
432.89	604.9
433.265	590.89
433.641	586.37
434.016	603.09
434.392	606.71
434.767	611.23
435.143	621.85
435.518	632.7
435.894	627.05
436.269	614.84
436.644	651
437.02	647.84
437.395	641.96
437.77	654.62
438.145	615.52
438.52	660.04
438.895	669.53
439.271	670.66
439.646	671.11
440.021	669.08
440.395	680.83
440.77	665.24
441.145	682.64
441.52	679.02
441.895	675.18
442.27	679.25
442.645	690.55
443.019	692.81
443.394	705.24
443.769	683.54
444.143	701.39
444.518	700.72
444.892	731
445.267	706.37
445.641	713.15
446.016	727.16
446.39	698
446.764	723.99
447.139	728.06
447.513	715.86
447.887	740.04
448.262	723.99
448.636	735.97
449.01	727.61
449.384	729.42
449.758	745.23
450.132	759.25
450.506	738.23
450.88	744.1
451.254	758.34
451.628	758.12
452.002	758.12
452.376	803.09
452.75	784.56
453.123	788.17
453.497	790.88
453.871	768.51
454.244	804.67
454.618	791.11
454.992	832.01
455.365	784.1
455.739	804.67
456.112	823.2
456.486	841.5
456.859	874.72
457.232	848.51
457.606	853.71
457.979	864.78
458.352	871.33
458.725	887.38
459.099	879.24
459.472	888.06
459.845	885.34
460.218	912.91
460.591	921.95
460.964	889.64
461.337	916.76
461.71	940.03
462.083	932.57
462.456	924.44
462.829	924.89
463.201	966.47
463.574	964.21
463.947	966.25
464.32	1015.28
464.692	982.97
465.065	994.27
465.438	1002.4
465.81	1001.5
466.183	1017.77
466.555	1039.24
466.928	1032.46
467.3	1048.96
467.672	1022.29
468.045	1046.92
468.417	1064.1
468.789	1067.03
469.161	1074.49
469.534	1106.13
469.906	1117.65
470.278	1128.05
470.65	1135.73
471.022	1136.41
471.394	1148.39
471.766	1157.43
472.138	1185.22
472.51	1195.39
472.882	1165.79
473.253	1230.65
473.625	1223.19
473.997	1264.54
474.369	1264.54
474.74	1255.28
475.112	1262.06
475.484	1285.79
475.855	1309.51
476.227	1316.52
476.598	1336.63
476.97	1357.65
477.341	1371.21
477.713	1357.2
478.084	1393.35
478.455	1432.45
478.827	1424.76
479.198	1487.14
479.569	1477.87
479.94	1482.84
480.311	1479.23
480.682	1547.02
481.053	1554.03
481.424	1565.33
481.795	1594.25
482.166	1607.81
482.537	1640.58
482.908	1639.22
483.279	1676.51
483.65	1665.89
484.021	1694.36
484.391	1742.5
484.762	1775.94
485.133	1816.17
485.503	1807.81
485.874	1829.27
486.244	1808.26
486.615	1871.31
486.985	1867.24
487.356	1896.16
487.726	1901.59
488.097	1954.92
488.467	1985.2
488.837	1998.99
489.207	2051.19
489.578	2035.82
489.948	2045.31
490.318	2100.68
490.688	2075.14
491.058	2139.32
491.428	2142.71
491.798	2154.46
492.168	2213.22
492.538	2215.48
492.908	2229.72
493.278	2237.4
493.648	2267.23
494.017	2313.1
494.387	2300.22
494.757	2370.28
495.126	2366.89
495.496	2362.14
495.866	2383.61
496.235	2394.46
496.605	2441.01
496.974	2464.29
497.344	2472.19
497.713	2465.87
498.082	2455.25
498.452	2491.4
498.821	2517.84
499.19	2534.57
499.559	2564.85
499.928	2583.15
500.298	2586.32
500.667	2630.38
501.036	2636.03
501.405	2652.76
501.774	2645.98
502.143	2694.79
502.512	2688.23
502.88	2697.27
503.249	2727.1
503.618	2768.68
503.987	2744.05
504.356	2803.03
504.724	2821.34
505.093	2787.44
505.462	2824.73
505.83	2877.61
506.199	2868.57
506.567	2885.97
506.936	2904.73
507.304	2929.36
507.672	2967.78
508.041	2975.46
508.409	2991.28
508.777	2999.19
509.145	3051.61
509.514	3059.3
509.882	3061.33
510.25	3042.12
510.618	3114.21
510.986	3106.53
511.354	3166.19
511.722	3197.15
512.09	3186.98
512.458	3218.84
512.826	3224.94
513.193	3270.82
513.561	3243.25
513.929	3302.68
514.297	3349.23
514.664	3334.32
515.032	3363.92
515.4	3369.57
515.767	3426.29
516.135	3439.63
516.502	3489.57
516.869	3501.09
517.237	3510.59
517.604	3549.91
517.972	3533.64
518.339	3602.11
518.706	3567.08
519.073	3608.44
519.44	3636.23
519.808	3689.11
520.175	3620.19
520.542	3710.35
520.909	3765.95
521.276	3774.99
521.643	3767.53
522.009	3822.22
522.376	3820.18
522.743	3896.56
523.11	3965.71
523.477	3970.91
523.843	3992.38
524.21	4009.56
524.577	4061.98
524.943	4117.58
525.31	4111.02
525.676	4118.48
526.043	4159.38
526.409	4212.04
526.776	4226.73
527.142	4250.45
527.508	4266.72
527.874	4314.41
528.241	4298.59
528.607	4311.24
528.973	4386.72
529.339	4400.51
529.705	4402.77
530.071	4478.7
530.437	4492.48
530.803	4543.78
531.169	4579.94
531.535	4568.18
531.901	4570.67
532.267	4642.99
532.632	4604.79
532.998	4632.59
533.364	4689.76
533.73	4712.59
534.095	4784.22
534.461	4780.61
534.826	4837.1
535.192	4866.48
535.557	4865.8
535.923	4868.52
536.288	4914.39
536.653	4967.72
537.019	4906.48
537.384	5009.3
537.749	4958.23
538.114	4999.36
538.479	5068.51
538.845	5056.53
539.21	5090.88
539.575	5095.18
539.94	5136.76
540.305	5159.81
540.67	5193.93
541.034	5192.12
541.399	5264.66
541.764	5249.75
542.129	5267.83
542.494	5298.34
542.858	5347.37
543.223	5361.16
543.587	5421.95
543.952	5360.03
544.316	5407.26
544.681	5387.6
545.045	5436.64
545.41	5473.7
545.774	5506.24
546.138	5530.42
546.503	5558.67
546.867	5548.5
547.231	5619.46
547.595	5663.52
547.959	5722.05
548.324	5695.84
548.688	5714.37
549.052	5768.15
549.416	5746.23
549.779	5821.94
550.143	5811.54
550.507	5892.44
550.871	5932.44
551.235	5900.58
551.599	6028.49
551.962	5993.91
552.326	6021.03
552.689	6069.39
553.053	6105.77
553.417	6123.62
553.78	6187.58
554.143	6201.14
554.507	6242.94
554.87	6268.03
555.234	6320.23
555.597	6339.21
555.96	6384.86
556.323	6396.16
556.686	6507.12
557.05	6559.77
557.413	6591.18
557.776	6595.93
558.139	6657.4
558.502	6697.85
558.865	6685.19
559.228	6868.92
559.59	6809.71
559.953	6865.3
560.316	6951.85
560.679	7044.5
561.041	7052.19
561.404	7204.73
561.767	7193.65
562.129	7231.39
562.492	7270.71
562.854	7324.5
563.217	7414.66
563.579	7382.8
563.941	7531.72
564.304	7616.01
564.666	7679.06
565.028	7764.71
565.39	7786.63
565.753	7830.47
566.115	7924.71
566.477	7987.53
566.839	8047.42
567.201	8134.87
567.563	8167.64
567.925	8291.48
568.287	8299.16
568.648	8387.29
569.01	8494.86
569.372	8586.61
569.734	8648.76
570.095	8724.01
570.457	8799.26
570.819	8888.98
571.18	8986.15
571.542	9112.02
571.903	9186.82
572.265	9262.75
572.626	9285.35
572.987	9430.88
573.349	9518.11
573.71	9615.96
574.071	9700.03
574.432	9800.59
574.794	9935.95
575.155	9959.46
575.516	10024.76
575.877	10197.64
576.238	10252.1
576.599	10531.64
576.96	10533.45
577.32	10633.79
577.681	10760.11
578.042	10878.75
578.403	11082.36
578.763	11157.84
579.124	11314.9
579.485	11390.83
579.845	11553.99
580.206	11723.93
580.566	11833.98
580.927	11918.27
581.287	12084.15
581.648	12287.76
582.008	12462.67
582.368	12556.45
582.728	12777.91
583.089	12971.35
583.449	13021.97
583.809	13324.34
584.169	13547.38
584.529	13684.33
584.889	13925
585.249	14086.13
585.609	14234.37
585.969	14551.43
586.329	14842.27
586.688	15063.5
587.048	15204.52
587.408	15512.53
587.768	15670.27
588.127	15900.09
588.487	16180.54
588.846	16606.96
589.206	16798.6
589.565	17086.5
589.925	17549.54
590.284	17679.93
590.643	18061.62
591.003	18307.03
591.362	18629.06
591.721	18966.68
592.08	19202.38
592.44	19688.24
592.799	19938.85
593.158	20346.53
593.517	20657.48
593.876	21021.76
594.235	21184.47
594.593	21749.2
594.952	22138.12
595.311	22408.39
595.67	22856.97
596.029	23469.16
596.387	23797.28
596.746	24062.36
597.104	24439.53
597.463	24790.48
597.822	25300.3
598.18	25453.74
598.538	25966.04
598.897	26497.33
599.255	26575.06
599.613	27435.38
599.972	27530.97
600.33	28125.08
600.688	28377.95
601.046	28872.18
601.404	29457.47
601.762	29676.45
602.12	30217.45
602.478	30494.73
602.836	30967.72
603.194	31250.65
603.552	31653.8
603.91	31856.28
604.268	32654.45
604.625	32701
604.983	33266.87
605.341	33395.45
605.698	34024.36
606.056	34366.05
606.413	34736.21
606.771	35204.67
607.128	35578.22
607.485	35614.37
607.843	35941.6
608.2	36549.72
608.557	36923.49
608.914	37168.91
609.272	37527.54
609.629	37989.45
609.986	38260.41
610.343	38367.3
610.7	38874.85
611.057	39000.95
611.414	39266.48
611.771	39522.07
612.127	40017.42
612.484	40363.63
612.841	40528.14
613.198	40600.68
613.554	40778.08
613.911	41186.21
614.267	41453.09
614.624	41578.74
614.98	41933.76
615.337	42104.6
615.693	42361.09
616.05	42524.25
616.406	43021.41
616.762	42968.53
617.118	43101.41
617.475	43223.44
617.831	43539.14
618.187	43764.22
618.543	43949.07
618.899	44398.1
619.255	44442.39
619.611	44482.39
619.967	44716.06
620.323	44890.74
620.678	45054.13
621.034	44947.69
621.39	45144.52
621.746	45152.65
622.101	45736.14
622.457	45499.99
622.812	45728.01
623.168	45967.77
623.523	45960.32
623.879	46292.29
624.234	46035.57
624.589	46189.92
624.945	46340.42
625.3	46578.15
625.655	46422
626.01	46719.39
626.365	46817.47
626.72	46720.3
627.075	46788.09
627.43	47027.86
627.785	46800.75
628.14	46993.06
628.495	47108.31
628.85	47141.08
629.205	47058.82
629.559	47478.02
629.914	47321.86
630.269	47254.52
630.623	47384.01
630.978	47333.61
631.332	47461.97
631.687	47531.12
632.041	47552.59
632.396	47639.82
632.75	47489.09
633.104	47639.14
633.459	47472.37
633.813	47492.71
634.167	47535.64
634.521	47668.29
634.875	47718.01
635.229	47673.04
635.583	47578.81
635.937	47626.49
636.291	47580.61
636.645	47664.68
636.999	47619.71
637.352	47801.17
637.706	47509.2
638.06	47682.31
638.413	47712.59
638.767	47660.16
639.121	47622.19
639.474	47449.32
639.828	47589.88
640.181	47686.15
640.534	47795.3
640.888	47631.01
641.241	47414.52
641.594	47517.79
641.947	47547.62
642.301	47612.48
642.654	47634.17
643.007	47688.18
643.36	47546.72
643.713	47716.88
644.066	47756.65
644.419	47480.73
644.771	47297.68
645.124	46814.53
645.477	46891.37
645.83	46745.61
646.182	46539.74
646.535	46513.52
646.888	46668.55
647.24	46420.64
647.593	46732.5
647.945	46588.78
648.298	46315.79
648.65	46504.48
649.002	46296.13
649.355	46384.71
649.707	46435.11
650.059	46539.28
650.411	47093.17
650.763	47167.52
651.115	47365.25
651.467	47346.5
651.819	47480.5
652.171	47297.23
652.523	47377
652.875	47337.23
653.227	47126.84
653.578	47499.94
653.93	47406.61
654.282	47214.52
654.633	47110.34
654.985	47141.98
655.337	47267.63
655.688	47242.77
656.039	47305.82
656.391	47099.5
656.742	47124.35
657.094	47221.07
657.445	47285.71
657.796	47152.15
658.147	47217.91
658.498	47130.68
658.849	47151.92
659.2	47103.56
659.551	46978.37
659.902	47198.02
660.253	47096.78
660.604	47308.08
660.955	46904.92
661.306	46989.44
661.656	47004.13
662.007	47116.9
662.358	47031.93
662.708	47037.58
663.059	47059.27
663.409	46988.09
663.76	47115.77
664.11	47171.58
664.461	47189.21
664.811	47202.09
665.161	47043.68
665.511	47070.12
665.862	47140.85
666.212	47106.5
666.562	47156.9
666.912	47115.09
667.262	47069.44
667.612	47016.11
667.962	47093.85
668.312	46964.36
668.662	47170.45
669.011	47151.47
669.361	46940.86
669.711	47070.34
670.06	47035.54
670.41	46851.59
670.76	46827.41
671.109	47015.2
671.459	46874.64
671.808	46836
672.157	46955.55
672.507	46839.39
672.856	46628.32
673.205	46711.71
673.554	46807.98
673.904	46780.63
674.253	46938.37
674.602	46785.15
674.951	46243.25
675.3	45985.85
675.649	46617.47
675.998	46679.62
676.346	46735.66
676.695	46758.71
677.044	46449.34
677.393	46541.32
677.741	46638.49
678.09	46592.39
678.438	46383.58
678.787	46517.59
679.135	46415.9
679.484	46194.44
679.832	46378.39
680.181	46193.53
680.529	46445.5
680.877	46188.79
681.225	46195.11
681.573	46230.14
681.922	46100.65
682.27	45886.42
682.618	46029.02
682.966	45953.31
683.314	46001.45
683.661	45941.11
684.009	45766.88
684.357	45476.49
684.705	45563.27
685.053	45478.97
685.4	45466.32
685.748	45312.42
686.095	45411.18
686.443	45076.5
686.79	45175.93
687.138	45205.76
687.485	45165.31
687.832	45076.27
688.18	45101.81
688.527	44795.83
688.874	44914.24
689.221	44678.32
689.568	44565.1
689.915	44438.55
690.262	44512.67
690.609	44371.66
690.956	44316.74
691.303	44107.48
691.65	43967.83
691.997	43993.59
692.344	43722.18
692.69	43766.93
693.037	43934.38
693.383	43498.01
693.73	43599.25
694.077	43479.25
694.423	43462.76
694.769	43255.98
695.116	43213.95
695.462	43193.16
695.808	42939.83
696.155	42981.64
696.501	42777.8
696.847	42745.03
697.193	42525.61
697.539	42554.08
697.885	42317.25
698.231	42283.58
698.577	42393.18
698.923	42140.53
699.269	41903.7
699.614	41855.57
699.96	41740.54
700.306	41856.7
700.651	41730.37
700.997	41502.13
701.342	41531.05
701.688	41326.31
702.033	41229.14
702.379	41147.56
702.724	41018.53
703.069	41037.73
703.415	40727.23
703.76	40758.65
704.105	40790.28
704.45	40633.45
704.795	40412.89
705.14	40378.99
705.485	40329.05
705.83	40148.27
706.175	40184.2
706.52	39971.77
706.865	40061.94
707.209	39918.67
707.554	39876.86
707.899	39972.68
708.243	39798.67
708.588	39730.65
708.932	39400.72
709.277	39366.14
709.621	39336.31
709.966	39091.57
710.31	39218.35
710.654	38928.86
710.998	38978.35
711.342	38953.95
711.687	38924.34
712.031	38794.63
712.375	38563.45
712.719	38648.42
713.063	38617.46
713.407	38626.05
713.75	38605.93
714.094	38361.65
714.438	38243.46
714.782	38386.5
715.125	38173.86
715.469	38295.66
715.812	37983.8
716.156	37832.85
716.499	37872.62
716.843	37732.74
717.186	37570.71
717.53	37877.82
717.873	37801.44
718.216	37657.03
718.559	37504.72
718.902	37168.23
719.246	37318.74
719.589	37247.1
719.932	37129.81
720.275	37086.2
720.617	37072.87
720.96	37131.4
721.303	37208.46
721.646	37044.39
721.989	36867.45
722.331	37025.64
722.674	36834.46
723.016	36782.48
723.359	36696.83
723.701	36722.37
724.044	36542.26
724.386	36338.2
724.729	36681.92
725.071	36354.47
725.413	36380.91
725.755	36258.88
726.097	36310.63
726.439	36006.23
726.782	36014.14
727.124	36127.81
727.465	35957.42
727.807	36030.86
728.149	35968.94
728.491	35879
728.833	35933.24
729.175	35713.35
729.516	35626.13
729.858	35527.37
730.199	35695.95
730.541	35637.42
730.882	35516.98
731.224	35607.59
731.565	35264.33
731.906	35317.66
732.248	35463.19
732.589	35367.38
732.93	35024.79
733.271	35218.45
733.612	35073.37
733.953	35063.88
734.294	35043.77
734.635	34974.17
734.976	35097.33
735.317	34935.07
735.658	34770.33
735.999	34856.2
736.339	34759.26
736.68	34759.48
737.021	34613.5
737.361	34627.73
737.702	34626.15
738.042	34615.53
738.383	34459.15
738.723	34544.35
739.063	34271.36
739.404	34490.34
739.744	34444.01
740.084	34220.96
740.424	34303.22
740.764	34225.26
741.104	34261.42
741.444	34068.88
741.784	33907.53
742.124	34085.6
742.464	34008.54
742.804	33921.54
743.143	33902.78
743.483	33855.55
743.823	33659.17
744.162	33759.51
744.502	33756.34
744.841	33608.55
745.181	33738.72
745.52	33569.46
745.86	33674.54
746.199	33585.5
746.538	33528.78
746.877	33383.92
747.216	33524.94
747.556	33507.99
747.895	33324.72
748.234	33103.25
748.573	33181.67
748.911	33137.83
749.25	33208.11
749.589	33074.78
749.928	32958.85
750.267	33042.69
750.605	32914.56
750.944	32850.83
751.283	32779.87
751.621	32718.63
751.96	32552.53
752.298	32657.16
752.636	32655.81
752.975	32392.09
753.313	32331.75
753.651	32544.17
753.989	32332.2
754.327	32228.7
754.666	31943.51
755.004	32174.92
755.342	32084.07
755.679	31993.68
756.017	31903.74
756.355	32132.21
756.693	31836.85
757.031	31769.73
757.368	31522.73
757.706	31555.27
758.044	31646.34
758.381	31515.5
758.719	31316.86
759.056	31442.51
759.394	31294.94
759.731	31105.34
760.068	31164.32
760.405	30903.54
