Data from red_cardboard_box_FLMS001491_00067.txt Node
Date: Wed Feb 08 11:32:57 GMT 2017
User: dcchb
Spectrometer: FLMS00149
Trigger mode: 0
Integration Time (sec): 2.000000E-2
Scans to average: 10
Electric dark correction enabled: true
Nonlinearity correction enabled: false
Boxcar width: 0
XAxis mode: Wavelengths
Number of Pixels in Spectrum: 2048
>>>>>Begin Spectral Data<<<<<
341.393	-5.61
341.776	-5.61
342.16	-5.61
342.543	-72.72
342.927	-47.87
343.31	-84.7
343.693	-50.58
344.077	-52.84
344.46	-84.93
344.843	-56.68
345.226	-46.96
345.61	-22.56
345.993	-11.26
346.376	16.31
346.759	-9.9
347.142	24.9
347.525	25.35
347.908	63.32
348.291	75.97
348.674	80.49
349.057	134.05
349.44	136.54
349.823	149.42
350.206	161.39
350.588	206.14
350.971	195.29
351.354	213.14
351.737	244.56
352.119	264.22
352.502	258.34
352.884	278.91
353.267	293.82
353.65	291.33
354.032	288.62
354.414	314.16
354.797	339.24
355.179	320.71
355.562	325.23
355.944	335.63
356.326	330.66
356.709	325.23
357.091	332.46
357.473	355.29
357.855	319.36
358.238	356.19
358.62	332.69
359.002	335.63
359.384	319.13
359.766	325.91
360.148	332.91
360.53	335.85
360.912	341.5
361.294	338.34
361.676	349.41
362.057	327.04
362.439	343.99
362.821	332.01
363.203	356.42
363.584	348.73
363.966	325.91
364.348	325.23
364.729	324.78
365.111	318
365.493	315.74
365.874	317.77
366.256	317.55
366.637	314.16
367.019	305.8
367.4	308.96
367.781	300.37
368.163	322.52
368.544	327.49
368.925	311.22
369.306	306.93
369.688	315.74
370.069	317.55
370.45	294.5
370.831	328.17
371.212	315.97
371.593	308.96
371.974	317.32
372.355	313.25
372.736	305.8
373.117	310.77
373.498	336.76
373.879	315.29
374.26	305.57
374.641	313.03
375.021	306.47
375.402	320.49
375.783	303.99
376.163	325.91
376.544	315.29
376.925	301.73
377.305	299.02
377.686	316.87
378.066	295.4
378.447	308.96
378.827	311.45
379.208	323.65
379.588	304.67
379.968	329.3
380.349	314.84
380.729	343.31
381.109	334.72
381.489	332.69
381.87	341.5
382.25	357.32
382.63	346.25
383.01	318.23
383.39	346.25
383.77	319.81
384.15	346.02
384.53	320.26
384.91	315.97
385.29	358.68
385.67	341.28
386.049	364.33
386.429	327.04
386.809	341.05
387.189	353.71
387.568	355.29
387.948	339.92
388.328	348.06
388.707	347.15
389.087	331.79
389.466	343.31
389.846	332.69
390.225	341.05
390.605	362.74
390.984	350.54
391.363	355.74
391.743	358.45
392.122	359.35
392.501	391.44
392.881	345.8
393.26	362.07
393.639	347.83
394.018	339.47
394.397	364.1
394.776	347.83
395.155	359.35
395.534	363.87
395.913	358
396.292	373.37
396.671	398.68
397.05	358.23
397.429	377.66
397.808	379.69
398.186	392.57
398.565	365.68
398.944	372.24
399.323	387.38
399.701	393.25
400.08	371.56
400.458	381.05
400.837	364.55
401.215	372.69
401.594	382.18
401.972	381.5
402.351	375.4
402.729	366.13
403.107	370.43
403.486	379.47
403.864	383.76
404.242	353.03
404.62	390.31
404.999	390.77
405.377	377.43
405.755	394.61
406.133	401.16
406.511	394.83
406.889	387.83
407.267	371.56
407.645	400.03
408.023	398.9
408.401	411.78
408.779	413.82
409.156	423.08
409.534	404.55
409.912	409.98
410.29	406.36
410.667	412.01
411.045	405
411.422	403.65
411.8	388.51
412.178	415.17
412.555	437.54
412.933	414.27
413.31	405
413.687	420.14
414.065	433.48
414.442	429.18
414.819	438
415.197	417.43
415.574	441.61
415.951	433.03
416.328	432.57
416.705	430.54
417.082	436.19
417.46	459.24
417.837	438.22
418.214	441.61
418.591	450.88
418.967	442.06
419.344	453.14
419.721	452.69
420.098	459.47
420.475	466.02
420.852	473.48
421.228	468.05
421.605	457.43
421.982	472.8
422.358	444.32
422.735	464.66
423.111	473.7
423.488	495.4
423.864	465.11
424.241	472.57
424.617	470.99
424.994	464.21
425.37	483.42
425.746	488.39
426.123	491.55
426.499	506.47
426.875	508.96
427.251	499.92
427.627	479.13
428.003	489.75
428.379	498.56
428.756	499.46
429.132	513.25
429.507	501.5
429.883	519.58
430.259	523.42
430.635	516.64
431.011	496.53
431.387	482.97
431.763	535.4
432.138	511.89
432.514	536.53
432.89	551.21
433.265	545.34
433.641	534.49
434.016	520.25
434.392	547.37
434.767	540.82
435.143	546.47
435.518	542.85
435.894	557.32
436.269	542.4
436.644	557.54
437.02	592.34
437.395	573.81
437.77	583.53
438.145	572.23
438.52	573.13
438.895	576.75
439.271	564.77
439.646	597.09
440.021	593.47
440.395	580.59
440.77	602.51
441.145	580.59
441.52	612.23
441.895	596.64
442.27	600.25
442.645	601.16
443.019	606.35
443.394	620.82
443.769	604.09
444.143	634.15
444.518	620.82
444.892	629.63
445.267	603.42
445.641	646.35
446.016	625.11
446.39	626.47
446.764	630.08
447.139	618.56
447.513	619.69
447.887	651.1
448.262	647.03
448.636	644.32
449.01	652.45
449.384	672.12
449.758	670.99
450.132	660.14
450.506	661.27
450.88	661.72
451.254	665.79
451.628	673.02
452.002	673.02
452.376	685.22
452.75	680.02
453.123	670.76
453.497	696.75
453.871	688.84
454.244	685
454.618	678.22
454.992	693.58
455.365	697.88
455.739	738.78
456.112	725.45
456.486	739.23
456.859	720.93
457.232	719.8
457.606	729.51
457.979	719.35
458.352	731.55
458.725	740.59
459.099	750.76
459.472	768.84
459.845	767.25
460.218	766.35
460.591	782.17
460.964	785.11
461.337	794.37
461.71	796.41
462.083	809.06
462.456	805.9
462.829	802.51
463.201	794.6
463.574	798.67
463.947	827.37
464.32	827.59
464.692	833.47
465.065	838.89
465.438	838.44
465.81	878.21
466.183	853.81
466.555	883.86
466.928	866.46
467.3	895.39
467.672	869.62
468.045	894.26
468.417	897.19
468.789	913.46
469.161	926.57
469.534	911.88
469.906	938.77
470.278	940.81
470.65	940.13
471.022	976.74
471.394	989.62
471.766	978.77
472.138	977.87
472.51	999.11
472.882	1004.08
473.253	1002.5
473.625	1015.83
473.997	1015.83
474.369	1027.59
474.74	1027.36
475.112	1042.05
475.484	1046.57
475.855	1092.89
476.227	1098.32
476.598	1092.67
476.97	1122.5
477.341	1146.23
477.713	1159.79
478.084	1146.45
478.455	1182.38
478.827	1159.79
479.198	1219.22
479.569	1214.7
479.94	1258.31
480.311	1228.48
480.682	1268.03
481.053	1240.91
481.424	1312.55
481.795	1284.3
482.166	1310.97
482.537	1313
482.908	1331.98
483.279	1352.55
483.65	1362.04
484.021	1387.35
484.391	1385.32
484.762	1410.85
485.133	1443.62
485.503	1453.79
485.874	1505.09
486.244	1517.06
486.615	1499.44
486.985	1540.57
487.356	1572.2
487.726	1580.57
488.097	1583.96
488.467	1588.25
488.837	1638.19
489.207	1603.62
489.578	1657.17
489.948	1676.16
490.318	1729.04
490.688	1703.73
491.058	1727.45
491.428	1727.68
491.798	1759.54
492.168	1768.58
492.538	1796.61
492.908	1791.86
493.278	1800.67
493.648	1833.67
494.017	1836.38
494.387	1908.24
494.757	1924.74
495.126	1882.03
495.496	1907.11
495.866	1908.69
496.235	1915.25
496.605	1953.44
496.974	1940.33
497.344	1991.85
497.713	2003.61
498.082	2010.61
498.452	2041.12
498.821	2012.87
499.19	2033.89
499.559	2066.65
499.928	2065.52
500.298	2081.57
500.667	2112.98
501.036	2117.5
501.405	2104.62
501.774	2152.08
502.143	2138.74
502.512	2179.65
502.88	2198.4
503.249	2175.58
503.618	2190.27
503.987	2204.28
504.356	2216.93
504.724	2193.43
505.093	2249.7
505.462	2263.49
505.83	2252.41
506.199	2291.96
506.567	2303.48
506.936	2313.2
507.304	2347.1
507.672	2371.05
508.041	2362.47
508.409	2407.21
508.777	2404.95
509.145	2389.81
509.514	2400.21
509.882	2422.13
510.25	2449.47
510.618	2462.12
510.986	2432.97
511.354	2489.02
511.722	2532.41
512.09	2506.42
512.458	2566.75
512.826	2556.13
513.193	2580.77
513.561	2600.88
513.929	2618.73
514.297	2652.63
514.664	2634.1
515.032	2683.36
515.4	2683.59
515.767	2711.84
516.135	2720.2
516.502	2734.21
516.869	2759.07
517.237	2796.8
517.604	2783.25
517.972	2835.9
518.339	2797.03
518.706	2844.49
519.073	2825.05
519.44	2856.01
519.808	2920.19
520.175	2874.54
520.542	2947.54
520.909	2928.33
521.276	2971.26
521.643	2995.67
522.009	2981.21
522.376	3027.08
522.743	3047.65
523.11	3096.68
523.477	3079.74
523.843	3112.95
524.21	3171.48
524.577	3203.8
524.943	3190.92
525.31	3229.34
525.676	3218.94
526.043	3300.97
526.409	3300.29
526.776	3270.92
527.142	3327.64
527.508	3340.97
527.874	3401.08
528.241	3392.5
528.607	3421.42
528.973	3408.09
529.339	3466.84
529.705	3499.16
530.071	3537.35
530.437	3573.73
530.803	3611.02
531.169	3599.04
531.535	3651.47
531.901	3564.69
532.267	3604.47
532.632	3637.91
532.998	3670
533.364	3705.48
533.73	3686.73
534.095	3732.83
534.461	3742.99
534.826	3834.74
535.192	3779.15
535.557	3841.07
535.923	3841.07
536.288	3867.06
536.653	3887.17
537.019	3830
537.384	3907.74
537.749	3915.19
538.114	3879.49
538.479	3920.84
538.845	3935.31
539.21	3968.75
539.575	3960.84
539.94	3971.46
540.305	4033.16
540.67	4034.96
541.034	4041.29
541.399	4074.06
541.764	4127.17
542.129	4105.92
542.494	4127.62
542.858	4160.38
543.223	4175.75
543.587	4184.57
543.952	4191.34
544.316	4240.83
544.681	4236.99
545.045	4260.72
545.41	4293.04
545.774	4277.22
546.138	4345.24
546.503	4304.34
546.867	4373.71
547.231	4390.44
547.595	4412.58
547.959	4455.29
548.324	4439.25
548.688	4472.92
549.052	4468.63
549.416	4474.95
549.779	4500.94
550.143	4554.27
550.507	4599.7
550.871	4599.24
551.235	4641.28
551.599	4644.21
551.962	4672.91
552.326	4701.16
552.689	4754.49
553.053	4754.27
553.417	4740.71
553.78	4815.51
554.143	4801.95
554.507	4841.27
554.87	4875.39
555.234	4946.58
555.597	4943.19
555.96	4972.12
556.323	5013.92
556.686	5019.12
557.05	5108.16
557.413	5089.4
557.776	5144.54
558.139	5154.26
558.502	5209.17
558.865	5195.84
559.228	5285.33
559.59	5316.96
559.953	5347.92
560.316	5416.4
560.679	5494.36
561.041	5489.84
561.404	5521.25
561.767	5587.01
562.129	5571.87
562.492	5660.46
562.854	5682.15
563.217	5740.68
563.579	5721.02
563.941	5795.37
564.304	5859.1
564.666	5965.31
565.028	5935.93
565.39	6017.74
565.753	6036.49
566.115	6112.65
566.477	6163.27
566.839	6216.83
567.201	6275.36
567.563	6310.84
567.925	6423.83
568.287	6425.86
568.648	6495.24
569.01	6511.28
569.372	6592.64
569.734	6617.95
570.095	6704.5
570.457	6734.55
570.819	6744.27
571.18	6835.12
571.542	6938.84
571.903	6973.42
572.265	7067.65
572.626	7106.3
572.987	7167.54
573.349	7224.94
573.71	7333.18
574.071	7401.2
574.432	7457.25
574.794	7537.7
575.155	7595.55
575.516	7617.02
575.877	7804.36
576.238	7770.01
576.599	7927.29
576.96	7930.23
577.32	8036.22
577.681	8143.56
578.042	8187.4
578.403	8325.93
578.763	8404.79
579.124	8432.59
579.485	8540.16
579.845	8690.21
580.206	8721.17
580.566	8865.35
580.927	8985.12
581.287	9145.34
581.648	9201.83
582.008	9346.92
582.368	9462.17
582.728	9602.5
583.089	9710.3
583.449	9834.36
583.809	9990.97
584.169	10088.14
584.529	10227.57
584.889	10399.77
585.249	10527
585.609	10626.2
585.969	10918.85
586.329	10997.04
586.688	11217.6
587.048	11294.66
587.408	11491.94
587.768	11647.65
588.127	11889
588.487	11972.61
588.846	12328.31
589.206	12373.5
589.565	12656.43
589.925	12924.9
590.284	13068.4
590.643	13398.11
591.003	13645.11
591.362	13919.22
591.721	14107.69
592.08	14329.38
592.44	14708.13
592.799	14872.87
593.158	15020.44
593.517	15393.76
593.876	15664.26
594.235	15939.74
594.593	16305.15
594.952	16552.38
595.311	16826.49
595.67	17206.82
596.029	17537.89
596.387	17897.88
596.746	18151.2
597.104	18430.07
597.463	18838.19
597.822	19100.33
598.18	19355.01
598.538	19689.69
598.897	20170.81
599.255	20376.91
599.613	20830
599.972	21120.62
600.33	21482.42
600.688	21718.12
601.046	22178.67
601.404	22580.92
601.762	22890.97
602.12	23305.42
602.478	23585.41
602.836	23972.07
603.194	24190.82
603.552	24518.95
603.91	24855.43
604.268	25274.86
604.625	25507.17
604.983	26030.77
605.341	26141.73
605.698	26662.17
606.056	26940.8
606.413	27323.84
606.771	27703.72
607.128	27988.23
607.485	28136.03
607.843	28442.23
608.2	28946.4
608.557	29190.46
608.914	29387.97
609.272	29841.97
609.629	30116.09
609.986	30430.65
610.343	30632.91
610.7	31028.61
611.057	31258.66
611.414	31453.23
611.771	31827.45
612.127	32121.23
612.484	32441.22
612.841	32677.6
613.198	32709.46
613.554	32847.09
613.911	33459.5
614.267	33497.92
614.624	33688.65
614.98	34029.43
615.337	34308.97
615.693	34394.39
616.05	34563.88
616.406	34974.26
616.762	35054.49
617.118	35146.69
617.475	35406.8
617.831	35699.22
618.187	35760.23
618.543	35954.58
618.899	36328.35
619.255	36484.73
619.611	36586.65
619.967	36786.87
620.323	37069.12
620.678	37012.18
621.034	37148.44
621.39	37326.74
621.746	37323.58
622.101	37863
622.457	37583.01
622.812	37888.54
623.168	38095.31
623.523	38231.35
623.879	38328.98
624.234	38254.18
624.589	38600.16
624.945	38588.41
625.3	38633.38
625.655	38731.23
626.01	38821.62
626.365	39024.78
626.72	38982.75
627.075	39089.86
627.43	39095.06
627.785	39070.2
628.14	39201.05
628.495	39521.26
628.85	39391.32
629.205	39497.53
629.559	39689.62
629.914	39623.18
630.269	39610.98
630.623	39611.43
630.978	39835.61
631.332	40003.51
631.687	40101.13
632.041	39833.12
632.396	40009.61
632.75	39973.45
633.104	39910.63
633.459	39847.36
633.813	40043.06
634.167	40038.54
634.521	40059.55
634.875	40261.13
635.229	40108.37
635.583	39944.75
635.937	40072.44
636.291	40051.64
636.645	40062.27
636.999	40019.1
637.352	40147.24
637.706	39900.69
638.06	40204.41
638.413	40113.56
638.767	40017.3
639.121	40217.74
639.474	40019.33
639.828	40156.73
640.181	40161.7
640.534	40279.66
640.888	40107.01
641.241	40044.41
641.594	40184.97
641.947	40272.2
642.301	40188.82
642.654	40288.7
643.007	40245.31
643.36	40248.7
643.713	40159.89
644.066	40417.06
644.419	40007.35
644.771	39835.15
645.124	39598.55
645.477	39419.12
645.83	39331.66
646.182	39136.64
646.535	39157.2
646.888	39330.08
647.24	39067.94
647.593	39349.97
647.945	39354.71
648.298	39218.22
648.65	39080.37
649.002	38982.52
649.355	39177.32
649.707	39232.46
650.059	39440.36
650.411	39774.82
650.763	39903.17
651.115	40097.52
651.467	40140.23
651.819	40123.06
652.171	40095.49
652.523	40028.82
652.875	39954.47
653.227	39838.99
653.578	40158.76
653.93	40053.9
654.282	39892.78
654.633	39816.4
654.985	39931.42
655.337	39951.53
655.688	39922.61
656.039	40178.42
656.391	39834.02
656.742	39872.44
657.094	39894.59
657.445	40117.41
657.796	39832.44
658.147	39903.85
658.498	39741.6
658.849	39954.92
659.2	39897.75
659.551	39753.57
659.902	39875.6
660.253	39862.95
660.604	39860.92
660.955	39720.58
661.306	39830.41
661.656	39740.69
662.007	39782.27
662.358	39870.63
662.708	39823.85
663.059	39828.83
663.409	39621.37
663.76	40046.9
664.11	39996.96
664.461	39936.39
664.811	39822.5
665.161	39800.35
665.511	39789.73
665.862	39893.23
666.212	39969.61
666.562	39965.32
666.912	39745.89
667.262	39832.67
667.612	39830.41
667.962	39837.86
668.312	39824.08
668.662	39948.14
669.011	39883.51
669.361	39872.21
669.711	39879.22
670.06	39804.42
670.41	39669.73
670.76	39696.4
671.109	39998.09
671.459	39758.09
671.808	39762.84
672.157	39834.25
672.507	39496.4
672.856	39484.43
673.205	39538.44
673.554	39613.01
673.904	39613.01
674.253	39761.26
674.602	39694.59
674.951	39209.63
675.3	38897.1
675.649	39472
675.998	39442.4
676.346	39543.41
676.695	39513.81
677.044	39402.85
677.393	39453.02
677.741	39629.96
678.09	39410.31
678.438	39285.34
678.787	39307.94
679.135	39387.93
679.484	39186.13
679.832	39382.96
680.181	39062.74
680.529	39106.13
680.877	39145.68
681.225	38911.34
681.573	39239.24
681.922	39023.88
682.27	38878.57
682.618	38849.64
682.966	38800.6
683.314	38954.5
683.661	38923.09
684.009	38646.94
684.357	38562.64
684.705	38461.86
685.053	38610.33
685.4	38602.19
685.748	38446.04
686.095	38323.78
686.443	38214.63
686.79	38203.78
687.138	38166.27
687.485	38270.9
687.832	37994.07
688.18	38106.84
688.527	37855.09
688.874	37865.04
689.221	37731.03
689.568	37834.53
689.915	37612.16
690.262	37589.79
690.609	37455.55
690.956	37319.51
691.303	37351.38
691.65	37161.78
691.997	37140.99
692.344	36989.8
692.69	37029.8
693.037	36937.83
693.383	36689.47
693.73	36755.91
694.077	36654.9
694.423	36519.53
694.769	36602.02
695.116	36487.67
695.462	36434.56
695.808	36241.35
696.155	36342.36
696.501	36022.6
696.847	36074.57
697.193	35768.14
697.539	36041.13
697.885	35628.94
698.231	35664.64
698.577	35708.48
698.923	35504.65
699.269	35376.51
699.614	35184.88
699.96	35140.14
700.306	35200.7
700.651	35032.79
700.997	34932.01
701.342	34839.13
701.688	34743.76
702.033	34642.97
702.379	34734.95
702.724	34672.8
703.069	34641.62
703.415	34275.07
703.76	34291.57
704.105	34150.56
704.45	34263.77
704.795	34086.83
705.14	33986.72
705.485	33974.06
705.83	33877.8
706.175	33945.14
706.52	33699.27
706.865	33792.15
707.209	33632.6
707.554	33437.81
707.899	33614.3
708.243	33394.42
708.588	33279.17
708.932	33099.96
709.277	33152.62
709.621	33021.55
709.966	32800.08
710.31	33015.45
710.654	32661.1
710.998	32767.54
711.342	32870.14
711.687	32702.46
712.031	32591.05
712.375	32443.26
712.719	32454.78
713.063	32469.92
713.407	32573.65
713.75	32321.68
714.094	32178.41
714.438	32172.76
714.782	32227.9
715.125	32078.75
715.469	32171.4
715.812	31881.92
716.156	31780.22
716.499	31708.81
716.843	31789.26
717.186	31638.76
717.53	31805.31
717.873	31844.18
718.216	31697.29
718.559	31432.21
718.902	31373.23
719.246	31389.05
719.589	31303.17
719.932	31216.85
720.275	31281.25
720.617	31157.87
720.96	31164.87
721.303	31094.82
721.646	31183.63
721.989	31018.21
722.331	31074.03
722.674	30974.14
723.016	30922.39
723.359	30872.45
723.701	30801.49
724.044	30711.1
724.386	30434.72
724.729	30721.72
725.071	30647.82
725.413	30482.86
725.755	30472.01
726.097	30370.32
726.439	30296.87
726.782	30230.89
727.124	30476.53
727.465	30262.98
727.807	30262.75
728.149	30283.09
728.491	30030.67
728.833	30099.14
729.175	30009.42
729.516	29945.92
729.858	29876.09
730.199	30076.99
730.541	29947.5
730.882	29920.39
731.224	29906.37
731.565	29813.95
731.906	29795.87
732.248	29775.98
732.589	29631.58
732.93	29542.77
733.271	29477.23
733.612	29576.89
733.953	29556.33
734.294	29472.71
734.635	29363.11
734.976	29478.82
735.317	29281.53
735.658	29357.69
735.999	29274.07
736.339	29145.26
736.68	29273.85
737.021	29226.39
737.361	29027.08
737.702	29196.11
738.042	29137.81
738.383	28964.93
738.723	29094.87
739.063	28971.94
739.404	29081.76
739.744	28895.1
740.084	28841.77
740.424	28885.38
740.764	28830.7
741.104	28799.96
741.444	28607.43
741.784	28547.77
742.124	28702.79
742.464	28557.48
742.804	28559.52
743.143	28428.45
743.483	28667.54
743.823	28273.2
744.162	28373.99
744.502	28437.71
744.841	28320.2
745.181	28393.19
745.52	28242.24
745.86	28255.57
746.199	28221.9
746.538	28195.23
746.877	28167.44
747.216	28162.24
747.556	28119.75
747.895	28181
748.234	27938.74
748.573	27982.58
748.911	27943.04
749.25	27911.4
749.589	27711.63
749.928	27842.93
750.267	27969.7
750.605	27764.96
750.944	27695.13
751.283	27727.67
751.621	27621.91
751.96	27548.7
752.298	27599.09
752.636	27579.88
752.975	27382.37
753.313	27350.96
753.651	27350.06
753.989	27290.4
754.327	27203.17
754.666	27185.54
755.004	27143.06
755.342	27230.29
755.679	27037.52
756.017	26811.54
756.355	26960.69
756.693	26906.91
757.031	26905.55
757.368	26758.21
757.706	26795.04
758.044	26701.49
758.381	26739.9
758.719	26523.19
759.056	26619.91
759.394	26549.63
759.731	26386.24
760.068	26314.6
760.405	26188.51
760.743	26252.69
761.08	26210.43
761.417	26052.69
761.754	26098.11
