Data from red_cardboard_box_FLMS001491_00020.txt Node
Date: Wed Feb 08 11:31:37 GMT 2017
User: dcchb
Spectrometer: FLMS00149
Trigger mode: 0
Integration Time (sec): 2.000000E-2
Scans to average: 10
Electric dark correction enabled: true
Nonlinearity correction enabled: false
Boxcar width: 0
XAxis mode: Wavelengths
Number of Pixels in Spectrum: 2048
>>>>>Begin Spectral Data<<<<<
341.393	2.27
341.776	2.27
342.16	2.27
342.543	-47.44
342.927	-77.05
343.31	-61.45
343.693	-67.33
344.077	-58.74
344.46	-62.81
344.843	-59.42
345.226	-60.1
345.61	-26.43
345.993	-30.04
346.376	16.96
346.759	-0.89
347.142	21.48
347.525	49.5
347.908	51.31
348.291	68.94
348.674	92.44
349.057	126.56
349.44	121.59
349.823	149.16
350.206	144.19
350.588	196.85
350.971	205.43
351.354	231.19
351.737	244.75
352.119	243.85
352.502	277.52
352.884	274.58
353.267	299.22
353.65	302.61
354.032	316.84
354.414	318.42
354.797	311.42
355.179	337.18
355.562	324.3
355.944	336.5
356.326	347.58
356.709	334.69
357.091	337.41
357.473	349.38
357.855	340.34
358.238	353
358.62	336.95
359.002	336.28
359.384	344.86
359.766	348.93
360.148	328.82
360.53	337.41
360.912	334.02
361.294	334.69
361.676	317.75
362.057	311.42
362.439	324.53
362.821	338.54
363.203	324.07
363.584	339.67
363.966	326.56
364.348	304.64
364.729	314.36
365.111	312.1
365.493	321.59
365.874	308.93
366.256	327.24
366.637	299.67
367.019	295.6
367.4	315.71
367.781	325.66
368.163	310.97
368.544	316.84
368.925	307.8
369.306	285.43
369.688	304.41
370.069	309.16
370.45	301.25
370.831	293.79
371.212	325.66
371.593	310.29
371.974	307.35
372.355	312.77
372.736	314.81
373.117	322.49
373.498	310.74
373.879	314.13
374.26	292.21
374.641	299.67
375.021	311.87
375.402	334.47
375.783	326.79
376.163	318.65
376.544	312.1
376.925	310.97
377.305	339.44
377.686	303.73
378.066	321.81
378.447	321.14
378.827	322.49
379.208	304.19
379.588	327.24
379.968	311.19
380.349	321.14
380.729	324.07
381.109	328.82
381.489	328.59
381.87	329.95
382.25	327.69
382.63	324.75
383.01	316.84
383.39	344.19
383.77	352.1
384.15	322.04
384.53	338.31
384.91	307.35
385.29	333.79
385.67	331.53
386.049	335.37
386.429	346.9
386.809	341.25
387.189	326.79
387.568	342.38
387.948	328.59
388.328	346.9
388.707	347.58
389.087	341.47
389.466	348.71
389.846	332.66
390.225	350.97
390.605	348.93
390.984	352.1
391.363	350.97
391.743	345.32
392.122	348.48
392.501	355.71
392.881	336.95
393.26	359.1
393.639	350.51
394.018	360.46
394.397	355.03
394.776	363.17
395.155	374.24
395.534	354.13
395.913	345.99
396.292	356.84
396.671	385.09
397.05	367.91
397.429	353.9
397.808	351.42
398.186	375.82
398.565	369.95
398.944	371.98
399.323	360.46
399.701	364.07
400.08	376.28
400.458	366.78
400.837	345.32
401.215	376.5
401.594	358.42
401.972	361.13
402.351	355.03
402.729	364.07
403.107	373.56
403.486	371.08
403.864	364.07
404.242	370.85
404.62	369.72
404.999	379.67
405.377	394.13
405.755	377.41
406.133	374.24
406.511	388.7
406.889	395.48
407.267	376.95
407.645	389.83
408.023	381.25
408.401	401.36
408.779	381.25
409.156	406.33
409.534	395.94
409.912	403.62
410.29	404.75
410.667	398.2
411.045	414.47
411.422	423.51
411.8	390.96
412.178	403.39
412.555	419.21
412.933	421.47
413.31	392.32
413.687	423.96
414.065	418.76
414.442	413.34
414.819	417.86
415.197	423.73
415.574	413.34
415.951	413.11
416.328	418.08
416.705	432.32
417.082	439.1
417.46	411.75
417.837	444.07
418.214	435.71
418.591	459.21
418.967	423.73
419.344	436.84
419.721	428.03
420.098	430.51
420.475	427.57
420.852	418.99
421.228	431.19
421.605	433.9
421.982	445.2
422.358	430.06
422.735	447.91
423.111	451.08
423.488	454.01
423.864	453.56
424.241	456.5
424.617	421.7
424.994	458.99
425.37	458.31
425.746	450.4
426.123	458.08
426.499	448.36
426.875	456.27
427.251	480.23
427.627	457.4
428.003	472.09
428.379	478.87
428.756	471.41
429.132	473
429.507	486.78
429.883	467.57
430.259	504.63
430.635	491.75
431.011	488.81
431.387	486.1
431.763	490.17
432.138	486.78
432.514	507.35
432.89	503.5
433.265	486.56
433.641	515.93
434.016	524.29
434.392	526.78
434.767	553.9
435.143	526.78
435.518	538.53
435.894	528.14
436.269	543.5
436.644	527.68
437.02	538.98
437.395	528.14
437.77	555.03
438.145	566.78
438.52	533.56
438.895	560.23
439.271	553.9
439.646	562.94
440.021	560
440.395	556.38
440.77	584.18
441.145	560
441.52	551.86
441.895	555.25
442.27	580.11
442.645	566.1
443.019	565.65
443.394	585.31
443.769	588.25
444.143	578.3
444.518	587.34
444.892	596.83
445.267	578.76
445.641	570.17
446.016	588.47
446.39	587.57
446.764	609.04
447.139	604.74
447.513	602.48
447.887	591.41
448.262	598.42
448.636	606.1
449.01	612.2
449.384	618.53
449.758	619.88
450.132	593.67
450.506	598.42
450.88	617.4
451.254	621.24
451.628	635.93
452.002	612.2
452.376	629.83
452.75	623.73
453.123	641.58
453.497	646.1
453.871	642.94
454.244	654.01
454.618	644.06
454.992	643.84
455.365	663.27
455.739	662.82
456.112	670.96
456.486	657.85
456.859	688.13
457.232	674.57
457.606	672.09
457.979	678.41
458.352	707.11
458.725	696.04
459.099	681.13
459.472	693.56
459.845	717.51
460.218	707.79
460.591	734.23
460.964	726.55
461.337	737.85
461.71	756.38
462.083	735.81
462.456	710.96
462.829	727.23
463.201	747.34
463.574	727.68
463.947	754.34
464.32	769.49
464.692	782.14
465.065	778.52
465.438	773.1
465.81	777.39
466.183	805.42
466.555	788.02
466.928	791.63
467.3	799.77
467.672	808.81
468.045	830.27
468.417	840.44
468.789	833.66
469.161	815.13
469.534	858.3
469.906	849.48
470.278	842.93
470.65	877.28
471.022	858.75
471.394	879.54
471.766	903.72
472.138	907.33
472.51	921.35
472.882	915.7
473.253	920.22
473.625	931.29
473.997	927
474.369	943.72
474.74	973.32
475.112	973.1
475.484	981.23
475.855	985.98
476.227	979.42
476.598	999.99
476.97	1021.23
477.341	1016.48
477.713	1027.33
478.084	1029.37
478.455	1068.91
478.827	1059.2
479.198	1100.1
479.569	1107.56
479.94	1127.22
480.311	1115.92
480.682	1158.85
481.053	1161.11
481.424	1163.83
481.795	1185.29
482.166	1177.16
482.537	1205.18
482.908	1238.63
483.279	1232.3
483.65	1282.01
484.021	1294.67
484.391	1291.05
484.762	1293.99
485.133	1303.26
485.503	1305.97
485.874	1329.7
486.244	1358.4
486.615	1377.83
486.985	1376.7
487.356	1392.07
487.726	1429.58
488.097	1464.83
488.467	1422.58
488.837	1471.16
489.207	1488.56
489.578	1471.84
489.948	1497.38
490.318	1521.78
490.688	1538.05
491.058	1516.13
491.428	1545.96
491.798	1581.67
492.168	1606.07
492.538	1631.38
492.908	1625.73
493.278	1607.43
493.648	1633.19
494.017	1645.39
494.387	1656.24
494.757	1685.17
495.126	1684.26
495.496	1695.79
495.866	1722.91
496.235	1750.25
496.605	1726.07
496.974	1744.38
497.344	1777.59
497.713	1770.14
498.082	1796.8
498.452	1802.45
498.821	1809.68
499.19	1826.41
499.559	1828.21
499.928	1855.78
500.298	1851.94
500.667	1870.02
501.036	1874.32
501.405	1877.25
501.774	1893.52
502.143	1884.71
502.512	1932.39
502.88	1940.53
503.249	1940.08
503.618	1941.66
503.987	1965.61
504.356	1985.27
504.724	2000.19
505.093	1977.82
505.462	2027.08
505.83	2068.21
506.199	2056.68
506.567	2091.94
506.936	2058.72
507.304	2098.04
507.672	2091.48
508.041	2125.83
508.409	2134.2
508.777	2112.05
509.145	2160.64
509.514	2216.68
509.882	2166.06
510.25	2166.51
510.618	2206.28
510.986	2201.31
511.354	2238.6
511.722	2248.09
512.09	2244.93
512.458	2287.64
512.826	2302.33
513.193	2344.59
513.561	2329.44
513.929	2312.27
514.297	2343
514.664	2348.88
515.032	2382.1
515.4	2427.52
515.767	2407.86
516.135	2421.19
516.502	2429.1
516.869	2459.16
517.237	2463.9
517.604	2458.25
517.972	2465.94
518.339	2533.05
518.706	2512.72
519.073	2561.53
519.44	2544.58
519.808	2587.06
520.175	2576.22
520.542	2615.99
520.909	2607.18
521.276	2638.14
521.643	2691.47
522.009	2670
522.376	2710.9
522.743	2704.8
523.11	2725.37
523.477	2749.55
523.843	2759.72
524.21	2779.6
524.577	2797.23
524.943	2826.61
525.31	2860.5
525.676	2868.19
526.043	2915.42
526.409	2883.78
526.776	2946.83
527.142	2932.82
527.508	2965.36
527.874	2982.08
528.241	3011.01
528.607	3032.02
528.973	3045.81
529.339	3039.26
529.705	3066.37
530.071	3126.03
530.437	3120.16
530.803	3173.26
531.169	3152.02
531.535	3166.94
531.901	3163.32
532.267	3194.73
532.632	3195.86
532.998	3242.64
533.364	3255.75
533.73	3329.87
534.095	3332.36
534.461	3321.51
534.826	3339.36
535.192	3326.93
535.557	3347.72
535.923	3377.78
536.288	3380.94
536.653	3454.84
537.019	3398.12
537.384	3458.91
537.749	3468.62
538.114	3432.69
538.479	3493.93
538.845	3514.95
539.21	3526.7
539.575	3497.78
539.94	3535.51
540.305	3567.38
540.67	3578.45
541.034	3605.34
541.399	3627.72
541.764	3616.19
542.129	3622.52
542.494	3653.7
542.858	3634.04
543.223	3690.99
543.587	3722.63
543.952	3702.74
544.316	3750.42
544.681	3741.16
545.045	3749.75
545.41	3810.99
545.774	3813.25
546.138	3829.07
546.503	3878.33
546.867	3852.12
547.231	3903.87
547.595	3909.06
547.959	3898.67
548.324	3946.35
548.688	3931.21
549.052	3942.06
549.416	3986.35
549.779	4041.04
550.143	4016.41
550.507	4038.78
550.871	4113.35
551.235	4103.41
551.599	4123.3
551.962	4139.79
552.326	4196.51
552.689	4225.21
553.053	4222.5
553.417	4215.27
553.78	4323.06
554.143	4307.25
554.507	4329.17
554.87	4353.12
555.234	4396.73
555.597	4378.43
555.96	4408.71
556.323	4463.4
556.686	4490.52
557.05	4502.72
557.413	4526.9
557.776	4572.32
558.139	4634.92
558.502	4611.19
558.865	4664.07
559.228	4706.78
559.59	4787.01
559.953	4783.62
560.316	4894.57
560.679	4862.71
561.041	4860.23
561.404	4928.7
561.767	4972.99
562.129	4919.21
562.492	4986.32
562.854	4995.59
563.217	5047.34
563.579	5160.78
563.941	5111.97
564.304	5201.69
564.666	5246.66
565.028	5317.61
565.39	5350.38
565.753	5397.61
566.115	5457.95
566.477	5476.03
566.839	5466.76
567.201	5582.47
567.563	5646.65
567.925	5681.22
568.287	5702.46
568.648	5758.05
569.01	5800.99
569.372	5838.96
569.734	5857.26
570.095	5921.67
570.457	6041.44
570.819	6019.06
571.18	6105.16
571.542	6186.29
571.903	6201.88
572.265	6237.14
572.626	6288.44
572.987	6325.05
573.349	6387.87
573.71	6470.58
574.071	6571.14
574.432	6623.34
574.794	6696.11
575.155	6737.01
575.516	6804.81
575.877	6878.03
576.238	6880.74
576.599	7048.42
576.96	7047.29
577.32	7195.53
577.681	7192.59
578.042	7333.38
578.403	7400.27
578.763	7476.2
579.124	7571.57
579.485	7612.92
579.845	7750.77
580.206	7845.91
580.566	7982.86
580.927	8033.25
581.287	8157.54
581.648	8233.24
582.008	8375.39
582.368	8505.33
582.728	8643.18
583.089	8758.88
583.449	8778.09
583.809	8961.59
584.169	9133.56
584.529	9233.44
584.889	9430.27
585.249	9536.49
585.609	9644.73
585.969	9773.09
586.329	9921.79
586.688	10192.29
587.048	10248.11
587.408	10464.37
587.768	10617.14
588.127	10892.61
588.487	11004.02
588.846	11331.47
589.206	11464.57
589.565	11624.79
589.925	11932.58
590.284	12110.43
590.643	12324.44
591.003	12626.57
591.362	12869.73
591.721	13068.6
592.08	13211.19
592.44	13557.17
592.799	13781.12
593.158	14020.89
593.517	14399.86
593.876	14606.18
594.235	14893.63
594.593	15170.24
594.952	15511.7
595.311	15749.2
595.67	16084.79
596.029	16357.78
596.387	16763.19
596.746	17063.07
597.104	17358.2
597.463	17567.01
597.822	17874.57
598.18	18248.35
598.538	18623.03
598.897	19067.54
599.255	19035.22
599.613	19702.09
599.972	19910.45
600.33	20312.93
600.688	20497.55
601.046	20941.84
601.404	21317.87
601.762	21589.95
602.12	21927.35
602.478	22256.15
602.836	22589.7
603.194	22839.87
603.552	23185.39
603.91	23461.32
604.268	23947.86
604.625	24091.13
604.983	24541.74
605.341	24639.37
605.698	25038
606.056	25497.65
606.413	25724.99
606.771	26160.23
607.128	26405.42
607.485	26557.06
607.843	26862.36
608.2	27232.97
608.557	27658.72
608.914	27779.85
609.272	27991.59
609.629	28269.78
609.986	28711.58
610.343	28766.49
610.7	29192.24
611.057	29469.75
611.414	29707.48
611.771	29853.69
612.127	30196.73
612.484	30334.36
612.841	30650.51
613.198	30788.58
613.554	30998.75
613.911	31314.22
614.267	31405.06
614.624	31715.11
614.98	31913.3
615.337	32250.24
615.693	32224.25
616.05	32276
616.406	32865.59
616.762	32837.79
617.118	32960.5
617.475	33085.02
617.831	33266.48
618.187	33614.5
618.543	33654.04
618.899	33936.3
619.255	34003.87
619.611	34146.01
619.967	34377.87
620.323	34675.94
620.678	34492.89
621.034	34527.02
621.39	34751.87
621.746	34839.32
622.101	35441.12
622.457	35186.21
622.812	35263.27
623.168	35548.23
623.523	35615.8
623.879	35802.01
624.234	35655.12
624.589	35795.68
624.945	35896.47
625.3	36112.51
625.655	36098.95
626.01	36199.97
626.365	36210.36
626.72	36322.45
627.075	36456.46
627.43	36377.36
627.785	36499.17
628.14	36661.88
628.495	36751.14
628.85	36657.36
629.205	36703
629.559	36940.06
629.914	36840.18
630.269	37000.85
630.623	36915.43
630.978	36910.46
631.332	37030.9
631.687	37176.66
632.041	37039.94
632.396	37213.27
632.75	37095.76
633.104	37248.98
633.459	37146.83
633.813	37079.72
634.167	37205.36
634.521	37287.62
634.875	37277.23
635.229	37222.54
635.583	37111.58
635.937	37147.06
636.291	37281.07
636.645	37223.67
636.999	37246.72
637.352	37253.5
637.706	37019.61
638.06	37409.43
638.413	37136.21
638.767	37097.34
639.121	37304.34
639.474	37120.17
639.828	37248.75
640.181	37369.88
640.534	37457.33
640.888	37200.39
641.241	37087.17
641.594	37038.59
641.947	37368.07
642.301	37220.28
642.654	37353.38
643.007	37309.99
643.36	37337.79
643.713	37286.04
644.066	37377.11
644.419	37078.14
644.771	36950
645.124	36589.11
645.477	36631.82
645.83	36335.1
646.182	36343.47
646.535	36163.36
646.888	36559.96
647.24	36335.33
647.593	36454.42
647.945	36316.12
648.298	36194.99
648.65	36199.51
649.002	36135.56
649.355	36358.38
649.707	36248.78
650.059	36358.83
650.411	36826.16
650.763	36892.6
651.115	37192.93
651.467	37221.86
651.819	37143.9
652.171	37178.7
652.523	37107.29
652.875	37246.49
653.227	36776
653.578	37165.59
653.93	37149.77
654.282	37008.31
654.633	36914.75
654.985	36943
655.337	37070.45
655.688	37026.39
656.039	37199.94
656.391	36805.15
656.742	36954.07
657.094	37020.06
657.445	36967.4
657.796	37004.46
658.147	36856.22
658.498	36851.47
658.849	36971.7
659.2	36860.51
659.551	36816
659.902	36911.59
660.253	36903.45
660.604	37068.19
660.955	36761.76
661.306	36946.16
661.656	37017.57
662.007	36884.24
662.358	36954.3
662.708	36968.08
663.059	36949.55
663.409	36756.34
663.76	37072.03
664.11	37028.87
664.461	37030.23
664.811	36926.73
665.161	37009.89
665.511	36787.75
665.862	36991.58
666.212	36950.45
666.562	37013.28
666.912	36918.37
667.262	36917.91
667.612	36991.36
667.962	36864.36
668.312	36822.77
668.662	37101.86
669.011	36945.48
669.361	36901.42
669.711	36965.6
670.06	36877.91
670.41	36741.19
670.76	36806.73
671.109	36948.87
671.459	36872.49
671.808	36723.57
672.157	36846.73
672.507	36636.79
672.856	36719.27
673.205	36734.87
673.554	36705.04
673.904	36598.37
674.253	36766.73
674.602	36786.62
674.951	36148.44
675.3	35996.81
675.649	36681.08
675.998	36652.61
676.346	36527.42
676.695	36670.24
677.044	36558.83
677.393	36526.96
677.741	36599.28
678.09	36549.11
678.438	36271.15
678.787	36438.6
679.135	36456
679.484	36203.13
679.832	36331.04
680.181	36052.4
680.529	36161.78
680.877	36247.2
681.225	36103.25
681.573	36267.54
681.922	36004.04
682.27	35968.79
682.618	35944.38
682.966	35976.92
683.314	35957.94
683.661	35795.23
684.009	35708.23
684.357	35751.62
684.705	35546.65
685.053	35545.97
685.4	35592.52
685.748	35388.91
686.095	35473.21
686.443	35291.29
686.79	35336.26
687.138	35430.95
687.485	35355.24
687.832	35138.75
688.18	35222.14
688.527	34951.86
688.874	34945.99
689.221	35004.52
689.568	34832.77
689.915	34717.29
690.262	34756.39
690.609	34596.84
690.956	34524.08
691.303	34533.12
691.65	34442.05
691.997	34363.86
692.344	34132.22
692.69	34224.88
693.037	34075.28
693.383	33935.62
693.73	34076.63
694.077	33808.39
694.423	33783.53
694.769	33659.24
695.116	33712.57
695.462	33625.57
695.808	33450.66
696.155	33554.39
696.501	33332.92
696.847	33398.91
697.193	33099.71
697.539	33265.81
697.885	32940.84
698.231	32889.32
698.577	32975.42
698.923	32863.56
699.269	32610.23
699.614	32490.46
699.96	32485.71
700.306	32446.17
700.651	32419.5
700.997	32177.02
701.342	32079.85
701.688	32196.68
702.033	32053.86
702.379	32024.03
702.724	31896.35
703.069	32038.04
703.415	31596.02
703.76	31661.33
704.105	31566.19
704.45	31586.08
704.795	31460.66
705.14	31373.65
705.485	31425.18
705.83	31298.63
706.175	31249.81
706.52	31123.49
706.865	31067.67
707.209	31100.89
707.554	30932.31
707.899	31039.88
708.243	30798.53
708.588	30686.44
708.932	30588.14
709.277	30592.43
709.621	30633.78
709.966	30420.46
710.31	30381.59
710.654	30084.87
710.998	30228.15
711.342	30248.94
711.687	30107.92
712.031	30029.73
712.375	29922.17
712.719	29961.94
713.063	29800.59
713.407	30071.09
713.75	29828.61
714.094	29737.09
714.438	29743.19
714.782	29694.15
715.125	29543.42
715.469	29616.41
715.812	29570.99
716.156	29265.46
716.499	29318.57
716.843	29334.16
717.186	29243.09
717.53	29323.76
717.873	29251.67
718.216	29135.52
718.559	29018.01
718.902	28871.57
719.246	28990.66
719.589	28852.81
719.932	28828.41
720.275	28862.76
720.617	28804.45
720.96	28688.53
721.303	28644.46
721.646	28741.41
721.989	28506.38
722.331	28602.65
722.674	28606.72
723.016	28588.19
723.359	28563.33
723.701	28500.73
724.044	28267.97
724.386	28266.62
724.729	28444.46
725.071	28255.09
725.413	28291.25
725.755	28200.63
726.097	28086.51
726.439	27996.79
726.782	27955.44
727.124	28015.1
727.465	27856.46
727.807	27817.81
728.149	27792.96
728.491	27809.45
728.833	27682.68
729.175	27757.48
729.516	27781.66
729.858	27654.43
730.199	27628.44
730.541	27558.39
730.882	27583.24
731.224	27648.1
731.565	27372.85
731.906	27437.48
732.248	27458.73
732.589	27306.87
732.93	27302.8
733.271	27264.83
733.612	27327.43
733.953	27299.64
734.294	27100.32
734.635	27112.75
734.976	27284.27
735.317	27034.33
735.658	26986.42
735.999	27036.37
736.339	26937.38
736.68	27056.03
737.021	27030.72
737.361	26884.28
737.702	27015.35
738.042	26737.16
738.383	26710.27
738.723	26760.89
739.063	26694
739.404	26766.77
739.744	26710.5
740.084	26631.86
740.424	26741.23
740.764	26594.34
741.104	26653.32
741.444	26463.73
741.784	26385.99
742.124	26426.66
742.464	26456.95
742.804	26390.05
743.143	26345.54
743.483	26308.02
743.823	26133.56
744.162	26131.08
744.502	26215.37
744.841	26165.2
745.181	26289.27
745.52	26122.27
745.86	26071.87
746.199	26134.69
746.538	26075.71
746.877	26113.9
747.216	26150.74
747.556	25861.03
747.895	25926.11
748.234	25882.5
748.573	25787.36
748.911	25886.11
749.25	25769.05
749.589	25722.28
749.928	25667.36
750.267	25718.43
750.605	25585.78
750.944	25615.16
751.283	25559.57
751.621	25616.06
751.96	25394.83
752.298	25376.75
752.636	25481.6
752.975	25286.35
753.313	25346.69
753.651	25331.55
753.989	25266.47
754.327	25192.8
754.666	25080.03
755.004	25089.75
755.342	25083.65
755.679	24902.41
756.017	24940.6
756.355	24995.52
756.693	24900.83
757.031	24929.75
757.368	24732.25
757.706	24736.31
758.044	24669.87
758.381	24583.77
758.719	24558.01
759.056	24571.35
759.394	24539.48
759.731	24290.45
760.068	24353.72
760.405	24246.83
760.743	24142.2
761.08	24165.93
761.417	24086.39
761.754	23999.84
762.091	23904.92
