Data from red_cardboard_box_FLMS001491_00033.txt Node
Date: Wed Feb 08 11:32:05 GMT 2017
User: dcchb
Spectrometer: FLMS00149
Trigger mode: 0
Integration Time (sec): 2.000000E-2
Scans to average: 10
Electric dark correction enabled: true
Nonlinearity correction enabled: false
Boxcar width: 0
XAxis mode: Wavelengths
Number of Pixels in Spectrum: 2048
>>>>>Begin Spectral Data<<<<<
341.393	-38.19
341.776	-38.19
342.16	-38.19
342.543	-33.67
342.927	-77.51
343.31	-69.83
343.693	-82.71
344.077	-42.94
344.46	-75.93
344.843	-47
345.226	-42.48
345.61	-35.71
345.993	-23.05
346.376	-13.56
346.759	-1.81
347.142	39.32
347.525	45.87
347.908	79.09
348.291	64.86
348.674	100.79
349.057	105.08
349.44	118.19
349.823	142.82
350.206	176.72
350.588	223.27
350.971	225.76
351.354	239.77
351.737	261.24
352.119	248.58
352.502	263.5
352.884	265.76
353.267	296.72
353.65	297.62
354.032	287.22
354.414	302.59
354.797	308.92
355.179	324.74
355.562	323.83
355.944	312.31
356.326	329.71
356.709	348.01
357.091	344.4
357.473	360.67
357.855	354.11
358.238	361.35
358.62	352.99
359.002	341.23
359.384	344.85
359.766	329.93
360.148	346.88
360.53	348.47
360.912	357.05
361.294	336.94
361.676	334
362.057	350.27
362.439	314.12
362.821	338.75
363.203	341.46
363.584	337.84
363.966	357.73
364.348	331.29
364.729	336.49
365.111	308.24
365.493	315.25
365.874	317.28
366.256	321.35
366.637	312.76
367.019	330.16
367.4	310.95
367.781	291.97
368.163	322.03
368.544	301.91
368.925	322.48
369.306	315.25
369.688	316.15
370.069	308.01
370.45	302.59
370.831	311.86
371.212	317.28
371.593	311.86
371.974	296.49
372.355	303.95
372.736	324.51
373.117	303.04
373.498	333.1
373.879	314.12
374.26	326.77
374.641	305.75
375.021	310.5
375.402	337.17
375.783	327.45
376.163	356.83
376.544	316.15
376.925	321.57
377.305	327.67
377.686	333.78
378.066	328.58
378.447	328.35
378.827	300.33
379.208	326.32
379.588	322.25
379.968	325.42
380.349	318.41
380.729	337.62
381.109	341.91
381.489	335.36
381.87	324.51
382.25	326.55
382.63	322.7
383.01	345.75
383.39	329.71
383.77	336.94
384.15	337.39
384.53	332.19
384.91	359.31
385.29	355.47
385.67	365.19
386.049	350.5
386.429	336.26
386.809	348.92
387.189	347.34
387.568	343.27
387.948	352.99
388.328	366.09
388.707	320.9
389.087	356.83
389.466	347.56
389.846	345.75
390.225	340.56
390.605	373.1
390.984	348.69
391.363	348.24
391.743	353.21
392.122	373.32
392.501	363.38
392.881	338.07
393.26	371.52
393.639	341.46
394.018	347.79
394.397	369.26
394.776	357.05
395.155	356.37
395.534	372.65
395.913	368.35
396.292	365.87
396.671	360.67
397.05	362.02
397.429	346.66
397.808	355.02
398.186	350.5
398.565	361.8
398.944	369.71
399.323	367.45
399.701	364.96
400.08	381.23
400.458	381.91
400.837	383.72
401.215	381.91
401.594	371.29
401.972	363.38
402.351	379.65
402.729	392.98
403.107	398.18
403.486	377.62
403.864	386.43
404.242	388.46
404.62	379.88
404.999	399.09
405.377	381.23
405.755	390.95
406.133	409.03
406.511	390.95
406.889	402.25
407.267	408.12
407.645	388.24
408.023	414.23
408.401	396.37
408.779	414.23
409.156	403.61
409.534	406.32
409.912	399.99
410.29	412.87
410.667	414.68
411.045	414.23
411.422	416.03
411.8	413.55
412.178	425.3
412.555	427.56
412.933	409.25
413.31	404.28
413.687	444.51
414.065	440.21
414.442	435.92
414.819	415.81
415.197	417.84
415.574	445.41
415.951	430.05
416.328	427.11
416.705	426.43
417.082	449.25
417.46	450.16
417.837	434.11
418.214	456.49
418.591	445.19
418.967	454.68
419.344	467.33
419.721	450.84
420.098	454.23
420.475	432.08
420.852	460.55
421.228	460.55
421.605	462.81
421.982	459.2
422.358	464.17
422.735	463.49
423.111	456.03
423.488	472.76
423.864	450.84
424.241	477.28
424.617	464.17
424.994	472.98
425.37	473.21
425.746	472.08
426.123	482.47
426.499	488.8
426.875	477.95
427.251	475.92
427.627	487.44
428.003	469.14
428.379	491.06
428.756	473.89
429.132	478.18
429.507	482.02
429.883	510.5
430.259	517.27
430.635	531.74
431.011	509.37
431.387	527.67
431.763	522.25
432.138	497.84
432.514	515.47
432.89	536.71
433.265	504.62
433.641	514.56
434.016	539.19
434.392	523.15
434.767	537.39
435.143	551.17
435.518	541.45
435.894	557.5
436.269	528.35
436.644	565.41
437.02	545.3
437.395	563.38
437.77	571.06
438.145	575.13
438.52	548.69
438.895	583.71
439.271	563.15
439.646	591.85
440.021	572.41
440.395	589.81
440.77	571.06
441.145	596.37
441.52	595.92
441.895	611.28
442.27	578.06
442.645	580.55
443.019	593.43
443.394	592.53
443.769	606.99
444.143	592.53
444.518	598.85
444.892	597.72
445.267	593.66
445.641	601.57
446.016	598.85
446.39	597.72
446.764	625.07
447.139	612.19
447.513	618.29
447.887	619.64
448.262	633.43
448.636	634.79
449.01	629.81
449.384	628.46
449.758	619.64
450.132	640.21
450.506	644.5
450.88	634.33
451.254	623.71
451.628	652.86
452.002	649.47
452.376	655.58
452.75	665.52
453.123	666.65
453.497	682.02
453.871	648.34
454.244	663.03
454.618	672.3
454.992	687.67
455.365	706.87
455.739	682.92
456.112	701.68
456.486	699.42
456.859	717.72
457.232	720.88
457.606	717.04
457.979	705.52
458.352	728.34
458.725	707.78
459.099	701.9
459.472	732.64
459.845	757.95
460.218	734.44
460.591	749.81
460.964	738.74
461.337	763.14
461.71	757.49
462.083	773.09
462.456	779.41
462.829	768.34
463.201	797.49
463.574	796.14
463.947	803.14
464.32	823.26
464.692	799.08
465.065	805.63
465.438	811.28
465.81	846.31
466.183	818.28
466.555	832.07
466.928	823.03
467.3	872.07
467.672	817.61
468.045	884.27
468.417	866.19
468.789	848.57
469.161	874.1
469.534	890.82
469.906	886.53
470.278	893.31
470.65	895.12
471.022	901.9
471.394	934.44
471.766	926.76
472.138	954.33
472.51	955.68
472.882	952.74
473.253	959.97
473.625	964.95
473.997	988.45
474.369	1001.78
474.74	1002.23
475.112	1020.54
475.484	1024.83
475.855	1024.83
476.227	1065.73
476.598	1067.32
476.97	1086.53
477.341	1100.99
477.713	1090.59
478.084	1115.22
478.455	1129.46
478.827	1133.08
479.198	1149.12
479.569	1162.68
479.94	1182.57
480.311	1205.62
480.682	1209.23
481.053	1232.51
481.424	1231.61
481.795	1234.77
482.166	1263.47
482.537	1262.79
482.908	1290.81
483.279	1295.11
483.65	1314.99
484.021	1340.3
484.391	1345.73
484.762	1363.81
485.133	1360.87
485.503	1394.09
485.874	1376.23
486.244	1411.94
486.615	1446.97
486.985	1453.75
487.356	1444.26
487.726	1451.26
488.097	1522.22
488.467	1498.49
488.837	1524.71
489.207	1551.6
489.578	1547.98
489.948	1573.74
490.318	1613.52
490.688	1607.87
491.058	1628.21
491.428	1663.01
491.798	1695.77
492.168	1681.31
492.538	1715.44
492.908	1705.94
493.278	1720.63
493.648	1710.92
494.017	1761.76
494.387	1757.47
494.757	1777.35
495.126	1811.03
495.496	1789.78
495.866	1827.3
496.235	1822.32
496.605	1832.95
496.974	1847.18
497.344	1857.35
497.713	1882.89
498.082	1899.61
498.452	1912.49
498.821	1901.42
499.19	1933.96
499.559	1916.79
499.928	1948.42
500.298	1945.71
500.667	1992.49
501.036	1980.51
501.405	1996.11
501.774	1988.87
502.143	2028.87
502.512	1997.69
502.88	2022.77
503.249	2048.08
503.618	2079.49
503.987	2067.29
504.356	2072.49
504.724	2132.37
505.093	2096.89
505.462	2115.65
505.83	2132.83
506.199	2134.41
506.567	2160.62
506.936	2173.73
507.304	2172.37
507.672	2217.79
508.041	2241.97
508.409	2223.44
508.777	2271.13
509.145	2293.05
509.514	2253.95
509.882	2247.4
510.25	2257.79
510.618	2303.22
510.986	2310.22
511.354	2333.95
511.722	2352.71
512.09	2370.11
512.458	2359.03
512.826	2390.67
513.193	2409.43
513.561	2434.74
513.929	2460.27
514.297	2472.48
514.664	2417.11
515.032	2464.12
515.4	2504.11
515.767	2488.52
516.135	2519.93
516.502	2535.75
516.869	2565.13
517.237	2604
517.604	2553.15
517.972	2617.78
518.339	2630.67
518.706	2576.43
519.073	2678.12
519.44	2676.09
519.808	2698.69
520.175	2685.58
520.542	2738.91
520.909	2739.59
521.276	2752.24
521.643	2799.93
522.009	2801.96
522.376	2823.88
522.743	2819.59
523.11	2826.59
523.477	2868.4
523.843	2934.84
524.21	2959.47
524.577	2960.6
524.943	2963.99
525.31	2966.02
525.676	3000.15
526.043	3039.02
526.409	3056.87
526.776	3065.68
527.142	3088.28
527.508	3108.17
527.874	3142.06
528.241	3180.48
528.607	3171.22
528.973	3175.51
529.339	3197.66
529.705	3205.57
530.071	3253.02
530.437	3267.26
530.803	3248.73
531.169	3265.9
531.535	3316.52
531.901	3335.73
532.267	3335.28
532.632	3360.14
532.998	3380.25
533.364	3392.91
533.73	3390.65
534.095	3413.02
534.461	3469.51
534.826	3434.71
535.192	3494.82
535.557	3497.31
535.923	3548.16
536.288	3535.05
536.653	3547.48
537.019	3562.62
537.384	3542.28
537.749	3598.32
538.114	3586.35
538.479	3606.91
538.845	3648.27
539.21	3623.86
539.575	3660.24
539.94	3685.33
540.305	3706.12
540.67	3701.15
541.034	3732.78
541.399	3762.16
541.764	3767.13
542.129	3773.46
542.494	3821.37
542.858	3780.24
543.223	3819.79
543.587	3820.92
543.952	3851.88
544.316	3863.18
544.681	3873.57
545.045	3887.58
545.41	3936.39
545.774	3964.19
546.138	3942.5
546.503	3958.54
546.867	3973.23
547.231	4009.16
547.595	4064.75
547.959	4076.05
548.324	4087.35
548.688	4085.32
549.052	4057.97
549.416	4078.31
549.779	4086.9
550.143	4170.51
550.507	4204.41
550.871	4250.96
551.235	4187.91
551.599	4272.66
551.962	4290.96
552.326	4265.88
552.689	4293.67
553.053	4331.86
553.417	4310.62
553.78	4384.07
554.143	4407.12
554.507	4391.97
554.87	4411.41
555.234	4510.16
555.597	4485.98
555.96	4502.93
556.323	4542.48
556.686	4583.38
557.05	4629.71
557.413	4654.11
557.776	4700.44
558.139	4716.94
558.502	4735.47
558.865	4703.83
559.228	4777.73
559.59	4829.48
559.953	4817.95
560.316	4876.26
560.679	4855.92
561.041	4958.51
561.404	4958.29
561.767	5023.82
562.129	5038.96
562.492	5127.77
562.854	5127.1
563.217	5139.98
563.579	5179.3
563.941	5221.11
564.304	5282.12
564.666	5344.49
565.028	5449.8
565.39	5427.88
565.753	5442.34
566.115	5517.82
566.477	5534.54
566.839	5543.36
567.201	5618.38
567.563	5623.58
567.925	5730.02
568.287	5724.37
568.648	5783.8
569.01	5847.76
569.372	5879.17
569.734	5915.78
570.095	6047.07
570.457	6062.89
570.819	6162.55
571.18	6150.8
571.542	6269.44
571.903	6221.08
572.265	6347.4
572.626	6360.96
572.987	6376.1
573.349	6483.9
573.71	6550.34
574.071	6594.63
574.432	6674.85
574.794	6733.38
575.155	6848.63
575.516	6839.37
575.877	6917.11
576.238	6983.77
576.599	7090.44
576.96	7157.33
577.32	7153.71
577.681	7312.58
578.042	7388.51
578.403	7443.42
578.763	7524.1
579.124	7569.07
579.485	7708.95
579.845	7807.25
580.206	7880.24
580.566	8006.12
580.927	8058.32
581.287	8216.06
581.648	8213.8
582.008	8374.47
582.368	8524.07
582.728	8559.1
583.089	8736.72
583.449	8820.33
583.809	8940.33
584.169	9080.21
584.529	9166.31
584.889	9366.53
585.249	9493.76
585.609	9554.55
585.969	9744.38
586.329	9855.33
586.688	10066.4
587.048	10169.68
587.408	10284.48
587.768	10503.68
588.127	10688.98
588.487	10847.62
588.846	11112.93
589.206	11212.13
589.565	11415.75
589.925	11628.17
590.284	11747.94
590.643	12041.94
591.003	12211.2
591.362	12440.35
591.721	12629.72
592.08	12925.54
592.44	13123.27
592.799	13360.33
593.158	13654.56
593.517	13881.89
593.876	14104.71
594.235	14284.6
594.593	14658.6
594.952	14816.56
595.311	15001.19
595.67	15367.28
596.029	15706.48
596.387	15948.28
596.746	16175.17
597.104	16405.44
597.463	16686.34
597.822	17033.45
598.18	17286.78
598.538	17521.8
598.897	17923.37
599.255	18134.89
599.613	18567.65
599.972	18845.15
600.33	19239.04
600.688	19349.1
601.046	19644.91
601.404	20079.02
601.762	20274.95
602.12	20725.1
602.478	20984.31
602.836	21216.39
603.194	21370.29
603.552	21786.77
603.91	22031.74
604.268	22328.45
604.625	22524.61
604.983	22962.11
605.341	23093.86
605.698	23462.66
606.056	23832.37
606.413	23994.85
606.771	24399.58
607.128	24671.44
607.485	24762.96
607.843	25042.96
608.2	25359.56
608.557	25864.86
608.914	25800.45
609.272	26142.14
609.629	26384.39
609.986	26776.92
610.343	26817.15
610.7	27274.54
611.057	27328.1
611.414	27614.64
611.771	27928.53
612.127	28138.7
612.484	28228.41
612.841	28615.74
613.198	28621.62
613.554	28782.97
613.911	29083.53
614.267	29298.21
614.624	29333.24
614.98	29511.54
615.337	29891.19
615.693	29966.67
616.05	30073.33
616.406	30417.96
616.762	30462.7
617.118	30616.14
617.475	30837.16
617.831	31094.32
618.187	31101.1
618.543	31375.45
618.899	31657.02
619.255	31738.83
619.611	31779.73
619.967	32081.87
620.323	32275.54
620.678	32112.6
621.034	32137.91
621.39	32376.78
621.746	32346.95
622.101	32815.18
622.457	32697.45
622.812	32885.24
623.168	33009.53
623.523	33011.56
623.879	33330.88
624.234	33196.87
624.589	33379.01
624.945	33370.2
625.3	33518.67
625.655	33656.06
626.01	33613.81
626.365	33899
626.72	33796.85
627.075	33951.42
627.43	34037.07
627.785	34023.74
628.14	34034.36
628.495	34277.06
628.85	34186.45
629.205	34149.38
629.559	34531.97
629.914	34296.95
630.269	34422.15
630.623	34345.54
630.978	34420.11
631.332	34565.19
631.687	34725.64
632.041	34504.4
632.396	34688.58
632.75	34548.02
633.104	34690.39
633.459	34460.79
633.813	34462.6
634.167	34602.93
634.521	34623.27
634.875	34746.43
635.229	34705.98
635.583	34689.48
635.937	34690.16
636.291	34697.17
636.645	34844.51
636.999	34650.39
637.352	34756.37
637.706	34529.26
638.06	34710.5
638.413	34764.74
638.767	34628.24
639.121	34753.44
639.474	34529.04
639.828	34643.61
640.181	34858.97
640.534	34776.26
640.888	34768.8
641.241	34596.83
641.594	34663.27
641.947	34912.53
642.301	34707.79
642.654	34753.66
643.007	34724.74
643.36	34815.81
643.713	34695.13
644.066	34779.2
644.419	34591.86
644.771	34336.05
645.124	33991.2
645.477	33990.97
645.83	33949.62
646.182	33819.68
646.535	33804.99
646.888	33888.6
647.24	33785.33
647.593	34068.93
647.945	33993.23
648.298	33747.14
648.65	33841.14
649.002	33663.07
649.355	33889.5
649.707	33753.01
650.059	33932.67
650.411	34232.55
650.763	34307.35
651.115	34821.46
651.467	34514.8
651.819	34598.86
652.171	34613.33
652.523	34611.97
652.875	34552.76
653.227	34389.15
653.578	34585.53
653.93	34614.23
654.282	34437.96
654.633	34479.32
654.985	34559.77
655.337	34356.84
655.688	34496.27
656.039	34680.67
656.391	34382.15
656.742	34372.88
657.094	34476.16
657.445	34458.98
657.796	34526.1
658.147	34425.08
658.498	34425.31
658.849	34424.41
659.2	34401.81
659.551	34375.37
659.902	34469.15
660.253	34432.77
660.604	34516.38
660.955	34179.21
661.306	34329.49
661.656	34296.73
662.007	34376.27
662.358	34473.9
662.708	34508.47
663.059	34465.08
663.409	34240.91
663.76	34468.25
664.11	34508.25
664.461	34572.88
664.811	34526.55
665.161	34498.3
665.511	34455.37
665.862	34534.01
666.212	34523.84
666.562	34498.75
666.912	34343.5
667.262	34467.34
667.612	34496.04
667.962	34454.69
668.312	34445.87
668.662	34563.16
669.011	34524.74
669.361	34539.88
669.711	34480.68
670.06	34379.66
670.41	34170.4
670.76	34201.13
671.109	34456.95
671.459	34313.45
671.808	34260.79
672.157	34393.22
672.507	34073.45
672.856	34163.4
673.205	34225.77
673.554	34333.56
673.904	34166.79
674.253	34336.5
674.602	34208.82
674.951	33695.16
675.3	33727.7
675.649	34108.26
675.998	34083.62
676.346	34182.15
676.695	34174.24
677.044	33873.69
677.393	34036.62
677.741	34117.75
678.09	33914.14
678.438	33860.8
678.787	34060.35
679.135	33925.44
679.484	33770.19
679.832	33966.34
680.181	33831.2
680.529	33908.71
680.877	33727.93
681.225	33712.11
681.573	33818.32
681.922	33786.91
682.27	33628.27
682.618	33689.51
682.966	33478.67
683.314	33567.48
683.661	33544.88
684.009	33445.9
684.357	33212.46
684.705	33206.81
685.053	33307.37
685.4	33145.57
685.748	33065.35
686.095	33125.68
686.443	32944.9
686.79	32795.75
687.138	32877.78
687.485	32927.27
687.832	32627.39
688.18	32751.23
688.527	32560.95
688.874	32619.71
689.221	32324.35
689.568	32420.39
689.915	32307.85
690.262	32433.27
690.609	32254.75
690.956	32212.49
691.303	32084.81
691.65	31986.96
691.997	32001.42
692.344	31860.63
692.69	31900.63
693.037	31847.98
693.383	31415.45
693.73	31664.93
694.077	31560.53
694.423	31461.77
694.769	31445.95
695.116	31423.13
695.462	31204.6
695.808	31192.17
696.155	31163.02
696.501	30954.89
696.847	31061.78
697.193	30800.77
697.539	30897.04
697.885	30740.66
698.231	30731.85
698.577	30629.48
698.923	30498.41
699.269	30451.63
699.614	30248.02
699.96	30189.26
700.306	30238.07
700.651	30163.27
700.997	30090.28
701.342	30044.86
701.688	29907.24
702.033	29904.75
702.379	29891.19
702.724	29752.66
703.069	29955.6
703.415	29515.61
703.76	29573.01
704.105	29611.42
704.45	29426.57
704.795	29339.79
705.14	29281.72
705.485	29168.95
705.83	29130.08
706.175	29166.46
706.52	29059.8
706.865	28935.96
707.209	28926.02
707.554	28833.82
707.899	28785.23
708.243	28749.07
708.588	28653.48
708.932	28474.73
709.277	28493.71
709.621	28459.36
709.966	28213.27
710.31	28380.04
710.654	28120.39
710.998	28216.43
711.342	28194.06
711.687	28189.99
712.031	27968.3
712.375	27835.43
712.719	27827.52
713.063	27866.61
713.407	28019.38
713.75	27738.71
714.094	27847.86
714.438	27642.21
714.782	27672.72
715.125	27455.78
715.469	27630.91
715.812	27468.2
716.156	27280.41
716.499	27374.42
716.843	27303.91
717.186	27235.89
717.53	27336.23
717.873	27282.45
718.216	27179.62
718.559	27163.35
718.902	26946.18
719.246	27070.25
719.589	26821.67
719.932	26795.23
720.275	26817.6
720.617	26789.13
720.96	26713.65
721.303	26791.16
721.646	26815.11
721.989	26594.55
722.331	26688.79
722.674	26586.42
723.016	26670.71
723.359	26535.8
723.701	26549.13
724.044	26337.39
724.386	26345.52
724.729	26458.06
725.071	26313.88
725.413	26372.19
725.755	26247.9
726.097	26082.03
726.439	26042.93
726.782	26029.37
727.124	26095.81
727.465	25976.49
727.807	26050.16
728.149	26017.17
728.491	25791.86
728.833	25910.73
729.175	25800.45
729.516	25761.58
729.858	25743.05
730.199	25728.82
730.541	25820.79
730.882	25704.63
731.224	25825.76
731.565	25707.8
731.906	25566.56
732.248	25603.85
732.589	25468.48
732.93	25430.97
733.271	25360.46
733.612	25451.31
733.953	25296.51
734.294	25311.42
734.635	25307.36
734.976	25409.28
735.317	25201.82
735.658	25318.88
735.999	25188.49
736.339	25225.55
736.68	25218.32
737.021	25116.4
737.361	24954.15
737.702	25271.65
738.042	25104.65
738.383	24974.03
738.723	25089.51
739.063	24909.85
739.404	24887.93
739.744	24776.07
740.084	24732.91
740.424	24729.07
740.764	24803.87
741.104	24747.15
741.444	24666.02
741.784	24540.37
742.124	24580.6
742.464	24547.6
742.804	24666.92
743.143	24566.59
743.483	24570.65
743.823	24546.25
744.162	24447.27
744.502	24577.88
744.841	24377.21
745.181	24446.14
745.52	24377.44
745.86	24370.21
746.199	24201.62
746.538	24157.78
746.877	24297.67
747.216	24257.44
747.556	24200.95
747.895	24245.69
748.234	24134.05
748.573	24021.06
748.911	24007.96
749.25	23899.26
749.589	23815.87
749.928	23934.51
750.267	23921.86
750.605	23923.21
750.944	23840.96
751.283	23722.09
751.621	23792.14
751.96	23616.33
752.298	23757.79
752.636	23645.48
752.975	23585.37
753.313	23375.66
753.651	23619.04
753.989	23447.75
754.327	23330.01
754.666	23344.92
755.004	23405.49
755.342	23321.19
755.679	23233.51
756.017	23131.37
756.355	23138.6
756.693	23190.8
757.031	23154.87
757.368	22967.98
757.706	22927.98
758.044	22958.94
758.381	22941.09
758.719	22785.16
759.056	22793.3
759.394	22737.71
759.731	22730.48
760.068	22582.91
760.405	22629.01
760.743	22404.38
761.08	22508.33
