Data from red_shiny_book_FLMS001491_00043.txt Node
Date: Wed Feb 08 15:24:54 GMT 2017
User: dcchb
Spectrometer: FLMS00149
Trigger mode: 0
Integration Time (sec): 2.000000E-2
Scans to average: 10
Electric dark correction enabled: true
Nonlinearity correction enabled: false
Boxcar width: 0
XAxis mode: Wavelengths
Number of Pixels in Spectrum: 2048
>>>>>Begin Spectral Data<<<<<
341.393	-11.13
341.776	-11.13
342.16	-11.13
342.543	-74.18
342.927	-73.05
343.31	-73.27
343.693	-66.27
344.077	-82.99
344.46	-62.65
344.843	-69.89
345.226	-55.87
345.61	-26.72
345.993	-28.76
346.376	11.24
346.759	30.68
347.142	36.33
347.525	51.02
347.908	55.31
348.291	81.52
348.674	100.28
349.057	100.05
349.44	109.32
349.823	146.61
350.206	165.59
350.588	187.96
350.971	213.5
351.354	234.74
351.737	240.62
352.119	258.69
352.502	274.74
352.884	269.54
353.267	263.44
353.65	292.82
354.032	299.82
354.414	298.69
354.797	302.08
355.179	324
355.562	297.79
355.944	331.69
356.326	352.25
356.709	356.09
357.091	338.47
357.473	349.31
357.855	351.8
358.238	361.74
358.62	358.35
359.002	303.21
359.384	359.71
359.766	337.56
360.148	340.5
360.53	351.12
360.912	338.24
361.294	332.59
361.676	318.81
362.057	339.82
362.439	364.68
362.821	342.08
363.203	342.31
363.584	326.94
363.966	338.01
364.348	326.49
364.729	328.75
365.111	333.04
365.493	325.81
365.874	291.24
366.256	331.91
366.637	332.82
367.019	300.95
367.4	328.75
367.781	327.84
368.163	343.89
368.544	319.71
368.925	331.23
369.306	324.23
369.688	326.04
370.069	326.94
370.45	307.51
370.831	309.99
371.212	319.71
371.593	322.42
371.974	322.42
372.355	331.69
372.736	303.21
373.117	312.25
373.498	338.01
373.879	339.6
374.26	325.81
374.641	317
375.021	321.52
375.402	338.24
375.783	301.86
376.163	342.08
376.544	340.27
376.925	327.62
377.305	336.88
377.686	330.1
378.066	340.73
378.447	350.44
378.827	357.45
379.208	322.42
379.588	352.48
379.968	315.42
380.349	368.52
380.729	358.58
381.109	340.05
381.489	357.22
381.87	360.16
382.25	350.89
382.63	355.19
383.01	367.62
383.39	367.84
383.77	371.69
384.15	344.12
384.53	349.99
384.91	359.03
385.29	374.62
385.67	371.69
386.049	363.1
386.429	351.57
386.809	385.47
387.189	366.26
387.568	361.74
387.948	373.94
388.328	361.06
388.707	373.72
389.087	380.72
389.466	378.01
389.846	393.15
390.225	381.18
390.605	382.31
390.984	360.84
391.363	382.08
391.743	398.8
392.122	387.05
392.501	384.57
392.881	401.97
393.26	397.22
393.639	403.32
394.018	372.82
394.397	368.3
394.776	385.92
395.155	379.82
395.534	406.26
395.913	400.61
396.292	399.71
396.671	423.66
397.05	405.13
397.429	404.45
397.808	425.92
398.186	401.74
398.565	397.22
398.944	400.16
399.323	405.13
399.701	418.46
400.08	389.76
400.458	418.01
400.837	422.31
401.215	433.38
401.594	427.28
401.972	415.98
402.351	415.98
402.729	438.35
403.107	449.42
403.486	434.96
403.864	426.15
404.242	429.99
404.62	462.76
404.999	448.07
405.377	440.61
405.755	461.17
406.133	444.23
406.511	456.2
406.889	457.78
407.267	456.88
407.645	472.47
408.023	472.7
408.401	476.77
408.779	466.6
409.156	483.77
409.534	475.19
409.912	459.82
410.29	493.04
410.667	478.35
411.045	467.95
411.422	500.27
411.8	493.04
412.178	513.38
412.555	501.63
412.933	533.04
413.31	503.66
413.687	506.82
414.065	539.36
414.442	527.61
414.819	515.41
415.197	533.49
415.574	529.65
415.951	546.82
416.328	537.33
416.705	534.17
417.082	540.95
417.46	551.12
417.837	561.96
418.214	560.83
418.591	584.56
418.967	605.13
419.344	593.37
419.721	584.79
420.098	590.89
420.475	610.32
420.852	595.63
421.228	587.72
421.605	620.27
421.982	625.24
422.358	615.97
422.735	617.78
423.111	629.53
423.488	631.79
423.864	636.54
424.241	629.76
424.617	624.79
424.994	633.15
425.37	653.49
425.746	632.47
426.123	637.44
426.499	666.59
426.875	640.38
427.251	659.59
427.627	679.7
428.003	691.68
428.379	701.17
428.756	688.96
429.132	699.13
429.507	691.45
429.883	708.63
430.259	724.67
430.635	696.2
431.011	702.52
431.387	732.81
431.763	755.63
432.138	759.02
432.514	762.64
432.89	763.09
433.265	779.36
433.641	767.61
434.016	749.3
434.392	793.82
434.767	778.23
435.143	787.04
435.518	778.68
435.894	778.68
436.269	816.42
436.644	822.07
437.02	813.26
437.395	841.28
437.77	848.51
438.145	848.51
438.52	825.01
438.895	854.38
439.271	820.94
439.646	852.35
440.021	863.88
440.395	846.93
440.77	869.53
441.145	870.66
441.52	900.26
441.895	892.12
442.27	914.95
442.645	897.1
443.019	922.63
443.394	905
443.769	892.35
444.143	878.11
444.518	908.85
444.892	918.34
445.267	912.24
445.641	905.68
446.016	944.78
446.39	928.73
446.764	953.59
447.139	954.95
447.513	956.75
447.887	954.27
448.262	956.3
448.636	953.36
449.01	923.31
449.384	946.81
449.758	973.93
450.132	970.31
450.506	973.48
450.88	1022.74
451.254	994.49
451.628	1030.88
452.002	1010.31
452.376	1013.02
452.75	1010.31
453.123	1007.6
453.497	1016.19
453.871	990.65
454.244	1011.22
454.618	1041.95
454.992	1066.58
455.365	1079.92
455.739	1116.3
456.112	1088.05
456.486	1093.7
456.859	1117.88
457.232	1085.34
457.606	1083.3
457.979	1084.89
458.352	1105.45
458.725	1065.68
459.099	1086.02
459.472	1115.17
459.845	1146.58
460.218	1161.72
460.591	1151.1
460.964	1175.73
461.337	1195.84
461.71	1219.35
462.083	1218.67
462.456	1210.76
462.829	1189.06
463.201	1209.4
463.574	1211.21
463.947	1181.61
464.32	1212.34
464.692	1247.59
465.065	1237.2
465.438	1302.06
465.81	1308.38
466.183	1330.53
466.555	1328.04
466.928	1336.41
467.3	1329.85
467.672	1360.59
468.045	1344.09
468.417	1319.46
468.789	1311.77
469.161	1320.81
469.534	1342.51
469.906	1381.15
470.278	1409.17
470.65	1454.82
471.022	1475.61
471.394	1510.64
471.766	1553.35
472.138	1526.01
472.51	1542.73
472.882	1543.63
473.253	1535.72
473.625	1537.76
473.997	1545.89
474.369	1537.3
474.74	1562.16
475.112	1610.3
475.484	1642.61
475.855	1665.89
476.227	1722.38
476.598	1770.29
476.97	1773.46
477.341	1801.25
477.713	1815.04
478.084	1814.81
478.455	1839.67
478.827	1804.42
479.198	1818.2
479.569	1785.89
479.94	1837.64
480.311	1910.63
480.682	1947.91
481.053	2007.35
481.424	2054.35
481.795	2130.06
482.166	2157.63
482.537	2199.89
482.908	2222.26
483.279	2226.1
483.65	2258.87
484.021	2230.17
484.391	2210.51
484.762	2241.01
485.133	2211.41
485.503	2203.05
485.874	2260.68
486.244	2347.23
486.615	2394.91
486.985	2502.25
487.356	2547.9
487.726	2605.07
488.097	2686.65
488.467	2687.1
488.837	2692.53
489.207	2728.69
489.578	2725.3
489.948	2686.43
490.318	2685.3
490.688	2699.53
491.058	2696.82
491.428	2747.67
491.798	2783.37
492.168	2839.42
492.538	2940.21
492.908	3026.53
493.278	3130.03
493.648	3120.54
494.017	3192.85
494.387	3168.9
494.757	3215.45
495.126	3174.78
495.496	3159.18
495.866	3118.96
496.235	3102.23
496.605	3093.2
496.974	3097.49
497.344	3131.61
497.713	3206.86
498.082	3282.34
498.452	3339.97
498.821	3445.28
499.19	3449.34
499.559	3524.82
499.928	3536.35
500.298	3619.51
500.667	3548.32
501.036	3502.68
501.405	3496.35
501.774	3424.94
502.143	3386.52
502.512	3367.09
502.88	3405.96
503.249	3419.51
503.618	3452.28
503.987	3550.36
504.356	3561.21
504.724	3620.19
505.093	3732.95
505.462	3767.53
505.83	3810.24
506.199	3855.66
506.567	3895.89
506.936	3817.92
507.304	3751.94
507.672	3751.71
508.041	3697.25
508.409	3670.13
508.777	3659.06
509.145	3665.16
509.514	3634.42
509.882	3711.48
510.25	3839.84
510.618	3863.34
510.986	3964.59
511.354	4053.62
511.722	4053.85
512.09	4099.04
512.458	4112.15
512.826	4159.61
513.193	4080.74
513.561	4010.46
513.929	3967.52
514.297	3959.39
514.664	3877.36
515.032	3836.68
515.4	3883.91
515.767	3937.47
516.135	3952.38
516.502	3968.2
516.869	4088.88
517.237	4222.21
517.604	4225.82
517.972	4332.94
518.339	4393.27
518.706	4438.02
519.073	4401.18
519.44	4393.95
519.808	4319.15
520.175	4286.61
520.542	4248.65
520.909	4179.27
521.276	4088.65
521.643	4146.73
522.009	4132.26
522.376	4130.68
522.743	4197.12
523.11	4299.72
523.477	4420.62
523.843	4545.81
524.21	4633.49
524.577	4731.8
524.943	4785.81
525.31	4840.95
525.676	4873.94
526.043	4816.09
526.409	4772.02
526.776	4717.79
527.142	4656.54
527.508	4626.04
527.874	4563.44
528.241	4545.13
528.607	4570.44
528.973	4629.65
529.339	4672.81
529.705	4732.25
530.071	4913.71
530.437	5033.03
530.803	5132.69
531.169	5226.25
531.535	5312.12
531.901	5383.98
532.267	5416.98
532.632	5455.85
532.998	5408.16
533.364	5352.12
533.73	5260.6
534.095	5218.79
534.461	5147.6
534.826	5134.95
535.192	5113.93
535.557	5140.15
535.923	5124.55
536.288	5237.55
536.653	5309.63
537.019	5423.76
537.384	5564.77
537.749	5701.94
538.114	5781.26
538.479	5927.92
538.845	5921.14
539.21	5962.95
539.575	5956.17
539.94	5893.12
540.305	5888.6
540.67	5824.42
541.034	5751.88
541.399	5655.61
541.764	5626.46
542.129	5607.93
542.494	5606.35
542.858	5649.51
543.223	5651.32
543.587	5816.51
543.952	5831.2
544.316	6046.56
544.681	6152.55
545.045	6293.11
545.41	6461.69
545.774	6473.9
546.138	6556.61
546.503	6537.4
546.867	6498.3
547.231	6493.33
547.595	6371.08
547.959	6237.07
548.324	6203.85
548.688	6040.24
549.052	5988.26
549.416	5981.93
549.779	5943.29
550.143	6020.35
550.507	6089.27
550.871	6209.05
551.235	6285.88
551.599	6375.37
551.962	6520
552.326	6602.48
552.689	6793.66
553.053	6757.73
553.417	6859.65
553.78	6987.33
554.143	6866.66
554.507	6800.44
554.87	6727.9
555.234	6661.46
555.597	6529.49
555.96	6403.84
556.323	6357.52
556.686	6332.88
557.05	6290.17
557.413	6298.08
557.776	6339.44
558.139	6427.35
558.502	6524.74
558.865	6605.87
559.228	6719.99
559.59	6918.63
559.953	7035.24
560.316	7229.81
560.679	7299.41
561.041	7309.13
561.404	7355.23
561.767	7349.58
562.129	7254.44
562.492	7160.89
562.854	7111.17
563.217	6931.29
563.579	6813.1
563.941	6739.65
564.304	6710.05
564.666	6721.57
565.028	6656.72
565.39	6724.51
565.753	6822.14
566.115	6942.81
566.477	7038.63
566.839	7228.91
567.201	7449.01
567.563	7511.84
567.925	7677.03
568.287	7801.77
568.648	7878.83
569.01	7919.74
569.372	7894.2
569.734	7784.6
570.095	7808.1
570.457	7686.97
570.819	7574.66
571.18	7431.61
571.542	7399.75
571.903	7272.97
572.265	7262.8
572.626	7266.87
572.987	7279.07
573.349	7269.36
573.71	7486.07
574.071	7583.92
574.432	7731.27
574.794	8020.07
575.155	8249.67
575.516	8308.43
575.877	8538.7
576.238	8654.86
576.599	8875.64
576.96	8945.25
577.32	8968.07
577.681	9004.23
578.042	9013.49
578.403	9005.13
578.763	8945.02
579.124	8985.02
579.485	8892.59
579.845	8978.01
580.206	8985.7
580.566	9046.03
580.927	9114.51
581.287	9350.43
581.648	9610.99
582.008	9849.4
582.368	10167.36
582.728	10521.47
583.089	10886.89
583.449	11314.45
583.809	11686.19
584.169	12109.23
584.529	12389.67
584.889	12920.51
585.249	13116.89
585.609	13367.95
585.969	13752.8
586.329	13937.2
586.688	14328.15
587.048	14482.27
587.408	14774.7
587.768	15079.32
588.127	15257.17
588.487	15521.57
588.846	16033.42
589.206	16263.02
589.565	16707.75
589.925	17245.14
590.284	17798.57
590.643	18406.47
591.003	18938.43
591.362	19786.09
591.721	20263.82
592.08	20871.49
592.44	21540.17
592.799	22150.32
593.158	22726.35
593.517	23214.47
593.876	23806.1
594.235	24177.39
594.593	24686.98
594.952	25160.86
595.311	25215.1
595.67	25884.46
596.029	26360.61
596.387	26749.3
596.746	27078.55
597.104	27444.87
597.463	27835.37
597.822	28388.8
598.18	28828.34
598.538	29240.98
598.897	29956.9
599.255	30276.44
599.613	31404.54
599.972	31658.32
600.33	32320
600.688	33021
601.046	33662.34
601.404	34326.05
601.762	34779.37
602.12	35407.6
602.478	35907.7
602.836	36135.72
603.194	36350.63
603.552	36829.48
603.91	36994.9
604.268	37456.36
604.625	37639.63
604.983	38048.21
605.341	37988.1
605.698	38450.01
606.056	38770.45
606.413	38970.22
606.771	39387.16
607.128	39787.82
607.485	39974.49
607.843	40436.17
608.2	40981.69
608.557	41495.12
608.914	41721.33
609.272	42321.77
609.629	42853.28
609.986	43396.09
610.343	43427.28
610.7	44077.88
611.057	44348.83
611.414	44588.38
611.771	44848.93
612.127	45165.99
612.484	45318.3
612.841	45387
613.198	45415.47
613.554	45466.77
613.911	45771.4
614.267	45728.91
614.624	45881.9
614.98	45908.34
615.337	46192.18
615.693	46169.13
616.05	46256.13
616.406	46590.13
616.762	46633.07
617.118	46847.98
617.475	47037.35
617.831	47306.04
618.187	47711.68
618.543	47868.29
618.899	48314.15
619.255	48368.39
619.611	48519.8
619.967	48878.21
620.323	49100.12
620.678	49018.54
621.034	49070.74
621.39	49084.08
621.746	49113
622.101	49677.51
622.457	49219.67
622.812	49232.55
623.168	49225.77
623.523	49186.22
623.879	49252.66
624.234	49040.69
624.589	49155.94
624.945	49089.5
625.3	49212.43
625.655	49250.63
626.01	49162.49
626.365	49349.83
626.72	49376.5
627.075	49529.94
627.43	49717.73
627.785	49609.03
628.14	49927.67
628.495	50090.6
628.85	50202.47
629.205	50191.84
629.559	50528.78
629.914	50335.12
630.269	50479.97
630.623	50348.68
630.978	50309.81
631.332	50476.36
631.687	50446.3
632.041	50264.16
632.396	50356.13
632.75	50135.57
633.104	49990.95
633.459	49817.16
633.813	49787.33
634.167	49674.57
634.521	49603.84
634.875	49649.71
635.229	49538.08
635.583	49417.18
635.937	49444.97
636.291	49455.82
636.645	49595.93
636.999	49585.76
637.352	49724.06
637.706	49675.7
638.06	49927.44
638.413	49869.59
638.767	49852.19
639.121	50004.96
639.474	49972.87
639.828	50084.5
640.181	50119.76
640.534	50080.66
640.888	50008.35
641.241	49843.38
641.594	49803.15
641.947	49905.98
642.301	49638.86
642.654	49641.35
643.007	49492.88
643.36	49285.43
643.713	49270.96
644.066	49282.72
644.419	49003.17
644.771	48790.75
645.124	48336.98
645.477	48322.97
645.83	48021.73
646.182	47850.89
646.535	47778.8
646.888	47978.12
647.24	47734.51
647.593	48211.56
647.945	48220.14
648.298	48120.03
648.65	48214.04
649.002	48031.9
649.355	48354.38
649.707	48405.68
650.059	48495.17
650.411	48866
650.763	48931.99
651.115	49370.85
651.467	49028.48
651.819	49083.4
652.171	48986.45
652.523	48830.07
652.875	48669.17
653.227	48512.57
653.578	48605.45
653.93	48405.22
654.282	48261.27
654.633	48048.17
654.985	48144.44
655.337	47952.81
655.688	47951.9
656.039	48170.88
656.391	47926.14
656.742	48059.92
657.094	48065.35
657.445	48113.93
657.796	48216.53
658.147	48305.57
658.498	48288.62
658.849	48476.18
659.2	48453.58
659.551	48517.54
659.902	48809.28
660.253	48500.36
660.604	48692.67
660.955	48592.79
661.306	48698.78
661.656	48464.21
662.007	48679.34
662.358	48536.07
662.708	48433.47
663.059	48256.53
663.409	47912.81
663.76	48148.96
664.11	48066.48
664.461	48075.06
664.811	47855.18
665.161	47770.66
665.511	47555.08
665.862	47569.09
666.212	47626.94
666.562	47552.37
666.912	47544.68
667.262	47392.37
667.612	47561.18
667.962	47621.06
668.312	47679.37
668.662	47756.88
669.011	47842.3
669.361	47821.74
669.711	47822.64
670.06	47934.05
670.41	47919.59
670.76	47985.8
671.109	48230.09
671.459	48067.15
671.808	48017.44
672.157	48120.71
672.507	47976.08
672.856	47857.89
673.205	47895.86
673.554	47845.92
673.904	47618.58
674.253	47807.95
674.602	47603.66
674.951	46888.65
675.3	46665.16
675.649	47254.29
675.998	47058.59
676.346	46996.22
676.695	47038.48
677.044	46758.94
677.393	46762.33
677.741	46817.7
678.09	46731.6
678.438	46586.74
678.787	46706.06
679.135	46768.66
679.484	46376.58
679.832	46817.7
680.181	46590.58
680.529	46893.17
680.877	46725.72
681.225	46868.77
681.573	46957.13
681.922	46924.59
682.27	47083.45
682.618	47003.91
682.966	46943.12
683.314	47070.34
683.661	46900.86
684.009	46717.59
684.357	46523.24
684.705	46515.33
685.053	46523.69
685.4	46260.65
685.748	46019.3
686.095	46043.7
686.443	45622.7
686.79	45577.5
687.138	45560.33
687.485	45577.05
687.832	45224.52
688.18	45258.87
688.527	44952.66
688.874	45022.71
689.221	44843.74
689.568	44589.96
689.915	44669.05
690.262	44620.01
690.609	44670.41
690.956	44563.74
691.303	44536.17
691.65	44526.23
691.997	44581.6
692.344	44405.1
692.69	44321.04
693.037	44509.06
693.383	44311.77
693.73	44531.2
694.077	44403.52
694.423	44374.6
694.769	44245.33
695.116	44119.91
695.462	44214.37
695.808	43988.39
696.155	43952.91
696.501	43654.16
696.847	43364.45
697.193	43225.7
697.539	43151.58
697.885	42831.36
698.231	42605.38
698.577	42623.91
698.923	42379.17
699.269	42114.54
699.614	41806.98
699.96	41846.98
700.306	41792.74
700.651	41493.77
700.997	41381.23
701.342	41343.94
701.688	41310.72
702.033	41227.79
702.379	41280.44
702.724	41110.95
703.069	41291.29
703.415	40947.79
703.76	41143.95
704.105	41144.85
704.45	41051.75
704.795	40927.68
705.14	40914.12
705.485	41053.55
705.83	40940.11
706.175	41058.07
706.52	40698.76
706.865	40736.05
707.209	40762.04
707.554	40501.25
707.899	40562.94
708.243	40312.1
708.588	40229.17
708.932	40029.17
709.277	39960.93
709.621	39789.41
709.966	39374.05
710.31	39400.04
710.654	39047.73
710.998	38970.22
711.342	39043.44
711.687	38844.57
712.031	38631.24
712.375	38359.84
712.719	38372.95
713.063	38287.75
713.407	38428.54
713.75	38255.89
714.094	38168.43
714.438	38038.49
714.782	38149.9
715.125	37986.74
715.469	38110.13
715.812	37913.75
716.156	37779.29
716.499	38044.14
716.843	38179.73
717.186	37914.88
717.53	38146.96
717.873	38123.69
718.216	38195.55
718.559	37982.9
718.902	37805.96
719.246	38060.64
719.589	37885.95
719.932	37534.1
720.275	37681.89
720.617	37770.25
720.96	37532.97
721.303	37502.23
721.646	37386.98
721.989	37181.79
722.331	37238.06
722.674	36944.96
723.016	36952.42
723.359	36619.77
723.701	36554.01
724.044	36413
724.386	36048.04
724.729	36299.1
725.071	35982.05
725.413	35994.48
725.755	35866.12
726.097	35751.77
726.439	35575.51
726.782	35640.81
727.124	35784.54
727.465	35520.59
727.807	35642.85
728.149	35507.71
728.491	35676.07
728.833	35728.5
729.175	35642.4
729.516	35732.34
729.858	35580.25
730.199	35672.68
730.541	35621.83
730.882	35640.59
731.224	35826.8
731.565	35659.34
731.906	35711.09
732.248	35724.2
732.589	35515.62
732.93	35442.85
733.271	35542.96
733.612	35390.43
733.953	35382.97
734.294	35255.29
734.635	35111.11
734.976	35101.62
735.317	34908.18
735.658	34837.67
735.999	34598.36
736.339	34558.36
736.68	34514.74
737.021	34415.99
737.361	34129.22
737.702	34277.01
738.042	34014.64
738.383	33934.19
738.723	33961.08
739.063	33738.27
739.404	33932.16
739.744	33674.99
740.084	33607.2
740.424	33772.39
740.764	33711.15
741.104	33806.06
741.444	33672.05
741.784	33555.9
742.124	33724.25
742.464	33870.47
742.804	33701.2
743.143	33636.57
743.483	33659.4
743.823	33523.58
744.162	33636.35
744.502	33813.97
744.841	33726.29
745.181	33871.6
745.52	33689
745.86	33771.94
746.199	33602.68
746.538	33695.1
746.877	33605.16
747.216	33520.42
747.556	33433.64
747.895	33333.53
748.234	33202.69
748.573	33045.85
748.911	32938.29
749.25	32953.43
749.589	32694.23
749.928	32675.69
750.267	32768.12
750.605	32498.07
750.944	32304.18
751.283	31955.26
751.621	32116.84
751.96	31875.72
752.298	31830.29
752.636	31691.54
752.975	31563.18
753.313	31634.37
753.651	31670.07
753.989	31431.66
754.327	31456.29
754.666	31327.03
755.004	31350.31
755.342	31342.85
755.679	31224.89
756.017	31166.13
756.355	31331.32
756.693	31167.26
757.031	31317.99
757.368	31188.73
757.706	31273.25
758.044	31120.93
758.381	31274.6
758.719	31126.58
759.056	31266.69
759.394	31100.59
759.731	31015.85
760.068	30949.64
760.405	30720.27
