Data from red_shiny_book_FLMS001491_00095.txt Node
Date: Wed Feb 08 15:25:37 GMT 2017
User: dcchb
Spectrometer: FLMS00149
Trigger mode: 0
Integration Time (sec): 2.000000E-2
Scans to average: 10
Electric dark correction enabled: true
Nonlinearity correction enabled: false
Boxcar width: 0
XAxis mode: Wavelengths
Number of Pixels in Spectrum: 2048
>>>>>Begin Spectral Data<<<<<
341.393	-11.1
341.776	-11.1
342.16	-11.1
342.543	-70.08
342.927	-58.78
343.31	-61.72
343.693	-88.16
344.077	-69.4
344.46	-66.24
344.843	-53.13
345.226	-32.57
345.61	-30.31
345.993	-32.8
346.376	-12.23
346.759	-9.29
347.142	9.24
347.525	58.05
347.908	76.35
348.291	81.33
348.674	112.74
349.057	118.16
349.44	152.06
349.823	154.32
350.206	155.67
350.588	203.58
350.971	217.14
351.354	233.19
351.737	222.34
352.119	263.02
352.502	266.41
352.884	300.08
353.267	272.28
353.65	304.37
354.032	299.85
354.414	319.51
354.797	318.61
355.179	346.4
355.562	343.92
355.944	331.94
356.326	352.28
356.709	345.5
357.091	357.93
357.473	369.91
357.855	358.61
358.238	361.09
358.62	364.26
359.002	326.29
359.384	363.8
359.766	334.2
360.148	327.42
360.53	323.35
360.912	337.82
361.294	307.31
361.676	334.2
362.057	337.59
362.439	337.82
362.821	345.05
363.203	332.84
363.584	325.84
363.966	348.44
364.348	325.16
364.729	320.87
365.111	337.82
365.493	326.52
365.874	335.33
366.256	330.81
366.637	322.22
367.019	325.16
367.4	315.22
367.781	320.42
368.163	326.06
368.544	334.65
368.925	306.63
369.306	342.56
369.688	345.05
370.069	343.92
370.45	341.43
370.831	348.21
371.212	313.64
371.593	313.86
371.974	324.71
372.355	321.55
372.736	313.18
373.117	314.54
373.498	340.98
373.879	319.06
374.26	324.48
374.641	320.19
375.021	337.82
375.402	340.98
375.783	344.6
376.163	343.92
376.544	324.93
376.925	333.07
377.305	328.32
377.686	354.09
378.066	316.35
378.447	331.04
378.827	341.88
379.208	338.95
379.588	351.6
379.968	322.68
380.349	334.43
380.729	335.1
381.109	353.63
381.489	357.7
381.87	360.64
382.25	353.86
382.63	342.11
383.01	373.3
383.39	353.63
383.77	360.41
384.15	355.67
384.53	365.84
384.91	356.35
385.29	368.1
385.67	356.35
386.049	390.7
386.429	353.86
386.809	361.54
387.189	357.93
387.568	375.56
387.948	364.93
388.328	368.1
388.707	374.65
389.087	373.97
389.466	380.3
389.846	365.84
390.225	374.43
390.605	383.01
390.984	379.85
391.363	369.68
391.743	370.36
392.122	376.69
392.501	378.72
392.881	405.84
393.26	394.54
393.639	374.43
394.018	391.37
394.397	388.66
394.776	403.35
395.155	395.22
395.534	377.14
395.913	391.37
396.292	419.17
396.671	419.62
397.05	418.49
397.429	422.56
397.808	413.97
398.186	422.79
398.565	391.37
398.944	400.87
399.323	396.35
399.701	387.98
400.08	425.72
400.458	439.73
400.837	442.9
401.215	401.09
401.594	431.37
401.972	421.88
402.351	430.24
402.729	414.42
403.107	423.46
403.486	440.41
403.864	440.41
404.242	444.03
404.62	441.54
404.999	446.97
405.377	458.26
405.755	452.16
406.133	458.04
406.511	444.48
406.889	447.87
407.267	447.87
407.645	472.5
408.023	478.83
408.401	456.91
408.779	473.18
409.156	460.3
409.534	480.64
409.912	461.65
410.29	488.77
410.667	499.17
411.045	480.19
411.422	488.77
411.8	476.57
412.178	514.08
412.555	508.21
412.933	525.38
413.31	502.78
413.687	525.83
414.065	510.01
414.442	532.61
414.819	515.89
415.197	519.51
415.574	521.31
415.951	536
416.328	524.48
416.705	541.43
417.082	553.4
417.46	579.39
417.837	554.31
418.214	566.96
418.591	561.76
418.967	562.22
419.344	564.02
419.721	558.15
420.098	567.64
420.475	607.41
420.852	599.28
421.228	593.4
421.605	594.76
421.982	615.55
422.358	604.7
422.735	622.33
423.111	591.14
423.488	598.37
423.864	632.72
424.241	626.62
424.617	604.7
424.994	610.35
425.37	626.17
425.746	659.16
426.123	656.45
426.499	669.78
426.875	660.29
427.251	655.55
427.627	652.38
428.003	626.85
428.379	684.25
428.756	649.9
429.132	638.15
429.507	669.33
429.883	705.49
430.259	671.14
430.635	684.7
431.011	704.59
431.387	728.09
431.763	705.94
432.138	706.85
432.514	717.02
432.89	698.26
433.265	705.26
433.641	725.83
434.016	752.27
434.392	759.27
434.767	771.25
435.143	772.15
435.518	779.61
435.894	799.27
436.269	785.94
436.644	774.41
437.02	783.45
437.395	762.44
437.77	767.41
438.145	785.94
438.52	819.39
438.895	803.11
439.271	814.87
439.646	849.67
440.021	831.59
440.395	825.26
440.77	856.22
441.145	863.68
441.52	857.58
441.895	830.46
442.27	811.48
442.645	871.14
443.019	822.77
443.394	843.79
443.769	861.42
444.143	857.35
444.518	910
444.892	905.48
445.267	922.43
445.641	898.48
446.016	892.38
446.39	857.58
446.764	880.4
447.139	904.81
447.513	885.82
447.887	926.05
448.262	909.78
448.636	893.51
449.01	919.5
449.384	941.87
449.758	925.37
450.132	952.26
450.506	949.78
450.88	964.47
451.254	932.83
451.628	940.29
452.002	950.23
452.376	920.4
452.75	934.86
453.123	955.65
453.497	959.95
453.871	983.67
454.244	1025.93
454.618	1009.89
454.992	1020.06
455.365	1023
455.739	1036.55
456.112	1026.39
456.486	1013.28
456.859	989.32
457.232	1016.22
457.606	1012.83
457.979	1021.64
458.352	1046.5
458.725	1047.85
459.099	1056.44
459.472	1073.84
459.845	1097.34
460.218	1135.08
460.591	1134.18
460.964	1119.04
461.337	1124.91
461.71	1079.94
462.083	1096.89
462.456	1100.28
462.829	1092.6
463.201	1108.42
463.574	1127.4
463.947	1139.38
464.32	1160.17
464.692	1180.28
465.065	1183.9
465.438	1213.73
465.81	1241.97
466.183	1251.24
466.555	1253.27
466.928	1241.3
467.3	1251.92
467.672	1206.04
468.045	1213.27
468.417	1246.04
468.789	1231.35
469.161	1231.13
469.534	1273.84
469.906	1347.28
470.278	1361.29
470.65	1380.5
471.022	1389.31
471.394	1412.59
471.766	1420.05
472.138	1413.95
472.51	1399.03
472.882	1397
473.253	1421.63
473.625	1378.24
473.997	1379.14
474.369	1408.3
474.74	1432.02
475.112	1492.14
475.484	1537.33
475.855	1580.27
476.227	1595.41
476.598	1633.83
476.97	1644.67
477.341	1667.5
477.713	1682.87
478.084	1667.05
478.455	1664.56
478.827	1639.7
479.198	1655.52
479.569	1649.87
479.94	1682.87
480.311	1718.12
480.682	1775.74
481.053	1818.23
481.424	1899.13
481.795	1908.17
482.166	1985.68
482.537	1985.68
482.908	2005.79
483.279	2001.73
483.65	2072.46
484.021	2040.14
484.391	2006.92
484.762	2036.75
485.133	2015.51
485.503	2020.48
485.874	2060.26
486.244	2135.28
486.615	2149.29
486.985	2215.73
487.356	2278.1
487.726	2332.34
488.097	2398.78
488.467	2429.06
488.837	2471.09
489.207	2480.13
489.578	2479.68
489.948	2462.73
490.318	2481.49
490.688	2431.77
491.058	2449.17
491.428	2454.82
491.798	2477.19
492.168	2537.31
492.538	2539.79
492.908	2606.46
493.278	2700.24
493.648	2736.62
494.017	2818.88
494.387	2871.76
494.757	2863.63
495.126	2905.21
495.496	2925.54
495.866	2880.8
496.235	2841.48
496.605	2806.23
496.974	2810.75
497.344	2811.65
497.713	2768.26
498.082	2821.82
498.452	2890.29
498.821	2913.79
499.19	2954.47
499.559	3065.65
499.928	3109.27
500.298	3139.32
500.667	3212.54
501.036	3197.18
501.405	3250.73
501.774	3195.14
502.143	3135.26
502.512	3110.62
502.88	3105.43
503.249	3045.77
503.618	3055.26
503.987	3023.62
504.356	3052.09
504.724	3112.21
505.093	3104.52
505.462	3200.79
505.83	3245.99
506.199	3307.23
506.567	3374.35
506.936	3420.9
507.304	3459.99
507.672	3467
508.041	3472.65
508.409	3394.68
508.777	3403.72
509.145	3347
509.514	3294.57
509.882	3288.25
510.25	3239.66
510.618	3248.25
510.986	3257.51
511.354	3278.53
511.722	3348.81
512.09	3427.23
512.458	3437.17
512.826	3543.38
513.193	3569.14
513.561	3662.25
513.929	3691.63
514.297	3703.6
514.664	3670.38
515.032	3639.65
515.4	3614.34
515.767	3547
516.135	3506.55
516.502	3453.67
516.869	3450.73
517.237	3396.04
517.604	3397.17
517.972	3451.41
518.339	3507.45
518.706	3615.92
519.073	3661.8
519.44	3714.22
519.808	3827.44
520.175	3860.44
520.542	3921.22
520.909	3930.49
521.276	3913.54
521.643	3885.07
522.009	3869.25
522.376	3819.76
522.743	3748.12
523.11	3666.77
523.477	3636.71
523.843	3602.59
524.21	3652.08
524.577	3702.7
524.943	3728.69
525.31	3770.04
525.676	3893.2
526.043	4016.82
526.409	4090.94
526.776	4182.01
527.142	4240.54
527.508	4298.84
527.874	4334.77
528.241	4324.6
528.607	4307.2
528.973	4262.01
529.339	4199.41
529.705	4178.84
530.071	4153.76
530.437	4108.56
530.803	4039.19
531.169	4055.01
531.535	4061.33
531.901	4106.98
532.267	4203.93
532.632	4272.85
532.998	4372.74
533.364	4523.69
533.73	4642.79
534.095	4761.65
534.461	4790.35
534.826	4836
535.192	4806.17
535.557	4837.81
535.923	4819.73
536.288	4792.61
536.653	4735.44
537.019	4651.6
537.384	4563.92
537.749	4560.3
538.114	4515.33
538.479	4497.93
538.845	4536.35
539.21	4570.47
539.575	4590.36
539.94	4746.51
540.305	4919.39
540.67	4939.05
541.034	5087.3
541.399	5193.73
541.764	5291.36
542.129	5326.16
542.494	5428.08
542.858	5349.66
543.223	5296.78
543.587	5217.46
543.952	5187.18
544.316	5128.88
544.681	5038.26
545.045	5013.17
545.41	4988.32
545.774	4958.71
546.138	4922.55
546.503	4962.55
546.867	4985.6
547.231	5116.22
547.595	5270.57
547.959	5356.22
548.324	5430.34
548.688	5509.66
549.052	5581.75
549.416	5693.83
549.779	5721.63
550.143	5737.45
550.507	5727.5
550.871	5768.86
551.235	5624.68
551.599	5573.61
551.962	5514.18
552.326	5377.23
552.689	5277.8
553.053	5213.85
553.417	5189.89
553.78	5217.91
554.143	5187.41
554.507	5254.07
554.87	5335.65
555.234	5450
555.597	5502.43
555.96	5642.31
556.323	5792.36
556.686	5826.71
557.05	5948.29
557.413	6049.53
557.776	6014.28
558.139	6056.08
558.502	6044.33
558.865	5964.33
559.228	5894.28
559.59	5852.25
559.953	5777.67
560.316	5689.54
560.679	5600.95
561.041	5555.76
561.404	5522.76
561.767	5497.91
562.129	5559.83
562.492	5623.33
562.854	5665.13
563.217	5754.4
563.579	5873.04
563.941	5999.59
564.304	6146.02
564.666	6304.66
565.028	6382.18
565.39	6439.58
565.753	6473.47
566.115	6456.53
566.477	6476.86
566.839	6432.12
567.201	6346.47
567.563	6341.5
567.925	6186.48
568.287	6172.46
568.648	6070.32
569.01	5978.57
569.372	6028.74
569.734	5947.39
570.095	5969.53
570.457	5974.73
570.819	5987.61
571.18	6097.21
571.542	6259.02
571.903	6393.93
572.265	6528.84
572.626	6666.92
572.987	6788.72
573.349	6928.83
573.71	7018.32
574.071	7155.72
574.432	7153
574.794	7218.54
575.155	7241.14
575.516	7107.36
575.877	7107.81
576.238	7081.37
576.599	7017.19
576.96	6906.91
577.32	6975.16
577.681	6907.36
578.042	6946.68
578.403	7016.06
578.763	7126.56
579.124	7260.12
579.485	7436.61
579.845	7618.75
580.206	7866.88
580.566	8072.75
580.927	8362.01
581.287	8691.72
581.648	8922.45
582.008	9289.67
582.368	9486.73
582.728	9765.14
583.089	9986.6
583.449	10090.55
583.809	10331.45
584.169	10528.73
584.529	10614.16
584.889	10883.53
585.249	10927.14
585.609	11161.26
585.969	11386.79
586.329	11523.51
586.688	11856.84
587.048	12170.73
587.408	12483.49
587.768	12842.12
588.127	13189.91
588.487	13701.53
588.846	14280.05
589.206	14709.19
589.565	15171.1
589.925	15768.37
590.284	16285.19
590.643	16749.14
591.003	17276.81
591.362	17798.37
591.721	18246.72
592.08	18630.22
592.44	19041.05
592.799	19444.21
593.158	19710.87
593.517	20003.74
593.876	20475.59
594.235	20680.78
594.593	20987.89
594.952	21400.31
595.311	21770.25
595.67	22048.21
596.029	22569.77
596.387	23052.92
596.746	23549.41
597.104	23790.31
597.463	24381.03
597.822	25031.63
598.18	25334.45
598.538	25934.43
598.897	26622.32
599.255	26961.07
599.613	27848.96
599.972	28169.85
600.33	28729.84
600.688	29037.17
601.046	29497.95
601.404	30071.5
601.762	30250.93
602.12	30743.12
602.478	30883.91
602.836	31248.42
603.194	31247.74
603.552	31534.96
603.91	31606.15
604.268	31961.62
604.625	32129.97
604.983	32502.39
605.341	32761.37
605.698	33066.9
606.056	33537.4
606.413	33732.42
606.771	34308.45
607.128	34706.4
607.485	34886.29
607.843	35334.64
608.2	35913.38
608.557	36238.57
608.914	36463.42
609.272	37111.54
609.629	37350.63
609.986	37770.73
610.343	37789.49
610.7	38309.02
611.057	38509.92
611.414	38426.31
611.771	38702.91
612.127	38933.86
612.484	38896.35
612.841	39110.36
613.198	38928.89
613.554	38992.39
613.911	39332.72
614.267	39396.68
614.624	39366.62
614.98	39528.2
615.337	39913.05
615.693	39941.29
616.05	40257.22
616.406	40508.74
616.762	40696.98
617.118	40844.55
617.475	41183.75
617.831	41459.45
618.187	41675.26
618.543	41981.47
618.899	42428.46
619.255	42491.96
619.611	42572.64
619.967	42646.53
620.323	42964.72
620.678	42928.33
621.034	42921.78
621.39	42927.43
621.746	42754.55
622.101	43267.53
622.457	42772.63
622.812	42949.12
623.168	42895.34
623.523	42965.4
623.879	42929.46
624.234	42558.85
624.589	42991.38
624.945	42846.53
625.3	42979.86
625.655	43003.59
626.01	43109.35
626.365	43375.1
626.72	43229.57
627.075	43464.14
627.43	43619.62
627.785	43619.39
628.14	43897.12
628.495	44228.41
628.85	44179.15
629.205	44149.09
629.559	44592.92
629.914	44284.46
630.269	44424.79
630.623	44445.58
630.978	44389.99
631.332	44502.53
631.687	44332.59
632.041	44008.08
632.396	44152.26
632.75	43837.24
633.104	43764.92
633.459	43610.12
633.813	43658.26
634.167	43397.93
634.521	43446.51
634.875	43352.96
635.229	43306.4
635.583	43072.06
635.937	43128.33
636.291	43179.4
636.645	43420.98
636.999	43401.54
637.352	43513.63
637.706	43406.74
638.06	43757.92
638.413	43717.69
638.767	43816.45
639.121	43869.55
639.474	43772.83
639.828	43908.42
640.181	44096.44
640.534	44106.83
640.888	43856.45
641.241	43798.82
641.594	43728.99
641.947	43885.82
642.301	43573.06
642.654	43417.81
643.007	43400.64
643.36	43179.18
643.713	43067.77
644.066	43097.6
644.419	42707.55
644.771	42379.2
645.124	41862.6
645.477	41859.44
645.83	41522.27
646.182	41330.64
646.535	41330.18
646.888	41542.83
647.24	41271.65
647.593	41713
647.945	41629.61
648.298	41720.91
648.65	41656.28
649.002	41602.27
649.355	41917.06
649.707	41876.84
650.059	42146.89
650.411	42653.09
650.763	42823.48
651.115	43175.11
651.467	42895.34
651.819	42887.66
652.171	42971.27
652.523	42720.43
652.875	42619.19
653.227	42365.19
653.578	42576.93
653.93	42371.74
654.282	42084.29
654.633	41836.39
654.985	41808.36
655.337	41888.59
655.688	41696.05
656.039	41800.91
656.391	41329.28
656.742	41453.12
657.094	41517.98
657.445	41642.27
657.796	41435.27
658.147	41533.57
658.498	41594.13
658.849	41795.93
659.2	41743.51
659.551	41701.47
659.902	42105.08
660.253	41964.07
660.604	42221.69
660.955	42135.36
661.306	42306.43
661.656	42362.02
662.007	42214.68
662.358	42241.8
662.708	42208.35
663.059	42257.39
663.409	41934.46
663.76	42230.95
664.11	42150.05
664.461	42005.42
664.811	41963.16
665.161	41792.09
665.511	41526.34
665.862	41549.39
666.212	41458.09
666.562	41476.4
666.912	41264.65
667.262	41021.94
667.612	41008.61
667.962	40932.23
668.312	40925.9
668.662	41036.63
669.011	41030.08
669.361	40938.33
669.711	41040.47
670.06	40996.41
670.41	41066.91
670.76	41280.02
671.109	41475.49
671.459	41387.81
671.808	41448.15
672.157	41627.8
672.507	41402.5
672.856	41597.97
673.205	41538.77
673.554	41633
673.904	41616.05
674.253	41753.68
674.602	41727.24
674.951	41061.94
675.3	40826.47
675.649	41279.56
675.998	41223.97
676.346	41291.09
676.695	41161.6
677.044	40691.11
677.393	40757.09
677.741	40772.01
678.09	40546.93
678.438	40313.04
678.787	40404.79
679.135	40278.23
679.484	40049.54
679.832	40209.54
680.181	39962.08
680.529	39938.58
680.877	39872.37
681.225	39869.21
681.573	40184.68
681.922	40018.13
682.27	39903.33
682.618	40055.42
682.966	40031.69
683.314	40299.25
683.661	40293.38
684.009	40093.38
684.357	40050.9
684.705	40177.9
685.053	40176.32
685.4	40125.47
685.748	40066.26
686.095	40015.87
686.443	39810.22
686.79	39844.57
687.138	39842.99
687.485	39697.46
687.832	39504.7
688.18	39504.7
688.527	39103.12
688.874	39084.82
689.221	38983.58
689.568	38712.85
689.915	38520.31
690.262	38433.76
690.609	38286.87
690.956	38076.26
691.303	38104.05
691.65	37838.3
691.997	37814.8
692.344	37563.05
692.69	37578.42
693.037	37575.48
693.383	37469.27
693.73	37701.58
694.077	37363.74
694.423	37464.07
694.769	37398.08
695.116	37450.96
695.462	37501.36
695.808	37500.23
696.155	37577.74
696.501	37422.26
696.847	37470.17
697.193	37212.78
697.539	37418.65
697.885	37195.6
698.231	36957.42
698.577	36947.93
698.923	36986.8
699.269	36702.06
699.614	36476.07
699.96	36455.06
700.306	36468.17
700.651	36227.95
700.997	35856.43
701.342	35973.49
701.688	35804.91
702.033	35649.43
702.379	35369.66
702.724	35255.99
703.069	35324.01
703.415	34897.13
703.76	34705.27
704.105	34771.49
704.45	34602.68
704.795	34557.03
705.14	34313.65
705.485	34406.52
705.83	34272.97
706.175	34292.63
706.52	34279.75
706.865	34209.24
707.209	34208.79
707.554	34125.85
707.899	34297.15
708.243	34118.85
708.588	34181.9
708.932	34111.39
709.277	34127.89
709.621	34210.15
709.966	34023.94
710.31	34142.12
710.654	33739.65
710.998	34077.04
711.342	33973.54
711.687	33918.4
712.031	33809.93
712.375	33526.77
712.719	33536.27
713.063	33437.74
713.407	33359.77
713.75	33106.67
714.094	33036.17
714.438	32852.89
714.782	32896.06
715.125	32668.72
715.469	32613.58
715.812	32389.63
716.156	32111.67
716.499	32122.06
716.843	32129.3
717.186	32032.35
717.53	31953.71
717.873	32013.37
718.216	31870.32
718.559	31769.31
718.902	31657.9
719.246	31686.6
719.589	31680.95
719.932	31399.6
720.275	31733.6
720.617	31646.82
720.96	31678.46
721.303	31682.98
721.646	31893.6
721.989	31622.87
722.331	31718.91
722.674	31642.98
723.016	31794.62
723.359	31680.27
723.701	31868.74
724.044	31551.01
724.386	31541.74
724.729	31662.19
725.071	31375.64
725.413	31513.04
725.755	31435.76
726.097	31189.21
726.439	31103.56
726.782	31111.7
727.124	31083.67
727.465	30755.55
727.807	30771.59
728.149	30539.96
728.491	30457.48
728.833	30262.68
729.175	30238.27
729.516	30143.81
729.858	30070.82
730.199	29979.07
730.541	29904.27
730.882	29882.8
731.224	29896.81
731.565	29640.32
731.906	29648.68
732.248	29802.13
732.589	29606.42
732.93	29535.69
733.271	29674.67
733.612	29614.79
733.953	29787.66
734.294	29539.53
734.635	29740.88
734.976	29782.69
735.317	29648.68
735.658	29735.24
735.999	29772.07
736.339	29692.3
736.68	29928
737.021	29746.08
737.361	29764.39
737.702	29848
738.042	29735.69
738.383	29745.18
738.723	29793.09
739.063	29577.5
739.404	29621.79
739.744	29562.36
740.084	29382.25
740.424	29482.13
740.764	29275.59
741.104	29283.95
741.444	29031.75
741.784	28902.71
742.124	28942.49
742.464	28876.5
742.804	28649.84
743.143	28493.46
743.483	28508.83
743.823	28224.54
744.162	28353.8
744.502	28300.02
744.841	28106.13
745.181	28199.91
745.52	28030.87
745.86	27946.13
746.199	27992.23
746.538	27826.58
746.877	27877.2
747.216	27954.72
747.556	27975.28
747.895	27947.71
748.234	27904.55
748.573	27964.66
748.911	27901.84
749.25	27906.13
749.589	27871.56
749.928	28060.02
750.267	28124.66
750.605	28047.37
750.944	27963.76
751.283	27852.35
751.621	27964.43
751.96	27713.14
752.298	27792.69
752.636	27908.62
752.975	27766.25
753.313	27558.57
753.651	27707.04
753.989	27506.59
754.327	27448.97
754.666	27291.46
755.004	27203.32
755.342	27197
755.679	27084.46
756.017	26857.8
756.355	26974.86
756.693	26728.99
757.031	26600.4
757.368	26499.16
757.706	26468.2
758.044	26267.3
758.381	26137.14
758.719	26014.88
759.056	26023.92
759.394	25889.23
759.731	25765.17
760.068	25668.22
760.405	25555.68
760.743	25562.69
