Data from red_shiny_book_FLMS001491_00031.txt Node
Date: Wed Feb 08 15:24:45 GMT 2017
User: dcchb
Spectrometer: FLMS00149
Trigger mode: 0
Integration Time (sec): 2.000000E-2
Scans to average: 10
Electric dark correction enabled: true
Nonlinearity correction enabled: false
Boxcar width: 0
XAxis mode: Wavelengths
Number of Pixels in Spectrum: 2048
>>>>>Begin Spectral Data<<<<<
341.393	-23.45
341.776	-23.45
342.16	-23.45
342.543	-74.97
342.927	-55.54
343.31	-57.34
343.693	-82.43
344.077	-69.55
344.46	-45.82
344.843	-53.73
345.226	-31.13
345.61	-60.51
345.993	-24.35
346.376	26.95
346.759	13.16
347.142	13.39
347.525	42.54
347.908	58.13
348.291	71.02
348.674	100.84
349.057	98.81
349.44	116.21
349.823	137.68
350.206	166.38
350.588	184.46
350.971	196.89
351.354	230.78
351.737	227.4
352.119	264
352.502	256.09
352.884	272.59
353.267	278.47
353.65	295.42
354.032	306.49
354.414	308.07
354.797	312.82
355.179	335.64
355.562	335.41
355.944	310.56
356.326	329.54
356.709	322.76
357.091	342.87
357.473	338.35
357.855	351.91
358.238	341.29
358.62	348.52
359.002	342.42
359.384	360.05
359.766	325.47
360.148	336.54
360.53	337.67
360.912	344.68
361.294	317.56
361.676	326.6
362.057	343.32
362.439	322.53
362.821	335.41
363.203	342.19
363.584	328.64
363.966	321.4
364.348	319.82
364.729	323.21
365.111	304.91
365.493	305.59
365.874	331.8
366.256	325.92
366.637	315.08
367.019	316.88
367.4	319.37
367.781	318.69
368.163	323.89
368.544	286.83
368.925	311.46
369.306	300.16
369.688	321.18
370.069	330.9
370.45	321.63
370.831	322.99
371.212	315.53
371.593	327.28
371.974	327.28
372.355	298.13
372.736	312.36
373.117	332.93
373.498	335.87
373.879	310.56
374.26	303.55
374.641	305.59
375.021	308.07
375.402	307.62
375.783	330.44
376.163	315.75
376.544	308.3
376.925	345.13
377.305	327.96
377.686	337.67
378.066	347.39
378.447	345.13
378.827	329.09
379.208	331.57
379.588	328.41
379.968	333.61
380.349	338.58
380.729	336.32
381.109	371.8
381.489	329.54
381.87	326.38
382.25	336.54
382.63	330.67
383.01	356.88
383.39	332.25
383.77	354.62
384.15	351.46
384.53	351.01
384.91	330.9
385.29	344.45
385.67	357.79
386.049	371.8
386.429	365.02
386.809	351.46
387.189	354.62
387.568	347.39
387.948	359.6
388.328	349.65
388.707	374.74
389.087	372.02
389.466	348.52
389.846	349.65
390.225	363.66
390.605	363.21
390.984	352.14
391.363	359.82
391.743	362.08
392.122	353.27
392.501	368.18
392.881	376.09
393.26	354.85
393.639	372.02
394.018	382.19
394.397	391.91
394.776	379.26
395.155	395.3
395.534	383.55
395.913	368.63
396.292	389.42
396.671	371.35
397.05	386.94
397.429	395.53
397.808	387.39
398.186	371.12
398.565	365.7
398.944	393.72
399.323	392.36
399.701	384.68
400.08	376.09
400.458	364.34
400.837	398.24
401.215	400.72
401.594	394.62
401.972	414.96
402.351	395.53
402.729	412.02
403.107	412.93
403.486	378.58
403.864	407.73
404.242	410.89
404.62	419.71
404.999	431.46
405.377	405.02
405.755	406.37
406.133	437.56
406.511	423.77
406.889	429.65
407.267	407.96
407.645	394.4
408.023	425.58
408.401	447.28
408.779	429.65
409.156	453.6
409.534	461.06
409.912	466.26
410.29	439.59
410.667	470.55
411.045	440.72
411.422	468.74
411.8	460.61
412.178	473.72
412.555	483.66
412.933	480.72
413.31	468.74
413.687	467.16
414.065	456.54
414.442	500.38
414.819	477.33
415.197	498.12
415.574	498.57
415.951	501.51
416.328	500.61
416.705	517.33
417.082	508.74
417.46	514.17
417.837	508.97
418.214	537.22
418.591	532.7
418.967	532.7
419.344	514.39
419.721	514.39
420.098	530.89
420.475	556.2
420.852	562.08
421.228	553.26
421.605	566.6
421.982	546.03
422.358	555.52
422.735	566.14
423.111	558.23
423.488	561.17
423.864	565.69
424.241	569.08
424.617	566.37
424.994	595.3
425.37	597.78
425.746	603.2
426.123	569.99
426.499	618.12
426.875	620.38
427.251	593.94
427.627	615.63
428.003	609.76
428.379	628.51
428.756	634.16
429.132	621.96
429.507	611.57
429.883	628.97
430.259	628.29
430.635	650.21
431.011	656.08
431.387	651.56
431.763	637.78
432.138	629.42
432.514	655.18
432.89	673.49
433.265	671.68
433.641	690.66
434.016	696.99
434.392	691.34
434.767	693.15
435.143	693.15
435.518	718
435.894	690.66
436.269	700.6
436.644	715.52
437.02	716.2
437.395	742.86
437.77	734.5
438.145	733.14
438.52	762.3
438.895	734.5
439.271	756.87
439.646	770.21
440.021	761.62
440.395	751
440.77	751.45
441.145	771.79
441.52	773.37
441.895	766.14
442.27	774.05
442.645	774.73
443.019	795.97
443.394	785.57
443.769	802.52
444.143	802.3
444.518	811.33
444.892	808.62
445.267	803.2
445.641	805.01
446.016	797.1
446.39	804.1
446.764	822.41
447.139	834.61
447.513	829.87
447.887	843.42
448.262	835.06
448.636	851.79
449.01	855.18
449.384	855.18
449.758	856.08
450.132	848.85
450.506	863.54
450.88	840.94
451.254	852.69
451.628	854.72
452.002	873.25
452.376	872.12
452.75	891.56
453.123	899.02
453.497	897.43
453.871	889.3
454.244	927.94
454.618	909.64
454.992	886.81
455.365	898.79
455.739	907.83
456.112	905.34
456.486	915.96
456.859	929.3
457.232	936.3
457.606	919.35
457.979	948.73
458.352	956.64
458.725	964.1
459.099	948.28
459.472	974.49
459.845	978.56
460.218	956.87
460.591	972.46
460.964	993.48
461.337	991.89
461.71	1014.95
462.083	968.39
462.456	1006.81
462.829	989.63
463.201	1020.14
463.574	1041.39
463.947	1035.74
464.32	1046.13
464.692	1024.89
465.065	1016.53
465.438	1055.4
465.81	1073.93
466.183	1072.34
466.555	1049.29
466.928	1086.36
467.3	1081.38
467.672	1095.17
468.045	1150.99
468.417	1162.74
468.789	1140.37
469.161	1137.88
469.534	1161.16
469.906	1157.31
470.278	1148.5
470.65	1180.36
471.022	1183.08
471.394	1213.13
471.766	1175.62
472.138	1229.63
472.51	1230.76
472.882	1269.18
473.253	1286.35
473.625	1261.94
473.997	1300.81
474.369	1308.04
474.74	1324.32
475.112	1328.38
475.484	1315.05
475.855	1340.59
476.227	1335.39
476.598	1364.77
476.97	1379.23
477.341	1414.48
477.713	1435.95
478.084	1471.66
478.455	1481.15
478.827	1505.55
479.198	1510.75
479.569	1517.08
479.94	1562.05
480.311	1564.99
480.682	1576.29
481.053	1580.35
481.424	1603.18
481.795	1590.75
482.166	1629.62
482.537	1668.49
482.908	1712.33
483.279	1715.49
483.65	1757.3
484.021	1804.08
484.391	1824.19
484.762	1830.29
485.133	1877.07
485.503	1827.58
485.874	1877.52
486.244	1885.2
486.615	1908.71
486.985	1913
487.356	1920.46
487.726	1965.2
488.097	1992.09
488.467	2016.05
488.837	2059.89
489.207	2113.9
489.578	2184.86
489.948	2168.36
490.318	2216.72
490.688	2239.55
491.058	2269.6
491.428	2255.14
491.798	2276.61
492.168	2268.7
492.538	2299.66
492.908	2291.97
493.278	2315.93
493.648	2339.88
494.017	2369.26
494.387	2397.96
494.757	2450.16
495.126	2487.22
495.496	2514.57
495.866	2505.98
496.235	2551.18
496.605	2576.71
496.974	2592.53
497.344	2581.68
497.713	2580.33
498.082	2575.13
498.452	2573.1
498.821	2581.01
499.19	2581.91
499.559	2586.43
499.928	2632.98
500.298	2632.53
500.667	2700.1
501.036	2738.29
501.405	2748.91
501.774	2775.8
502.143	2810.6
502.512	2771.06
502.88	2803.37
503.249	2840.89
503.618	2780.32
503.987	2757.5
504.356	2798.63
504.724	2717.27
505.093	2735.8
505.462	2742.13
505.83	2784.39
506.199	2830.26
506.567	2875.24
506.936	2867.33
507.304	2921.79
507.672	2935.57
508.041	2970.6
508.409	2955.68
508.777	2982.12
509.145	2938.51
509.514	2920.21
509.882	2920.21
510.25	2935.35
510.618	2892.86
510.986	2913.65
511.354	2915.91
511.722	2964.05
512.09	2944.61
512.458	2939.19
512.826	2979.87
513.193	2985.06
513.561	2993.65
513.929	3073.42
514.297	3122.01
514.664	3126.75
515.032	3143.93
515.4	3096.47
515.767	3128.56
516.135	3072.97
516.502	2987.32
516.869	3052.41
517.237	3053.76
517.604	3008.79
517.972	3046.53
518.339	3047.89
518.706	3065.74
519.073	3128.11
519.44	3137.83
519.808	3179.63
520.175	3221.21
520.542	3248.78
520.909	3253.98
521.276	3261.44
521.643	3276.81
522.009	3270.25
522.376	3228.67
522.743	3222.12
523.11	3192.51
523.477	3238.39
523.843	3205.17
524.21	3201.1
524.577	3233.42
524.943	3237.94
525.31	3299.4
525.676	3355
526.043	3396.35
526.409	3423.47
526.776	3465.95
527.142	3528.55
527.508	3543.69
527.874	3527.42
528.241	3564.03
528.607	3542.11
528.973	3571.49
529.339	3530.59
529.705	3559.51
530.071	3562.67
530.437	3514.09
530.803	3514.77
531.169	3540.98
531.535	3533.97
531.901	3597.7
532.267	3678.83
532.632	3785.49
532.998	3768.09
533.364	3812.39
533.73	3905.72
534.095	3942.1
534.461	4002.66
534.826	4011.25
535.192	4013.51
535.557	3964.47
535.923	3954.53
536.288	3974.19
536.653	3956.56
537.019	3909.56
537.384	3936.9
537.749	3953.4
538.114	3948.43
538.479	3948.88
538.845	4025.04
539.21	4043.11
539.575	4099.61
539.94	4187.52
540.305	4288.53
540.67	4231.81
541.034	4337.34
541.399	4368.3
541.764	4363.56
542.129	4395.65
542.494	4380.73
542.858	4325.37
543.223	4366.72
543.587	4298.25
543.952	4282.43
544.316	4258.25
544.681	4283.33
545.045	4300.51
545.41	4299.6
545.774	4404.69
546.138	4376.21
546.503	4434.74
546.867	4511.12
547.231	4562.65
547.595	4583.44
547.959	4615.53
548.324	4662.31
548.688	4725.81
549.052	4705.47
549.416	4651.23
549.779	4692.36
550.143	4670.89
550.507	4685.58
550.871	4573.5
551.235	4478.36
551.599	4511.58
551.962	4500.05
552.326	4524.01
552.689	4521.29
553.053	4500.05
553.417	4577.11
553.78	4630.9
554.143	4679.26
554.507	4800.61
554.87	4805.35
555.234	4826.6
555.597	4820.04
555.96	4905.46
556.323	4904.79
556.686	4865.24
557.05	4852.13
557.413	4799.03
557.776	4806.94
558.139	4756.99
558.502	4752.7
558.865	4708.41
559.228	4669.54
559.59	4703.44
559.953	4685.58
560.316	4724.68
560.679	4814.85
561.041	4816.88
561.404	4843.32
561.767	4903.43
562.129	4960.83
562.492	5031.79
562.854	5061.84
563.217	5069.08
563.579	5134.16
563.941	5168.73
564.304	5130.54
564.666	5189.3
565.028	5146.81
565.39	5065.01
565.753	5061.39
566.115	4982.07
566.477	5002.86
566.839	5011.22
567.201	4971.23
567.563	4979.13
567.925	5021.39
568.287	4992.69
568.648	5094.61
569.01	5135.74
569.372	5247.83
569.734	5250.31
570.095	5344.1
570.457	5425.68
570.819	5456.18
571.18	5505
571.542	5545.22
571.903	5569.18
572.265	5579.8
572.626	5597.88
572.987	5541.61
573.349	5547.26
573.71	5539.12
574.071	5503.19
574.432	5555.62
574.794	5536.41
575.155	5525.56
575.516	5598.1
575.877	5652.79
576.238	5713.35
576.599	5793.8
576.96	5950.86
577.32	6006.68
577.681	6198.76
578.042	6367.12
578.403	6449.6
578.763	6575.25
579.124	6699.32
579.485	6889.82
579.845	6984.51
580.206	7080.55
580.566	7214.33
580.927	7298.62
581.287	7465.85
581.648	7570.7
582.008	7711.27
582.368	7843.47
582.728	8024.93
583.089	8250.69
583.449	8414.52
583.809	8724.8
584.169	9001.4
584.529	9240.27
584.889	9675.28
585.249	9971.09
585.609	10381.93
585.969	10818.98
586.329	11158.86
586.688	11601.33
587.048	12067.31
587.408	12436.11
587.768	12874.29
588.127	13239.03
588.487	13614.39
588.846	14076.3
589.206	14362.62
589.565	14761.25
589.925	15177.74
590.284	15558.97
590.643	15891.39
591.003	16351.72
591.362	16904.47
591.721	17292.71
592.08	17715.97
592.44	18283.64
592.799	18727.47
593.158	19309.38
593.517	19779.2
593.876	20540.99
594.235	20839.06
594.593	21533.73
594.952	22115.41
595.311	22639.24
595.67	23163.29
596.029	23805.08
596.387	24349.47
596.746	24872.62
597.104	25271.93
597.463	25697.91
597.822	26346.71
598.18	26636.42
598.538	26983.75
598.897	27523.85
599.255	27737.41
599.613	28512.75
599.972	28682.69
600.33	29263.47
600.688	29458.72
601.046	30055.76
601.404	30704.56
601.762	31098.45
602.12	31817.07
602.478	32104.3
602.836	32666.32
603.194	32899.3
603.552	33506.97
603.91	33877.13
604.268	34502.88
604.625	34734.28
604.983	35389.86
605.341	35547.14
605.698	36055.61
606.056	36493.33
606.413	36589.15
606.771	37071.17
607.128	37428
607.485	37480.88
607.843	37698.27
608.2	38252.16
608.557	38483.34
608.914	38714.74
609.272	39057.56
609.629	39491.22
609.986	39742.51
610.343	39852.79
610.7	40336.85
611.057	40616.84
611.414	40873.56
611.771	41173.89
612.127	41650.71
612.484	41764.83
612.841	42220.19
613.198	42244.82
613.554	42620.86
613.911	43092.71
614.267	43090
614.624	43226.26
614.98	43461.29
615.337	43830.09
615.693	43854.27
616.05	43910.31
616.406	44109.86
616.762	44240.93
617.118	44359.34
617.475	44236.41
617.831	44518.43
618.187	44566.12
618.543	44682.95
618.899	45035.71
619.255	45142.37
619.611	45185.99
619.967	45437.05
620.323	45678.18
620.678	45557.95
621.034	45608.35
621.39	46011.73
621.746	46159.29
622.101	46596.57
622.457	46322
622.812	46576.46
623.168	46765.38
623.523	46725.16
623.879	47068.2
624.234	46772.39
624.589	46969.22
624.945	46950.69
625.3	47130.79
625.655	47069.33
626.01	47003.11
626.365	47084.24
626.72	46923.12
627.075	47082.43
627.43	47021.42
627.785	46854.19
628.14	47038.37
628.495	47025.49
628.85	47080.17
629.205	47020.52
629.559	47352.03
629.914	47235.88
630.269	47300.51
630.623	47373.05
630.978	47363.78
631.332	47501.86
631.687	47735.52
632.041	47657.11
632.396	47799.7
632.75	47613.95
633.104	47775.75
633.459	47624.12
633.813	47627.05
634.167	47627.5
634.521	47555.87
634.875	47636.32
635.229	47519.48
635.583	47266.61
635.937	47190.68
636.291	47155.2
636.645	47167.4
636.999	47034.75
637.352	47132.83
637.706	46909.56
638.06	46974.64
638.413	46952.49
638.767	46818.49
639.121	46972.83
639.474	46672.95
639.828	46928.31
640.181	46980.74
640.534	47024.13
640.888	47000.85
641.241	46920.4
641.594	47003.34
641.947	47096.9
642.301	47072.49
642.654	47042.44
643.007	47290.34
643.36	47156.1
643.713	47053.06
644.066	47204.92
644.419	46929.9
644.771	46613.29
645.124	46115
645.477	46048.11
645.83	45825.52
646.182	45513.66
646.535	45409.48
646.888	45333.33
647.24	45262.14
647.593	45374
647.945	45301.92
648.298	45042.71
648.65	45049.72
649.002	44782.61
649.355	45111.86
649.707	44938.99
650.059	45164.07
650.411	45788.68
650.763	45826.42
651.115	46343.47
651.467	46141.67
651.819	46298.73
652.171	46104.61
652.523	46121.56
652.875	46126.75
653.227	46138.28
653.578	46297.82
653.93	46305.28
654.282	45947.1
654.633	45905.06
654.985	46003.82
655.337	45803.6
655.688	45710.04
656.039	45898.06
656.391	45510.27
656.742	45619.87
657.094	45527.22
657.445	45637.05
657.796	45448.58
658.147	45329.94
658.498	45394.12
658.849	45366.1
659.2	45267.79
659.551	45238.42
659.902	45460.1
660.253	45412.2
660.604	45353.44
660.955	45312.76
661.306	45527.22
661.656	45429.6
662.007	45527.67
662.358	45543.49
662.708	45603.15
663.059	45546.43
663.409	45387.34
663.76	45872.52
664.11	45696.71
664.461	45692.87
664.811	45646.77
665.161	45569.48
665.511	45408.81
665.862	45412.65
666.212	45416.26
666.562	45339.43
666.912	45315.48
667.262	45064.63
667.612	45002.94
667.962	45147.8
668.312	44788.48
668.662	44995.26
669.011	44899.67
669.361	44920.46
669.711	44677.75
670.06	44737.64
670.41	44669.84
670.76	44654.25
671.109	44746.9
671.459	44757.98
671.808	44741.93
672.157	44950.06
672.507	44700.8
672.856	44857.63
673.205	44906.45
673.554	45126.33
673.904	44975.82
674.253	45069.15
674.602	44952.77
674.951	44404.54
675.3	44233.02
675.649	45004.3
675.998	44919.78
676.346	44870.06
676.695	44781.48
677.044	44480.47
677.393	44575.61
677.741	44633.46
678.09	44505.1
678.438	44206.58
678.787	44385.78
679.135	44349.85
679.484	43920.94
679.832	43939.69
680.181	43662.64
680.529	43850.88
680.877	43733.6
681.225	43696.08
681.573	43921.16
681.922	43773.59
682.27	43506.48
682.618	43647.95
682.966	43562.98
683.314	43639.81
683.661	43589.64
684.009	43604.79
684.357	43501.06
684.705	43552.58
685.053	43593.03
685.4	43626.93
685.748	43366.6
686.095	43445.69
686.443	43293.61
686.79	43325.92
687.138	43305.81
687.485	43216.32
687.832	43184.46
688.18	43082.54
688.527	42759.84
688.874	42749.44
689.221	42591.03
689.568	42486.62
689.915	42229.45
690.262	42212.28
690.609	42137.48
690.956	41788.11
691.303	41761.44
691.65	41669.47
691.997	41518.29
692.344	41250.27
692.69	41244.85
693.037	41249.59
693.383	41031.29
693.73	41194.68
694.077	40910.62
694.423	41098.41
694.769	41029.94
695.116	40993.1
695.462	40910.39
695.808	40771.64
696.155	40934.8
696.501	40683.73
696.847	40670.17
697.193	40528.71
697.539	40721.25
697.885	40549.27
698.231	40295.49
698.577	40250.75
698.923	40138.66
699.269	39923.98
699.614	39880.36
699.96	39711.33
700.306	39737.77
700.651	39372.13
700.997	39359.02
701.342	39052.36
701.688	39051.91
702.033	38812.14
702.379	38853.72
702.724	38597.01
703.069	38596.33
703.415	38340.74
703.76	38175.1
704.105	38244.02
704.45	38100.3
704.795	37974.65
705.14	37813.07
705.485	37796.58
705.83	37657.15
706.175	37785.05
706.52	37528.11
706.865	37612.85
707.209	37693.98
707.554	37455.34
707.899	37666.64
708.243	37584.15
708.588	37508.67
708.932	37360.88
709.277	37404.72
709.621	37500.31
709.966	37095.13
710.31	37242.47
710.654	36888.13
710.998	36956.15
711.342	36995.69
711.687	36774.68
712.031	36565.65
712.375	36508.93
712.719	36502.6
713.063	36444.97
713.407	36458.31
713.75	36142.61
714.094	36144.87
714.438	35847.48
714.782	35816.06
715.125	35632.34
715.469	35610.65
715.812	35526.58
716.156	35145.57
716.499	35292.69
716.843	35316.42
717.186	35085.69
717.53	35187.15
717.873	35337.21
718.216	35121.39
718.559	35035.07
718.902	35024.45
719.246	34943.09
719.589	34822.42
719.932	34791.68
720.275	34849.54
720.617	34855.41
720.96	34874.39
721.303	34767.96
721.646	34936.76
721.989	34578.13
722.331	34906.71
722.674	34762.31
723.016	34752.82
723.359	34570.9
723.701	34719.37
724.044	34377.01
724.386	34160.29
724.729	34289.32
725.071	34204.81
725.413	34056.34
725.755	34057.24
726.097	34040.29
726.439	33557.82
726.782	33430.14
727.124	33788.09
727.465	33374.32
727.807	33316.47
728.149	33281.67
728.491	33148.34
728.833	33240.31
729.175	33100.88
729.516	33049.13
729.858	32813.43
730.199	32834.22
730.541	32922.58
730.882	32921.9
731.224	32922.35
731.565	32769.36
731.906	32826.76
732.248	32987.66
732.589	32790.83
732.93	32730.27
733.271	32798.74
733.612	32865.41
733.953	32835.58
734.294	32880.55
734.635	32653.89
734.976	32847.33
735.317	32611.63
735.658	32691.17
735.999	32631.29
736.339	32589.03
736.68	32587.9
737.021	32541.57
737.361	32421.35
737.702	32608.24
738.042	32331.64
738.383	32262.49
738.723	32204.18
739.063	32133.22
739.404	32054.35
739.744	31836.51
740.084	31831.54
740.424	31780.92
740.764	31637.42
741.104	31693.46
741.444	31452.11
741.784	31311.1
742.124	31434.03
742.464	31356.29
742.804	31231.55
743.143	31149.07
743.483	31161.5
743.823	31009.64
744.162	31014.38
744.502	31174.38
744.841	30974.84
745.181	31119.92
745.52	30877.44
745.86	30991.33
746.199	31012.8
746.538	31003.31
746.877	31133.25
747.216	31016.19
747.556	31066.36
747.895	30968.96
748.234	30870.21
748.573	30959.24
748.911	30845.8
749.25	30909.3
749.589	30690.1
749.928	30752.02
750.267	30763.32
750.605	30582.3
750.944	30587.95
751.283	30461.4
751.621	30451.01
751.96	30190
752.298	30266.61
752.636	30065.71
752.975	29903.68
753.313	29819.39
753.651	29962.43
753.989	29583.01
754.327	29501.88
754.666	29350.25
755.004	29434.76
755.342	29367.42
755.679	29253.3
756.017	29138.5
756.355	29098.95
756.693	28972.4
757.031	29064.6
757.368	28830.94
757.706	28814.89
758.044	28684.5
758.381	28765.18
758.719	28670.72
759.056	28691.28
759.394	28663.71
759.731	28509.82
760.068	28496.03
760.405	28470.72
760.743	28383.04
761.08	28501
761.417	28320.22
