Data from red_cardboard_box_FLMS001491_00047.txt Node
Date: Wed Feb 08 11:32:28 GMT 2017
User: dcchb
Spectrometer: FLMS00149
Trigger mode: 0
Integration Time (sec): 2.000000E-2
Scans to average: 10
Electric dark correction enabled: true
Nonlinearity correction enabled: false
Boxcar width: 0
XAxis mode: Wavelengths
Number of Pixels in Spectrum: 2048
>>>>>Begin Spectral Data<<<<<
341.393	-11.85
341.776	-11.85
342.16	-11.85
342.543	-62.7
342.927	-87.1
343.31	-59.53
343.693	-75.13
344.077	-63.37
344.46	-65.63
344.843	-58.18
345.226	-55.01
345.61	-41.23
345.993	-31.28
346.376	-5.3
346.759	25.89
347.142	16.4
347.525	50.3
347.908	76.74
348.291	77.87
348.674	89.84
349.057	117.64
349.44	117.41
349.823	150.18
350.206	159.67
350.588	187.24
350.971	213.23
351.354	236.28
351.737	221.36
352.119	253
352.502	284.64
352.884	276.05
353.267	286
353.65	320.34
354.032	307.01
354.414	303.62
354.797	330.97
355.179	342.49
355.562	326.67
355.944	331.87
356.326	322.6
356.709	347.24
357.091	347.01
357.473	349.27
357.855	347.46
358.238	347.91
358.62	354.47
359.002	345.2
359.384	360.57
359.766	344.3
360.148	353.34
360.53	324.64
360.912	331.87
361.294	342.27
361.676	353.11
362.057	341.81
362.439	340.23
362.821	331.42
363.203	328.93
363.584	337.07
363.966	316.95
364.348	347.24
364.729	338.65
365.111	329.84
365.493	334.36
365.874	330.51
366.256	321.7
366.637	335.94
367.019	327.12
367.4	321.47
367.781	314.24
368.163	337.52
368.544	316.5
368.925	312.66
369.306	339.33
369.688	305.43
370.069	318.76
370.45	325.09
370.831	307.69
371.212	318.31
371.593	337.07
371.974	323.73
372.355	316.95
372.736	309.5
373.117	297.75
373.498	312.21
373.879	304.53
374.26	328.25
374.641	334.58
375.021	318.54
375.402	328.48
375.783	311.31
376.163	324.19
376.544	322.83
376.925	334.13
377.305	354.69
377.686	322.83
378.066	336.62
378.447	334.36
378.827	333.45
379.208	325.09
379.588	358.54
379.968	337.52
380.349	323.51
380.729	339.55
381.109	332.32
381.489	340.68
381.87	339.33
382.25	340.46
382.63	329.84
383.01	332.1
383.39	348.14
383.77	320.8
384.15	350.17
384.53	332.55
384.91	345.65
385.29	353.34
385.67	346.11
386.049	345.88
386.429	337.97
386.809	344.52
387.189	366.45
387.568	358.31
387.948	347.91
388.328	349.5
388.707	342.94
389.087	342.72
389.466	352.89
389.846	352.21
390.225	361.93
390.605	349.95
390.984	367.58
391.363	347.69
391.743	340.01
392.122	358.08
392.501	363.06
392.881	340.23
393.26	349.5
393.639	362.6
394.018	380.68
394.397	364.64
394.776	373.45
395.155	341.59
395.534	367.35
395.913	372.09
396.292	375.48
396.671	366.9
397.05	350.85
397.429	366.45
397.808	365.09
398.186	376.39
398.565	381.81
398.944	372.32
399.323	387.46
399.701	380.91
400.08	383.85
400.458	381.59
400.837	405.99
401.215	393.56
401.594	383.85
401.972	372.09
402.351	388.14
402.729	380.46
403.107	367.58
403.486	384.52
403.864	396.5
404.242	399.66
404.62	422.26
404.999	401.92
405.377	383.39
405.755	387.91
406.133	419.1
406.511	404.86
406.889	401.02
407.267	401.47
407.645	402.6
408.023	421.81
408.401	416.16
408.779	431.75
409.156	431.53
409.534	417.07
409.912	427.23
410.29	438.53
410.667	418.2
411.045	405.77
411.422	430.85
411.8	434.47
412.178	433.79
412.555	442.15
412.933	435.14
413.31	444.41
413.687	448.93
414.065	435.82
414.442	450.74
414.819	446.9
415.197	457.52
415.574	453
415.951	427.69
416.328	457.97
416.705	454.58
417.082	478.08
417.46	456.84
417.837	440.79
418.214	460.23
418.591	472.66
418.967	468.59
419.344	466.33
419.721	477.85
420.098	464.3
420.475	484.18
420.852	481.92
421.228	465.43
421.605	477.18
421.982	476.95
422.358	455.93
422.735	456.16
423.111	470.85
423.488	478.76
423.864	481.92
424.241	503.39
424.617	476.5
424.994	489.38
425.37	515.14
425.746	469.95
426.123	497.97
426.499	523.73
426.875	512.2
427.251	529.6
427.627	540.45
428.003	518.76
428.379	512.43
428.756	497.97
429.132	538.42
429.507	534.12
429.883	537.74
430.259	519.89
430.635	547.91
431.011	551.75
431.387	553.11
431.763	549.49
432.138	546.55
432.514	559.21
432.89	548.81
433.265	552.2
433.641	553.78
434.016	574.35
434.392	603.05
434.767	587.23
435.143	565.31
435.518	601.69
435.894	570.06
436.269	570.28
436.644	589.04
437.02	580
437.395	576.61
437.77	612.54
438.145	594.91
438.52	620.22
438.895	613.67
439.271	608.92
439.646	626.33
440.021	627.68
440.395	634.01
440.77	637.62
441.145	605.99
441.52	631.75
441.895	648.25
442.27	640.79
442.645	638.53
443.019	626.55
443.394	644.18
443.769	664.52
444.143	652.77
444.518	664.52
444.892	657.28
445.267	662.71
445.641	681.69
446.016	666.78
446.39	674.46
446.764	698.19
447.139	684.18
447.513	684.4
447.887	692.76
448.262	679.43
448.636	696.83
449.01	667.23
449.384	676.72
449.758	697.06
450.132	695.02
450.506	713.78
450.88	724.18
451.254	697.51
451.628	704.06
452.002	715.81
452.376	729.6
452.75	703.39
453.123	712.88
453.497	707.91
453.871	717.85
454.244	722.37
454.618	749.03
454.992	729.83
455.365	758.3
455.739	762.59
456.112	754.46
456.486	749.71
456.859	786.32
457.232	788.13
457.606	781.12
457.979	810.28
458.352	807.11
458.725	805.98
459.099	805.08
459.472	827.9
459.845	827.9
460.218	833.78
460.591	815.02
460.964	800.33
461.337	825.19
461.71	830.39
462.083	857.51
462.456	851.63
462.829	849.82
463.201	857.73
463.574	885.3
463.947	871.52
464.32	892.98
464.692	888.24
465.065	899.76
465.438	919.2
465.81	909.26
466.183	939.76
466.555	951.97
466.928	953.77
467.3	914.23
467.672	953.77
468.045	982.02
468.417	976.6
468.789	963.04
469.161	988.12
469.534	993.55
469.906	1015.69
470.278	1036.71
470.65	1015.92
471.022	1032.87
471.394	1027.67
471.766	1040.78
472.138	1059.99
472.51	1061.79
472.882	1101.34
473.253	1079.19
473.625	1105.63
473.997	1138.4
474.369	1110.83
474.74	1119.87
475.112	1135.69
475.484	1163.26
475.855	1163.94
476.227	1171.85
476.598	1218.63
476.97	1191.73
477.341	1246.42
477.713	1250.04
478.084	1250.49
478.455	1306.99
478.827	1289.81
479.198	1342.46
479.569	1311.28
479.94	1320.32
480.311	1339.75
480.682	1393.76
481.053	1410.71
481.424	1411.84
481.795	1429.69
482.166	1459.52
482.537	1469.92
482.908	1485.96
483.279	1520.54
483.65	1505.17
484.021	1575
484.391	1551.27
484.762	1546.98
485.133	1599.41
485.503	1575.23
485.874	1635.11
486.244	1630.37
486.615	1656.58
486.985	1682.34
487.356	1708.78
487.726	1712.4
488.097	1742.68
488.467	1753.75
488.837	1760.76
489.207	1805.28
489.578	1826.75
489.948	1818.16
490.318	1876.69
490.688	1878.72
491.058	1896.8
491.428	1930.92
491.798	1925.5
492.168	1955.33
492.538	1977.48
492.908	1966.86
493.278	2033.52
493.648	2031.71
494.017	2042.56
494.387	2051.37
494.757	2046.18
495.126	2092.5
495.496	2099.28
495.866	2116
496.235	2158.49
496.605	2146.29
496.974	2167.3
497.344	2194.65
497.713	2162.1
498.082	2207.53
498.452	2227.41
498.821	2218.83
499.19	2227.41
499.559	2288.43
499.928	2276
500.298	2305.83
500.667	2303.34
501.036	2337.01
501.405	2353.06
501.774	2353.51
502.143	2369.56
502.512	2417.01
502.88	2432.15
503.249	2425.15
503.618	2413.17
503.987	2472.15
504.356	2475.09
504.724	2504.92
505.093	2489.78
505.462	2483.68
505.83	2524.35
506.199	2535.65
506.567	2567.52
506.936	2572.94
507.304	2615.2
507.672	2620.62
508.041	2663.79
508.409	2638.93
508.777	2668.53
509.145	2694.29
509.514	2723.45
509.882	2721.86
510.25	2734.52
510.618	2747.85
510.986	2737.68
511.354	2788.3
511.722	2800.28
512.09	2812.03
512.458	2840.05
512.826	2849.77
513.193	2871.46
513.561	2851.58
513.929	2932.93
514.297	2911.01
514.664	2972.93
515.032	2954.4
515.4	2988.98
515.767	3045.7
516.135	3038.69
516.502	2995.08
516.869	3068.07
517.237	3084.11
517.604	3088.41
517.972	3109.65
518.339	3153.94
518.706	3197.33
519.073	3207.27
519.44	3202.75
519.808	3177.44
520.175	3211.57
520.542	3265.35
520.909	3282.07
521.276	3308.74
521.643	3326.37
522.009	3410.21
522.376	3377.89
522.743	3401.85
523.11	3450.66
523.477	3472.8
523.843	3522.29
524.21	3531.56
524.577	3546.93
524.943	3557.32
525.31	3600.71
525.676	3619.24
526.043	3628.51
526.409	3661.27
526.776	3680.03
527.142	3700.82
527.508	3746.47
527.874	3768.62
528.241	3799.58
528.607	3786.47
528.973	3857.88
529.339	3835.51
529.705	3893.81
530.071	3913.02
530.437	3978.33
530.803	3968.38
531.169	4052.68
531.535	3969.74
531.901	4005.67
532.267	4093.58
532.632	4095.39
532.998	4064.88
533.364	4134.26
533.73	4100.36
534.095	4213.58
534.461	4156.4
534.826	4227.59
535.192	4232.33
535.557	4289.96
535.923	4277.98
536.288	4283.18
536.653	4330.18
537.019	4296.74
537.384	4366.34
537.749	4366.79
538.114	4404.53
538.479	4437.07
538.845	4451.54
539.21	4417.64
539.575	4486.79
539.94	4514.58
540.305	4543.51
540.67	4540.12
541.034	4554.13
541.399	4561.36
541.764	4586.22
542.129	4638.2
542.494	4667.58
542.858	4707.12
543.223	4655.6
543.587	4753.22
543.952	4753.22
544.316	4774.92
544.681	4757.06
545.045	4822.83
545.41	4840.68
545.774	4809.49
546.138	4876.16
546.503	4825.99
546.867	4856.27
547.231	4964.97
547.595	4942.82
547.959	4948.92
548.324	4943.95
548.688	5021.01
549.052	5028.02
549.416	5026.66
549.779	5058.98
550.143	5111.86
550.507	5097.85
550.871	5179.43
551.235	5183.49
551.599	5281.57
551.962	5234.79
552.326	5279.54
552.689	5299.2
553.053	5270.05
553.417	5348.01
553.78	5446.31
554.143	5457.61
554.507	5427.56
554.87	5483.15
555.234	5551.39
555.597	5517.95
555.96	5608.57
556.323	5653.09
556.686	5652.86
557.05	5686.76
557.413	5793.87
557.776	5739.19
558.139	5812.18
558.502	5827.09
558.865	5857.83
559.228	5948.22
559.59	5971.27
559.953	5975.79
560.316	6112.73
560.679	6079.06
561.041	6202.45
561.404	6190.92
561.767	6257.36
562.129	6302.79
562.492	6365.16
562.854	6354.54
563.217	6465.72
563.579	6478.6
563.941	6506.4
564.304	6665.26
564.666	6687.18
565.028	6729.89
565.39	6736
565.753	6811.7
566.115	6916.33
566.477	6965.14
566.839	6932.6
567.201	7065.25
567.563	7094.63
567.925	7241.07
568.287	7230.67
568.648	7287.39
569.01	7386.37
569.372	7430.89
569.734	7468.63
570.095	7576.43
570.457	7634.05
570.819	7654.62
571.18	7744.33
571.542	7785.23
571.903	7886.47
572.265	7959.92
572.626	8018.22
572.987	8106.35
573.349	8241.49
573.71	8265.45
574.071	8316.07
574.432	8411.66
574.794	8495.5
575.155	8587.7
575.516	8601.26
575.877	8796.51
576.238	8796.28
576.599	8890.06
576.96	8975.03
577.32	9117.18
577.681	9227.46
578.042	9322.59
578.403	9341.12
578.763	9565.75
579.124	9622.25
579.485	9704.96
579.845	9848
580.206	9914.44
580.566	10118.96
580.927	10173.19
581.287	10285.05
581.648	10402.57
582.008	10554.88
582.368	10716.46
582.728	10897.47
583.089	10971.14
583.449	11069.89
583.809	11306.5
584.169	11522.31
584.529	11600.27
584.889	11863.77
585.249	11936.99
585.609	12125.23
585.969	12398.45
586.329	12477.31
586.688	12692
587.048	12898.77
587.408	13094.02
587.768	13353.67
588.127	13513.67
588.487	13736.26
588.846	14032.98
589.206	14194.56
589.565	14410.82
589.925	14749.34
590.284	14961.77
590.643	15211.48
591.003	15521.07
591.362	15878.58
591.721	16143.43
592.08	16305.91
592.44	16749.74
592.799	17076.74
593.158	17213.46
593.517	17630.17
593.876	17917.85
594.235	18243.94
594.593	18635.57
594.952	19080.3
595.311	19243.69
595.67	19676.45
596.029	20091.58
596.387	20400.04
596.746	20811.78
597.104	21025.79
597.463	21354.82
597.822	21809.72
598.18	22084.29
598.538	22485.19
598.897	22938.96
599.255	22986.42
599.613	23800.18
599.972	23983.9
600.33	24398.36
600.688	24718.57
601.046	25220.25
601.404	25498.67
601.762	25822.72
602.12	26375.93
602.478	26749.48
602.836	27000.1
603.194	27227.89
603.552	27582.23
603.91	27983.8
604.268	28485.93
604.625	28665.14
604.983	29201.17
605.341	29264.67
605.698	29842.96
606.056	30155.27
606.413	30446.33
606.771	30924.74
607.128	31177.16
607.485	31351.39
607.843	31703.7
608.2	32114.54
608.557	32552.94
608.914	32535.54
609.272	32989.32
609.629	33345.69
609.986	33803.53
610.343	33829.52
610.7	34327.81
611.057	34498.2
611.414	34619.1
611.771	34888.02
612.127	35256.83
612.484	35493.88
612.841	35820.43
613.198	35761.9
613.554	36179.97
613.911	36516.68
614.267	36581.54
614.624	36690.01
614.98	36985.37
615.337	37338.13
615.693	37584
616.05	37571.57
616.406	38108.73
616.762	38075.74
617.118	38185.11
617.475	38333.13
617.831	38594.59
618.187	38818.54
618.543	38912.55
618.899	39377.62
619.255	39331.07
619.611	39502.59
619.967	39645.86
620.323	39893.99
620.678	39868.91
621.034	39870.04
621.39	40051.05
621.746	40199.52
622.101	40531.72
622.457	40334.21
622.812	40694.2
623.168	40770.58
623.523	40910.24
623.879	41156.11
624.234	40857.81
624.589	41192.72
624.945	41211.47
625.3	41397.68
625.655	41420.96
626.01	41525.59
626.365	41513.61
626.72	41698.69
627.075	41682.65
627.43	41764.23
627.785	41669.31
628.14	41791.8
628.495	41996.09
628.85	42059.13
629.205	41923.32
629.559	42368.05
629.914	42180.26
630.269	42300.71
630.623	42191.33
630.978	42277.66
631.332	42464.77
631.687	42521.04
632.041	42436.07
632.396	42567.14
632.75	42382.06
633.104	42566.92
633.459	42446.47
633.813	42447.82
634.167	42515.39
634.521	42430.42
634.875	42634.71
635.229	42449.86
635.583	42378.67
635.937	42509.97
636.291	42402.18
636.645	42540.25
636.999	42477.2
637.352	42595.62
637.706	42387.71
638.06	42532.34
638.413	42490.76
638.767	42363.98
639.121	42583.41
639.474	42430.42
639.828	42497.31
640.181	42608.95
640.534	42537.99
640.888	42509.52
641.241	42337.54
641.594	42436.75
641.947	42544.55
642.301	42422.29
642.654	42592.68
643.007	42478.11
643.36	42424.55
643.713	42446.02
644.066	42687.14
644.419	42198.57
644.771	42135.29
645.124	41594.97
645.477	41647.17
645.83	41419.15
646.182	41198.14
646.535	41230.91
646.888	41422.31
647.24	41230
647.593	41572.37
647.945	41400.85
648.298	41167.41
648.65	41289.89
649.002	41216.9
649.355	41297.57
649.707	41332.6
650.059	41440.17
650.411	41986.82
650.763	42073.15
651.115	42537.31
651.467	42118.12
651.819	42240.6
652.171	42262.97
652.523	42062.98
652.875	42079.25
653.227	42024.33
653.578	42266.81
653.93	42289.18
654.282	42075.4
654.633	41896.88
654.985	42153.82
655.337	42016.42
655.688	42088.74
656.039	42248.73
656.391	41937.56
656.742	41979.14
657.094	42044.22
657.445	42217.55
657.796	42023.88
658.147	42091.68
658.498	41949.08
658.849	41976.65
659.2	42084.22
659.551	41716.32
659.902	42057.78
660.253	41959.25
660.604	42053.26
660.955	41815.07
661.306	41997.67
661.656	41804.45
662.007	41914.05
662.358	41968.06
662.708	41981.62
663.059	41919.7
663.409	41665.25
663.76	41882.87
664.11	41985.69
664.461	42097.78
664.811	41911.12
665.161	42011
665.511	41899.14
665.862	41823.21
666.212	42026.59
666.562	41884
666.912	41888.97
667.262	41835.41
667.612	41777.79
667.962	41804
668.312	41798.12
668.662	41863.89
669.011	41976.88
669.361	41892.13
669.711	41919.48
670.06	41827.05
670.41	41792.02
670.76	41633.61
671.109	41853.94
671.459	41670.67
671.808	41628.86
672.157	41725.58
672.507	41532.82
672.856	41526.27
673.205	41502.54
673.554	41792.25
673.904	41564.01
674.253	41817.56
674.602	41662.53
674.951	41125.37
675.3	41086.5
675.649	41665.92
675.998	41542.76
676.346	41567.62
676.695	41668.86
677.044	41342.77
677.393	41383.9
677.741	41517.45
678.09	41395.42
678.438	41253.96
678.787	41406.72
679.135	41481.75
679.484	41057.35
679.832	41300.74
680.181	40917.47
680.529	41189.55
680.877	41063.23
681.225	41112.27
681.573	41318.14
681.922	40999.28
682.27	40842.44
682.618	40846.74
682.966	40725.61
683.314	40864.36
683.661	40752.28
684.009	40525.39
684.357	40470.7
684.705	40436.8
685.053	40550.7
685.4	40401.78
685.748	40073.42
686.095	40132.63
686.443	40065.06
686.79	40022.13
687.138	40127.43
687.485	40109.58
687.832	39989.81
688.18	40053.99
688.527	39821.23
688.874	39688.58
689.221	39647.22
689.568	39628.24
689.915	39581.01
690.262	39484.29
690.609	39437.96
690.956	39206.1
691.303	39257.4
691.65	38999.33
691.997	39028.25
692.344	38921.59
692.69	38842.95
693.037	38830.52
693.383	38560.02
693.73	38674.36
694.077	38451.09
694.423	38336.52
694.769	38296.3
695.116	38346.92
695.462	38205.9
695.808	38017.88
696.155	38057.43
696.501	37936.53
696.847	37866.7
697.193	37604.11
697.539	37794.39
697.885	37483.21
698.231	37420.61
698.577	37483.21
698.923	37289.99
699.269	37163.22
699.614	37063.79
699.96	36917.57
700.306	36926.16
700.651	36814.3
700.997	36720.07
701.342	36568.66
701.688	36626.73
702.033	36544.48
702.379	36366.4
702.724	36167.99
703.069	36311.04
703.415	35989.69
703.76	35923.02
704.105	36113.98
704.45	35870.6
704.795	35617.27
705.14	35565.52
705.485	35604.39
705.83	35499.31
706.175	35499.08
706.52	35383.83
706.865	35283.49
707.209	35142.25
707.554	35162.14
707.899	35094.12
708.243	34917.63
708.588	34843.5
708.932	34687.12
709.277	34863.84
709.621	34683.73
709.966	34481.71
710.31	34554.7
710.654	34282.84
710.998	34450.07
711.342	34387.92
711.687	34311.09
712.031	34158.55
712.375	34102.51
712.719	34105.22
713.063	34113.13
713.407	34096.41
713.75	33887.6
714.094	33867.71
714.438	33640.6
714.782	33838.11
715.125	33675.4
715.469	33713.59
715.812	33571.22
716.156	33385.46
716.499	33471.11
716.843	33417.55
717.186	33184.57
717.53	33447.16
717.873	33302.75
718.216	33252.13
718.559	33017.56
718.902	32836.33
719.246	32997
719.589	32839.49
719.932	32786.38
720.275	32766.95
720.617	32838.36
720.96	32648.08
721.303	32764.24
721.646	32661.87
721.989	32517.01
722.331	32616.9
722.674	32418.94
723.016	32605.6
723.359	32430.69
723.701	32419.39
724.044	32238.6
724.386	32047.65
724.729	32284.7
725.071	32189.11
725.413	31969.91
725.755	32079.06
726.097	32070.92
726.439	31722.68
726.782	31808.33
727.124	31942.34
727.465	31882.45
727.807	31712.74
728.149	31592.74
728.491	31658.5
728.833	31701.89
729.175	31643.81
729.516	31463.25
729.858	31516.59
730.199	31506.87
730.541	31361.11
730.882	31355.69
731.224	31424.84
731.565	31136.48
731.906	31202.24
732.248	31258.51
732.589	31007
732.93	30974.23
733.271	31015.36
733.612	31031.4
733.953	30950.73
734.294	30900.11
734.635	30948.24
734.976	31021.01
735.317	30702.82
735.658	30757.51
735.999	30811.75
736.339	30627.12
736.68	30713.9
737.021	30645.65
737.361	30526.33
737.702	30644.75
738.042	30466.67
738.383	30460.34
738.723	30468.7
739.063	30433.68
739.404	30376.96
739.744	30363.62
740.084	30235.04
740.424	30287.01
740.764	30377.18
741.104	30321.14
741.444	30288.14
741.784	30043.18
742.124	30061.71
742.464	30219.67
742.804	30046.57
743.143	30016.96
743.483	30026.46
743.823	29799.34
744.162	29866.23
744.502	29799.8
744.841	29688.84
745.181	29825.78
745.52	29734.49
745.86	29748.05
746.199	29811.09
746.538	29669.86
746.877	29658.78
747.216	29701.27
747.556	29475.74
747.895	29567.71
748.234	29465.12
748.573	29312.12
748.911	29336.08
749.25	29337.66
749.589	29218.79
749.928	29190.55
750.267	29226.25
750.605	29163.2
750.944	29218.12
751.283	29120.27
751.621	29103.32
751.96	28948.74
752.298	28875.98
752.636	28969.53
752.975	28854.74
753.313	28689.99
753.651	28788.75
753.989	28743.33
754.327	28627.4
754.666	28493.39
755.004	28485.93
755.342	28518.02
755.679	28570.45
756.017	28309.89
756.355	28429.89
756.693	28338.82
757.031	28298.37
757.368	28104.7
757.706	28003.23
758.044	28012.05
758.381	28096.11
758.719	27810.7
759.056	27990.13
759.394	27849.34
759.731	27737.93
760.068	27677.14
760.405	27641.43
760.743	27637.14
761.08	27720.08
761.417	27337.94
