Data from red_cardboard_box_FLMS001491_00028.txt Node
Date: Wed Feb 08 11:31:47 GMT 2017
User: dcchb
Spectrometer: FLMS00149
Trigger mode: 0
Integration Time (sec): 2.000000E-2
Scans to average: 10
Electric dark correction enabled: true
Nonlinearity correction enabled: false
Boxcar width: 0
XAxis mode: Wavelengths
Number of Pixels in Spectrum: 2048
>>>>>Begin Spectral Data<<<<<
341.393	-21.84
341.776	-21.84
342.16	-21.84
342.543	-55.96
342.927	-68.16
343.31	-60.25
343.693	-78.33
344.077	-62.74
344.46	-50.99
344.843	-60.25
345.226	-71.55
345.61	-28.39
345.993	5.51
346.376	6.41
346.759	6.41
347.142	28.11
347.525	32.85
347.908	72.63
348.291	56.13
348.674	87.09
349.057	117.37
349.44	125.73
349.823	120.99
350.206	163.02
350.588	201.44
350.971	196.24
351.354	236.46
351.737	248.21
352.119	250.93
352.502	238.95
352.884	278.95
353.267	295.44
353.65	277.14
354.032	311.26
354.414	306.07
354.797	324.14
355.179	321.66
355.562	326.63
355.944	333.64
356.326	320.98
356.709	334.31
357.091	349.23
357.473	352.39
357.855	351.49
358.238	333.86
358.62	343.8
359.002	321.43
359.384	358.49
359.766	333.64
360.148	335.44
360.53	334.31
360.912	341.32
361.294	316.69
361.676	339.06
362.057	322.79
362.439	330.47
362.821	325.95
363.203	335.67
363.584	333.86
363.966	340.41
364.348	308.55
364.729	318.27
365.111	321.66
365.493	325.95
365.874	314.2
366.256	306.29
366.637	299.06
367.019	311.71
367.4	283.47
367.781	285.27
368.163	321.88
368.544	285.5
368.925	323.69
369.306	326.18
369.688	311.04
370.069	312.39
370.45	324.37
370.831	320.53
371.212	294.99
371.593	317.82
371.974	299.29
372.355	343.35
372.736	325.27
373.117	333.18
373.498	318.72
373.879	321.88
374.26	323.92
374.641	308.1
375.021	304.71
375.402	329.12
375.783	299.29
376.163	312.39
376.544	327.31
376.925	320.08
377.305	299.06
377.686	325.95
378.066	302.45
378.447	334.31
378.827	345.61
379.208	328.44
379.588	361.21
379.968	326.4
380.349	311.71
380.729	339.74
381.109	339.06
381.489	346.52
381.87	336.35
382.25	338.15
382.63	331.83
383.01	337.7
383.39	338.38
383.77	326.4
384.15	332.28
384.53	345.16
384.91	339.74
385.29	346.97
385.67	343.58
386.049	326.18
386.429	335.67
386.809	341.54
387.189	334.54
387.568	358.49
387.948	355.78
388.328	357.14
388.707	351.04
389.087	354.43
389.466	338.38
389.846	370.92
390.225	367.53
390.605	367.31
390.984	344.03
391.363	346.97
391.743	353.52
392.122	371.37
392.501	357.36
392.881	368.66
393.26	362.56
393.639	377.48
394.018	391.49
394.397	379.51
394.776	367.31
395.155	381.54
395.534	356.69
395.913	362.56
396.292	370.24
396.671	373.63
397.05	368.89
397.429	376.8
397.808	373.86
398.186	384.03
398.565	382.67
398.944	362.34
399.323	376.57
399.701	374.76
400.08	373.41
400.458	372.5
400.837	418.38
401.215	391.03
401.594	357.14
401.972	373.86
402.351	392.84
402.729	411.83
403.107	392.84
403.486	396.68
403.864	401.43
404.242	402.33
404.62	432.39
404.999	394.2
405.377	407.98
405.755	416.34
406.133	416.34
406.511	407.31
406.889	396.68
407.267	437.14
407.645	405.5
408.023	423.12
408.401	432.16
408.779	419.73
409.156	416.34
409.534	410.7
409.912	433.75
410.29	461.09
410.667	426.51
411.045	438.72
411.422	454.99
411.8	425.84
412.178	439.62
412.555	441.88
412.933	463.58
413.31	435.55
413.687	439.4
414.065	458.83
414.442	455.44
414.819	461.54
415.197	449.79
415.574	473.07
415.951	467.64
416.328	477.36
416.705	473.52
417.082	488.21
417.46	474.42
417.837	484.14
418.214	474.87
418.591	485.27
418.967	475.78
419.344	486.63
419.721	494.08
420.098	472.84
420.475	487.08
420.852	486.63
421.228	502.22
421.605	503.8
421.982	510.35
422.358	502.67
422.735	519.17
423.111	493.41
423.488	485.27
423.864	523.69
424.241	527.98
424.617	513.29
424.994	530.92
425.37	538.83
425.746	526.17
426.123	520.3
426.499	541.99
426.875	538.6
427.251	538.38
427.627	554.42
428.003	541.09
428.379	545.61
428.756	553.06
429.132	566.4
429.507	562.1
429.883	549.9
430.259	567.3
430.635	561.2
431.011	585.61
431.387	592.16
431.763	586.74
432.138	590.13
432.514	600.75
432.89	600.07
433.265	594.19
433.641	611.37
434.016	607.07
434.392	596.23
434.767	611.82
435.143	632.84
435.518	635.32
435.894	621.99
436.269	635.55
436.644	649.79
437.02	639.39
437.395	650.69
437.77	659.05
438.145	622.67
438.52	675.55
438.895	673.74
439.271	675.1
439.646	678.71
440.021	652.72
440.395	685.49
440.77	686.85
441.145	671.25
441.52	691.82
441.895	689.78
442.27	683
442.645	721.42
443.019	723.46
443.394	694.53
443.769	685.26
444.143	711.03
444.518	733.85
444.892	709.9
445.267	708.31
445.641	706.51
446.016	717.35
446.39	719.84
446.764	740.18
447.139	745.83
447.513	702.21
447.887	706.28
448.262	719.16
448.636	735.66
449.01	729.78
449.384	731.14
449.758	738.37
450.132	745.38
450.506	750.57
450.88	727.3
451.254	767.52
451.628	752.61
452.002	759.16
452.376	778.37
452.75	788.99
453.123	785.6
453.497	799.39
453.871	782.44
454.244	799.61
454.618	783.79
454.992	815.88
455.365	827.41
455.739	828.31
456.112	832.38
456.486	804.36
456.859	835.54
457.232	826.05
457.606	852.04
457.979	858.59
458.352	862.89
458.725	854.07
459.099	867.86
459.472	864.92
459.845	904.92
460.218	891.36
460.591	910.57
460.964	906.28
461.337	915.31
461.71	939.72
462.083	927.07
462.456	945.37
462.829	934.3
463.201	965.71
463.574	938.82
463.947	963.22
464.32	955.54
464.692	965.71
465.065	984.24
465.438	998.7
465.81	1014.75
466.183	1011.36
466.555	1019.72
466.928	1037.35
467.3	1057.23
467.672	1050.9
468.045	1058.59
468.417	1046.61
468.789	1069.21
469.161	1072.82
469.534	1081.86
469.906	1093.84
470.278	1138.81
470.65	1117.34
471.022	1134.29
471.394	1146.72
471.766	1153.05
472.138	1157.79
472.51	1223.56
472.882	1199.15
473.253	1219.04
473.625	1205.02
473.997	1254.29
474.369	1239.6
474.74	1259.26
475.112	1274.4
475.484	1283.67
475.855	1311.01
476.227	1306.04
476.598	1332.48
476.97	1365.02
477.341	1352.37
477.713	1399.14
478.084	1385.81
478.455	1416.32
478.827	1425.58
479.198	1462.19
479.569	1491.57
479.94	1527.5
480.311	1518.46
480.682	1555.52
481.053	1545.58
481.424	1582.87
481.795	1600.72
482.166	1595.3
482.537	1622.19
482.908	1667.16
483.279	1630.78
483.65	1694.96
484.021	1718.91
484.391	1761.62
484.762	1757.1
485.133	1778.57
485.503	1812.47
485.874	1811.56
486.244	1819.02
486.615	1891.11
486.985	1861.28
487.356	1927.49
487.726	1953.93
488.097	1939.47
488.467	1974.72
488.837	1976.53
489.207	2019.24
489.578	2048.39
489.948	2046.36
490.318	2096.98
490.688	2069.86
491.058	2122.74
491.428	2138.79
491.798	2216.75
492.168	2208.84
492.538	2233.7
492.908	2259.01
493.278	2251.1
493.648	2271.21
494.017	2292.45
494.387	2321.38
494.757	2328.84
495.126	2357.31
495.496	2370.87
495.866	2398.89
496.235	2399.34
496.605	2436.18
496.974	2451.32
497.344	2463.75
497.713	2515.05
498.082	2506.23
498.452	2507.82
498.821	2556.4
499.19	2582.84
499.559	2557.31
499.928	2587.36
500.298	2587.59
500.667	2631.2
501.036	2616.06
501.405	2641.82
501.774	2643.86
502.143	2671.88
502.512	2685.66
502.88	2712.78
503.249	2685.21
503.618	2783.29
503.987	2771.76
504.356	2760.46
504.724	2786
505.093	2821.03
505.462	2796.85
505.83	2819.45
506.199	2861.03
506.567	2910.74
506.936	2895.83
507.304	2945.09
507.672	2966.79
508.041	2961.81
508.409	3008.82
508.777	3061.7
509.145	3003.4
509.514	3071.42
509.882	3065.99
510.25	3035.94
510.618	3093.11
510.986	3114.13
511.354	3194.13
511.722	3150.96
512.09	3171.98
512.458	3210.85
512.826	3227.34
513.193	3269.38
513.561	3257.85
513.929	3296.04
514.297	3335.14
514.664	3362.93
515.032	3373.33
515.4	3425.76
515.767	3399.09
516.135	3471.41
516.502	3393.67
516.869	3451.07
517.237	3511.63
517.604	3499.2
517.972	3571.06
518.339	3547.79
518.706	3585.75
519.073	3562.93
519.44	3645.86
519.808	3685.64
520.175	3677.5
520.542	3745.75
520.909	3733.09
521.276	3773.54
521.643	3797.27
522.009	3837.95
522.376	3837.27
522.743	3881.56
523.11	3928.8
523.477	3935.8
523.843	3982.58
524.21	4025.52
524.577	4062.12
524.943	4064.84
525.31	4069.81
525.676	4131.5
526.043	4134.67
526.409	4189.13
526.776	4244.49
527.142	4283.59
527.508	4255.57
527.874	4344.6
528.241	4306.41
528.607	4345.51
528.973	4398.39
529.339	4417.14
529.705	4437.71
530.071	4491.94
530.437	4532.62
530.803	4579.85
531.169	4609
531.535	4567.42
531.901	4568.55
532.267	4622.11
532.632	4680.19
532.998	4649.23
533.364	4708.44
533.73	4702.33
534.095	4787.3
534.461	4796.57
534.826	4795.66
535.192	4819.85
535.557	4910.46
535.923	4889.9
536.288	4934.19
536.653	4958.37
537.019	4938.49
537.384	4940.29
537.749	4979.16
538.114	4997.69
538.479	5051.7
538.845	5125.83
539.21	5090.35
539.575	5132.83
539.94	5157.69
540.305	5203.34
540.67	5198.14
541.034	5204.92
541.399	5255.31
541.764	5245.37
542.129	5260.06
542.494	5275.2
542.858	5313.84
543.223	5358.36
543.587	5355.65
543.952	5405.59
544.316	5380.06
544.681	5429.77
545.045	5446.27
545.41	5520.39
545.774	5562.2
546.138	5500.28
546.503	5575.53
546.867	5583.21
547.231	5625.93
547.595	5655.98
547.959	5695.75
548.324	5690.56
548.688	5743.21
549.052	5770.78
549.416	5788.18
549.779	5801.97
550.143	5862.76
550.507	5872.25
550.871	5944.34
551.235	5953.37
551.599	5968.97
551.962	5987.5
552.326	6054.39
552.689	6073.82
553.053	6081.51
553.417	6131
553.78	6170.09
554.143	6178
554.507	6243.31
554.87	6243.08
555.234	6378.9
555.597	6356.75
555.96	6399.69
556.323	6453.47
556.686	6454.38
557.05	6562.4
557.413	6594.94
557.776	6570.08
558.139	6683.3
558.502	6716.97
558.865	6670.42
559.228	6825.22
559.59	6846.23
559.953	6837.87
560.316	7027.24
560.679	6980.92
561.041	7074.48
561.404	7173.23
561.767	7209.16
562.129	7158.77
562.492	7341.81
562.854	7348.59
563.217	7367.12
563.579	7447.35
563.941	7552.43
564.304	7593.33
564.666	7652.09
565.028	7773.21
565.39	7836.49
565.753	7877.17
566.115	7916.71
566.477	8015.02
566.839	8098.63
567.201	8162.81
567.563	8210.26
567.925	8311.28
568.287	8321.9
568.648	8407.32
569.01	8423.37
569.372	8616.13
569.734	8638.28
570.095	8738.84
570.457	8840.3
570.819	8950.36
571.18	8950.58
571.542	9058.83
571.903	9146.28
572.265	9244.59
572.626	9356.45
572.987	9438.48
573.349	9554.41
573.71	9640.28
574.071	9669.89
574.432	9759.6
574.794	9932.7
575.155	9975.42
575.516	10062.87
575.877	10191.46
576.238	10337.67
576.599	10482.3
576.96	10624.66
577.32	10635.51
577.681	10744.89
578.042	10867.37
578.403	11106.91
578.763	11178.55
579.124	11273.01
579.485	11376.96
579.845	11537.86
580.206	11685.2
580.566	11814.01
580.927	11974.91
581.287	12138.07
581.648	12198.41
582.008	12563.6
582.368	12674.33
582.728	12748
583.089	12914.77
583.449	13146.63
583.809	13375.1
584.169	13558.6
584.529	13685.37
584.889	14009.21
585.249	14067.74
585.609	14287.84
585.969	14623.2
586.329	14808.51
586.688	15032.01
587.048	15209.63
587.408	15427.93
587.768	15690.75
588.127	15970.06
588.487	16277.85
588.846	16566.2
589.206	16739.76
589.565	17058.17
589.925	17481.21
590.284	17745.61
590.643	18024.7
591.003	18346.95
591.362	18708.52
591.721	18980.38
592.08	19329.75
592.44	19718.21
592.799	20060.8
593.158	20222.83
593.517	20563.39
593.876	21088.34
594.235	21336.7
594.593	21729.23
594.952	22113.85
595.311	22426.16
595.67	22868.18
596.029	23370.32
596.387	23763.98
596.746	24161.03
597.104	24340.91
597.463	24826.55
597.822	25275.35
598.18	25579.53
598.538	25918.95
598.897	26621.31
599.255	26596.9
599.613	27478.68
599.972	27634.61
600.33	28101.27
600.688	28316.63
601.046	28872.77
601.404	29324.29
601.762	29726.76
602.12	30293.53
602.478	30504.59
602.836	30973.06
603.194	31239.49
603.552	31684.45
603.91	31974.61
604.268	32495.73
604.625	32811.88
604.983	33250.74
605.341	33448.47
605.698	34083.71
606.056	34499.06
606.413	34769.57
606.771	35260.85
607.128	35519.83
607.485	35656.77
607.843	35917.56
608.2	36555.96
608.557	36875.73
608.914	37080.24
609.272	37549.15
609.629	37886.77
609.986	38238.18
610.343	38295.57
610.7	38926.52
611.057	39115.21
611.414	39366.28
611.771	39581.19
612.127	40006.72
612.484	40199.25
612.841	40607.83
613.198	40645.12
613.554	40924.43
613.911	41331.65
614.267	41438.77
614.624	41685.32
614.98	41820.91
615.337	42162.37
615.693	42453.88
616.05	42570.72
616.406	43029.69
616.762	42971.61
617.118	43188.55
617.475	43353.75
617.831	43605.04
618.187	43857.91
618.543	43949.66
618.899	44407.05
619.255	44354.85
619.611	44475.75
619.967	44764.11
620.323	44984.89
620.678	44924.1
621.034	44931.33
621.39	45139.69
621.746	45148.28
622.101	45778.99
622.457	45461.94
622.812	45664.87
623.168	45926.33
623.523	45968.59
623.879	46325.87
624.234	45967.46
624.589	46345.08
624.945	46350.28
625.3	46642.25
625.655	46574.68
626.01	46654.45
626.365	46686.31
626.72	46755.92
627.075	46811.06
627.43	46884.5
627.785	46890.83
628.14	47223.48
628.495	47234.32
628.85	47174.21
629.205	47098.96
629.559	47352.74
629.914	47339.4
630.269	47323.36
630.623	47380.31
630.978	47192.29
631.332	47641.09
631.687	47626.4
632.041	47635.67
632.396	47679.51
632.75	47577.36
633.104	47607.19
633.459	47652.84
633.813	47561.09
634.167	47577.14
634.521	47640.19
634.875	47652.62
635.229	47608.32
635.583	47625.5
635.937	47479.06
636.291	47656.91
636.645	47640.19
636.999	47605.61
637.352	47644.71
637.706	47558.61
638.06	47697.81
638.413	47640.19
638.767	47630.02
639.121	47669.11
639.474	47558.16
639.828	47571.49
640.181	47707.98
640.534	47762.9
640.888	47639.28
641.241	47528.55
641.594	47613.97
641.947	47676.57
642.301	47662.79
642.654	47696.46
643.007	47726.51
643.36	47710.92
643.713	47667.76
644.066	47791.82
644.419	47480.87
644.771	47227.09
645.124	46965.4
645.477	46896.03
645.83	46737.61
646.182	46593.89
646.535	46464.17
646.888	46757.27
647.24	46402.93
647.593	46778.52
647.945	46483.61
648.298	46408.58
648.65	46409.49
649.002	46354.8
649.355	46568.35
649.707	46420.56
650.059	46644.51
650.411	47007.21
650.763	47146.87
651.115	47562.68
651.467	47407.2
651.819	47357.48
652.171	47294.43
652.523	47375.79
652.875	47244.94
653.227	47151.61
653.578	47489.23
653.93	47313.87
654.282	47264.38
654.633	47126.08
654.985	47203.36
655.337	47223.7
655.688	47254.44
656.039	47327.2
656.391	47073.65
656.742	47168.34
657.094	47086.3
657.445	47308.67
657.796	47266.86
658.147	47176.02
658.498	47098.73
658.849	47158.62
659.2	47186.87
659.551	47040.88
659.902	47176.7
660.253	47046.98
660.604	47237.49
660.955	47017.38
661.306	47068
661.656	47029.36
662.007	47105.74
662.358	47065.51
662.708	47223.25
663.059	47111.84
663.409	46807.22
663.76	47067.55
664.11	47102.8
664.461	47240.42
664.811	47202.23
665.161	47152.97
665.511	47098.28
665.862	46996.82
666.212	47173.99
666.562	47057.38
666.912	47028.23
667.262	47002.46
667.612	47051.73
667.962	47070.03
668.312	46912.52
668.662	47206.08
669.011	47002.69
669.361	47087.21
669.711	46960.66
670.06	47000.43
670.41	46926.08
670.76	46700.33
671.109	47018.06
671.459	46881.11
671.808	46884.05
672.157	47008.57
672.507	46677.95
672.856	46840.21
673.205	46938.96
673.554	46909.59
673.904	46743.71
674.253	46976.02
674.602	46849.02
674.951	46201.81
675.3	46112.77
675.649	46673.21
675.998	46705.98
676.346	46640.67
676.695	46771.96
677.044	46535.36
677.393	46661.23
677.741	46632.76
678.09	46566.09
678.438	46378.3
678.787	46558.18
679.135	46427.79
679.484	46278.19
679.832	46272.09
680.181	46198.64
680.529	46370.16
680.877	46200.68
681.225	46131.75
681.573	46336.04
681.922	46087.69
682.27	46014.02
682.618	46107.12
682.966	45822.83
683.314	45872.55
683.661	45803.17
684.009	45618.55
684.357	45609.73
684.705	45521.6
685.053	45606.57
685.4	45438.21
685.748	45414.71
686.095	45293.58
686.443	45236.18
686.79	45246.58
687.138	45235.05
687.485	45103.31
687.832	45028.28
688.18	45067.37
688.527	44952.35
688.874	44734.95
689.221	44764.11
689.568	44570.44
689.915	44525.47
690.262	44532.25
690.609	44362.53
690.956	44336.32
691.303	44231.24
691.65	44020.4
691.997	44161.64
692.344	43799.39
692.69	43868.76
693.037	43939.72
693.383	43488.66
693.73	43575.89
694.077	43373.18
694.423	43366.85
694.769	43337.7
695.116	43271.04
695.462	43205.95
695.808	42944.72
696.155	43036.47
696.501	42758.96
696.847	42858.84
697.193	42519.42
697.539	42634.9
697.885	42277.62
698.231	42146.1
698.577	42335.69
698.923	42204.85
699.269	42023.16
699.614	41834.01
699.96	41704.3
700.306	41817.74
700.651	41647.13
700.997	41458.43
701.342	41300.02
701.688	41343.63
702.033	41184.09
702.379	41173.47
702.724	41017.99
703.069	40986.35
703.415	40774.61
703.76	40715.62
704.105	40697.55
704.45	40535.74
704.795	40449.87
705.14	40261.17
705.485	40325.58
705.83	40236.54
706.175	40288.06
706.52	40206.26
706.865	40025.02
707.209	39997
707.554	39839.94
707.899	40022.54
708.243	39678.59
708.588	39683.79
708.932	39382.55
709.277	39472.04
709.621	39348.88
709.966	39211.48
710.31	39232.05
710.654	39003.35
710.998	39090.58
711.342	39088.55
711.687	38920.87
712.031	38736.24
712.375	38558.39
712.719	38686.98
713.063	38575.57
713.407	38719.74
713.75	38464.16
714.094	38498.73
714.438	38379.87
714.782	38302.58
715.125	38176.26
715.469	38255.35
715.812	38034.79
716.156	37774.01
716.499	37896.72
716.843	37888.13
717.186	37659.89
717.53	37781.24
717.873	37829.37
718.216	37841.8
718.559	37384.41
718.902	37247.01
719.246	37423.28
719.589	37291.53
719.932	37114.36
720.275	37058.09
720.617	37175.15
720.96	37115.72
721.303	37124.31
721.646	37067.81
721.989	36926.8
722.331	37040.47
722.674	36903.52
723.016	36915.27
723.359	36831.66
723.701	36756.41
724.044	36625.56
724.386	36348.96
724.729	36518.9
725.071	36420.82
725.413	36489.29
725.755	36322.29
726.097	36248.4
726.439	36050.21
726.782	36105.12
727.124	36200.26
727.465	35955.75
727.807	35958.69
728.149	35998.23
728.491	35873.72
728.833	35888.86
729.175	35681.86
729.516	35626.49
729.858	35674.63
730.199	35575.19
730.541	35589.66
730.882	35490.45
731.224	35776.77
731.565	35426.27
731.906	35396.44
732.248	35471.24
732.589	35255.43
732.93	35145.38
733.271	35166.39
733.612	35155.77
733.953	35089.78
734.294	35012.05
734.635	34987.64
734.976	34976.11
735.317	34896.12
735.658	34800.3
735.999	34787.42
736.339	34700.19
736.68	34793.07
737.021	34650.25
737.361	34615.9
737.702	34780.41
738.042	34628.78
738.383	34434.43
738.723	34514.66
739.063	34438.5
739.404	34402.57
739.744	34317.15
740.084	34208.68
740.424	34283.48
740.764	34287.54
741.104	34252.74
741.444	34035.57
741.784	34038.06
742.124	34112.86
742.464	33917.84
742.804	33901.11
743.143	33841
743.483	33790.83
743.823	33766.88
744.162	33736.82
744.502	33656.15
744.841	33584.74
745.181	33729.14
745.52	33560.78
745.86	33633.55
746.199	33535.7
746.538	33483.72
746.877	33557.62
747.216	33514.46
747.556	33432.88
747.895	33454.57
748.234	33239.44
748.573	33173
748.911	33162.6
749.25	33172.77
749.589	33030.18
749.928	32959.67
750.267	32977.07
750.605	32992.21
750.944	32774.14
751.283	32779.56
751.621	32763.97
751.96	32695.04
752.298	32736.17
752.636	32688.26
752.975	32452.34
753.313	32384.09
753.651	32511.55
753.989	32307.94
754.327	32322.62
754.666	32113.82
755.004	32203.08
755.342	32079.47
755.679	32029.98
756.017	31962.86
756.355	31954.27
756.693	31757.44
757.031	31827.72
757.368	31693.49
757.706	31703.88
758.044	31541.63
758.381	31493.95
758.719	31387.96
759.056	31599.48
759.394	31338.7
759.731	31109.1
760.068	31082.21
760.405	31066.16
