Data from red_shiny_book_FLMS001491_00028.txt Node
Date: Wed Feb 08 15:24:38 GMT 2017
User: dcchb
Spectrometer: FLMS00149
Trigger mode: 0
Integration Time (sec): 2.000000E-2
Scans to average: 10
Electric dark correction enabled: true
Nonlinearity correction enabled: false
Boxcar width: 0
XAxis mode: Wavelengths
Number of Pixels in Spectrum: 2048
>>>>>Begin Spectral Data<<<<<
341.393	-20.8
341.776	-20.8
342.16	-20.8
342.543	-68.71
342.927	-68.49
343.31	-63.97
343.693	-87.02
344.077	-68.03
344.46	-59.22
344.843	-56.96
345.226	-45.66
345.61	-19.45
345.993	-19.67
346.376	-9.96
346.759	32.75
347.142	28.46
347.525	36.14
347.908	67.1
348.291	65.52
348.674	96.71
349.057	103.26
349.44	130.6
349.823	141.23
350.206	168.12
350.588	188.46
350.971	206.08
351.354	225.97
351.737	261.9
352.119	258.28
352.502	277.49
352.884	280.88
353.267	281.33
353.65	311.62
354.032	303.71
354.414	317.04
354.797	321.33
355.179	339.64
355.562	344.16
355.944	366.98
356.326	348.9
356.709	332.63
357.091	343.48
357.473	362.91
357.855	346.64
358.238	340.09
358.62	331.05
359.002	348.9
359.384	348.23
359.766	343.03
360.148	351.84
360.53	345.97
360.912	345.29
361.294	344.84
361.676	334.44
362.057	360.43
362.439	355.46
362.821	337.6
363.203	318.85
363.584	335.57
363.966	341.22
364.348	336.25
364.729	319.3
365.111	331.05
365.493	322.69
365.874	322.24
366.256	338.06
366.637	322.01
367.019	329.24
367.4	317.27
367.781	325.4
368.163	338.28
368.544	315.68
368.925	349.81
369.306	302.8
369.688	317.94
370.069	332.86
370.45	319.75
370.831	325.63
371.212	295.12
371.593	320.88
371.974	331.28
372.355	344.84
372.736	326.53
373.117	355.23
373.498	344.61
373.879	315.01
374.26	335.12
374.641	343.25
375.021	321.11
375.402	327.89
375.783	333.54
376.163	345.97
376.544	352.07
376.925	345.06
377.305	333.08
377.686	331.05
378.066	324.95
378.447	330.15
378.827	359.52
379.208	329.92
379.588	328.34
379.968	338.28
380.349	345.06
380.729	341.67
381.109	348.68
381.489	328.11
381.87	346.42
382.25	369.92
382.63	367.66
383.01	360.2
383.39	369.47
383.77	374.67
384.15	359.52
384.53	370.15
384.91	355.46
385.29	355.46
385.67	364.04
386.049	370.82
386.429	382.57
386.809	367.66
387.189	386.87
387.568	369.69
387.948	392.29
388.328	390.03
388.707	384.83
389.087	378.06
389.466	358.85
389.846	396.59
390.225	411.95
390.605	392.74
390.984	407.88
391.363	394.78
391.743	401.33
392.122	397.04
392.501	389.35
392.881	391.61
393.26	374.89
393.639	420.77
394.018	384.83
394.397	390.94
394.776	400.88
395.155	409.92
395.534	405.17
395.913	408.34
396.292	426.87
396.671	436.58
397.05	417.38
397.429	411.95
397.808	415.34
398.186	417.15
398.565	417.6
398.944	429.81
399.323	430.71
399.701	425.74
400.08	425.29
400.458	420.31
400.837	451.95
401.215	435.91
401.594	446.53
401.972	452.18
402.351	418.05
402.729	469.35
403.107	448.34
403.486	441.78
403.864	463.48
404.242	468
404.62	441.78
404.999	465.28
405.377	465.51
405.755	484.04
406.133	457.37
406.511	460.76
406.889	480.2
407.267	487.66
407.645	493.08
408.023	489.92
408.401	491.72
408.779	509.35
409.156	490.82
409.534	509.13
409.912	504.38
410.29	537.6
410.667	505.51
411.045	505.96
411.422	540.31
411.8	526.75
412.178	536.47
412.555	529.01
412.933	547.77
413.31	555.45
413.687	552.97
414.065	547.09
414.442	532.63
414.819	542.12
415.197	559.75
415.574	581.21
415.951	588.22
416.328	596.35
416.705	609.69
417.082	619.18
417.46	602.91
417.837	606.3
418.214	613.3
418.591	621.21
418.967	615.11
419.344	636.13
419.721	645.84
420.098	654.88
420.475	667.31
420.852	656.24
421.228	659.18
421.605	631.83
421.982	663.92
422.358	651.04
422.735	662.34
423.111	654.43
423.488	696.01
423.864	711.15
424.241	725.39
424.617	731.72
424.994	731.27
425.37	701.21
425.746	712.96
426.123	697.14
426.499	719.06
426.875	707.54
427.251	731.49
427.627	733.3
428.003	778.95
428.379	763.36
428.756	778.27
429.132	780.53
429.507	806.52
429.883	823.24
430.259	794.99
430.635	785.05
431.011	800.64
431.387	805.84
431.763	807.87
432.138	840.64
432.514	850.58
432.89	870.02
433.265	857.59
433.641	870.7
434.016	888.32
434.392	888.78
434.767	915.44
435.143	863.69
435.518	879.06
435.894	894.65
436.269	905.27
436.644	911.83
437.02	953.86
437.395	930.81
437.77	988.66
438.145	997.7
438.52	975.33
438.895	989.11
439.271	959.96
439.646	963.12
440.021	971.94
440.395	981.43
440.77	976.23
441.145	974.2
441.52	1019.85
441.895	1048.77
442.27	1061.43
442.645	1057.13
443.019	1054.87
443.394	1028.89
443.769	1032.95
444.143	1023.69
444.518	1037.7
444.892	1019.39
445.267	1054.42
445.641	1057.36
446.016	1070.69
446.39	1106.85
446.764	1134.19
447.139	1147.98
447.513	1140.97
447.887	1120.41
448.262	1134.87
448.636	1125.15
449.01	1106.85
449.384	1108.66
449.758	1116.79
450.132	1123.35
450.506	1120.41
450.88	1154.98
451.254	1198.37
451.628	1209.9
452.002	1192.95
452.376	1230.69
452.75	1253.51
453.123	1213.51
453.497	1217.13
453.871	1195.66
454.244	1201.54
454.618	1209.9
454.992	1212.16
455.365	1245.15
455.739	1300.52
456.112	1324.02
456.486	1309.33
456.859	1351.81
457.232	1355.88
457.606	1359.5
457.979	1345.26
458.352	1343
458.725	1315.66
459.099	1317.69
459.472	1361.76
459.845	1346.84
460.218	1381.64
460.591	1405.37
460.964	1437.91
461.337	1475.43
461.71	1486.05
462.083	1505.48
462.456	1511.58
462.829	1495.09
463.201	1476.33
463.574	1454.64
463.947	1435.2
464.32	1452.38
464.692	1497.8
465.065	1529.21
465.438	1562.2
465.81	1625.25
466.183	1673.39
466.555	1700.05
466.928	1723.33
467.3	1682.65
467.672	1708.64
468.045	1722.88
468.417	1686.5
468.789	1654.41
469.161	1680.62
469.534	1640.39
469.906	1698.25
470.278	1730.79
470.65	1799.26
471.022	1850.33
471.394	1911.57
471.766	1942.99
472.138	1974.85
472.51	1994.51
472.882	2048.52
473.253	2024.79
473.625	1948.86
473.997	1975.98
474.369	1958.35
474.74	1930.78
475.112	2006.26
475.484	2020.05
475.855	2098.91
476.227	2149.08
476.598	2251.45
476.97	2277.44
477.341	2363.54
477.713	2415.29
478.084	2386.82
478.455	2441.05
478.827	2400.15
479.198	2388.85
479.569	2355.63
479.94	2380.04
480.311	2401.96
480.682	2447.15
481.053	2523.99
481.424	2618.9
481.795	2706.36
482.166	2780.7
482.537	2857.76
482.908	2934.15
483.279	2971.21
483.65	2984.99
484.021	3022.73
484.391	3004.2
484.762	2932.34
485.133	2950.42
485.503	2899.12
485.874	2971.89
486.244	3004.2
486.615	3071.32
486.985	3201.94
487.356	3279.22
487.726	3410.07
488.097	3573
488.467	3555.6
488.837	3660.68
489.207	3700
489.578	3721.02
489.948	3653.9
490.318	3623.39
490.688	3540.46
491.058	3529.84
491.428	3578.42
491.798	3590.63
492.168	3730.06
492.538	3760.79
492.908	3917.4
493.278	4045.08
493.648	4090.95
494.017	4267.22
494.387	4337.5
494.757	4348.8
495.126	4386.31
495.496	4313.32
495.866	4268.57
496.235	4256.15
496.605	4206.2
496.974	4093.66
497.344	4167.11
497.713	4142.25
498.082	4183.38
498.452	4346.31
498.821	4443.48
499.19	4560.09
499.559	4693.87
499.928	4818.84
500.298	4881.21
500.667	4899.97
501.036	4889.35
501.405	4885.28
501.774	4743.59
502.143	4700.43
502.512	4600.54
502.88	4556.02
503.249	4513.09
503.618	4532.97
503.987	4630.15
504.356	4693.2
504.724	4803.02
505.093	4930.03
505.462	5074.65
505.83	5222.22
506.199	5236.23
506.567	5347.42
506.936	5290.47
507.304	5356.91
507.672	5222.45
508.041	5153.07
508.409	5090.25
508.777	5030.81
509.145	4892.96
509.514	4904.72
509.882	4916.47
510.25	4973.41
510.618	5098.16
510.986	5228.77
511.354	5419.28
511.722	5561.65
512.09	5630.57
512.458	5699.95
512.826	5752.83
513.193	5797.57
513.561	5702.89
513.929	5685.03
514.297	5611.36
514.664	5501.99
515.032	5440.75
515.4	5341.77
515.767	5356.91
516.135	5264.48
516.502	5232.39
516.869	5449.79
517.237	5594.19
517.604	5723
517.972	5924.35
518.339	6075.31
518.706	6143.55
519.073	6226.71
519.44	6361.17
519.808	6266.26
520.175	6186.94
520.542	6211.8
520.909	6021.97
521.276	5847.74
521.643	5788.08
522.009	5693.4
522.376	5653.62
522.743	5725.26
523.11	5802.09
523.477	5981.07
523.843	6083.44
524.21	6290.44
524.577	6471.23
524.943	6626.48
525.31	6813.14
525.676	6864.66
526.043	6998.22
526.409	6984.43
526.776	6937.88
527.142	6801.61
527.508	6738.57
527.874	6557.33
528.241	6508.29
528.607	6360.27
528.973	6391.91
529.339	6396.88
529.705	6564.11
530.071	6621.28
530.437	6739.02
530.803	6965.23
531.169	7190.98
531.535	7325.67
531.901	7547.13
532.267	7694.02
532.632	7844.53
532.998	7825.99
533.364	7838.2
533.73	7721.59
534.095	7630.75
534.461	7493.12
534.826	7253.13
535.192	7160.48
535.557	7134.71
535.923	7066.47
536.288	7060.59
536.653	7202.06
537.019	7288.38
537.384	7469.39
537.749	7783.28
538.114	7963.39
538.479	8199.54
538.845	8348.01
539.21	8432.08
539.575	8548.01
539.94	8496.26
540.305	8507.78
540.67	8417.39
541.034	8237.51
541.399	8118.64
541.764	7913.45
542.129	7863.28
542.494	7765.88
542.858	7634.81
543.223	7651.08
543.587	7751.65
543.952	7886.33
544.316	7997.06
544.681	8217.17
545.045	8504.17
545.41	8701.45
545.774	8849.47
546.138	9062.12
546.503	9138.95
546.867	9158.39
547.231	9238.61
547.595	9127.43
547.959	8979.64
548.324	8812.18
548.688	8667.33
549.052	8551.85
549.416	8330.16
549.779	8251.52
550.143	8129.94
550.507	8164.06
550.871	8271.18
551.235	8284.29
551.599	8515.24
551.962	8623.71
552.326	8804.95
552.689	9094.44
553.053	9234.09
553.417	9439.06
553.78	9635.89
554.143	9611.71
554.507	9740.29
554.87	9631.6
555.234	9572.39
555.597	9313.87
555.96	9174.66
556.323	9000.2
556.686	8803.37
557.05	8696.93
557.413	8638.18
557.776	8606.77
558.139	8654.45
558.502	8701.9
558.865	8806.31
559.228	9017.38
559.59	9240.87
559.953	9347.99
560.316	9742.55
560.679	9951.59
561.041	10167.63
561.404	10195.42
561.767	10291.69
562.129	10227.29
562.492	10238.13
562.854	10090.79
563.217	9893.51
563.579	9719.28
563.941	9592.05
564.304	9371.04
564.666	9243.81
565.028	9159.52
565.39	9094.44
565.753	9201.55
566.115	9222.34
566.477	9359.74
566.839	9533.52
567.201	9818.94
567.563	10046.95
567.925	10317.23
568.287	10540.95
568.648	10702.3
569.01	10882.19
569.372	11006.7
569.734	10915.18
570.095	10965.57
570.457	10887.61
570.819	10762.87
571.18	10572.14
571.542	10388.87
571.903	10283.33
572.265	10123.56
572.626	9914.3
572.987	9794.53
573.349	9815.32
573.71	9875.66
574.071	10009.67
574.432	10180.96
574.794	10483.55
575.155	10731.46
575.516	11043.54
575.877	11338.44
576.238	11573.24
576.599	11876.28
576.96	12062.95
577.32	12277.86
577.681	12317.85
578.042	12338.87
578.403	12326.22
578.763	12309.27
579.124	12174.81
579.485	12118.76
579.845	12011.87
580.206	11847.13
580.566	11854.59
580.927	11860.69
581.287	11967.13
581.648	12149.04
582.008	12430.85
582.368	12786.54
582.728	13096.59
583.089	13508.33
583.449	14011.59
583.809	14562.99
584.169	15118.01
584.529	15455.62
584.889	16233.68
585.249	16479.55
585.609	16851.52
585.969	17460.54
586.329	17603.59
586.688	17913.64
587.048	18150.02
587.408	18391.37
587.768	18593.85
588.127	18801.75
588.487	19020.28
588.846	19375.07
589.206	19527.83
589.565	19916.98
589.925	20301.6
590.284	20737.97
590.643	21405.3
591.003	22183.36
591.362	22886.39
591.721	23519.59
592.08	24141.95
592.44	24928.14
592.799	25714.79
593.158	26350.25
593.517	26952.27
593.876	27750.44
594.235	28325.57
594.593	28740.93
594.952	29158.77
595.311	29497.52
595.67	29859.99
596.029	30263.14
596.387	30563.48
596.746	30925.05
597.104	31086.4
597.463	31412.49
597.822	31894.29
598.18	32235.75
598.538	32603.87
598.897	33335.83
599.255	33643.62
599.613	34676.14
599.972	35076.35
600.33	35831.59
600.688	36388.63
601.046	37168.27
601.404	37965.32
601.762	38476.26
602.12	39169.8
602.478	39793.06
602.836	40268.76
603.194	40468.98
603.552	40892.47
603.91	40917.55
604.268	41468.05
604.625	41531.32
604.983	41932.67
605.341	41844.54
605.698	42293.79
606.056	42257.86
606.413	42448.59
606.771	42737.17
607.128	43028.01
607.485	43142.81
607.843	43295.12
608.2	43931.94
608.557	44474.3
608.914	44774.63
609.272	45360.15
609.629	45897.99
609.986	46506.11
610.343	46648.7
610.7	47376.37
611.057	47614.78
611.414	47893.64
611.771	48199.17
612.127	48495.21
612.484	48621.76
612.841	48882.77
613.198	48772.04
613.554	48782.88
613.911	48989.21
614.267	48772.26
614.624	48861.53
614.98	48932.48
615.337	49065.36
615.693	48945.37
616.05	48945.14
616.406	49294.96
616.762	49244.11
617.118	49309.88
617.475	49501.96
617.831	49831.9
618.187	50117.09
618.543	50373.35
618.899	50804.98
619.255	50904.18
619.611	51122.94
619.967	51315.7
620.323	51602.24
620.678	51682.47
621.034	51608.8
621.39	51719.08
621.746	51790.49
622.101	52067.54
622.457	51821.45
622.812	51879.53
623.168	51936.93
623.523	51807.66
623.879	51789.81
624.234	51533.55
624.589	51571.96
624.945	51550.27
625.3	51560.21
625.655	51450.16
626.01	51557.5
626.365	51547.11
626.72	51659.19
627.075	51599.31
627.43	51760.21
627.785	51825.97
628.14	52090.14
628.495	52162.68
628.85	52308.44
629.205	52391.6
629.559	52664.82
629.914	52566.29
630.269	52803.8
630.623	52790.01
630.978	52761.08
631.332	52950.68
631.687	52917.24
632.041	52718.83
632.396	52647.42
632.75	52455.56
633.104	52493.52
633.459	52121.33
633.813	52052.4
634.167	51991.84
634.521	51867.77
634.875	51792.3
635.229	51822.58
635.583	51428.24
635.937	51641.11
636.291	51561.34
636.645	51710.49
636.999	51627.55
637.352	51818.74
637.706	51773.31
638.06	52116.58
638.413	51990.48
638.767	52098.5
639.121	52307.31
639.474	52251.04
639.828	52332.4
640.181	52465.05
640.534	52549.79
640.888	52460.75
641.241	52345.28
641.594	52271.61
641.947	52333.98
642.301	52107.09
642.654	52070.26
643.007	51950.03
643.36	51731.73
643.713	51531.51
644.066	51536.71
644.419	51319.54
644.771	50908.93
645.124	50522.73
645.477	50463.74
645.83	50174.94
646.182	50094.49
646.535	49936.53
646.888	50085.45
647.24	49997.54
647.593	50224.88
647.945	50193.92
648.298	50277.99
648.65	50306.01
649.002	50365.67
649.355	50657.86
649.707	50733.34
650.059	50960.45
650.411	51462.81
650.763	51446.54
651.115	51778.74
651.467	51540.33
651.819	51479.54
652.171	51470.72
652.523	51230.5
652.875	51243.16
653.227	50946.22
653.578	51132.2
653.93	50876.16
654.282	50661.93
654.633	50370.19
654.985	50355.5
655.337	50174.94
655.688	50199.34
656.039	50294.48
656.391	50054.49
656.742	50075.51
657.094	50079.35
657.445	50312.11
657.796	50374.71
658.147	50327.25
658.498	50389.17
658.849	50717.52
659.2	50572.89
659.551	50681.59
659.902	50910.06
660.253	50922.26
660.604	50980.79
660.955	50973.79
661.306	51060.56
661.656	50999.77
662.007	51064.41
662.358	51063.95
662.708	50961.36
663.059	50859.44
663.409	50535.61
663.76	50680.69
664.11	50532.22
664.461	50377.42
664.811	50280.25
665.161	50139.68
665.511	49826.92
665.862	49814.04
666.212	49901.27
666.562	49815.85
666.912	49684.78
667.262	49502.87
667.612	49608.62
667.962	49635.74
668.312	49559.36
668.662	49979.24
669.011	49903.31
669.361	50010.42
669.711	50092.91
670.06	50238.89
670.41	50249.06
670.76	50390.3
671.109	50543.29
671.459	50513.91
671.808	50593.46
672.157	50688.37
672.507	50398.66
672.856	50383.52
673.205	50474.14
673.554	50605.43
673.904	50358.21
674.253	50368.15
674.602	50163.64
674.951	49514.84
675.3	49151.01
675.649	49687.04
675.998	49535.86
676.346	49407.05
676.695	49404.79
677.044	49097
677.393	49059.71
677.741	48948.53
678.09	48895.42
678.438	48928.87
678.787	48901.07
679.135	48819.04
679.484	48739.72
679.832	49070.33
680.181	48754.86
680.529	49050.67
680.877	48999.83
681.225	49147.39
681.573	49580.15
681.922	49327.28
682.27	49419.93
682.618	49442.75
682.966	49375.86
683.314	49521.62
683.661	49601.62
684.009	49278.46
684.357	49275.75
684.705	49192.82
685.053	49206.15
685.4	49013.16
685.748	48690.68
686.095	48650.23
686.443	48349.45
686.79	48159.62
687.138	48178.38
687.485	47948.78
687.832	47723.02
688.18	47569.81
688.527	47282.81
688.874	47112.19
689.221	47037.62
689.568	46874.46
689.915	46839.88
690.262	46827.23
690.609	46831.97
690.956	46743.16
691.303	46786.33
691.65	46761.02
691.997	46832.2
692.344	46666.56
692.69	46787.91
693.037	46826.78
693.383	46806.89
693.73	47056.83
694.077	46803.05
694.423	46853.44
694.769	46903.61
695.116	46878.98
695.462	46956.49
695.808	46748.81
696.155	46718.08
696.501	46389.05
696.847	46216.4
697.193	45753.59
697.539	45866.58
697.885	45558.79
698.231	45190.66
698.577	45221.4
698.923	45007.39
699.269	44544.35
699.614	44381.64
699.96	44251.48
700.306	43977.36
700.651	43743.47
700.997	43490.14
701.342	43591.61
701.688	43500.09
702.033	43346.64
702.379	43392.29
702.724	43410.82
703.069	43365.17
703.415	43019.65
703.76	43310.94
704.105	43365.85
704.45	43314.1
704.795	43229.13
705.14	43288.79
705.485	43416.25
705.83	43281.79
706.175	43449.01
706.52	43343.48
706.865	43324.5
707.209	43288.34
707.554	43234.78
707.899	43321.11
708.243	42936.71
708.588	42802.25
708.932	42675.7
709.277	42537.4
709.621	42351.64
709.966	42106
710.31	42019.9
710.654	41622.39
710.998	41693.13
711.342	41362.97
711.687	41236.19
712.031	40880.49
712.375	40589.2
712.719	40672.14
713.063	40439.6
713.407	40503.1
713.75	40259.49
714.094	40295.88
714.438	40044.81
714.782	40161.42
715.125	40076.45
715.469	40253.62
715.812	40101.08
716.156	39996.22
716.499	40112.83
716.843	40252.26
717.186	40034.64
717.53	40332.26
717.873	40499.71
718.216	40295.2
718.559	40320.06
718.902	40325.48
719.246	40381.52
719.589	40287.29
719.932	40312.15
720.275	40245.71
720.617	40228.76
720.96	40046.16
721.303	40065.37
721.646	39917.58
721.989	39637.81
722.331	39608.89
722.674	39285.05
723.016	39295.22
723.359	39138.17
723.701	39009.36
724.044	38724.62
724.386	38264.52
724.729	38418.86
725.071	38191.75
725.413	38074.69
725.755	37883.51
726.097	37717.41
726.439	37550.86
726.782	37509.51
727.124	37596.96
727.465	37472.67
727.807	37568.49
728.149	37469.51
728.491	37436.06
728.833	37565.1
729.175	37498.89
729.516	37603.74
729.858	37612.1
730.199	37884.41
730.541	37710.18
730.882	37792.66
731.224	37943.39
731.565	37883.06
731.906	37937.07
732.248	38102.26
732.589	37944.75
732.93	37748.15
733.271	37779.56
733.612	37858.2
733.953	37723.74
734.294	37459.57
734.635	37385.44
734.976	37518.55
735.317	37221.83
735.658	37181.83
735.999	36910.2
736.339	36853.48
736.68	36713.14
737.021	36465.92
737.361	36288.75
737.702	36324.45
738.042	36084.69
738.383	35914.75
738.723	35873.17
739.063	35614.64
739.404	35727.63
739.744	35628.65
740.084	35477.25
740.424	35555.66
740.764	35360.86
741.104	35582.55
741.444	35357.25
741.784	35424.14
742.124	35551.59
742.464	35613.96
742.804	35655.09
743.143	35634.08
743.483	35711.14
743.823	35572.84
744.162	35734.64
744.502	35874.3
744.841	35697.35
745.181	35970.57
745.52	35873.17
745.86	35930.57
746.199	35787.75
746.538	35757.69
746.877	35938.02
747.216	35876.56
747.556	35625.72
747.895	35519.73
748.234	35431.14
748.573	35342.79
748.911	35303.46
749.25	35053.53
749.589	34757.26
749.928	34686.53
750.267	34670.71
750.605	34539.42
750.944	34261.68
751.283	34060.11
751.621	34084.74
751.96	33686.78
752.298	33618.76
752.636	33707.12
752.975	33375.15
753.313	33277.75
753.651	33370.18
753.989	33123.41
754.327	33037.54
754.666	32995.95
755.004	33223.52
755.342	33126.12
755.679	33074.14
756.017	32881.83
756.355	33019.91
756.693	33004.54
757.031	33151.88
757.368	33035.95
757.706	32959.12
758.044	33038.67
758.381	33174.71
