Data from red_shiny_book_FLMS001491_00066.txt Node
Date: Wed Feb 08 15:25:13 GMT 2017
User: dcchb
Spectrometer: FLMS00149
Trigger mode: 0
Integration Time (sec): 2.000000E-2
Scans to average: 10
Electric dark correction enabled: true
Nonlinearity correction enabled: false
Boxcar width: 0
XAxis mode: Wavelengths
Number of Pixels in Spectrum: 2048
>>>>>Begin Spectral Data<<<<<
341.393	-20.96
341.776	-20.96
342.16	-20.96
342.543	-62.09
342.927	-75.2
343.31	-75.87
343.693	-58.7
344.077	-53.95
344.46	-65.93
344.843	-45.59
345.226	-11.92
345.61	-34.29
345.993	-9.21
346.376	9.77
346.759	-8.53
347.142	22.65
347.525	39.38
347.908	50.9
348.291	62.65
348.674	71.92
349.057	106.72
349.44	119.83
349.823	142.88
350.206	165.93
350.588	191.46
350.971	198.02
351.354	208.41
351.737	236.21
352.119	221.75
352.502	262.65
352.884	271.24
353.267	268.07
353.65	283.44
354.032	297
354.414	294.96
354.797	306.94
355.179	333.16
355.562	298.58
355.944	334.74
356.326	313.04
356.709	310.33
357.091	340.84
357.473	327.96
357.855	334.28
358.238	340.84
358.62	332.7
359.002	327.96
359.384	345.81
359.766	352.59
360.148	333.61
360.53	309.88
360.912	348.97
361.294	336.09
361.676	330.22
362.057	340.84
362.439	319.6
362.821	327.05
363.203	302.87
363.584	330.9
363.966	336.77
364.348	319.37
364.729	325.25
365.111	312.82
365.493	310.78
365.874	308.3
366.256	309.65
366.637	307.85
367.019	298.58
367.4	313.72
367.781	324.12
368.163	311.01
368.544	292.25
368.925	284.12
369.306	305.59
369.688	305.36
370.069	324.12
370.45	295.64
370.831	296.77
371.212	292.93
371.593	301.97
371.974	317.79
372.355	308.07
372.736	299.48
373.117	291.8
373.498	319.14
373.879	312.82
374.26	311.69
374.641	340.84
375.021	317.11
375.402	318.47
375.783	299.26
376.163	292.93
376.544	326.15
376.925	332.48
377.305	331.12
377.686	302.42
378.066	331.35
378.447	327.51
378.827	337.22
379.208	301.52
379.588	339.03
379.968	334.51
380.349	317.56
380.729	325.25
381.109	320.73
381.489	337.9
381.87	332.93
382.25	312.59
382.63	334.06
383.01	325.47
383.39	326.6
383.77	334.51
384.15	325.02
384.53	332.48
384.91	329.09
385.29	326.15
385.67	341.97
386.049	320.73
386.429	301.74
386.809	346.71
387.189	338.13
387.568	346.26
387.948	341.06
388.328	351.69
388.707	328.86
389.087	336.09
389.466	331.57
389.846	367.5
390.225	352.14
390.605	314.17
390.984	346.49
391.363	355.53
391.743	336.77
392.122	350.33
392.501	359.37
392.881	359.82
393.26	345.81
393.639	346.04
394.018	324.57
394.397	342.42
394.776	354.4
395.155	339.26
395.534	357.34
395.913	349.2
396.292	369.99
396.671	343.1
397.05	362.31
397.429	361.63
397.808	350.56
398.186	350.1
398.565	382.65
398.944	367.73
399.323	367.73
399.701	368.18
400.08	368.86
400.458	350.1
400.837	360.05
401.215	377
401.594	380.16
401.972	373.15
402.351	359.37
402.729	359.6
403.107	373.61
403.486	365.47
403.864	377
404.242	363.66
404.62	395.53
404.999	394.85
405.377	367.05
405.755	367.28
406.133	397.11
406.511	391.91
406.889	385.81
407.267	392.81
407.645	401.4
408.023	379.71
408.401	393.04
408.779	416.77
409.156	401.85
409.534	410.89
409.912	391.23
410.29	428.97
410.667	413.15
411.045	416.99
411.422	442.53
411.8	375.41
412.178	409.76
412.555	412.25
412.933	400.27
413.31	427.84
413.687	436.43
414.065	446.37
414.442	428.52
414.819	443.89
415.197	428.52
415.574	470.33
415.951	452.47
416.328	457.67
416.705	461.29
417.082	427.16
417.46	437.11
417.837	471.23
418.214	466.71
418.591	470.55
418.967	461.51
419.344	480.5
419.721	461.06
420.098	474.85
420.475	485.47
420.852	490.89
421.228	480.5
421.605	480.95
421.982	483.43
422.358	491.79
422.735	505.58
423.111	484.34
423.488	514.17
423.864	496.99
424.241	503.09
424.617	502.42
424.994	497.22
425.37	502.19
425.746	520.04
426.123	509.42
426.499	506.48
426.875	513.49
427.251	542.19
427.627	525.01
428.003	538.8
428.379	547.61
428.756	541.51
429.132	549.65
429.507	556.65
429.883	536.54
430.259	539.03
430.635	551
431.011	544.9
431.387	565.47
431.763	554.84
432.138	547.39
432.514	578.35
432.89	578.57
433.265	580.61
433.641	567.27
434.016	568.18
434.392	572.24
434.767	595.52
435.143	599.14
435.518	605.01
435.894	590.78
436.269	584.9
436.644	604.79
437.02	619.48
437.395	616.09
437.77	620.15
438.145	634.62
438.52	619.48
438.895	610.89
439.271	628.51
439.646	619.93
440.021	620.38
440.395	615.86
440.77	647.5
441.145	649.76
441.52	655.18
441.895	655.63
442.27	649.08
442.645	644.33
443.019	672.81
443.394	634.39
443.769	636.65
444.143	626.25
444.518	652.47
444.892	640.27
445.267	654.28
445.641	654.5
446.016	645.92
446.39	655.18
446.764	671
447.139	679.59
447.513	679.13
447.887	696.99
448.262	667.61
448.636	671.68
449.01	663.54
449.384	672.13
449.758	659.02
450.132	665.35
450.506	685.91
450.88	691.56
451.254	684.78
451.628	724.78
452.002	713.71
452.376	720.94
452.75	721.85
453.123	712.35
453.497	711.9
453.871	716.65
454.244	703.54
454.618	728.17
454.992	739.7
455.365	709.87
455.739	727.27
456.112	741.51
456.486	739.7
456.859	748.74
457.232	772.92
457.606	762.07
457.979	735.86
458.352	760.26
458.725	761.84
459.099	745.8
459.472	763.88
459.845	744.9
460.218	751.68
460.591	757.1
460.964	759.13
461.337	780.6
461.71	781.5
462.083	771.79
462.456	815.63
462.829	802.75
463.201	796.87
463.574	776.53
463.947	777.89
464.32	795.97
464.692	767.04
465.065	772.69
465.438	796.65
465.81	805.69
466.183	823.76
466.555	841.16
466.928	855.85
467.3	839.36
467.672	833.93
468.045	860.37
468.417	853.37
468.789	844.33
469.161	869.41
469.534	842.07
469.906	860.15
470.278	843.88
470.65	861.28
471.022	874.16
471.394	887.94
471.766	893.37
472.138	935.17
472.51	948.73
472.882	926.13
473.253	949.86
473.625	954.38
473.997	960.71
474.369	937.88
474.74	952.12
475.112	950.99
475.484	950.77
475.855	990.31
476.227	963.65
476.598	988.96
476.97	998.9
477.341	1030.54
477.713	1049.52
478.084	1042.29
478.455	1089.52
478.827	1078.67
479.198	1114.15
479.569	1087.71
479.94	1094.72
480.311	1091.55
480.682	1134.72
481.053	1108.5
481.424	1113.47
481.795	1123.42
482.166	1159.57
482.537	1164.55
482.908	1211.32
483.279	1238.67
483.65	1259.46
484.021	1262.62
484.391	1298.55
484.762	1299.23
485.133	1290.87
485.503	1316.18
485.874	1302.17
486.244	1286.8
486.615	1321.83
486.985	1309.17
487.356	1346.01
487.726	1365.9
488.097	1368.83
488.467	1429.62
488.837	1465.33
489.207	1466.91
489.578	1475.95
489.948	1540.35
490.318	1565.67
490.688	1559.79
491.058	1564.99
491.428	1555.72
491.798	1563.86
492.168	1561.37
492.538	1562.73
492.908	1600.01
493.278	1608.83
493.648	1600.92
494.017	1624.19
494.387	1637.08
494.757	1695.61
495.126	1698.77
495.496	1715.27
495.866	1752.1
496.235	1777.18
496.605	1750.52
496.974	1763.63
497.344	1776.28
497.713	1781.48
498.082	1739.22
498.452	1762.04
498.821	1727.24
499.19	1741.25
499.559	1746
499.928	1770.86
500.298	1825.09
500.667	1848.82
501.036	1844.98
501.405	1851.76
501.774	1880.46
502.143	1906.67
502.512	1899.89
502.88	1906.22
503.249	1931.76
503.618	1869.84
503.987	1907.35
504.356	1897.63
504.724	1848.14
505.093	1849.73
505.462	1857.63
505.83	1843.4
506.199	1884.3
506.567	1926.11
506.936	1897.86
507.304	1958.2
507.672	2002.94
508.041	1997.07
508.409	1969.04
508.777	1983.51
509.145	2018.53
509.514	1967.46
509.882	1971.08
510.25	1966.33
510.618	1928.82
510.986	1938.54
511.354	1913.45
511.722	1917.52
512.09	1903.96
512.458	1910.29
512.826	1933.11
513.193	1977.63
513.561	1986.22
513.929	2004.3
514.297	2041.36
514.664	2083.39
515.032	2037.74
515.4	2064.41
515.767	2087.23
516.135	2049.95
516.502	1997.74
516.869	1995.94
517.237	1975.37
517.604	1951.42
517.972	1937.86
518.339	1907.12
518.706	1909.38
519.073	1894.24
519.44	1947.58
519.808	1955.26
520.175	1975.37
520.542	2009.5
520.909	2044.52
521.276	2045.65
521.643	2076.84
522.009	2075.26
522.376	2090.85
522.743	2056.05
523.11	2062.83
523.477	2049.27
523.843	2049.04
524.21	2010.4
524.577	2007.46
524.943	1961.59
525.31	2016.73
525.676	2007.46
526.043	2017.86
526.409	2014.47
526.776	2062.38
527.142	2107.8
527.508	2148.93
527.874	2169.26
528.241	2193.67
528.607	2195.25
528.973	2233.9
529.339	2262.37
529.705	2259.88
530.071	2255.82
530.437	2261.69
530.803	2215.59
531.169	2211.3
531.535	2185.76
531.901	2183.73
532.267	2203.39
532.632	2193.67
532.998	2212.65
533.364	2249.04
533.73	2267.57
534.095	2364.97
534.461	2368.81
534.826	2437.73
535.192	2444.29
535.557	2468.01
535.923	2468.47
536.288	2525.19
536.653	2498.75
537.019	2505.75
537.384	2481.35
537.749	2479.54
538.114	2458.97
538.479	2413.78
538.845	2428.92
539.21	2404.29
539.575	2425.76
539.94	2436.38
540.305	2461.69
540.67	2487.9
541.034	2517.05
541.399	2574.9
541.764	2609.03
542.129	2674.34
542.494	2690.16
542.858	2736.03
543.223	2743.71
543.587	2746.88
543.952	2766.54
544.316	2729.93
544.681	2717.73
545.045	2689.93
545.41	2700.55
545.774	2655.58
546.138	2678.18
546.503	2642.02
546.867	2647.22
547.231	2648.57
547.595	2685.41
547.959	2680.89
548.324	2698.29
548.688	2757.72
549.052	2771.28
549.416	2839.08
549.779	2834.33
550.143	2880.43
550.507	2938.28
550.871	2895.35
551.235	2895.57
551.599	2868.46
551.962	2884.27
552.326	2894.22
552.689	2818.74
553.053	2800.21
553.417	2770.61
553.78	2730.61
554.143	2735.35
554.507	2669.59
554.87	2678.63
555.234	2685.86
555.597	2729.93
555.96	2773.99
556.323	2790.49
556.686	2828.91
557.05	2895.8
557.413	2906.42
557.776	2917.72
558.139	2985.51
558.502	2991.84
558.865	2973.09
559.228	3000.43
559.59	2924.05
559.953	2922.69
560.316	2945.06
560.679	2893.99
561.041	2838.4
561.404	2836.82
561.767	2824.84
562.129	2801.11
562.492	2789.36
562.854	2809.47
563.217	2766.31
563.579	2819.64
563.941	2832.52
564.304	2891.96
564.666	2934.67
565.028	2991.39
565.39	3018.51
565.753	3033.42
566.115	3064.16
566.477	3149.35
566.839	3100.77
567.201	3122.23
567.563	3114.1
567.925	3116.58
568.287	3051.05
568.648	3026.19
569.01	3032.97
569.372	3001.79
569.734	2916.14
570.095	2951.62
570.457	2982.12
570.819	2969.47
571.18	2982.12
571.542	3042.69
571.903	3045.4
572.265	3100.09
572.626	3139.63
572.987	3220.08
573.349	3292.63
573.71	3328.1
574.071	3370.82
574.432	3450.59
574.794	3502.79
575.155	3534.65
575.516	3571.04
575.877	3598.15
576.238	3580.3
576.599	3651.71
576.96	3637.02
577.32	3653.29
577.681	3630.92
578.042	3716.12
578.403	3750.69
578.763	3826.85
579.124	3872.27
579.485	3994.08
579.845	4118.37
580.206	4261.64
580.566	4388.42
580.927	4522.2
581.287	4796.31
581.648	4902.07
582.008	5126.93
582.368	5334.83
582.728	5513.81
583.089	5698.66
583.449	5949.05
583.809	6110.63
584.169	6315.37
584.529	6589.04
584.889	6801.23
585.249	6938.86
585.609	7216.59
585.969	7491.84
586.329	7726.18
586.688	7983.35
587.048	8306.05
587.408	8607.97
587.768	8948.07
588.127	9283.65
588.487	9593.7
588.846	10078.66
589.206	10392.1
589.565	10817.17
589.925	11310.04
590.284	11682.69
590.643	12132.84
591.003	12667.29
591.362	13074.51
591.721	13477.44
592.08	13946.58
592.44	14430.41
592.799	14726
593.158	15220.67
593.517	15568.23
593.876	16048.45
594.235	16349.91
594.593	16752.84
594.952	17109.44
595.311	17512.36
595.67	17972.24
596.029	18440.7
596.387	18814.03
596.746	19331.75
597.104	19742.14
597.463	20059.19
597.822	20662.79
598.18	20954.76
598.538	21386.16
598.897	22003.55
599.255	22216.2
599.613	23009.17
599.972	23383.17
600.33	23851.18
600.688	24285.29
601.046	24684.15
601.404	25185.16
601.762	25495.43
602.12	26022.2
602.478	26362.75
602.836	26566.82
603.194	26897.88
603.552	27191.21
603.91	27322.05
604.268	27810.85
604.625	28152.08
604.983	28409.03
605.341	28688.57
605.698	29035.23
606.056	29515.21
606.413	29696.9
606.771	30170.79
607.128	30521.29
607.485	30663.21
607.843	31075.17
608.2	31503.63
608.557	31753.57
608.914	32084.41
609.272	32494.34
609.629	32822.92
609.986	33210.26
610.343	33354.89
610.7	33774.31
611.057	33824.03
611.414	34163.68
611.771	34335.42
612.127	34537
612.484	34713.27
612.841	34970.89
613.198	34930.21
613.554	35204.55
613.911	35481.84
614.267	35515.51
614.624	35664.88
614.98	35879.34
615.337	36061.03
615.693	36221.03
616.05	36382.15
616.406	36729.26
616.762	36749.82
617.118	36984.39
617.475	37126.31
617.831	37338.74
618.187	37700.76
618.543	37764.04
618.899	38142.33
619.255	38112.73
619.611	38180.52
619.967	38570.12
620.323	38799.94
620.678	38681.98
621.034	38663.45
621.39	38704.58
621.746	38714.74
622.101	39264.56
622.457	38987.28
622.812	38994.51
623.168	39093.27
623.523	39158.12
623.879	39342.07
624.234	38994.51
624.589	39240.15
624.945	39377.78
625.3	39451.9
625.655	39353.6
626.01	39467.04
626.365	39587.72
626.72	39641.95
627.075	39610.54
627.43	39874.49
627.785	39836.98
628.14	40068.38
628.495	40095.95
628.85	40236.06
629.205	40234.93
629.559	40502.72
629.914	40322.16
630.269	40387.47
630.623	40386.79
630.978	40370.07
631.332	40514.25
631.687	40445.09
632.041	40375.27
632.396	40528.48
632.75	40214.14
633.104	40118.78
633.459	40137.31
633.813	40064.31
634.167	40080.13
634.521	39881.95
634.875	40053.92
635.229	40045.78
635.583	39845.11
635.937	39919.01
636.291	39820.03
636.645	40013.02
636.999	39771.89
637.352	40089.4
637.706	39863.64
638.06	40048.04
638.413	40147.93
638.767	39922.62
639.121	40050.3
639.474	39923.98
639.828	39941.38
640.181	40125.33
640.534	40241.26
640.888	39949.51
641.241	39838.33
641.594	39925.56
641.947	39892.57
642.301	39871.1
642.654	39784.77
643.007	39835.85
643.36	39699.13
643.713	39679.24
644.066	39709.52
644.419	39274.73
644.771	39141.4
645.124	38690.11
645.477	38576.44
645.83	38322.21
646.182	38336.9
646.535	38218.94
646.888	38280.18
647.24	38153.4
647.593	38417.35
647.945	38321.31
648.298	38257.58
648.65	38253.06
649.002	38161.76
649.355	38320.63
649.707	38285.6
650.059	38480.63
650.411	38919.94
650.763	38945.7
651.115	39362.86
651.467	39155.86
651.819	39154.96
652.171	39062.53
652.523	39087.84
652.875	38900.95
653.227	38725.37
653.578	38941.18
653.93	38671.36
654.282	38555.88
654.633	38401.76
654.985	38645.82
655.337	38426.62
655.688	38576.67
656.039	38531.25
656.391	38207.19
656.742	38216.45
657.094	38328.31
657.445	38517.46
657.796	38317.02
658.147	38269.78
658.498	38281.31
658.849	38517.91
659.2	38459.61
659.551	38494.41
659.902	38495.99
660.253	38437.69
660.604	38645.82
660.955	38438.37
661.306	38577.8
661.656	38531.02
662.007	38500.74
662.358	38519.95
662.708	38649.21
663.059	38520.63
663.409	38291.48
663.76	38501.87
664.11	38316.11
664.461	38409.89
664.811	38320.4
665.161	38215.77
665.511	38044.03
665.862	38014.65
666.212	38164.7
666.562	38170.13
666.912	37919.96
667.262	37952.28
667.612	37846.97
667.962	37883.58
668.312	37839.51
668.662	37864.15
669.011	38013.07
669.361	37909.57
669.711	37909.12
670.06	37910.92
670.41	37818.5
670.76	37793.41
671.109	38161.54
671.459	37916.35
671.808	37898.5
672.157	38011.26
672.507	37750.25
672.856	37888.33
673.205	37981.2
673.554	37967.65
673.904	37904.6
674.253	38227.75
674.602	37859.63
674.951	37292.64
675.3	37141.23
675.649	37677.03
675.998	37586.64
676.346	37604.94
676.695	37639.07
677.044	37327.89
677.393	37500.77
677.741	37254.67
678.09	37249.92
678.438	37025.07
678.787	37157.27
679.135	37204.73
679.484	36916.37
679.832	37037.05
680.181	36823.27
680.529	36957.95
680.877	36943.04
681.225	36886.32
681.573	37179.64
681.922	36847.68
682.27	36932.87
682.618	36863.27
682.966	36977.62
683.314	36999.31
683.661	36955.69
684.009	36772.42
684.357	36709.15
684.705	36655.59
685.053	36842.25
685.4	36655.14
685.748	36570.62
686.095	36505.54
686.443	36342.38
686.79	36200.69
687.138	36332.43
687.485	36275.71
687.832	35969.73
688.18	35943.52
688.527	35767.7
688.874	35725.44
689.221	35506.24
689.568	35475.73
689.915	35393.93
690.262	35317.55
690.609	35307.83
690.956	35027.38
691.303	35039.81
691.65	34894.05
691.997	34867.39
692.344	34805.02
692.69	34743.32
693.037	34741.06
693.383	34499.94
693.73	34560.05
694.077	34490.45
694.423	34498.81
694.769	34394.63
695.116	34445.48
695.462	34437.57
695.808	34176.56
696.155	34412.26
696.501	33960.52
696.847	34177.46
697.193	33801.2
697.539	34091.14
697.885	33745.84
698.231	33752.62
698.577	33677.82
698.923	33577.25
699.269	33401.89
699.614	33296.36
699.96	33154.21
700.306	33058.85
700.651	32883.49
700.997	32786.54
701.342	32780.44
701.688	32577.05
702.033	32543.16
702.379	32310.17
702.724	32531.4
703.069	32370.05
703.415	32009.38
703.76	32005.77
704.105	31931.19
704.45	31963.06
704.795	31756.96
705.14	31812.1
705.485	31698.66
705.83	31597.64
706.175	31700.69
706.52	31580.7
706.865	31523.3
707.209	31477.65
707.554	31402.62
707.899	31603.29
708.243	31328.27
708.588	31268.16
708.932	31215.96
709.277	31182.97
709.621	31107.71
709.966	30936.87
710.31	30909.53
710.654	30780.72
710.998	30818.91
711.342	30869.75
711.687	30700.27
712.031	30503.89
712.375	30272.93
712.719	30354.29
713.063	30420.95
713.407	30377.79
713.75	30036.55
714.094	30090.11
714.438	29943.9
714.782	29834.98
715.125	29696.9
715.469	29788.65
715.812	29590.01
716.156	29541.2
716.499	29485.83
716.843	29568.77
717.186	29376.91
717.53	29331.49
717.873	29446.06
718.216	29353.18
718.559	29389.57
718.902	29023.47
719.246	29257.14
719.589	29155.9
719.932	29033.64
720.275	29054.89
720.617	29071.61
720.96	29002.23
721.303	29175.33
721.646	29136.01
721.989	28877.94
722.331	29011.72
722.674	28925.4
723.016	28931.95
723.359	28948
723.701	28964.49
724.044	28701.67
724.386	28567.44
724.729	28648.12
725.071	28468.23
725.413	28385.52
725.755	28479.99
726.097	28287.45
726.439	28143.05
726.782	28126.1
727.124	28265.08
727.465	27993.22
727.807	27960.23
728.149	27871.64
728.491	27843.17
728.833	27920.9
729.175	27624.87
729.516	27649.95
729.858	27510.29
730.199	27652.66
730.541	27490.18
730.882	27419.9
731.224	27646.11
731.565	27267.36
731.906	27303.29
732.248	27395.04
732.589	27321.15
732.93	27282.28
733.271	27233.69
733.612	27400.01
733.953	27336.06
734.294	27160.47
734.635	27188.72
734.976	27277.31
735.317	27227.82
735.658	27266.01
735.999	27113.02
736.339	27114.82
736.68	27164.54
737.021	27020.14
737.361	26982.17
737.702	27128.61
738.042	26965
738.383	26842.74
738.723	26881.84
739.063	26816.07
739.404	26788.05
739.744	26651.33
740.084	26520.04
740.424	26538.34
740.764	26440.04
741.104	26522.52
741.444	26439.59
741.784	26280.5
742.124	26296.09
742.464	26236.65
742.804	26181.06
743.143	26108.3
743.483	26083.66
743.823	25837.57
744.162	25893.39
744.502	25982.88
744.841	25761.86
745.181	25969.32
745.52	25791.92
745.86	25803.45
746.199	25816.78
746.538	25811.58
746.877	25799.6
747.216	25856.55
747.556	25726.84
747.895	25718.48
748.234	25562.1
748.573	25652.94
748.911	25650.23
749.25	25584.47
749.589	25490.91
749.928	25626.5
750.267	25593.51
750.605	25554.86
750.944	25559.84
751.283	25428.09
751.621	25436.9
751.96	25178.15
752.298	25210.47
752.636	25149.23
752.975	25052.28
753.313	24840.53
753.651	24974.54
753.989	24911.72
754.327	24708.33
754.666	24603.25
755.004	24746.3
755.342	24729.12
755.679	24502.24
756.017	24314.67
756.355	24386.31
756.693	24194.9
757.031	24267.67
757.368	23984.74
757.706	24090.72
758.044	24011.4
758.381	24020.44
758.719	23744.97
759.056	23883.72
759.394	23807.57
759.731	23690.51
760.068	23592.43
760.405	23546.33
760.743	23630.85
761.08	23497.07
761.417	23447.58
761.754	23492.09
