Data from red_shiny_book_FLMS001491_00067.txt Node
Date: Wed Feb 08 15:25:13 GMT 2017
User: dcchb
Spectrometer: FLMS00149
Trigger mode: 0
Integration Time (sec): 2.000000E-2
Scans to average: 10
Electric dark correction enabled: true
Nonlinearity correction enabled: false
Boxcar width: 0
XAxis mode: Wavelengths
Number of Pixels in Spectrum: 2048
>>>>>Begin Spectral Data<<<<<
341.393	1
341.776	1
342.16	1
342.543	-54.81
342.927	-64.76
343.31	-56.62
343.693	-79.22
344.077	-59.33
344.46	-70.41
344.843	-63.63
345.226	-36.74
345.61	-39.22
345.993	-7.81
346.376	5.07
346.759	12.98
347.142	24.96
347.525	46.2
347.908	76.93
348.291	57.05
348.674	86.65
349.057	103.15
349.44	126.2
349.823	134.33
350.206	160.32
350.588	178.17
350.971	215.91
351.354	216.82
351.737	221.34
352.119	263.14
352.502	253.2
352.884	264.27
353.267	293.65
353.65	299.75
354.032	305.63
354.414	306.31
354.797	321.22
355.179	310.37
355.562	325.29
355.944	316.93
356.326	319.86
356.709	334.55
357.091	347.43
357.473	308.34
357.855	351.73
358.238	352.41
358.62	340.65
359.002	330.03
359.384	342.91
359.766	347.66
360.148	340.65
360.53	331.16
360.912	341.56
361.294	350.37
361.676	345.17
362.057	333.2
362.439	327.55
362.821	328.68
363.203	309.47
363.584	311.28
363.966	314.67
364.348	313.54
364.729	344.5
365.111	323.93
365.493	306.31
365.874	330.71
366.256	316.47
366.637	304.27
367.019	318.51
367.4	325.06
367.781	303.37
368.163	309.92
368.544	307.66
368.925	312.86
369.306	298.17
369.688	305.4
370.069	321.9
370.45	299.53
370.831	302.24
371.212	295.01
371.593	319.86
371.974	306.08
372.355	308.79
372.736	325.06
373.117	328
373.498	310.37
373.879	317.83
374.26	309.02
374.641	316.25
375.021	304.95
375.402	313.76
375.783	300.66
376.163	324.61
376.544	307.44
376.925	313.99
377.305	350.37
377.686	309.7
378.066	336.36
378.447	321.9
378.827	311.96
379.208	337.72
379.588	324.38
379.968	325.06
380.349	308.57
380.729	331.62
381.109	321.22
381.489	332.52
381.87	320.32
382.25	340.43
382.63	319.64
383.01	331.39
383.39	323.93
383.77	338.4
384.15	352.41
384.53	360.09
384.91	336.36
385.29	329.36
385.67	343.14
386.049	338.62
386.429	334.78
386.809	334.55
387.189	359.41
387.568	353.54
387.948	337.49
388.328	348.56
388.707	357.38
389.087	345.4
389.466	348.79
389.846	372.07
390.225	343.59
390.605	333.42
390.984	355.12
391.363	353.76
391.743	338.85
392.122	363.71
392.501	351.5
392.881	340.43
393.26	354.21
393.639	359.86
394.018	351.05
394.397	362.58
394.776	372.97
395.155	392.4
395.534	354.44
395.913	360.54
396.292	379.07
396.671	343.14
397.05	355.12
397.429	350.6
397.808	378.62
398.186	373.65
398.565	363.93
398.944	386.98
399.323	355.57
399.701	381.78
400.08	354.89
400.458	375.23
400.837	368.9
401.215	365.06
401.594	377.49
401.972	360.99
402.351	380.88
402.729	370.03
403.107	350.37
403.486	393.08
403.864	393.76
404.242	390.37
404.62	395.34
404.999	382.91
405.377	386.98
405.755	383.37
406.133	385.85
406.511	386.08
406.889	405.74
407.267	399.41
407.645	410.48
408.023	385.4
408.401	395.57
408.779	393.99
409.156	420.2
409.534	415.23
409.912	407.77
410.29	391.73
410.667	440.31
411.045	408.45
411.422	412.52
411.8	419.07
412.178	419.3
412.555	453.65
412.933	429.47
413.31	433.99
413.687	430.6
414.065	439.64
414.442	455.91
414.819	436.7
415.197	448.67
415.574	450.71
415.951	437.15
416.328	451.61
416.705	472.18
417.082	461.33
417.46	468.79
417.837	448.22
418.214	471.27
418.591	468.79
418.967	473.53
419.344	494.78
419.721	476.02
420.098	463.36
420.475	478.73
420.852	483.7
421.228	491.39
421.605	497.03
421.982	506.75
422.358	500.65
422.735	468.56
423.111	514.66
423.488	518.05
423.864	511.5
424.241	523.47
424.617	502.91
424.994	509.24
425.37	528.22
425.746	519.86
426.123	517.6
426.499	516.7
426.875	501.33
427.251	529.35
427.627	532.51
428.003	529.8
428.379	526.86
428.756	563.93
429.132	530.71
429.507	553.3
429.883	533.64
430.259	517.6
430.635	542.23
431.011	549.24
431.387	563.93
431.763	569.35
432.138	585.85
432.514	569.8
432.89	568.45
433.265	573.64
433.641	585.62
434.016	606.86
434.392	581.55
434.767	586.52
435.143	586.3
435.518	576.35
435.894	608.9
436.269	604.83
436.644	598.73
437.02	648.44
437.395	610.7
437.77	617.26
438.145	648.67
438.52	617.94
438.895	619.97
439.271	620.87
439.646	631.72
440.021	641.44
440.395	630.14
440.77	625.17
441.145	653.64
441.52	643.25
441.895	651.38
442.27	657.26
442.645	636.24
443.019	639.63
443.394	650.25
443.769	640.31
444.143	651.16
444.518	682.57
444.892	659.74
445.267	678.73
445.641	656.8
446.016	657.71
446.39	695.9
446.764	697.48
447.139	669.01
447.513	678.73
447.887	672.85
448.262	683.7
448.636	665.62
449.01	665.62
449.384	683.92
449.758	688.44
450.132	703.36
450.506	716.01
450.88	717.59
451.254	700.65
451.628	704.94
452.002	738.61
452.376	714.88
452.75	720.31
453.123	690.25
453.497	706.97
453.871	689.8
454.244	723.47
454.618	730.02
454.992	693.41
455.365	708.33
455.739	730.02
456.112	724.37
456.486	755.11
456.859	769.8
457.232	763.47
457.606	750.59
457.979	749.23
458.352	732.51
458.725	761.21
459.099	738.84
459.472	749.91
459.845	750.14
460.218	762.79
460.591	768.67
460.964	778.84
461.337	777.93
461.71	802.11
462.083	819.29
462.456	776.8
462.829	816.35
463.201	789.68
463.574	789.91
463.947	810.93
464.32	786.29
464.692	801.21
465.065	806.41
465.438	791.72
465.81	803.24
466.183	830.13
466.555	840.53
466.928	829.68
467.3	842.11
467.672	841.43
468.045	860.42
468.417	857.03
468.789	851.38
469.161	865.39
469.534	861.77
469.906	838.49
470.278	874.88
470.65	879.4
471.022	863.58
471.394	903.8
471.766	896.35
472.138	899.51
472.51	920.98
472.882	953.75
473.253	951.94
473.625	945.61
473.997	963.01
474.369	946.74
474.74	965.5
475.112	968.89
475.484	961.66
475.855	977.7
476.227	961.43
476.598	989.45
476.97	1015.67
477.341	1053.18
477.713	1057.47
478.084	1076.91
478.455	1083.91
478.827	1098.38
479.198	1095.44
479.569	1101.54
479.94	1108.54
480.311	1098.15
480.682	1121.43
481.053	1122.78
481.424	1125.04
481.795	1153.74
482.166	1158.26
482.537	1177.24
482.908	1208.2
483.279	1232.16
483.65	1257.01
484.021	1261.99
484.391	1283.45
484.762	1311.02
485.133	1318.48
485.503	1292.72
485.874	1316.45
486.244	1347.18
486.615	1340.63
486.985	1335.43
487.356	1363.23
487.726	1371.36
488.097	1385.6
488.467	1437.35
488.837	1458.14
489.207	1503.56
489.578	1539.72
489.948	1553.73
490.318	1556.89
490.688	1529.32
491.058	1548.76
491.428	1580.85
491.798	1570.91
492.168	1563
492.538	1566.39
492.908	1598.93
493.278	1581.07
493.648	1593.96
494.017	1658.36
494.387	1658.59
494.757	1687.74
495.126	1728.87
495.496	1721.86
495.866	1779.49
496.235	1819.71
496.605	1763.22
496.974	1780.84
497.344	1791.24
497.713	1762.54
498.082	1767.51
498.452	1734.29
498.821	1754.63
499.19	1755.53
499.559	1775.87
499.928	1794.4
500.298	1800.5
500.667	1812.48
501.036	1871.69
501.405	1863.1
501.774	1882.54
502.143	1910.33
502.512	1914.4
502.88	1935.19
503.249	1910.11
503.618	1895.64
503.987	1898.35
504.356	1868.07
504.724	1875.53
505.093	1881.18
505.462	1868.52
505.83	1868.3
506.199	1855.64
506.567	1900.61
506.936	1947.84
507.304	1961.4
507.672	1986.49
508.041	1991.01
508.409	1994.4
508.777	2006.83
509.145	2024
509.514	2016.09
509.882	1991.46
510.25	1953.72
510.618	1966.83
510.986	1927.05
511.354	1906.26
511.722	1945.13
512.09	1919.37
512.458	1906.04
512.826	1941.52
513.193	1995.98
513.561	1950.33
513.929	1975.19
514.297	2046.82
514.664	2023.1
515.032	2038.01
515.4	2038.01
515.767	2058.35
516.135	2041.4
516.502	2001.85
516.869	2016.32
517.237	2007.28
517.604	1972.93
517.972	1929.09
518.339	1914.4
518.706	1920.05
519.073	1964.12
519.44	1955.75
519.808	1976.54
520.175	1987.39
520.542	1992.59
520.909	2040.72
521.276	2099.7
521.643	2085.92
522.009	2093.83
522.376	2102.42
522.743	2082.3
523.11	2064.23
523.477	2071.23
523.843	2025.36
524.21	2043.21
524.577	2028.97
524.943	2014.06
525.31	1990.78
525.676	2025.81
526.043	2048.86
526.409	2068.07
526.776	2093.15
527.142	2114.62
527.508	2141.29
527.874	2198.46
528.241	2216.76
528.607	2234.39
528.973	2284.33
529.339	2276.88
529.705	2273.71
530.071	2261.96
530.437	2258.57
530.803	2239.59
531.169	2185.13
531.535	2203.88
531.901	2171.34
532.267	2211.34
532.632	2199.59
532.998	2226.93
533.364	2253.15
533.73	2268.97
534.095	2329.53
534.461	2353.48
534.826	2428.96
535.192	2445.01
535.557	2503.54
535.923	2518
536.288	2532.01
536.653	2526.13
537.019	2511.67
537.384	2494.04
537.749	2473.25
538.114	2448.17
538.479	2435.52
538.845	2427.38
539.21	2414.5
539.575	2420.83
539.94	2443.42
540.305	2452.92
540.67	2486.59
541.034	2545.12
541.399	2568.39
541.764	2603.65
542.129	2701.5
542.494	2734.94
542.858	2752.57
543.223	2756.41
543.587	2798.22
543.952	2760.7
544.316	2809.29
544.681	2741.27
545.045	2731.78
545.41	2710.08
545.774	2681.16
546.138	2665.11
546.503	2670.09
546.867	2650.65
547.231	2682.74
547.595	2672.8
547.959	2690.88
548.324	2734.49
548.688	2767.71
549.052	2815.39
549.416	2835.96
549.779	2828.5
550.143	2927.03
550.507	2928.16
550.871	2929.51
551.235	2923.64
551.599	2877.31
551.962	2870.98
552.326	2827.6
552.689	2821.72
553.053	2809.06
553.417	2734.72
553.78	2758.9
554.143	2717.09
554.507	2717.99
554.87	2722.06
555.234	2742.63
555.597	2734.49
555.96	2756.64
556.323	2787.14
556.686	2837.99
557.05	2891.1
557.413	2936.74
557.776	2925.45
558.139	2979.91
558.502	2979.46
558.865	2998.21
559.228	3001.38
559.59	2938.1
559.953	2920.93
560.316	2935.84
560.679	2884.54
561.041	2866.46
561.404	2828.27
561.767	2801.83
562.129	2800.7
562.492	2768.39
562.854	2779.46
563.217	2779.46
563.579	2837.76
563.941	2870.31
564.304	2931.32
564.666	2960.02
565.028	2980.59
565.39	3051.77
565.753	3089.51
566.115	3085.44
566.477	3098.1
566.839	3103.75
567.201	3136.97
567.563	3090.41
567.925	3062.17
568.287	3040.47
568.648	3006.35
569.01	3014.48
569.372	2987.59
569.734	2956.86
570.095	2943.98
570.457	2975.16
570.819	2933.13
571.18	2951.89
571.542	3024.88
571.903	3087.02
572.265	3086.57
572.626	3183.52
572.987	3265.55
573.349	3298.77
573.71	3330.86
574.071	3414.7
574.432	3461.93
574.794	3527.92
575.155	3526.79
575.516	3552.55
575.877	3600
576.238	3587.12
576.599	3601.36
576.96	3588.93
577.32	3640.68
577.681	3654.47
578.042	3708.48
578.403	3753.9
578.763	3804.97
579.124	3908.02
579.485	4015.36
579.845	4143.49
580.206	4279.31
580.566	4399.98
580.927	4581.67
581.287	4723.36
581.648	4897.15
582.008	5117.7
582.368	5327.87
582.728	5528.99
583.089	5783.45
583.449	5949.09
583.809	6138.47
584.169	6353.6
584.529	6523.77
584.889	6880.14
585.249	6998.11
585.609	7228.16
585.969	7511.54
586.329	7741.14
586.688	8076.27
587.048	8328.24
587.408	8636.48
587.768	8964.38
588.127	9276.47
588.487	9609.79
588.846	10133.39
589.206	10424.01
589.565	10822.41
589.925	11323.19
590.284	11757.76
590.643	12182.83
591.003	12801.12
591.362	13036.37
591.721	13447.65
592.08	13885.61
592.44	14402.66
592.799	14833.61
593.158	15166.71
593.517	15662.29
593.876	15928.72
594.235	16344.08
594.593	16701.81
594.952	17272.87
595.311	17563.48
595.67	17972.06
596.029	18533.4
596.387	18873.05
596.746	19273.49
597.104	19647.49
597.463	20082.28
597.822	20634.81
598.18	21035.03
598.538	21476.6
598.897	21941.67
599.255	22310.92
599.613	23039.27
599.972	23376.89
600.33	23973.25
600.688	24257.31
601.046	24756.74
601.404	25139.78
601.762	25476.04
602.12	25904.5
602.478	26280.99
602.836	26671.49
603.194	26929.56
603.552	27145.37
603.91	27355.76
604.268	27859.03
604.625	28188.06
604.983	28535.39
605.341	28537.88
605.698	29205.21
606.056	29474.58
606.413	29771.07
606.771	30106.2
607.128	30454.89
607.485	30758.84
607.843	31029.57
608.2	31430.23
608.557	31905.7
608.914	32020.05
609.272	32585
609.629	32808.5
609.986	33292.56
610.343	33319
610.7	33857.74
611.057	33918.3
611.414	34138.18
611.771	34341.79
612.127	34674.22
612.484	34818.17
612.841	35007.54
613.198	34952.4
613.554	35117.14
613.911	35471.26
614.267	35411.37
614.624	35715.54
614.98	35868.53
615.337	36190.11
615.693	36212.93
616.05	36287.05
616.406	36790.32
616.762	36681.85
617.118	36893.14
617.475	37131.1
617.831	37398.66
618.187	37523.63
618.543	37906.67
618.899	38059.89
619.255	38235.7
619.611	38258.98
619.967	38577.84
620.323	38655.13
620.678	38701.91
621.034	38581.46
621.39	38782.13
621.746	38767.44
622.101	39278.39
622.457	38978.96
622.812	39058.96
623.168	39235.23
623.523	39249.91
623.879	39412.85
624.234	39063.93
624.589	39300.99
624.945	39315.22
625.3	39474.32
625.655	39367.65
626.01	39446.75
626.365	39739.62
626.72	39694.42
627.075	39738.04
627.43	39747.53
627.785	39811.03
628.14	40114.75
628.495	40136.44
628.85	40139.61
629.205	40194.75
629.559	40288.31
629.914	40321.3
630.269	40472.03
630.623	40375.53
630.978	40422.31
631.332	40475.64
631.687	40445.14
632.041	40338.47
632.396	40447.85
632.75	40113.85
633.104	40270.68
633.459	40080.17
633.813	39933.06
634.167	39966.05
634.521	39985.49
634.875	39904.81
635.229	39976.22
635.583	39778.04
635.937	39882.21
636.291	39845.6
636.645	39857.58
636.999	39812.84
637.352	39967.41
637.706	39810.58
638.06	39986.17
638.413	40063.23
638.767	39933.74
639.121	40088.54
639.474	39930.8
639.828	39943.68
640.181	40102.32
640.534	40134.18
640.888	40070.46
641.241	39794.53
641.594	39854.42
641.947	40000.86
642.301	39834.31
642.654	39807.64
643.007	39862.78
643.36	39720.64
643.713	39683.12
644.066	39750.92
644.419	39365.84
644.771	38999.07
645.124	38673.66
645.477	38657.16
645.83	38449.03
646.182	38167.68
646.535	38200
646.888	38386.66
647.24	38207
647.593	38439.31
647.945	38397.06
648.298	38202.48
648.65	38215.82
649.002	38070.51
649.355	38386.43
649.707	38312.31
650.059	38521.57
650.411	38973.31
650.763	38966.98
651.115	39323.58
651.467	39206.07
651.819	39139.63
652.171	39041.33
652.523	39051.5
652.875	38915.46
653.227	38687.44
653.578	39019.64
653.93	38759.53
654.282	38647.9
654.633	38508.01
654.985	38600.21
655.337	38484.74
655.688	38510.27
656.039	38629.14
656.391	38263.73
656.742	38364.51
657.094	38281.58
657.445	38449.94
657.796	38461.46
658.147	38361.35
658.498	38329.26
658.849	38577.39
659.2	38395.02
659.551	38430.27
659.902	38609.93
660.253	38564.96
660.604	38552.76
660.955	38480.89
661.306	38742.81
661.656	38609.71
662.007	38666.88
662.358	38599.31
662.708	38527.22
663.059	38496.26
663.409	38207.46
663.76	38475.02
664.11	38388.69
664.461	38340.11
664.811	38315.93
665.161	38184.86
665.511	38087.46
665.862	38186.44
666.212	38047.01
666.562	38152.54
666.912	37949.61
667.262	37897.18
667.612	37967.46
667.962	37949.84
668.312	37820.57
668.662	38013.34
669.011	37855.6
669.361	37811.53
669.711	37887.69
670.06	37833
670.41	37931.53
670.76	37906.67
671.109	37997.29
671.459	38022.38
671.808	37965.65
672.157	38149.83
672.507	37890.63
672.856	37915.94
673.205	38002.72
673.554	38076.16
673.904	37830.97
674.253	38013.56
674.602	37929.95
674.951	37391.43
675.3	37207.03
675.649	37671.65
675.998	37618.77
676.346	37467.36
676.695	37749.84
677.044	37350.53
677.393	37449.96
677.741	37292.23
678.09	37268.5
678.438	37219.01
678.787	37135.17
679.135	37256.07
679.484	36939.92
679.832	37093.59
680.181	36666.03
680.529	37077.09
680.877	36890.65
681.225	36845.46
681.573	37026.02
681.922	36886.81
682.27	36758.68
682.618	36868.51
682.966	36845.01
683.314	36910.99
683.661	36817.66
684.009	36853.37
684.357	36646.37
684.705	36661.96
685.053	36728.4
685.4	36582.41
685.748	36426.49
686.095	36400.5
686.443	36367.73
686.79	36332.93
687.138	36281.4
687.485	36338.58
687.832	36082.54
688.18	36089.32
688.527	35858.59
688.874	35638.03
689.221	35608.65
689.568	35478.26
689.915	35462.22
690.262	35378.38
690.609	35184.48
690.956	35013.87
691.303	35109.01
691.65	34829.69
691.997	34877.6
692.344	34624.95
692.69	34700.43
693.037	34777.72
693.383	34444.39
693.73	34481.68
694.077	34451.62
694.423	34458.85
694.769	34297.73
695.116	34359.65
695.462	34386.09
695.808	34248.69
696.155	34304.28
696.501	34131.4
696.847	34005.31
697.193	33911.3
697.539	33993.33
697.885	33848.47
698.231	33667.46
698.577	33601.93
698.923	33615.94
699.269	33450.97
699.614	33216.63
699.96	33197.42
700.306	33145.44
700.651	32958.33
700.997	32750.2
701.342	32726.47
701.688	32505.68
702.033	32568.73
702.379	32496.87
702.724	32385.91
703.069	32345.92
703.415	32070.44
703.76	32137.33
704.105	32068.63
704.45	31906.83
704.795	31813.27
705.14	31725.14
705.485	31672.03
705.83	31687.63
706.175	31691.47
706.52	31599.95
706.865	31563.56
707.209	31522.21
707.554	31497.58
707.899	31488.08
708.243	31349.11
708.588	31395.66
708.932	31169.9
709.277	31096
709.621	31209.45
709.966	30941.21
710.31	31109.79
710.654	30790.25
710.998	30743.92
711.342	30807.42
711.687	30752.96
712.031	30556.13
712.375	30455.34
712.719	30392.97
713.063	30372.86
713.407	30430.03
713.75	30197.04
714.094	30080.89
714.438	30019.42
714.782	29985.53
715.125	29716.61
715.469	29787.34
715.812	29554.58
716.156	29461.25
716.499	29545.99
716.843	29535.59
717.186	29350.29
717.53	29434.81
717.873	29330.18
718.216	29280.46
718.559	29250.63
718.902	29047.92
719.246	29189.16
719.589	29070.75
719.932	29103.06
720.275	29127.69
720.617	29143.97
720.96	29071.88
721.303	29071.2
721.646	29151.87
721.989	28814.93
722.331	28928.6
722.674	28838.21
723.016	28905.78
723.359	28862.84
723.701	28859.91
724.044	28605.9
724.386	28633.02
724.729	28642.28
725.071	28514.15
725.413	28309.64
725.755	28438
726.097	28298.79
726.439	28134.27
726.782	28077.1
727.124	28157.55
727.465	27958.23
727.807	27939.25
728.149	27873.26
728.491	27764.79
728.833	27768.41
729.175	27664.23
729.516	27735.64
729.858	27595.98
730.199	27564.57
730.541	27555.53
730.882	27413.39
731.224	27548.3
731.565	27373.16
731.906	27404.35
732.248	27449.55
732.589	27300.17
732.93	27362.77
733.271	27361.19
733.612	27361.87
733.953	27375.2
734.294	27255.2
734.635	27306.73
734.976	27395.76
735.317	27108.54
735.658	27118.48
735.999	27184.92
736.339	27080.06
736.68	27184.24
737.021	27145.37
737.361	26936.11
737.702	27137.69
738.042	26984.93
738.383	26912.39
738.723	26925.04
739.063	26765.72
739.404	26818.38
739.744	26693.41
740.084	26579.51
740.424	26604.15
740.764	26553.75
741.104	26509.46
741.444	26411.83
741.784	26308.33
742.124	26276.92
742.464	26124.38
742.804	26143.37
743.143	26141.56
743.483	26039.41
743.823	25918.06
744.162	25915.12
744.502	25874.45
744.841	25810.27
745.181	25914.9
745.52	25824.96
745.86	25833.32
746.199	25836.03
746.538	25791.51
746.877	25847.1
747.216	25846.88
747.556	25741.79
747.895	25687.11
748.234	25611.18
748.573	25646.43
748.911	25587
749.25	25597.17
749.589	25530.05
749.928	25584.06
750.267	25577.73
750.605	25530.05
750.944	25483.27
751.283	25490.73
751.621	25416.83
751.96	25232.43
752.298	25337.51
752.636	25214.13
752.975	25057.29
753.313	25022.72
753.651	25020.68
753.989	24788.6
754.327	24803.29
754.666	24582.5
755.004	24618.21
755.342	24607.81
755.679	24514.93
756.017	24326.24
756.355	24412.79
756.693	24177.09
757.031	24248.73
757.368	24064.32
757.706	24005.34
758.044	24016.64
758.381	24029.75
758.719	23860.49
759.056	23862.3
759.394	23853.48
759.731	23635.18
760.068	23671.11
760.405	23524.68
760.743	23564
761.08	23518.12
761.417	23397.68
761.754	23389.99
762.091	23390.44
762.428	23319.71
