Data from red_shiny_book_FLMS001491_00035.txt Node
Date: Wed Feb 08 15:24:46 GMT 2017
User: dcchb
Spectrometer: FLMS00149
Trigger mode: 0
Integration Time (sec): 2.000000E-2
Scans to average: 10
Electric dark correction enabled: true
Nonlinearity correction enabled: false
Boxcar width: 0
XAxis mode: Wavelengths
Number of Pixels in Spectrum: 2048
>>>>>Begin Spectral Data<<<<<
341.393	-18.26
341.776	-18.26
342.16	-18.26
342.543	-63.91
342.927	-67.07
343.31	-50.35
343.693	-65.72
344.077	-61.88
344.46	-64.81
344.843	-55.78
345.226	-61.42
345.61	0.27
345.993	-7.64
346.376	-26.62
346.759	9.99
347.142	12.02
347.525	44.33
347.908	55.18
348.291	80.72
348.674	93.6
349.057	98.12
349.44	125.01
349.823	151.9
350.206	165.91
350.588	194.84
350.971	234.84
351.354	219.92
351.737	242.75
352.119	260.15
352.502	273.93
352.884	278.23
353.267	291.79
353.65	288.62
354.032	291.33
354.414	327.27
354.797	317.1
355.179	306.93
355.562	329.07
355.944	328.4
356.326	330.66
356.709	356.87
357.091	334.27
357.473	369.98
357.855	354.16
358.238	336.98
358.62	352.8
359.002	345.34
359.384	362.07
359.766	358.9
360.148	341.95
360.53	318.45
360.912	344.44
361.294	346.7
361.676	304.44
362.057	329.98
362.439	332.01
362.821	341.73
363.203	320.26
363.584	340.82
363.966	335.17
364.348	334.72
364.729	320.03
365.111	320.03
365.493	331.11
365.874	323.88
366.256	316.64
366.637	315.29
367.019	333.37
367.4	321.84
367.781	316.42
368.163	316.42
368.544	323.2
368.925	306.47
369.306	331.11
369.688	329.53
370.069	303.09
370.45	327.04
370.831	324.1
371.212	320.49
371.593	311.45
371.974	300.6
372.355	326.36
372.736	301.28
373.117	322.07
373.498	329.98
373.879	325.23
374.26	337.66
374.641	323.2
375.021	312.58
375.402	341.95
375.783	338.56
376.163	334.5
376.544	346.25
376.925	332.46
377.305	347.83
377.686	344.44
378.066	338.79
378.447	341.73
378.827	307.6
379.208	340.15
379.588	355.29
379.968	319.58
380.349	334.27
380.729	332.46
381.109	349.41
381.489	348.51
381.87	334.72
382.25	347.83
382.63	334.5
383.01	350.09
383.39	364.55
383.77	369.3
384.15	346.93
384.53	358.45
384.91	363.42
385.29	351.67
385.67	353.93
386.049	362.74
386.429	350.54
386.809	346.7
387.189	374.72
387.568	353.25
387.948	349.19
388.328	361.16
388.707	350.99
389.087	359.81
389.466	373.59
389.846	369.3
390.225	366.81
390.605	361.16
390.984	361.39
391.363	376.3
391.743	382.18
392.122	379.47
392.501	379.47
392.881	390.54
393.26	367.26
393.639	367.04
394.018	366.36
394.397	391.44
394.776	404.55
395.155	408.85
395.534	396.42
395.913	401.61
396.292	358.9
396.671	377.66
397.05	398.45
397.429	407.26
397.808	390.99
398.186	398.22
398.565	390.54
398.944	403.2
399.323	371.56
399.701	406.13
400.08	390.54
400.458	408.85
400.837	412.91
401.215	407.72
401.594	413.82
401.972	417.66
402.351	405.46
402.729	389.18
403.107	407.94
403.486	387.15
403.864	406.13
404.242	433.03
404.62	415.85
404.999	399.58
405.377	418.79
405.755	408.85
406.133	444.32
406.511	435.74
406.889	447.26
407.267	456.3
407.645	432.35
408.023	441.16
408.401	422.86
408.779	428.51
409.156	449.97
409.534	455.85
409.912	459.92
410.29	451.1
410.667	453.59
411.045	432.57
411.422	454.72
411.8	473.25
412.178	469.18
412.555	467.37
412.933	480.48
413.31	491.78
413.687	479.13
414.065	482.29
414.442	498.79
414.819	520.25
415.197	491.1
415.574	508.05
415.951	515.28
416.328	512.12
416.705	514.61
417.082	522.97
417.46	528.39
417.837	511.89
418.214	531.1
418.591	542.85
418.967	540.37
419.344	538.33
419.721	548.95
420.098	532.46
420.475	550.31
420.852	563.87
421.228	550.31
421.605	557.99
421.982	576.98
422.358	578.78
422.735	579.01
423.111	564.32
423.488	576.75
423.864	587.15
424.241	586.47
424.617	588.05
424.994	577.2
425.37	590.99
425.746	591.44
426.123	613.13
426.499	613.13
426.875	628.95
427.251	586.47
427.627	605.9
428.003	626.47
428.379	609.74
428.756	634.15
429.132	626.24
429.507	645.45
429.883	640.7
430.259	657.43
430.635	648.84
431.011	652.23
431.387	642.96
431.763	656.75
432.138	673.25
432.514	664.66
432.89	676.41
433.265	675.5
433.641	698.56
434.016	682.96
434.392	679.35
434.767	703.98
435.143	700.81
435.518	717.54
435.894	706.24
436.269	724.09
436.644	740.81
437.02	721.83
437.395	710.98
437.77	733.36
438.145	752.56
438.52	758.21
438.895	774.26
439.271	745.33
439.646	764.54
440.021	764.32
440.395	778.78
440.77	752.79
441.145	770.19
441.52	791.21
441.895	779
442.27	786.91
442.645	794.15
443.019	805.67
443.394	809.06
443.769	817.65
444.143	821.94
444.518	839.79
444.892	792.79
445.267	822.17
445.641	815.61
446.016	801.83
446.39	820.13
446.764	812.68
447.139	834.37
447.513	844.09
447.887	835.95
448.262	857.19
448.636	865.33
449.01	839.12
449.384	849.06
449.758	853.81
450.132	854.94
450.506	863.97
450.88	869.62
451.254	846.35
451.628	847.7
452.002	868.95
452.376	888.38
452.75	887.48
453.123	887.02
453.497	898.1
453.871	898.1
454.244	914.14
454.618	906.23
454.992	913.46
455.365	911.43
455.739	924.54
456.112	911.2
456.486	926.12
456.859	950.75
457.232	943.07
457.606	944.88
457.979	968.6
458.352	960.24
458.725	975.16
459.099	968.83
459.472	976.06
459.845	961.15
460.218	960.47
460.591	966.57
460.964	977.87
461.337	979.23
461.71	991.65
462.083	1006.57
462.456	1023.07
462.829	1040.69
463.201	1056.96
463.574	1058.32
463.947	1039.56
464.32	1037.98
464.692	1052.22
465.065	1012.67
465.438	1054.03
465.81	1086.57
466.183	1096.06
466.555	1075.49
466.928	1099.9
467.3	1085.21
467.672	1126.57
468.045	1153.68
468.417	1135.83
468.789	1154.59
469.161	1167.24
469.534	1158.88
469.906	1190.97
470.278	1185.55
470.65	1166.79
471.022	1194.59
471.394	1215.38
471.766	1233.68
472.138	1234.36
472.51	1247.24
472.882	1284.08
473.253	1308.48
473.625	1297.18
473.997	1298.77
474.369	1330.18
474.74	1326.11
475.112	1366.33
475.484	1336.73
475.855	1338.54
476.227	1343.06
476.598	1353.45
476.97	1372.89
477.341	1413.56
477.713	1408.14
478.084	1419.21
478.455	1478.87
478.827	1470.74
479.198	1498.99
479.569	1570.85
479.94	1580.34
480.311	1544.18
480.682	1577.85
481.053	1589.15
481.424	1625.99
481.795	1639.32
482.166	1654.69
482.537	1646.33
482.908	1712.31
483.279	1741.47
483.65	1770.84
484.021	1786.66
484.391	1823.27
484.762	1874.12
485.133	1863.27
485.503	1863.27
485.874	1901.24
486.244	1907.79
486.615	1940.78
486.985	1922.7
487.356	1936.71
487.726	1963.38
488.097	2029.37
488.467	2042.25
488.837	2075.02
489.207	2123.38
489.578	2139.42
489.948	2185.97
490.318	2179.65
490.688	2261.45
491.058	2241.79
491.428	2251.06
491.798	2238.63
492.168	2303.26
492.538	2299.87
492.908	2300.55
493.278	2352.52
493.648	2362.92
494.017	2374.44
494.387	2421.22
494.757	2482.69
495.126	2485.4
495.496	2472.52
495.866	2530.37
496.235	2570.6
496.605	2620.09
496.974	2577.83
497.344	2588.22
497.713	2583.7
498.082	2590.71
498.452	2611.05
498.821	2588.22
499.19	2602.46
499.559	2631.16
499.928	2652.63
500.298	2675.9
500.667	2726.52
501.036	2718.84
501.405	2794.77
501.774	2786.41
502.143	2834.32
502.512	2778.5
502.88	2807.43
503.249	2768.78
503.618	2768.78
503.987	2809.01
504.356	2788.67
504.724	2792.29
505.093	2772.17
505.462	2754.09
505.83	2836.13
506.199	2849.23
506.567	2877.25
506.936	2924.94
507.304	2966.97
507.672	2977.59
508.041	2978.5
508.409	2998.83
508.777	2983.69
509.145	2951.38
509.514	2952.06
509.882	2977.14
510.25	2940.08
510.618	2952.06
510.986	2941.43
511.354	2948.89
511.722	2937.82
512.09	2995.22
512.458	2976.91
512.826	2993.64
513.193	3047.65
513.561	3085.61
513.929	3084.03
514.297	3110.92
514.664	3161.09
515.032	3130.81
515.4	3135.33
515.767	3135.55
516.135	3107.31
516.502	3080.19
516.869	3051.26
517.237	3055.1
517.604	3050.81
517.972	3084.71
518.339	3062.33
518.706	3086.74
519.073	3109.34
519.44	3146.17
519.808	3207.64
520.175	3245.38
520.542	3262.56
520.909	3276.79
521.276	3261.65
521.643	3329.67
522.009	3299.62
522.376	3284.7
522.743	3227.75
523.11	3215.78
523.477	3181.2
523.843	3216.68
524.21	3255.78
524.577	3210.58
524.943	3280.86
525.31	3328.77
525.676	3390.91
526.043	3400.4
526.409	3483.11
526.776	3481.53
527.142	3506.39
527.508	3575.54
527.874	3580.97
528.241	3603.79
528.607	3579.16
528.973	3599.27
529.339	3556.79
529.705	3581.87
530.071	3546.16
530.437	3584.35
530.803	3569.21
531.169	3530.8
531.535	3592.04
531.901	3648.76
532.267	3721.07
532.632	3779.6
532.998	3807.63
533.364	3857.12
533.73	3914.29
534.095	3962.42
534.461	4042.42
534.826	4060.05
535.192	3970.11
535.557	3994.97
535.923	3954.06
536.288	3951.58
536.653	3976.21
537.019	3959.26
537.384	3947.74
537.749	3969.88
538.114	3972.37
538.479	4008.75
538.845	4029.54
539.21	4058.47
539.575	4131.23
539.94	4208.97
540.305	4278.57
540.67	4319.7
541.034	4334.84
541.399	4401.06
541.764	4388.85
542.129	4390.89
542.494	4397.89
542.858	4419.36
543.223	4402.86
543.587	4347.72
543.952	4334.39
544.316	4298.91
544.681	4288.29
545.045	4324.45
545.41	4351.57
545.774	4377.1
546.138	4439.02
546.503	4490.55
546.867	4491.9
547.231	4626.81
547.595	4672.69
547.959	4691.67
548.324	4677.21
548.688	4768.05
549.052	4728.51
549.416	4730.54
549.779	4714.72
550.143	4669.07
550.507	4656.87
550.871	4656.19
551.235	4565.35
551.599	4574.16
551.962	4547.95
552.326	4518.57
552.689	4534.16
553.053	4581.39
553.417	4630.88
553.78	4676.98
554.143	4711.78
554.507	4776.41
554.87	4844.43
555.234	4851.89
555.597	4863.87
555.96	4901.38
556.323	4951.78
556.686	4890.08
557.05	4899.8
557.413	4876.52
557.776	4828.16
558.139	4831.55
558.502	4715.17
558.865	4747.94
559.228	4742.52
559.59	4732.35
559.953	4688.73
560.316	4773.7
560.679	4810.76
561.041	4889.18
561.404	4889.41
561.767	4982.74
562.129	4948.61
562.492	5102.51
562.854	5142.51
563.217	5144.09
563.579	5156.97
563.941	5179.34
564.304	5196.97
564.666	5191.54
565.028	5171.88
565.39	5105.9
565.753	5101.6
566.115	5064.99
566.477	5019.35
566.839	5015.96
567.201	5011.21
567.563	4980.48
567.925	5059.12
568.287	5114.26
568.648	5161.04
569.01	5190.41
569.372	5219.57
569.734	5286.68
570.095	5343.63
570.457	5408.26
570.819	5486.45
571.18	5553.34
571.542	5561.93
571.903	5613.91
572.265	5628.59
572.626	5640.57
572.987	5595.38
573.349	5584.08
573.71	5560.8
574.071	5546.56
574.432	5585.88
574.794	5561.48
575.155	5536.39
575.516	5554.47
575.877	5701.59
576.238	5784.52
576.599	5800.57
576.96	5941.13
577.32	6038.98
577.681	6203.04
578.042	6381.12
578.403	6474.45
578.763	6556.93
579.124	6729.58
579.485	6890.03
579.845	7031.5
580.206	7109.01
580.566	7267.42
580.927	7359.62
581.287	7470.58
581.648	7588.09
582.008	7738.82
582.368	7920.51
582.728	8175.19
583.089	8186.04
583.449	8521.4
583.809	8760.72
584.169	8963.65
584.529	9313.7
584.889	9687.7
585.249	10018.99
585.609	10416.04
585.969	10789.36
586.329	11197.04
586.688	11664.59
587.048	12029.78
587.408	12430
587.768	12852.36
588.127	13296.42
588.487	13668.16
588.846	14133.68
589.206	14423.84
589.565	14816.38
589.925	15295.69
590.284	15652.06
590.643	16012.95
591.003	16510.34
591.362	16993.49
591.721	17316.65
592.08	17776.3
592.44	18344.19
592.799	18958.41
593.158	19420.77
593.517	19916.13
593.876	20536.45
594.235	21054.86
594.593	21560.15
594.952	22119.69
595.311	22713.34
595.67	23252.54
596.029	23942.01
596.387	24448.67
596.746	24990.8
597.104	25336.78
597.463	25713.72
597.822	26317.77
598.18	26595.5
598.538	27108.93
598.897	27612.42
599.255	27750.5
599.613	28573.3
599.972	28799.96
600.33	29331.25
600.688	29623.22
601.046	30208.51
601.404	30803.98
601.762	31201.03
602.12	31819.32
602.478	32265.86
602.836	32775.9
603.194	32951.49
603.552	33555.77
603.91	33917.57
604.268	34512.13
604.625	34893.36
604.983	35395.95
605.341	35657.64
605.698	36248.35
606.056	36552.98
606.413	36836.81
606.771	37205.84
607.128	37453.52
607.485	37714.53
607.843	37867.07
608.2	38402.2
608.557	38680.83
608.914	38705.47
609.272	39069.75
609.629	39388.16
609.986	39988.37
610.343	39876.51
610.7	40572.99
611.057	40689.37
611.414	40910.83
611.771	41173.42
612.127	41727.08
612.484	41892.27
612.841	42393.28
613.198	42408.42
613.554	42702.87
613.911	43228.96
614.267	43283.2
614.624	43456.53
614.98	43713.24
615.337	43840.02
615.693	43910.98
616.05	44033.46
616.406	44394.13
616.762	44342.15
617.118	44494.01
617.475	44418.99
617.831	44655.14
618.187	44838.41
618.543	44952.53
618.899	45028.24
619.255	45323.14
619.611	45313.2
619.967	45573.31
620.323	45888.1
620.678	45632.97
621.034	45862.34
621.39	46058.49
621.746	46154.54
622.101	46566.95
622.457	46446.73
622.812	46684.01
623.168	46860.96
623.523	46950.67
623.879	47072.7
624.234	46896.21
624.589	47146.6
624.945	47062.53
625.3	47197.22
625.655	47100.27
626.01	47070.67
626.365	47163.55
626.72	47110.67
627.075	47102.53
627.43	47014.17
627.785	47055.3
628.14	47138.46
628.495	47140.5
628.85	47183.43
629.205	47127.62
629.559	47420.49
629.914	47341.4
630.269	47545.23
630.623	47450.55
630.978	47510.21
631.332	47657.77
631.687	47859.8
632.041	47679.01
632.396	47945
632.75	47796.3
633.104	47906.81
633.459	47764.21
633.813	47755.85
634.167	47714.04
634.521	47725.57
634.875	47715.4
635.229	47578
635.583	47314.05
635.937	47413.03
636.291	47278.35
636.645	47332.58
636.999	47104.57
637.352	47326.26
637.706	47031.12
638.06	47082.87
638.413	46958.36
638.767	46839.49
639.121	47080.61
639.474	47013.04
639.828	46986.38
640.181	47202.87
640.534	47142.76
640.888	47114.96
641.241	47002.42
641.594	47069.09
641.947	47282.87
642.301	47201.97
642.654	47313.15
643.007	47221.63
643.36	47271.12
643.713	47165.13
644.066	47269.99
644.419	46944.12
644.771	46781.64
645.124	46321.76
645.477	46272.05
645.83	45773.08
646.182	45661.44
646.535	45508.22
646.888	45566.08
647.24	45283.15
647.593	45528.56
647.945	45290.15
648.298	45284.5
648.65	45129.25
649.002	44993.21
649.355	45317.49
649.707	45167.22
650.059	45298.29
650.411	45964.71
650.763	45858.27
651.115	46385.04
651.467	46242.89
651.819	46323.12
652.171	46175.55
652.523	46299.39
652.875	46261.65
653.227	46173.52
653.578	46459.84
653.93	46407.64
654.282	45954.77
654.633	45930.81
654.985	46020.3
655.337	45975.1
655.688	46027.31
656.039	46138.72
656.391	45700.54
656.742	45561.1
657.094	45620.31
657.445	45843.58
657.796	45563.36
658.147	45407.89
658.498	45410.15
658.849	45395.01
659.2	45440.66
659.551	45376.02
659.902	45514.33
660.253	45450.37
660.604	45630.26
660.955	45411.73
661.306	45773.98
661.656	45566.08
662.007	45642.46
662.358	45722.23
662.708	45689.46
663.059	45766.75
663.409	45507.55
663.76	45832.74
664.11	45925.61
664.461	45820.31
664.811	45722
665.161	45679.75
665.511	45516.81
665.862	45550.71
666.212	45632.97
666.562	45524.72
666.912	45301
667.262	45270.26
667.612	45160.66
667.962	45119.31
668.312	45108.91
668.662	45111.85
669.011	45025.53
669.361	45052.19
669.711	44888.81
670.06	44997.28
670.41	44796.38
670.76	44785.98
671.109	45029.14
671.459	44870.05
671.808	44948.01
672.157	45132.19
672.507	44862.37
672.856	44896.71
673.205	45024.85
673.554	45151.62
673.904	45028.46
674.253	45387.78
674.602	45195.24
674.951	44615.82
675.3	44397.07
675.649	45091.06
675.998	44925.19
676.346	44995.24
676.695	45030.27
677.044	44565.65
677.393	44751.41
677.741	44712.99
678.09	44469.16
678.438	44351.42
678.787	44348.71
679.135	44296.05
679.484	44024.2
679.832	44132.44
680.181	43791.66
680.529	43986.23
680.877	43833.92
681.225	43727.03
681.573	44114.59
681.922	43717.54
682.27	43681.15
682.618	43704.88
682.966	43732.9
683.314	43893.13
683.661	43748.95
684.009	43695.62
684.357	43609.29
684.705	43622.4
685.053	43791.89
685.4	43668.72
685.748	43557.77
686.095	43583.3
686.443	43339.24
686.79	43305.8
687.138	43351.44
687.485	43385.57
687.832	43079.36
688.18	43208.62
688.527	42858.58
688.874	42847.5
689.221	42731.8
689.568	42541.3
689.915	42362.32
690.262	42390.79
690.609	42091.82
690.956	41911.48
691.303	41871.48
691.65	41696.12
691.997	41681.43
692.344	41387.2
692.69	41330.26
693.037	41539.74
693.383	41129.13
693.73	41218.39
694.077	41127.32
694.423	41131.62
694.769	41041.9
695.116	41126.64
695.462	40977.72
695.808	40945.63
696.155	41052.3
696.501	40798.74
696.847	40926.2
697.193	40571.4
697.539	40788.57
697.885	40543.16
698.231	40408.92
698.577	40457.28
698.923	40346.78
699.269	40156.27
699.614	39929.61
699.96	39778.43
700.306	39824.08
700.651	39513.13
700.997	39309.07
701.342	39260.03
701.688	39307.48
702.033	39040.37
702.379	38932.8
702.724	38904.33
703.069	38740.27
703.415	38348.19
703.76	38464.12
704.105	38252.37
704.45	38229.32
704.795	37895.77
705.14	37883.34
705.485	37957.46
705.83	37910.01
706.175	37923.79
706.52	37738.26
706.865	37557.25
707.209	37774.87
707.554	37703.46
707.899	37847.86
708.243	37570.58
708.588	37451.26
708.932	37341.66
709.277	37480.41
709.621	37498.27
709.966	37256.69
710.31	37281.55
710.654	37020.76
710.998	37110.03
711.342	37118.84
711.687	36883.59
712.031	36717.95
712.375	36660.32
712.719	36581.68
713.063	36517.5
713.407	36541.45
713.75	36373.32
714.094	36101.47
714.438	36009.49
714.782	36035.25
715.125	35715.94
715.469	35676.17
715.812	35574.02
716.156	35405.44
716.499	35264.43
716.843	35340.13
717.186	35266.23
717.53	35305.55
717.873	35383.74
718.216	35272.79
718.559	35069.85
718.902	34924.1
719.246	35146.69
719.589	35033.25
719.932	34884.1
720.275	34895.17
720.617	35007.48
720.96	35077.31
721.303	34930.42
721.646	34924.77
721.989	34828.28
722.331	35017.2
722.674	34867.6
723.016	34923.42
723.359	34693.37
723.701	34683.65
724.044	34491.11
724.386	34339.48
724.729	34462.64
725.071	34206.37
725.413	34160.95
725.755	34153.72
726.097	34036.66
726.439	33743.56
726.782	33759.38
727.124	33710.57
727.465	33588.31
727.807	33507.86
728.149	33449.33
728.491	33145.39
728.833	33248.66
729.175	33093.18
729.516	33098.16
729.858	33139.74
730.199	33116.91
730.541	32974.99
730.882	32843.02
731.224	33082.34
731.565	32825.85
731.906	33033.07
732.248	33058.83
732.589	32803.47
732.93	32802.12
733.271	32886.86
733.612	32852.96
733.953	32962.79
734.294	32753.08
734.635	32783.36
734.976	32968.67
735.317	32816.35
735.658	32793.08
735.999	32823.81
736.339	32640.99
736.68	32806.19
737.021	32610.71
737.361	32463.14
737.702	32659.97
738.042	32448
738.383	32331.4
738.723	32395.57
739.063	32168.01
739.404	32227.44
739.744	31940.67
740.084	31769.6
740.424	31864.29
740.764	31605.99
741.104	31843.27
741.444	31558.08
741.784	31483.28
742.124	31493.23
742.464	31385.21
742.804	31427.69
743.143	31300.46
743.483	31244.87
743.823	31087.81
744.162	31110.86
744.502	31178.88
744.841	31079.9
745.181	31317.19
745.52	31020.02
745.86	31143.18
746.199	31048.49
746.538	31143.63
746.877	31230.18
747.216	31179.79
747.556	31023.86
747.895	31161.26
748.234	31032.9
748.573	31114.48
748.911	30957.42
749.25	30957.42
749.589	30832.23
749.928	30816.41
750.267	30861.83
750.605	30721.95
750.944	30627.03
751.283	30446.47
751.621	30533.02
751.96	30270.21
752.298	30358.57
752.636	30180.04
752.975	30074.73
753.313	29887.84
753.651	29992.93
753.989	29742.99
754.327	29716.32
754.666	29435.2
755.004	29482.43
755.342	29474.97
755.679	29442.21
756.017	29157.24
756.355	29122.21
756.693	29104.14
757.031	29151.82
757.368	28955.44
757.706	28888.32
758.044	28832.96
758.381	28895.33
758.719	28709.57
759.056	28806.29
759.394	28740.98
759.731	28540.76
760.068	28569.01
760.405	28363.59
760.743	28430.48
