Data from tablewood_brown_FLMS001491_047.txt Node
Date: Tue Feb 07 11:10:31 GMT 2017
User: dcchb
Spectrometer: FLMS00149
Trigger mode: 0
Integration Time (sec): 2.000000E-2
Scans to average: 10
Electric dark correction enabled: true
Nonlinearity correction enabled: false
Boxcar width: 0
XAxis mode: Wavelengths
Number of Pixels in Spectrum: 2048
>>>>>Begin Spectral Data<<<<<
341.393	-17.94
341.776	-17.94
342.16	-17.94
342.543	-48.45
342.927	-56.35
343.31	-67.65
343.693	-54.77
344.077	-59.74
344.46	-46.86
344.843	-76.01
345.226	-58.84
345.61	-15
345.993	-3.7
346.376	-7.99
346.759	1.72
347.142	24.77
347.525	36.98
347.908	53.7
348.291	80.82
348.674	84.88
349.057	107.71
349.44	132.57
349.823	134.6
350.206	159.23
350.588	189.29
350.971	202.4
351.354	218.21
351.737	228.16
352.119	236.97
352.502	275.16
352.884	278.1
353.267	273.13
353.65	303.86
354.032	311.77
354.414	325.56
354.797	304.09
355.179	304.77
355.562	312.9
355.944	337.08
356.326	330.53
356.709	344.54
357.091	326.46
357.473	349.74
357.855	342.96
358.238	335.95
358.62	343.64
359.002	340.25
359.384	343.18
359.766	324.43
360.148	350.87
360.53	330.3
360.912	334.6
361.294	342.96
361.676	344.54
362.057	349.74
362.439	350.19
362.821	315.61
363.203	342.96
363.584	328.04
363.966	325.1
364.348	331.88
364.729	320.13
365.111	339.57
365.493	338.89
365.874	345.67
366.256	321.26
366.637	306.57
367.019	320.81
367.4	336.4
367.781	307.93
368.163	312.68
368.544	331.66
368.925	336.63
369.306	328.95
369.688	323.97
370.069	323.97
370.45	339.79
370.831	324.2
371.212	331.88
371.593	306.12
371.974	315.16
372.355	324.65
372.736	330.75
373.117	324.43
373.498	346.35
373.879	340.7
374.26	321.71
374.641	339.79
375.021	317.2
375.402	342.73
375.783	344.31
376.163	329.17
376.544	346.8
376.925	331.66
377.305	356.06
377.686	347.25
378.066	341.38
378.447	337.31
378.827	360.36
379.208	347.93
379.588	352.45
379.968	345.22
380.349	353.58
380.729	363.52
381.109	376.4
381.489	374.59
381.87	369.85
382.25	388.38
382.63	361.71
383.01	354.26
383.39	362.62
383.77	364.2
384.15	361.71
384.53	357.87
384.91	378.89
385.29	390.19
385.67	376.85
386.049	364.88
386.429	394.48
386.809	399
387.189	410.98
387.568	400.81
387.948	385.89
388.328	394.48
388.707	403.07
389.087	382.28
389.466	403.29
389.846	415.72
390.225	409.62
390.605	419.79
390.984	416.63
391.363	437.87
391.743	410.07
392.122	427.93
392.501	404.88
392.881	414.82
393.26	419.79
393.639	415.05
394.018	447.59
394.397	427.7
394.776	458.66
395.155	454.82
395.534	448.49
395.913	444.42
396.292	480.13
396.671	470.86
397.05	444.88
397.429	471.54
397.808	468.15
398.186	480.13
398.565	458.66
398.944	479
399.323	458.89
399.701	477.64
400.08	452.33
400.458	495.95
400.837	494.14
401.215	490.3
401.594	494.59
401.972	479.45
402.351	480.81
402.729	494.82
403.107	493.46
403.486	503.18
403.864	528.04
404.242	503.86
404.62	514.93
404.999	533.23
405.377	526.68
405.755	505.44
406.133	506.79
406.511	532.1
406.889	548.6
407.267	564.19
407.645	549.28
408.023	553.35
408.401	572.33
408.779	564.19
409.156	573.46
409.534	574.59
409.912	596.74
410.29	573.01
410.667	594.48
411.045	617.75
411.422	612.1
411.8	600.13
412.178	623.63
412.555	615.72
412.933	614.81
413.31	637.19
413.687	640.35
414.065	658.2
414.442	647.13
414.819	654.59
415.197	675.6
415.574	655.94
415.951	646
416.328	682.38
416.705	693
417.082	649.16
417.46	698.65
417.837	672.21
418.214	690.29
418.591	696.17
418.967	687.58
419.344	693.68
419.721	699.11
420.098	700.46
420.475	736.39
420.852	701.14
421.228	707.69
421.605	731.42
421.982	741.59
422.358	740.46
422.735	761.7
423.111	747.47
423.488	762.83
423.864	779.56
424.241	750.4
424.617	771.19
424.994	764.87
425.37	788.37
425.746	791.53
426.123	820.91
426.499	821.36
426.875	822.04
427.251	835.83
427.627	815.26
428.003	850.51
428.379	836.96
428.756	867.24
429.132	865.88
429.507	843.51
429.883	880.12
430.259	900.68
430.635	876.73
431.011	914.92
431.387	933
431.763	914.69
432.138	932.32
432.514	926.44
432.89	936.39
433.265	935.94
433.641	970.06
434.016	1001.7
434.392	1011.19
434.767	1012.54
435.143	1007.35
435.518	998.08
435.894	1007.35
436.269	1036.05
436.644	1053.9
437.02	1045.09
437.395	1038.31
437.77	1074.24
438.145	1077.85
438.52	1107.46
438.895	1096.84
439.271	1103.84
439.646	1129.38
440.021	1148.59
440.395	1137.51
440.77	1149.26
441.145	1138.64
441.52	1140.9
441.895	1151.07
442.27	1190.84
442.645	1161.01
443.019	1209.15
443.394	1199.43
443.769	1229.49
444.143	1205.76
444.518	1206.21
444.892	1223.39
445.267	1242.37
445.641	1243.5
446.016	1242.14
446.39	1264.97
446.764	1256.61
447.139	1257.96
447.513	1265.87
447.887	1281.24
448.262	1310.62
448.636	1300.67
449.01	1322.59
449.384	1304.06
449.758	1305.64
450.132	1349.71
450.506	1326.43
450.88	1366.66
451.254	1386.09
451.628	1363.72
452.002	1365.76
452.376	1388.35
452.75	1414.34
453.123	1423.15
453.497	1420.22
453.871	1407.79
454.244	1460.67
454.618	1484.85
454.992	1479.42
455.365	1492.98
455.739	1495.7
456.112	1549.25
456.486	1531.63
456.859	1535.47
457.232	1603.49
457.606	1581.34
457.979	1617.73
458.352	1635.35
458.725	1647.33
459.099	1669.7
459.472	1685.29
459.845	1704.28
460.218	1712.64
460.591	1747.89
460.964	1766.87
461.337	1790.83
461.71	1800.55
462.083	1836.25
462.456	1814.78
462.829	1844.61
463.201	1878.74
463.574	1869.24
463.947	1912.41
464.32	1951.05
464.692	1985.85
465.065	1997.38
465.438	1989.69
465.81	2043.48
466.183	2065.17
466.555	2075.79
466.928	2128.45
467.3	2153.76
467.672	2184.26
468.045	2222.46
468.417	2231.04
468.789	2283.7
469.161	2298.61
469.534	2320.53
469.906	2348.78
470.278	2392.62
470.65	2451.6
471.022	2451.38
471.394	2518.04
471.766	2554.42
472.138	2560.98
472.51	2620.19
472.882	2669
473.253	2724.59
473.625	2760.07
473.997	2782.21
474.369	2859.73
474.74	2883.91
475.112	2955.09
475.484	3016.11
475.855	3067.18
476.227	3072.6
476.598	3185.59
476.97	3216.78
477.341	3288.42
477.713	3375.87
478.084	3381.75
478.455	3484.8
478.827	3541.74
479.198	3670.55
479.569	3691.57
479.94	3748.97
480.311	3816.76
480.682	3907.84
481.053	4026.02
481.424	4061.96
481.795	4137.21
482.166	4166.13
482.537	4233.7
482.908	4382.4
483.279	4435.05
483.65	4513.92
484.021	4578.33
484.391	4693.8
484.762	4668.95
485.133	4781.03
485.503	4881.59
485.874	4913.46
486.244	5008.37
486.615	5088.6
486.985	5138.99
487.356	5252.43
487.726	5321.81
488.097	5435.25
488.467	5506.66
488.837	5573.1
489.207	5637.96
489.578	5731.29
489.948	5748.46
490.318	5846.77
490.688	5894.22
491.058	5982.58
491.428	6099.42
491.798	6126.99
492.168	6274.1
492.538	6340.54
492.908	6338.05
493.278	6420.09
493.648	6440.88
494.017	6577.14
494.387	6585.73
494.757	6674.77
495.126	6765.16
495.496	6762.9
495.866	6872.73
496.235	6911.37
496.605	6980.07
496.974	7091.48
497.344	7128.77
497.713	7180.97
498.082	7235.21
498.452	7275.88
498.821	7346.16
499.19	7331.47
499.559	7439.04
499.928	7535.31
500.298	7544.8
500.667	7680.62
501.036	7634.74
501.405	7717.45
501.774	7762.2
502.143	7791.12
502.512	7888.52
502.88	7944.11
503.249	7975.98
503.618	8087.61
503.987	8106.59
504.356	8141.62
504.724	8196.31
505.093	8235.4
505.462	8323.54
505.83	8351.79
506.199	8376.87
506.567	8571.89
506.936	8546.13
507.304	8716.75
507.672	8714.04
508.041	8720.59
508.409	8787.25
508.777	8933.47
509.145	8986.12
509.514	8964.43
509.882	9063.18
510.25	9100.92
510.618	9199.22
510.986	9230.86
511.354	9310.63
511.722	9363.28
512.09	9528.25
512.458	9509.72
512.826	9668.36
513.193	9710.17
513.561	9752.88
513.929	9787.91
514.297	9910.84
514.664	9980.67
515.032	10052.31
515.4	10102.47
515.767	10204.39
516.135	10290.49
516.502	10257.95
516.869	10466.53
517.237	10424.95
517.604	10548.11
517.972	10757.37
518.339	10724.83
518.706	10804.15
519.073	10855.45
519.44	10945.84
519.808	11132.96
520.175	11094.99
520.542	11247.08
520.909	11350.35
521.276	11396.68
521.643	11454.3
522.009	11590.57
522.376	11732.26
522.743	11752.6
523.11	11912.6
523.477	12008.87
523.843	12026.04
524.21	12234.85
524.577	12289.54
524.943	12331.57
525.31	12521.17
525.676	12622.18
526.043	12693.82
526.409	12746.7
526.776	12870.99
527.142	12905.11
527.508	13024.43
527.874	13169.74
528.241	13165.44
528.607	13235.73
528.973	13390.07
529.339	13319.79
529.705	13530.86
530.071	13718.42
530.437	13684.98
530.803	13878.65
531.169	13920.45
531.535	13879.55
531.901	14013.33
532.267	14077.06
532.632	14152.54
532.998	14228.47
533.364	14338.97
533.73	14386.2
534.095	14560.44
534.461	14546.2
534.826	14583.49
535.192	14675.69
535.557	14780.09
535.923	14787.55
536.288	14888.79
536.653	14970.37
537.019	14935.57
537.384	15001.55
537.749	15032.06
538.114	15167.88
538.479	15239.97
538.845	15291.26
539.21	15234.99
539.575	15326.52
539.94	15449.68
540.305	15571.03
540.67	15611.48
541.034	15651.26
541.399	15670.01
541.764	15686.51
542.129	15896.45
542.494	15910.01
542.858	15956.56
543.223	15985.71
543.587	15991.36
543.952	16073.62
544.316	16089.44
544.681	16119.94
545.045	16336.21
545.41	16296.44
545.774	16375.53
546.138	16385.25
546.503	16435.19
546.867	16514.74
547.231	16630.89
547.595	16561.74
547.959	16678.35
548.324	16752.02
548.688	16827.95
549.052	16832.69
549.416	16946.14
549.779	17024.33
550.143	17106.81
550.507	17281.04
550.871	17407.82
551.235	17352.23
551.599	17449.63
551.962	17563.97
552.326	17571.88
552.689	17727.36
553.053	17693.69
553.417	17847.81
553.78	18071.76
554.143	18091.19
554.507	18230.17
554.87	18325.54
555.234	18464.51
555.597	18349.94
555.96	18599.43
556.323	18697.95
556.686	18892.75
557.05	19038.51
557.413	19058.85
557.776	19197.6
558.139	19247.77
558.502	19385.85
558.865	19463.36
559.228	19584.71
559.59	19605.5
559.953	19819.51
560.316	20046.17
560.679	20058.6
561.041	20292.94
561.404	20530.9
561.767	20547.85
562.129	20590.11
562.492	20899.93
562.854	21036.2
563.217	20891.34
563.579	21172.47
563.941	21403.42
564.304	21538.78
564.666	21722.06
565.028	21828.04
565.39	22016.06
565.753	22206.79
566.115	22189.39
566.477	22306.22
566.839	22583.05
567.201	22767.68
567.563	22749.83
567.925	23170.61
568.287	23236.14
568.648	23319.53
569.01	23548.22
569.372	23682.91
569.734	23801.32
570.095	24067.98
570.457	24184.59
570.819	24263.23
571.18	24424.13
571.542	24676.55
571.903	24804.23
572.265	24956.55
572.626	25107.73
572.987	25192.02
573.349	25386.14
573.71	25525.12
574.071	25554.95
574.432	25867.03
574.794	26097.76
575.155	26108.16
575.516	26261.82
575.877	26403.97
576.238	26523.96
576.599	26714.69
576.96	26772.54
577.32	26928.92
577.681	27108.58
578.042	27142.03
578.403	27175.47
578.763	27258.18
579.124	27464.28
579.485	27580.66
579.845	27819.07
580.206	27758.06
580.566	27912.18
580.927	27991.72
581.287	28235.56
581.648	28166.86
582.008	28286.4
582.368	28355.1
582.728	28564.36
583.089	28487.98
583.449	28626.06
583.809	28659.5
584.169	28762.77
584.529	28746.5
584.889	29172.93
585.249	28872.6
585.609	28906.73
585.969	29046.84
586.329	28976.78
586.688	29208.41
587.048	29145.59
587.408	29187.85
587.768	29175.87
588.127	29297
588.487	29249.77
588.846	29669.42
589.206	29368.63
589.565	29403.89
589.925	29534.73
590.284	29484.79
590.643	29661.06
591.003	29666.25
591.362	29709.87
591.721	29650.66
592.08	29710.09
592.44	29854.05
592.799	29853.82
593.158	29722.3
593.517	29767.72
593.876	29846.14
594.235	29799.81
594.593	29824.22
594.952	29959.35
595.311	29786.02
595.67	29942.86
596.029	30084.32
596.387	30087.03
596.746	30185.11
597.104	30184.88
597.463	30148.5
597.822	30249.29
598.18	30162.06
598.538	30024.21
598.897	30210.42
599.255	30113.7
599.613	30625.32
599.972	30201.83
600.33	30315.73
600.688	30293.81
601.046	30550.3
601.404	30576.51
601.762	30515.95
602.12	30598.43
602.478	30586
602.836	30732.21
603.194	30590.3
603.552	30535.61
603.91	30532.9
604.268	30576.06
604.625	30559.34
604.983	30635.04
605.341	30589.17
605.698	30853.12
606.056	30834.81
606.413	30873.91
606.771	30889.72
607.128	30972.43
607.485	30777.64
607.843	30959.78
608.2	30927.69
608.557	31293.1
608.914	31143.73
609.272	31259.43
609.629	31188.7
609.986	31294.46
610.343	31175.37
610.7	31305.31
611.057	31320.9
611.414	31141.7
611.771	31370.16
612.127	31536.71
612.484	31483.38
612.841	31607.9
613.198	31436.15
613.554	31516.15
613.911	31692.87
614.267	31624.62
614.624	31682.47
614.98	31724.73
615.337	31829.36
615.693	31681.12
616.05	31631.4
616.406	31901
616.762	31766.54
617.118	31760.21
617.475	31832.98
617.831	31957.49
618.187	32009.24
618.543	32007.44
618.899	32193.42
619.255	32116.13
619.611	31994.55
619.967	32341.66
620.323	32235.23
620.678	32222.57
621.034	32010.82
621.39	32034.78
621.746	32052.63
622.101	32414.2
622.457	32084.72
622.812	32132.86
623.168	32245.62
623.523	32266.41
623.879	32227.32
624.234	32183.93
624.589	32315.68
624.945	32378.95
625.3	32337.14
625.655	32373.75
626.01	32404.26
626.365	32229.8
626.72	32253.76
627.075	32290.14
627.43	32352.06
627.785	32253.3
628.14	32268.45
628.495	32251.27
628.85	32227.99
629.205	32251.27
629.559	32378.05
629.914	32084.5
630.269	32097.6
630.623	32074.1
630.978	31992.07
631.332	32107.32
631.687	32256.47
632.041	31971.5
632.396	32183.7
632.75	31929.02
633.104	32020.09
633.459	31977.38
633.813	31828.91
634.167	31938.96
634.521	31791.62
634.875	31915.46
635.229	31766.31
635.583	31625.52
635.937	31634.11
636.291	31660.78
636.645	31631.4
636.999	31564.51
637.352	31562.93
637.706	31485.64
638.06	31567.67
638.413	31523.15
638.767	31349.6
639.121	31576.94
639.474	31354.12
639.828	31369.49
640.181	31379.66
640.534	31211.3
640.888	31209.04
641.241	31288.13
641.594	31216.72
641.947	31320.22
642.301	31264.86
642.654	31235.25
643.007	31398.64
643.36	31209.94
643.713	31035.94
644.066	31260.11
644.419	30979.67
644.771	30796.17
645.124	30500.81
645.477	30473.24
645.83	30291.32
646.182	29991.22
646.535	30113.7
646.888	30183.98
647.24	29983.99
647.593	30204.09
647.945	30097.65
648.298	30005.68
648.65	29847.04
649.002	29788.96
649.355	30006.58
649.707	30055.4
650.059	30102.63
650.411	30465.78
650.763	30495.38
651.115	30848.82
651.467	30568.83
651.819	30691.99
652.171	30619.68
652.523	30599.34
652.875	30678.2
653.227	30433.47
653.578	30693.12
653.93	30590.3
654.282	30414.93
654.633	30556.4
654.985	30288.61
655.337	30557.98
655.688	30523.18
656.039	30719.33
656.391	30354.15
656.742	30445.89
657.094	30436.86
657.445	30433.24
657.796	30425.1
658.147	30645.66
658.498	30419.91
658.849	30417.42
659.2	30444.99
659.551	30265.11
659.902	30492.45
660.253	30397.31
660.604	30387.36
660.955	30386.23
661.306	30464.2
661.656	30290.19
662.007	30393.47
662.358	30283.41
662.708	30378.33
663.059	30393.69
663.409	30156.86
663.76	30418.78
664.11	30333.35
664.461	30381.72
664.811	30356.86
665.161	30321.6
665.511	30419.68
665.862	30252.45
666.212	30505.78
666.562	30376.74
666.912	30430.08
667.262	30329.06
667.612	30292.23
667.962	30450.19
668.312	30318.67
668.662	30290.42
669.011	30453.58
669.361	30289.06
669.711	30244.77
670.06	30223.98
670.41	30111.89
670.76	30160.48
671.109	30050.88
671.459	30255.84
671.808	30136.52
672.157	30131.1
672.507	29985.79
672.856	29979.01
673.205	29996.19
673.554	29986.7
673.904	29878.9
674.253	30016.08
674.602	30061.27
674.951	29668.06
675.3	29466.49
675.649	29950.77
675.998	29921.61
676.346	29753.03
676.695	29934.5
677.044	29842.29
677.393	29693.37
677.741	29833.93
678.09	29761.62
678.438	29763.65
678.787	29786.02
679.135	29618.12
679.484	29590.32
679.832	29618.12
680.181	29355.98
680.529	29559.36
680.877	29425.13
681.225	29377.9
681.573	29474.39
681.922	29279.37
682.27	29280.73
682.618	29327.96
682.966	29148.75
683.314	29244.8
683.661	29161.86
684.009	28932.71
684.357	28891.58
684.705	28948.31
685.053	28851.36
685.4	29009.77
685.748	28701.53
686.095	28523.46
686.443	28575.66
686.79	28494.99
687.138	28614.76
687.485	28458.38
687.832	28519.17
688.18	28420.86
688.527	28330.7
688.874	28162.34
689.221	28197.37
689.568	28076.47
689.915	28038.27
690.262	28027.43
690.609	27858.39
690.956	27845.96
691.303	27787.21
691.65	27623.82
691.997	27501.11
692.344	27502.02
692.69	27389.25
693.037	27403.94
693.383	27195.81
693.73	27298.63
694.077	27074.91
694.423	27102.71
694.769	26911.98
695.116	26902.71
695.462	26830.4
695.808	26596.05
696.155	26700.68
696.501	26486
696.847	26611.64
697.193	26355.38
697.539	26459.78
697.885	26283.74
698.231	26152.9
698.577	26054.37
698.923	26136.63
699.269	25963.75
699.614	25791.1
699.96	25763.98
700.306	25612.12
700.651	25590.43
700.997	25430.66
701.342	25432.01
701.688	25384.78
702.033	25417.33
702.379	25258.91
702.724	25227.05
703.069	25159.03
703.415	24951.8
703.76	25000.61
704.105	24907.51
704.45	24889.2
704.795	24672.94
705.14	24580.74
705.485	24549.78
705.83	24545.03
706.175	24605.6
706.52	24416
706.865	24279.05
707.209	24268.66
707.554	24240.18
707.899	24222.33
708.243	24095.78
708.588	24151.6
708.932	23943.24
709.277	23990.92
709.621	23871.83
709.966	23731.49
710.31	23774.88
710.654	23636.36
710.998	23678.84
711.342	23591.84
711.687	23506.64
712.031	23496.7
712.375	23292.18
712.719	23322.47
713.063	23390.71
713.407	23545.74
713.75	23312.52
714.094	23237.5
714.438	23174
714.782	23155.46
715.125	23047.22
715.469	23060.1
715.812	22967.9
716.156	22904.85
716.499	22873.89
716.843	22944.17
717.186	22818.52
717.53	22884.29
717.873	22919.31
718.216	22743.5
718.559	22686.78
718.902	22480.45
719.246	22606.1
719.589	22617.4
719.932	22504.86
720.275	22483.39
720.617	22468.03
720.96	22388.25
721.303	22455.14
721.646	22399.1
721.989	22278.2
722.331	22425.54
722.674	22235.49
723.016	22288.37
723.359	22280.23
723.701	22414.92
724.044	22278.43
724.386	22173.8
724.729	22334.02
725.071	22195.26
725.413	22155.04
725.755	22115.72
726.097	22108.03
726.439	22058.77
726.782	22047.47
727.124	22150.29
727.465	22074.59
727.807	22060.35
728.149	21907.59
728.491	21972.9
728.833	22088.37
729.175	21975.83
729.516	21921.6
729.858	21864.2
730.199	21912.79
730.541	21910.75
730.882	21776.97
731.224	21910.98
731.565	21866.23
731.906	21756.63
732.248	21847.7
732.589	21712.56
732.93	21698.78
733.271	21684.99
733.612	21756.41
733.953	21837.31
734.294	21725.22
734.635	21713.24
734.976	21744.65
735.317	21693.36
735.658	21641.15
735.999	21737.87
736.339	21757.31
736.68	21671.89
737.021	21682.51
737.361	21587.37
737.702	21689.29
738.042	21680.48
738.383	21590.08
738.723	21667.37
739.063	21616.52
739.404	21725.67
739.744	21649.74
740.084	21505.56
740.424	21736.97
740.764	21515.96
741.104	21661.94
741.444	21432.12
741.784	21585.56
742.124	21741.26
742.464	21496.07
742.804	21556.41
743.143	21571.33
743.483	21598.67
743.823	21535.17
744.162	21586.47
744.502	21609.74
744.841	21535.85
745.181	21569.97
745.52	21500.37
745.86	21557.09
746.199	21466.47
746.538	21473.25
746.877	21514.15
747.216	21575.62
747.556	21430.76
747.895	21514.6
748.234	21461.27
748.573	21371.78
748.911	21479.12
749.25	21556.18
749.589	21343.53
749.928	21491.78
750.267	21397.32
750.605	21360.94
750.944	21452.23
751.283	21324.78
751.621	21317.32
751.96	21197.55
752.298	21259.02
752.636	21274.38
752.975	21115.52
753.313	21109.64
753.651	21236.19
753.989	21131.34
754.327	21187.83
754.666	21025.8
755.004	21018.8
755.342	21137.21
755.679	21056.76
756.017	20962.98
756.355	21110.77
