Data from tablewood_brown_FLMS001491_050.txt Node
Date: Tue Feb 07 11:10:32 GMT 2017
User: dcchb
Spectrometer: FLMS00149
Trigger mode: 0
Integration Time (sec): 2.000000E-2
Scans to average: 10
Electric dark correction enabled: true
Nonlinearity correction enabled: false
Boxcar width: 0
XAxis mode: Wavelengths
Number of Pixels in Spectrum: 2048
>>>>>Begin Spectral Data<<<<<
341.393	-27.39
341.776	-27.39
342.16	-27.39
342.543	-61.06
342.927	-58.12
343.31	-80.04
343.693	-61.28
344.077	-75.29
344.46	-30.55
344.843	-43.88
345.226	-32.13
345.61	-48.18
345.993	-16.99
346.376	-10.89
346.759	3.12
347.142	21.2
347.525	45.61
347.908	62.55
348.291	76.11
348.674	84.93
349.057	105.72
349.44	121.76
349.823	138.71
350.206	140.97
350.588	206.73
350.971	217.13
351.354	221.19
351.737	252.61
352.119	253.74
352.502	273.4
352.884	271.81
353.267	274.07
353.65	307.97
354.032	310.91
354.414	303.9
354.797	326.28
355.179	299.38
355.562	331.93
355.944	330.34
356.326	329.67
356.709	332.83
357.091	344.36
357.473	332.38
357.855	336.22
358.238	343.45
358.62	333.96
359.002	352.49
359.384	357.69
359.766	341.87
360.148	344.13
360.53	342.55
360.912	346.84
361.294	329.21
361.676	333.06
362.057	349.55
362.439	340.51
362.821	341.19
363.203	337.35
363.584	343.68
363.966	320.85
364.348	331.25
364.729	322.66
365.111	316.79
365.493	331.25
365.874	331.25
366.256	315.66
366.637	314.98
367.019	337.8
367.4	323.11
367.781	333.73
368.163	326.95
368.544	331.47
368.925	312.04
369.306	341.19
369.688	318.14
370.069	328.99
370.45	315.43
370.831	321.31
371.212	313.17
371.593	314.53
371.974	318.59
372.355	305.94
372.736	333.28
373.117	345.49
373.498	342.1
373.879	348.42
374.26	323.11
374.641	325.6
375.021	312.27
375.402	335.54
375.783	336.45
376.163	337.35
376.544	347.97
376.925	350
377.305	344.36
377.686	324.69
378.066	363.56
378.447	359.5
378.827	380.96
379.208	382.77
379.588	347.07
379.968	365.6
380.349	359.72
380.729	365.6
381.109	364.02
381.489	370.34
381.87	348.88
382.25	364.02
382.63	354.52
383.01	365.82
383.39	370.57
383.77	360.85
384.15	365.15
384.53	377.57
384.91	378.03
385.29	376.9
385.67	378.03
386.049	392.49
386.429	393.62
386.809	386.16
387.189	407.4
387.568	398.82
387.948	391.13
388.328	390
388.707	407.18
389.087	396.33
389.466	410.12
389.846	420.06
390.225	424.35
390.605	402.66
390.984	398.59
391.363	424.13
391.743	393.39
392.122	422.55
392.501	436.78
392.881	448.08
393.26	431.13
393.639	452.83
394.018	432.94
394.397	452.38
394.776	449.21
395.155	448.76
395.534	472.26
395.913	434.07
396.292	461.41
396.671	475.2
397.05	459.38
397.429	463.45
397.808	458.93
398.186	488.31
398.565	455.99
398.944	479.72
399.323	484.69
399.701	496.44
400.08	472.94
400.458	518.81
400.837	477.69
401.215	483.56
401.594	492.15
401.972	509.55
402.351	495.09
402.729	495.76
403.107	521.98
403.486	509.32
403.864	500.28
404.242	511.81
404.62	509.32
404.999	509.55
405.377	541.86
405.755	551.13
406.133	553.16
406.511	544.58
406.889	530.34
407.267	549.55
407.645	569.43
408.023	559.72
408.401	575.31
408.779	579.15
409.156	574.63
409.534	576.44
409.912	596.55
410.29	582.77
410.667	621.18
411.045	591.13
411.422	591.35
411.8	583.67
412.178	619.6
412.555	624.35
412.933	605.59
413.31	614.86
413.687	631.13
414.065	635.2
414.442	621.18
414.819	656.21
415.197	657.57
415.574	670.22
415.951	644.91
416.328	676.1
416.705	688.3
417.082	683.1
417.46	695.98
417.837	702.54
418.214	700.73
418.591	669.32
418.967	706.83
419.344	716.32
419.721	725.36
420.098	726.27
420.475	741.63
420.852	723.55
421.228	740.05
421.605	721.97
421.982	739.37
422.358	739.15
422.735	778.24
423.111	772.14
423.488	765.81
423.864	764.01
424.241	776.89
424.617	758.81
424.994	798.58
425.37	774.85
425.746	812.59
426.123	807.39
426.499	797.22
426.875	808.98
427.251	829.99
427.627	834.51
428.003	846.49
428.379	840.16
428.756	856.88
429.132	839.26
429.507	866.6
429.883	894.62
430.259	894.4
430.635	889.43
431.011	905.47
431.387	936.2
431.763	950.89
432.138	955.19
432.514	950.22
432.89	958.35
433.265	963.32
433.641	975.98
434.016	995.19
434.392	1014.39
434.767	1030.21
435.143	985.69
435.518	987.05
435.894	1044.68
436.269	1033.6
436.644	1067.73
437.02	1074.05
437.395	1080.16
437.77	1060.04
438.145	1079.93
438.52	1102.3
438.895	1102.53
439.271	1125.8
439.646	1137.33
440.021	1124.9
440.395	1133.49
440.77	1137.55
441.145	1138.68
441.52	1181.4
441.895	1171.9
442.27	1191.11
442.645	1157.44
443.019	1179.14
443.394	1207.16
443.769	1191.11
444.143	1205.8
444.518	1213.49
444.892	1203.77
445.267	1222.52
445.641	1255.52
446.016	1263.2
446.39	1256.87
446.764	1265.46
447.139	1278.57
447.513	1258.46
447.887	1284.22
448.262	1292.35
448.636	1309.75
449.01	1295.06
449.384	1342.52
449.758	1314.27
450.132	1308.85
450.506	1342.75
450.88	1357.21
451.254	1338.23
451.628	1406.25
452.002	1359.7
452.376	1422.29
452.75	1413.25
453.123	1415.97
453.497	1416.87
453.871	1435.85
454.244	1474.04
454.618	1471.56
454.992	1525.34
455.365	1487.83
455.739	1526.92
456.112	1521.95
456.486	1538.67
456.859	1555.4
457.232	1597.66
457.606	1587.26
457.979	1611.21
458.352	1640.82
458.725	1625.45
459.099	1647.37
459.472	1662.29
459.845	1701.38
460.218	1723.53
460.591	1740.93
460.964	1735.73
461.337	1780.93
461.71	1790.65
462.083	1829.51
462.456	1827.93
462.829	1849.4
463.201	1913.13
463.574	1889.4
463.947	1898.44
464.32	1942.73
464.692	1991.09
465.065	1991.32
465.438	2017.76
465.81	2020.92
466.183	2055.27
466.555	2135.72
466.928	2136.62
467.3	2133.69
467.672	2178.66
468.045	2219.11
468.417	2213.91
468.789	2253.91
469.161	2265.21
469.534	2329.39
469.906	2354.25
470.278	2396.5
470.65	2434.24
471.022	2490.74
471.394	2519.67
471.766	2549.5
472.138	2535.26
472.51	2622.94
472.882	2671.07
473.253	2744.97
473.625	2737.06
473.997	2803.5
474.369	2840.33
474.74	2908.81
475.112	2954.91
475.484	3043.27
475.855	3080.1
476.227	3104.28
476.598	3235.8
476.97	3227.22
477.341	3298.4
477.713	3354.22
478.084	3412.75
478.455	3509.24
478.827	3519.87
479.198	3571.39
479.569	3684.15
479.94	3739.52
480.311	3832.85
480.682	3918.27
481.053	4044.6
481.424	4093.86
481.795	4155.55
482.166	4216.34
482.537	4290.92
482.908	4371.37
483.279	4411.59
483.65	4491.14
484.021	4621.76
484.391	4690.68
484.762	4708.53
485.133	4746.73
485.503	4845.71
485.874	4941.75
486.244	5013.39
486.615	5055.42
486.985	5163.44
487.356	5272.14
487.726	5303.77
488.097	5400.04
488.467	5432.36
488.837	5581.73
489.207	5673.48
489.578	5745.57
489.948	5771.11
490.318	5890.88
490.688	5870.54
491.058	6001.83
491.428	6081.15
491.798	6197.76
492.168	6236.63
492.538	6306.01
492.908	6370.86
493.278	6458.77
493.648	6440.92
494.017	6575.15
494.387	6596.39
494.757	6661.93
495.126	6743.06
495.496	6792.77
495.866	6901.25
496.235	6956.38
496.605	7001.13
496.974	7016.72
497.344	7110.73
497.713	7171.29
498.082	7215.14
498.452	7260.33
498.821	7288.13
499.19	7331.06
499.559	7444.73
499.928	7538.74
500.298	7540.32
500.667	7697.16
501.036	7654.9
501.405	7782.58
501.774	7764.05
502.143	7850.15
502.512	7890.15
502.88	7936.92
503.249	8013.08
503.618	8008.56
503.987	8061.89
504.356	8158.39
504.724	8231.15
505.093	8230.93
505.462	8257.59
505.83	8358.38
506.199	8429.57
506.567	8522.67
506.936	8500.75
507.304	8632.72
507.672	8680.86
508.041	8783.68
508.409	8766.28
508.777	8906.16
509.145	8955.2
509.514	8975.09
509.882	9079.04
510.25	9056.44
510.618	9211.92
510.986	9274.52
511.354	9318.36
511.722	9451.46
512.09	9577.33
512.458	9484.68
512.826	9606.26
513.193	9643.09
513.561	9721.51
513.929	9854.84
514.297	9891
514.664	9975.97
515.032	10046.7
515.4	10153.59
515.767	10202.18
516.135	10302.06
516.502	10300.48
516.869	10416.63
517.237	10483.98
517.604	10502.73
517.972	10640.81
518.339	10760.35
518.706	10777.53
519.073	10859.56
519.44	10990.18
519.808	11070.4
520.175	11116.05
520.542	11278.31
520.909	11335.03
521.276	11350.85
521.643	11460
522.009	11513.33
522.376	11602.59
522.743	11746.09
523.11	11858.85
523.477	11983.82
523.843	12042.8
524.21	12245.96
524.577	12292.06
524.943	12328.9
525.31	12504.26
525.676	12624.03
526.043	12618.83
526.409	12753.29
526.776	12873.29
527.142	12943.8
527.508	12901.99
527.874	13078.03
528.241	13162.78
528.607	13261.76
528.973	13376.56
529.339	13447.97
529.705	13506.95
530.071	13662.2
530.437	13779.48
530.803	13846.83
531.169	13941.06
531.535	13963.21
531.901	13993.04
532.267	13998.01
532.632	14182.18
532.998	14230.09
533.364	14296.76
533.73	14347.83
534.095	14487.03
534.461	14574.04
534.826	14530.87
535.192	14634.6
535.557	14827.14
535.923	14866.01
536.288	14858.1
536.653	14993.01
537.019	14947.14
537.384	14981.26
537.749	15128.37
538.114	15120.92
538.479	15183.06
538.845	15283.62
539.21	15426.44
539.575	15346.22
539.94	15415.82
540.305	15504.18
540.67	15516.61
541.034	15640.9
541.399	15751.41
541.764	15720.9
542.129	15754.8
542.494	15900.33
542.858	15864.85
543.223	15964.51
543.587	16077.73
543.952	16017.39
544.316	16121.34
544.681	16082.7
545.045	16248.34
545.41	16281.34
545.774	16404.72
546.138	16322.01
546.503	16466.64
546.867	16516.81
547.231	16688.78
547.595	16585.28
547.959	16704.83
548.324	16714.55
548.688	16976.23
549.052	16946.86
549.416	16969
549.779	17048.55
550.143	17108.66
550.507	17214.19
550.871	17335.32
551.235	17318.82
551.599	17474.53
551.962	17550
552.326	17675.88
552.689	17786.61
553.053	17700.28
553.417	17852.14
553.78	18123.55
554.143	18008.52
554.507	18135.98
554.87	18323.54
555.234	18487.38
555.597	18446.25
555.96	18568.96
556.323	18773.25
556.686	18808.95
557.05	18964.2
557.413	18974.83
557.776	19076.52
558.139	19243.75
558.502	19385.44
558.865	19383.63
559.228	19587.69
559.59	19751.75
559.953	19838.98
560.316	20028.36
560.679	20146.55
561.041	20265.87
561.404	20390.38
561.767	20519.87
562.129	20601.45
562.492	20796.7
562.854	20953.76
563.217	20949.24
563.579	21194.2
563.941	21388.77
564.304	21521.43
564.666	21663.79
565.028	21788.54
565.39	22000.28
565.753	22218.13
566.115	22275.3
566.477	22424
566.839	22498.12
567.201	22808.4
567.563	22888.17
567.925	23118.22
568.287	23176.75
568.648	23413.35
569.01	23552.56
569.372	23632.33
569.734	23754.36
570.095	23981.02
570.457	24121.81
570.819	24324.29
571.18	24429.82
571.542	24705.97
571.903	24623.72
572.265	24844.05
572.626	24957.49
572.987	25189.58
573.349	25319.74
573.71	25418.27
574.071	25661.66
574.432	25682.22
574.794	26041.53
575.155	26083.11
575.516	26088.31
575.877	26281.75
576.238	26625.7
576.599	26651.46
576.96	26775.3
577.32	26919.93
577.681	27033.15
578.042	27163.99
578.403	27107.95
578.763	27201.95
579.124	27457.77
579.485	27607.59
579.845	27716.07
580.206	27747.7
580.566	27889.17
580.927	27897.98
581.287	28167.13
581.648	28112.89
582.008	28342.94
582.368	28336.39
582.728	28451.64
583.089	28463.62
583.449	28677.85
583.809	28722.59
584.169	28838.3
584.529	28805.08
584.889	29088.46
585.249	28914.9
585.609	28854.57
585.969	29046.43
586.329	28993.55
586.688	29279.41
587.048	29187.44
587.408	29202.13
587.768	29288.91
588.127	29180.89
588.487	29251.17
588.846	29441.67
589.206	29445.96
589.565	29484.38
589.925	29530.25
590.284	29528.45
590.643	29480.99
591.003	29685.96
591.362	29763.02
591.721	29763.47
592.08	29660.19
592.44	29832.17
592.799	29827.65
593.158	29727.76
593.517	29814.54
593.876	29783.58
594.235	29662
594.593	29894.31
594.952	29940.41
595.311	29883.24
595.67	29878.49
596.029	30051.82
596.387	30151.26
596.746	30233.74
597.104	30180.18
597.463	30141.54
597.822	30203.91
598.18	30261.53
598.538	30248.43
598.897	30230.35
599.255	30124.82
599.613	30537.46
599.972	30446.61
600.33	30395.09
600.688	30392.83
601.046	30424.24
601.404	30548.76
601.762	30550.79
602.12	30628.53
602.478	30575.2
602.836	30663.56
603.194	30503.79
603.552	30719.15
603.91	30492.49
604.268	30677.12
604.625	30518.48
604.983	30699.72
605.341	30557.12
605.698	30724.12
606.056	30830.33
606.413	30883.44
606.771	30933.61
607.128	30965.25
607.485	30649.77
607.843	30848.64
608.2	31079.37
608.557	31160.72
608.914	30941.74
609.272	31157.56
609.629	31145.58
609.986	31171.57
610.343	31120.72
610.7	31377.89
611.057	31283.65
611.414	31254.5
611.771	31410.88
612.127	31576.3
612.484	31482.07
612.841	31575.4
613.198	31518.9
613.554	31489.3
613.911	31661.05
614.267	31658.33
614.624	31614.27
614.98	31641.39
615.337	31808.39
615.693	31726.58
616.05	31689.75
616.406	31817.2
616.762	31852.23
617.118	31826.92
617.475	31891.32
617.831	31888.16
618.187	31927.48
618.543	31915.95
618.899	32078.66
619.255	32001.83
619.611	32035.73
619.967	32180.13
620.323	32069.4
620.678	32096.74
621.034	32070.98
621.39	32129.73
621.746	32016.97
622.101	32457.18
622.457	32012.45
622.812	32256.51
623.168	32061.04
623.523	32257.41
623.879	32406.79
624.234	32167.93
624.589	32293.35
624.945	32308.03
625.3	32334.47
625.655	32311.2
626.01	32346.45
626.365	32306.68
626.72	32291.76
627.075	32303.06
627.43	32294.7
627.785	32238.88
628.14	32411.53
628.495	32359.78
628.85	32303.97
629.205	32306.68
629.559	32390.74
629.914	32289.05
630.269	32154.82
630.623	32235.95
630.978	32091.09
631.332	32228.71
631.687	32172.45
632.041	31962.28
632.396	32108.72
632.75	31980.36
633.104	32011.09
633.459	31815.84
633.813	31874.37
634.167	31754.38
634.521	31826.92
634.875	31868.95
635.229	31899.46
635.583	31721.16
635.937	31769.97
636.291	31632.12
636.645	31697.66
636.999	31529.52
637.352	31766.13
637.706	31532.24
638.06	31651.1
638.413	31560.94
638.767	31463.09
639.121	31546.92
639.474	31310.55
639.828	31365.46
640.181	31486.36
640.534	31314.84
640.888	31319.81
641.241	31004.79
641.594	31219.25
641.947	31383.54
642.301	31071.91
642.654	31312.13
643.007	31267.38
643.36	31249.76
643.713	31081.63
644.066	31139.25
644.419	31088.41
644.771	30842.08
645.124	30552.6
645.477	30447.07
645.83	30289.33
646.182	30151.93
646.535	30131.59
646.888	30122.33
647.24	29981.99
647.593	30226.51
647.945	30284.36
648.298	30006.63
648.65	29923.24
649.002	29941.54
649.355	30150.35
649.707	29977.02
650.059	30174.31
650.411	30500.17
650.763	30350.35
651.115	30715.31
651.467	30645.03
651.819	30546.27
652.171	30575.88
652.523	30587.63
652.875	30592.6
653.227	30453.39
653.578	30648.19
653.93	30616.78
654.282	30536.56
654.633	30315.32
654.985	30388.76
655.337	30438.03
655.688	30563
656.039	30513.73
656.391	30309.67
656.742	30497.91
657.094	30460.17
657.445	30540.62
657.796	30325.49
658.147	30466.05
658.498	30456.11
658.849	30453.39
659.2	30364.58
659.551	30366.39
659.902	30490.68
660.253	30358.03
660.604	30450.91
660.955	30435.32
661.306	30458.82
661.656	30332.95
662.007	30437.58
662.358	30386.73
662.708	30432.83
663.059	30415.43
663.409	30247.3
663.76	30406.62
664.11	30301.08
664.461	30465.15
664.811	30382.66
665.161	30327.3
665.511	30251.59
665.862	30246.39
666.212	30444.35
666.562	30392.83
666.912	30263.79
667.262	30326.62
667.612	30365.03
667.962	30369.1
668.312	30281.2
668.662	30507.86
669.011	30386.96
669.361	30179.96
669.711	30280.29
670.06	30310.8
670.41	30109.9
670.76	30036.68
671.109	30149.45
671.459	30080.07
671.808	29994.65
672.157	30223.34
672.507	29878.04
672.856	30067.87
673.205	29905.84
673.554	30178.83
673.904	29859.96
674.253	30108.77
674.602	30045.95
674.951	29572.74
675.3	29497.71
675.649	29889.79
675.998	29855.22
676.346	29842.34
676.695	29961.43
677.044	29629.01
677.393	29857.48
677.741	29785.62
678.09	29772.28
678.438	29643.47
678.787	29648.9
679.135	29712.62
679.484	29546.75
679.832	29622.46
680.181	29494.32
680.529	29563.02
680.877	29419.07
681.225	29452.52
681.573	29513.31
681.922	29364.16
682.27	29271.5
682.618	29392.41
682.966	29206.42
683.314	29223.37
683.661	29182.92
684.009	28933.21
684.357	28891.63
684.705	28785.87
685.053	28877.16
685.4	28816.83
685.748	28667.23
686.095	28763.27
686.443	28589.71
686.79	28410.51
687.138	28395.14
687.485	28456.84
687.832	28334.58
688.18	28473.79
688.527	28354.92
688.874	28296.84
689.221	28179.56
689.568	28110.63
689.915	27962.39
690.262	27979.56
690.609	27921.03
690.956	27858.43
691.303	27688.95
691.65	27667.7
691.997	27612.34
692.344	27438.56
692.69	27321.27
693.037	27408.73
693.383	27180.49
693.73	27252.57
694.077	27032.69
694.423	27157.66
694.769	26972.58
695.116	26924
695.462	26803.32
695.808	26800.16
696.155	26729.42
696.501	26578.02
696.847	26530.33
697.193	26302.32
697.539	26439.94
697.885	26168.99
698.231	26187.07
698.577	26157.46
698.923	26173.73
699.269	25910.01
699.614	25830.46
699.96	25760.18
700.306	25804.25
700.651	25585.95
700.997	25473.19
701.342	25530.59
701.688	25437.48
702.033	25331.49
702.379	25320.65
702.724	25203.59
703.069	25137.38
703.415	24842.02
703.76	24914.78
704.105	24968.11
704.45	24850.83
704.795	24756.82
705.14	24638.18
705.485	24581.23
705.83	24434.12
706.175	24486.09
706.52	24385.98
706.865	24389.37
707.209	24348.92
707.554	24231.18
707.899	24260.11
708.243	24061.7
708.588	24103.28
708.932	23826.45
709.277	23887.01
709.621	23915.49
709.966	23816.51
710.31	23825.09
710.654	23657.87
710.998	23674.82
711.342	23615.61
711.687	23516.4
712.031	23379.91
712.375	23400.25
712.719	23417.2
713.063	23372.68
713.407	23388.72
713.75	23221.72
714.094	23253.58
714.438	23156.86
714.782	23148.5
715.125	22976.3
715.469	23076.86
715.812	23068.05
716.156	22967.94
716.499	22884.55
716.843	22962.74
717.186	22785.12
717.53	22842.29
717.873	22837.78
718.216	22693.15
718.559	22686.14
718.902	22661.28
719.246	22603.66
719.589	22549.2
719.932	22494.96
720.275	22416.77
720.617	22401.18
720.96	22520.72
721.303	22433.94
721.646	22427.16
721.989	22238.47
722.331	22242.99
722.674	22330.44
723.016	22346.04
723.359	22385.36
723.701	22381.52
724.044	22186.72
724.386	22126.38
724.729	22278.02
725.071	22198.92
725.413	22274.85
725.755	22261.75
726.097	22036.21
726.439	21989.66
726.782	22013.84
727.124	22150.34
727.465	22052.71
727.807	21996.44
728.149	21949.44
728.491	21927.52
728.833	21984.46
729.175	21864.47
729.516	21916.9
729.858	21832.38
730.199	21973.62
730.541	21824.92
730.882	21885.48
731.224	21912.15
731.565	21911.92
731.906	21740.85
732.248	21835.77
732.589	21745.83
732.93	21677.81
733.271	21778.82
733.612	21781.08
733.953	21753.06
734.294	21743.79
734.635	21695.88
734.976	21768.65
735.317	21745.15
735.658	21623.57
735.999	21685.72
736.339	21706.28
736.68	21817.24
737.021	21740.18
737.361	21550.35
737.702	21864.92
738.042	21614.53
738.383	21596.45
738.723	21757.13
739.063	21576.11
739.404	21733.62
739.744	21632.84
740.084	21582.89
740.424	21631.71
740.764	21532.95
741.104	21708.77
741.444	21582.89
741.784	21556.23
742.124	21661.99
742.464	21527.3
742.804	21533.85
743.143	21574.08
743.483	21543.57
743.823	21435.78
744.162	21499.28
744.502	21465.83
744.841	21442.56
745.181	21659.73
745.52	21442.56
745.86	21494.08
746.199	21447.76
746.538	21528.43
746.877	21534.53
747.216	21449.34
747.556	21503.12
747.895	21399.85
748.234	21363.46
748.573	21478.94
748.911	21381.99
749.25	21373.18
749.589	21331.6
749.928	21394.65
750.267	21508.77
750.605	21382.67
750.944	21339.06
751.283	21332.28
751.621	21395.33
751.96	21131.15
752.298	21234.65
752.636	21312.84
752.975	21237.59
753.313	21112.17
753.651	21158.27
753.989	21035.79
754.327	21088.89
754.666	21013.87
755.004	21077.37
755.342	21164.6
755.679	21094.54
