Data from tablewood_brown_FLMS001491_072.txt Node
Date: Tue Feb 07 11:10:59 GMT 2017
User: dcchb
Spectrometer: FLMS00149
Trigger mode: 0
Integration Time (sec): 2.000000E-2
Scans to average: 10
Electric dark correction enabled: true
Nonlinearity correction enabled: false
Boxcar width: 0
XAxis mode: Wavelengths
Number of Pixels in Spectrum: 2048
>>>>>Begin Spectral Data<<<<<
341.393	-12.51
341.776	-12.51
342.16	-12.51
342.543	-69.91
342.927	-76.01
343.31	-70.37
343.693	-67.65
344.077	-71.95
344.46	-76.24
344.843	-46.86
345.226	-34.89
345.61	-32.85
345.993	-19.29
346.376	-12.74
346.759	14.6
347.142	35.85
347.525	58.22
347.908	61.16
348.291	67.03
348.674	89.18
349.057	106.81
349.44	130.31
349.823	154.71
350.206	154.94
350.588	213.47
350.971	220.93
351.354	210.98
351.737	222.06
352.119	257.08
352.502	277.42
352.884	279.23
353.267	286.91
353.65	291.43
354.032	295.05
354.414	286.46
354.797	301.83
355.179	317.2
355.562	329.4
355.944	318.1
356.326	348.38
356.709	334.82
357.091	339.12
357.473	339.34
357.855	334.37
358.238	337.99
358.62	330.53
359.002	363.3
359.384	360.81
359.766	334.37
360.148	331.21
360.53	352.45
360.912	342.96
361.294	342.73
361.676	319.45
362.057	317.65
362.439	326.23
362.821	338.89
363.203	332.11
363.584	330.3
363.966	341.15
364.348	340.7
364.729	342.51
365.111	306.8
365.493	327.82
365.874	339.79
366.256	318.55
366.637	324.2
367.019	321.94
367.4	308.16
367.781	333.69
368.163	316.07
368.544	322.62
368.925	307.03
369.306	330.75
369.688	343.18
370.069	309.51
370.45	345.67
370.831	301.15
371.212	312.68
371.593	328.95
371.974	323.07
372.355	343.41
372.736	324.88
373.117	332.56
373.498	331.21
373.879	342.28
374.26	313.13
374.641	334.37
375.021	331.66
375.402	340.47
375.783	328.49
376.163	327.14
376.544	337.08
376.925	335.27
377.305	356.97
377.686	319.68
378.066	324.2
378.447	349.51
378.827	339.34
379.208	352
379.588	368.72
379.968	356.06
380.349	369.85
380.729	360.58
381.109	337.99
381.489	347.48
381.87	354.26
382.25	375.72
382.63	361.94
383.01	371.43
383.39	343.64
383.77	373.92
384.15	336.18
384.53	373.24
384.91	347.7
385.29	372.79
385.67	385.89
386.049	387.02
386.429	386.57
386.809	384.76
387.189	379.34
387.568	359
387.948	379.34
388.328	389.06
388.707	401.94
389.087	389.51
389.466	394.48
389.846	395.16
390.225	397.64
390.605	428.6
390.984	412.11
391.363	389.51
391.743	412.11
392.122	424.54
392.501	434.71
392.881	441.71
393.26	423.86
393.639	438.77
394.018	439.23
394.397	443.75
394.776	430.86
395.155	459.79
395.534	431.99
395.913	436.51
396.292	473.12
396.671	454.37
397.05	455.95
397.429	443.97
397.808	451.88
398.186	465.44
398.565	480.81
398.944	462.05
399.323	463.41
399.701	481.71
400.08	473.35
400.458	496.4
400.837	483.07
401.215	502.73
401.594	474.71
401.972	497.98
402.351	512.67
402.729	505.21
403.107	510.41
403.486	515.83
403.864	503.86
404.242	510.41
404.62	521.26
404.999	516.74
405.377	519.22
405.755	507.7
406.133	543.86
406.511	550.86
406.889	553.8
407.267	596.74
407.645	543.4
408.023	564.42
408.401	586.11
408.779	550.86
409.156	555.38
409.534	592.89
409.912	596.96
410.29	599.22
410.667	595.15
411.045	592.22
411.422	594.02
411.8	593.8
412.178	598.32
412.555	606
412.933	636.73
413.31	617.98
413.687	643.29
414.065	644.87
414.442	644.42
414.819	651.2
415.197	670.63
415.574	671.08
415.951	678.99
416.328	679.45
416.705	679.9
417.082	684.87
417.46	685.55
417.837	689.16
418.214	690.97
418.591	694.59
418.967	703.17
419.344	730.52
419.721	724.64
420.098	700.91
420.475	717.86
420.852	740.01
421.228	746.56
421.605	736.39
421.982	753.12
422.358	763.74
422.735	755.38
423.111	744.08
423.488	808.03
423.864	774.13
424.241	809.16
424.617	792.44
424.994	794.7
425.37	817.52
425.746	795.6
426.123	828.14
426.499	840.8
426.875	813.91
427.251	831.53
427.627	833.11
428.003	860.23
428.379	858.2
428.756	875.37
429.132	876.73
429.507	873.56
429.883	883.51
430.259	909.72
430.635	916.95
431.011	934.13
431.387	949.95
431.763	948.59
432.138	961.92
432.514	974.35
432.89	968.7
433.265	989.49
433.641	1020.23
434.016	989.27
434.392	1022.71
434.767	1050.51
435.143	1036.5
435.518	1056.84
435.894	1067.01
436.269	1091.64
436.644	1082.82
437.02	1084.41
437.395	1121.47
437.77	1109.94
438.145	1131.18
438.52	1121.24
438.895	1145.65
439.271	1151.98
439.646	1164.18
440.021	1154.69
440.395	1211.41
440.77	1178.19
441.145	1184.29
441.52	1231.97
441.895	1229.04
442.27	1226.78
442.645	1258.41
443.019	1266.32
443.394	1262.48
443.769	1281.46
444.143	1265.64
444.518	1272.2
444.892	1276.04
445.267	1294.12
445.641	1294.34
446.016	1295.7
446.39	1310.84
446.764	1322.59
447.139	1349.94
447.513	1319.65
447.887	1360.33
448.262	1358.52
448.636	1362.37
449.01	1401.46
449.384	1363.27
449.758	1396.71
450.132	1414.34
450.506	1430.84
450.88	1434.68
451.254	1434.23
451.628	1449.37
452.002	1448.46
452.376	1495.7
452.75	1484.4
453.123	1516.26
453.497	1503.6
453.871	1527.56
454.244	1530.04
454.618	1581.79
454.992	1578.4
455.365	1581.34
455.739	1619.99
456.112	1629.93
456.486	1610.27
456.859	1646.2
457.232	1666.76
457.606	1701.34
457.979	1710.6
458.352	1730.27
458.725	1778.63
459.099	1790.15
459.472	1840.32
459.845	1804.61
460.218	1833.31
460.591	1828.57
460.964	1876.7
461.337	1887.78
461.71	1922.35
462.083	1960.77
462.456	1989.69
462.829	1969.13
463.201	2018.62
463.574	2005.96
463.947	2068.34
464.32	2127.32
464.692	2099.3
465.065	2170.25
465.438	2151.5
465.81	2183.13
466.183	2197.15
466.555	2244.6
466.928	2260.19
467.3	2267.88
467.672	2353.53
468.045	2365.73
468.417	2405.5
468.789	2406.18
469.161	2437.59
469.534	2520.75
469.906	2486.86
470.278	2577.93
470.65	2578.6
471.022	2657.7
471.394	2695.44
471.766	2737.47
472.138	2787.86
472.51	2851.14
472.882	2909.9
473.253	2919.84
473.625	2981.76
473.997	3042.77
474.369	3046.84
474.74	3141.98
475.112	3191.47
475.484	3229.89
475.855	3294.74
476.227	3321.18
476.598	3447.28
476.97	3430.11
477.341	3547.84
477.713	3625.58
478.084	3701.74
478.455	3763.66
478.827	3832.58
479.198	3927.5
479.569	3956.87
479.94	4095.4
480.311	4115.06
480.682	4249.97
481.053	4341.72
481.424	4384.43
481.795	4441.38
482.166	4549.85
482.537	4625.33
482.908	4729.96
483.279	4786.68
483.65	4868.94
484.021	4962.95
484.391	5033.46
484.762	5133.79
485.133	5219.44
485.503	5247.01
485.874	5348.7
486.244	5446.1
486.615	5545.76
486.985	5628.24
487.356	5707.56
487.726	5719.76
488.097	5831.85
488.467	5892.64
488.837	5991.85
489.207	6091.51
489.578	6155.23
489.948	6290.15
490.318	6322.23
490.688	6387.09
491.058	6475.45
491.428	6569.69
491.798	6628.89
492.168	6751.6
492.538	6815.1
492.908	6853.52
493.278	7019.62
493.648	7030.92
494.017	7133.96
494.387	7168.31
494.757	7240.85
495.126	7323.79
495.496	7368.08
495.866	7415.31
496.235	7534.41
496.605	7573.73
496.974	7622.77
497.344	7750.9
497.713	7777.34
498.082	7884.91
498.452	7893.27
498.821	7922.87
499.19	7996.99
499.559	8091.23
499.928	8178.23
500.298	8229.76
500.667	8317.89
501.036	8278.12
501.405	8373.93
501.774	8393.14
502.143	8521.5
502.512	8548.84
502.88	8684.66
503.249	8643.3
503.618	8755.84
503.987	8773.02
504.356	8827.25
504.724	8888.27
505.093	8919
505.462	8973.69
505.83	9050.75
506.199	9192.44
506.567	9229.05
506.936	9248.49
507.304	9367.35
507.672	9435.6
508.041	9534.13
508.409	9586.56
508.777	9705.65
509.145	9683.28
509.514	9789.49
509.882	9861.58
510.25	9894.57
510.618	9977.96
510.986	10024.96
511.354	10143.15
511.722	10231.51
512.09	10332.52
512.458	10353.54
512.826	10428.57
513.193	10552.86
513.561	10556.47
513.929	10661.56
514.297	10762.57
514.664	10869.69
515.032	10962.11
515.4	11015.67
515.767	11090.7
516.135	11160.75
516.502	11157.59
516.869	11358.03
517.237	11445.94
517.604	11421.99
517.972	11591.47
518.339	11673.96
518.706	11697.23
519.073	11776.55
519.44	11897.91
519.808	12025.81
520.175	12046.38
520.542	12175.19
520.909	12289.76
521.276	12274.62
521.643	12405.01
522.009	12553.94
522.376	12744.44
522.743	12756.19
523.11	12906.24
523.477	12983.53
523.843	13101.94
524.21	13247.7
524.577	13378.09
524.943	13315.5
525.31	13520.01
525.676	13633
526.043	13730.4
526.409	13791.87
526.776	13955.25
527.142	14025.08
527.508	14131.3
527.874	14283.83
528.241	14401.34
528.607	14370.38
528.973	14538.29
529.339	14575.35
529.705	14689.92
530.071	14840.43
530.437	14881.11
530.803	14969.01
531.169	15023.48
531.535	15048.11
531.901	15095.11
532.267	15257.14
532.632	15437.25
532.998	15390.92
533.364	15467.76
533.73	15591.37
534.095	15659.62
534.461	15761.53
534.826	15756.34
535.192	15843.11
535.557	16055.09
535.923	15980.96
536.288	16065.26
536.653	16204.69
537.019	16124.69
537.384	16267.06
537.749	16326.72
538.114	16340.5
538.479	16379.82
538.845	16512.7
539.21	16445.58
539.575	16528.97
539.94	16606.94
540.305	16752.02
540.67	16741.17
541.034	16764.45
541.399	16943.2
541.764	16955.85
542.129	17115.17
542.494	17021.84
542.858	17125.34
543.223	17189.52
543.587	17226.81
543.952	17308.39
544.316	17323.08
544.681	17356.3
545.045	17443.98
545.41	17539.57
545.774	17660.92
546.138	17713.57
546.503	17749.73
546.867	17706.34
547.231	17926
547.595	17908.6
547.959	18012.77
548.324	18109.27
548.688	18099.1
549.052	18180.91
549.416	18249.38
549.779	18255.71
550.143	18338.87
550.507	18593.78
550.871	18616.37
551.235	18525.3
551.599	18809.59
551.962	18901.57
552.326	18939.3
552.689	19063.14
553.053	19018.17
553.417	19055.69
553.78	19470.59
554.143	19445.96
554.507	19454.77
554.87	19673.3
555.234	19819.51
555.597	19702.22
555.96	19890.47
556.323	20003.23
556.686	20110.8
557.05	20258.37
557.413	20345.59
557.776	20488.64
558.139	20638.24
558.502	20685.47
558.865	20728.86
559.228	21012.02
559.59	21020.15
559.953	21214.72
560.316	21449.75
560.679	21475.96
561.041	21693.81
561.404	21743.3
561.767	22043.4
562.129	21925.44
562.492	22326.11
562.854	22304.64
563.217	22494.92
563.579	22514.8
563.941	22853.33
564.304	22995.69
564.666	23043.38
565.028	23349.36
565.39	23275.46
565.753	23583.02
566.115	23717.48
566.477	23884.48
566.839	23950.7
567.201	24189.56
567.563	24229.56
567.925	24561.53
568.287	24653.05
568.648	24806.27
569.01	24973.72
569.372	25347.27
569.734	25208.52
570.095	25471.56
570.457	25626.59
570.819	25751.55
571.18	25919.23
571.542	26138.21
571.903	26231.99
572.265	26366.68
572.626	26587.92
572.987	26697.74
573.349	26923.5
573.71	27130.05
574.071	27236.04
574.432	27353.09
574.794	27528
575.155	27692.97
575.516	27636.93
575.877	27892.74
576.238	28067.2
576.599	28180.42
576.96	28309.68
577.32	28373.41
577.681	28659.5
578.042	28745.6
578.403	28755.77
578.763	28830.57
579.124	28977.91
579.485	29192.82
579.845	29431.46
580.206	29433.27
580.566	29467.16
580.927	29602.07
581.287	29877.55
581.648	29702.41
582.008	29960.26
582.368	29950.99
582.728	29955.96
583.089	29933.14
583.449	30099.91
583.809	30197.54
584.169	30287.03
584.529	30220.82
584.889	30631.65
585.249	30448.15
585.609	30386.91
585.969	30683.63
586.329	30546
586.688	30713.46
587.048	30694.7
587.408	30774.25
587.768	30665.55
588.127	30778.09
588.487	30808.6
588.846	31052.88
589.206	30776.51
589.565	30753.68
589.925	31110.28
590.284	31012.21
590.643	31040
591.003	31245.2
591.362	31260.79
591.721	31196.16
592.08	31206.78
592.44	31312.31
592.799	31347.11
593.158	31185.31
593.517	31338.53
593.876	31375.36
594.235	31384.17
594.593	31413.55
594.952	31517.05
595.311	31394.34
595.67	31510.5
596.029	31668.46
596.387	31633.43
596.746	31824.62
597.104	31527.9
597.463	31507.56
597.822	31673.21
598.18	31716.82
598.538	31620.55
598.897	31878.17
599.255	31647.9
599.613	32058.06
599.972	31839.53
600.33	31902.35
600.688	31824.16
601.046	32063.48
601.404	32176.7
601.762	32161.1
602.12	32152.29
602.478	32213.31
602.836	32246.52
603.194	31875.01
603.552	31983.48
603.91	32005.85
604.268	32169.01
604.625	32010.37
604.983	32379.18
605.341	32060.32
605.698	32334.43
606.056	32354.32
606.413	32292.85
606.771	32478.38
607.128	32487.87
607.485	32345.73
607.843	32420.53
608.2	32565.84
608.557	32585.5
608.914	32581.43
609.272	32693.74
609.629	32509.12
609.986	32893.74
610.343	32773.74
610.7	32882.21
611.057	32773.97
611.414	32852.61
611.771	32920.86
612.127	32980.52
612.484	32876.11
612.841	33113.17
613.198	32938.94
613.554	32957.24
613.911	33128.99
614.267	33236.78
614.624	33154.07
614.98	33082.21
615.337	33283.11
615.693	33275.42
616.05	33233.17
616.406	33386.83
616.762	33261.87
617.118	33361.75
617.475	33321.52
617.831	33454.4
618.187	33552.48
618.543	33613.27
618.899	33654.17
619.255	33550.9
619.611	33505.25
619.967	33538.92
620.323	33628.41
620.678	33671.12
621.034	33506.38
621.39	33547.28
621.746	33571.91
622.101	34006.7
622.457	33608.75
622.812	33616.88
623.168	33696.88
623.523	33736.2
623.879	33964.22
624.234	33599.71
624.589	33691.68
624.945	33836.99
625.3	33824.34
625.655	33804.22
626.01	33805.13
626.365	33747.5
626.72	33810.55
627.075	33867.27
627.43	33765.81
627.785	33728.29
628.14	33724.45
628.495	33856.65
628.85	33829.53
629.205	33590.67
629.559	33672.02
629.914	33621.63
630.269	33682.19
630.623	33502.54
630.978	33487.62
631.332	33722.87
631.687	33618.24
632.041	33544.8
632.396	33600.61
632.75	33442.43
633.104	33506.38
633.459	33262.77
633.813	33290.57
634.167	33286.72
634.521	33230.23
634.875	33352.94
635.229	33297.34
635.583	33127.63
635.937	33213.51
636.291	32983
636.645	33237.46
636.999	33012.83
637.352	33202.88
637.706	32911.59
638.06	32968.77
638.413	32946.39
638.767	32952.95
639.121	33029.1
639.474	32784.59
639.828	32841.76
640.181	32906.85
640.534	32719.51
640.888	32543.69
641.241	32616.23
641.594	32603.35
641.947	32728.09
642.301	32511.15
642.654	32610.58
643.007	32686.29
643.36	32558.61
643.713	32481.55
644.066	32646.06
644.419	32366.52
644.771	32298.73
645.124	32064.83
645.477	32019.41
645.83	31657.16
646.182	31613.32
646.535	31435.25
646.888	31390.5
647.24	31334.23
647.593	31637.05
647.945	31332.65
648.298	31178.3
648.65	31169.49
649.002	31243.39
649.355	31279.09
649.707	31203.16
650.059	31429.82
650.411	31753.2
650.763	31741.68
651.115	32133.76
651.467	31910.71
651.819	32057.83
652.171	31985.97
652.523	31864.16
652.875	31883.37
653.227	31830.04
653.578	32020.09
653.93	31796.59
654.282	31760.21
654.633	31622.13
654.985	31710.49
655.337	31881.79
655.688	31812.41
656.039	31835.46
656.391	31607.9
656.742	31853.31
657.094	31827.78
657.445	31920.21
657.796	31861
658.147	31902.81
658.498	31769.25
658.849	31852.86
659.2	31734.9
659.551	31662.59
659.902	31679.08
660.253	31703.49
660.604	31748.68
660.955	31503.27
661.306	31707.1
661.656	31645.64
662.007	31698.29
662.358	31581.23
662.708	31682.92
663.059	31714.34
663.409	31479.31
663.76	31741.68
664.11	31833.65
664.461	31658.07
664.811	31813.77
665.161	31711.62
665.511	31633.43
665.862	31636.15
666.212	31656.03
666.562	31609.93
666.912	31452.42
667.262	31487.45
667.612	31549.14
667.962	31451.07
668.312	31484.51
668.662	31686.31
669.011	31613.1
669.361	31617.61
669.711	31494.91
670.06	31525.64
670.41	31438.41
670.76	31450.61
671.109	31409.48
671.459	31293.56
671.808	31338.75
672.157	31261.24
672.507	31142.37
672.856	31075.71
673.205	31261.24
673.554	31285.42
673.904	31189.15
674.253	31378.53
674.602	31237.74
674.951	30832.1
675.3	30591.88
675.649	31085.65
675.998	30951.19
676.346	30950.74
676.695	31122.49
677.044	31006.33
677.393	31009.04
677.741	31000.91
678.09	30893.79
678.438	30862.38
678.787	30842.49
679.135	30871.19
679.484	30610.86
679.832	30898.54
680.181	30648.37
680.529	30724.98
680.877	30644.08
681.225	30491.54
681.573	30749.84
681.922	30328.38
682.27	30287.25
682.618	30290.64
682.966	30309.4
683.314	30298.1
683.661	30153.02
684.009	30102.63
684.357	30008.39
684.705	29968.84
685.053	29979.24
685.4	29971.56
685.748	29738.34
686.095	29814.95
686.443	29757.55
686.79	29710.32
687.138	29680.72
687.485	29674.16
687.832	29491.12
688.18	29635.52
688.527	29382.65
688.874	29383.1
689.221	29239.82
689.568	29195.76
689.915	29138.13
690.262	29026.04
690.609	28978.59
690.956	28864.24
691.303	28845.94
691.65	28751.48
691.997	28557.81
692.344	28510.58
692.69	28493.63
693.037	28571.14
693.383	28231.04
693.73	28372.28
694.077	28135.45
694.423	28220.64
694.769	28017.71
695.116	27978.61
695.462	27890.71
695.808	27784.5
696.155	27873.08
696.501	27600.55
696.847	27602.13
697.193	27376.14
697.539	27505.63
697.885	27265.64
698.231	27227.45
698.577	27257.05
698.923	27112.65
699.269	26954.46
699.614	26834.92
699.96	26792.43
700.306	26648.48
700.651	26582.04
700.997	26540.91
701.342	26535.04
701.688	26413.23
702.033	26283.52
702.379	26330.3
702.724	26241.03
703.069	26251.43
703.415	25855.05
703.76	25892.34
704.105	25988.84
704.45	25823.64
704.795	25644.21
705.14	25566.7
705.485	25434.5
705.83	25357.44
706.175	25311.79
706.52	25316.09
706.865	25145.47
707.209	25193.83
707.554	25097.33
707.899	25155.86
708.243	24915.19
708.588	24990.22
708.932	24775.76
709.277	24874.06
709.621	24808.08
709.966	24575.09
710.31	24620.28
710.654	24464.81
710.998	24479.95
711.342	24477.69
711.687	24370.35
712.031	24323.57
712.375	24316.56
712.719	24290.8
713.063	24199.96
713.407	24298.26
713.75	23994.76
714.094	24036.35
714.438	23880.42
714.782	24026.4
715.125	23899.4
715.469	24037.7
715.812	23824.15
716.156	23749.8
716.499	23870.93
716.843	23884.94
717.186	23566.75
717.53	23757.03
717.873	23644.27
718.216	23582.35
718.559	23680.87
718.902	23392.97
719.246	23490.82
719.589	23460.54
719.932	23420.54
720.275	23379.19
720.617	23298.96
720.96	23337.38
721.303	23225.52
721.646	23351.17
721.989	23168.35
722.331	23179.42
722.674	23173.54
723.016	23138.29
723.359	23114.56
723.701	23032.98
724.044	22908.24
724.386	22857.39
724.729	22954.79
725.071	22917.73
725.413	22982.14
725.755	22936.49
726.097	22934.23
726.439	22780.79
726.782	22835.7
727.124	22905.75
727.465	22801.12
727.807	22769.49
728.149	22811.74
728.491	22689.94
728.833	22756.83
729.175	22621.92
729.516	22662.37
729.858	22602.26
730.199	22698.98
730.541	22648.13
730.882	22526.1
731.224	22585.99
731.565	22445.43
731.906	22604.97
732.248	22664.18
732.589	22496.05
732.93	22460.34
733.271	22474.58
733.612	22625.99
733.953	22616.04
734.294	22408.82
734.635	22441.36
734.976	22403.39
735.317	22497.18
735.658	22402.04
735.999	22476.16
736.339	22365.88
736.68	22518.65
737.021	22318.42
737.361	22353.23
737.702	22381.93
738.042	22306
738.383	22373.79
738.723	22359.1
739.063	22253.12
739.404	22450.62
739.744	22341.93
740.084	22319.78
740.424	22296.28
740.764	22307.35
741.104	22326.33
741.444	22337.18
741.784	22193.46
742.124	22286.11
742.464	22239.56
742.804	22324.53
743.143	22242.04
743.483	22236.17
743.823	22080.01
744.162	22194.59
744.502	22239.33
744.841	22124.53
745.181	22244.08
745.52	22164.98
745.86	22268.03
746.199	22220.12
746.538	22143.06
746.877	22139.45
747.216	22125.44
747.556	22079.11
747.895	22115.72
748.234	22090.41
748.573	21955.72
748.911	21974.25
749.25	22076.17
749.589	21996.63
749.928	22110.07
750.267	22126.79
750.605	21974.7
750.944	21915.95
751.283	21784.65
751.621	21875.95
751.96	21819.91
752.298	21790.75
752.636	21936.29
752.975	21790.75
753.313	21755.5
753.651	21810.87
753.989	21656.97
754.327	21730.19
754.666	21663.75
755.004	21627.14
755.342	21696.75
755.679	21611.32
756.017	21491.33
