Data from tablewood_dark_bookshelf_FLMS001491_00012.txt Node
Date: Wed Feb 08 14:13:43 GMT 2017
User: dcchb
Spectrometer: FLMS00149
Trigger mode: 0
Integration Time (sec): 2.000000E-2
Scans to average: 10
Electric dark correction enabled: true
Nonlinearity correction enabled: false
Boxcar width: 0
XAxis mode: Wavelengths
Number of Pixels in Spectrum: 2048
>>>>>Begin Spectral Data<<<<<
341.393	-18.64
341.776	-18.64
342.16	-18.64
342.543	-55.48
342.927	-49.6
343.31	-66.33
343.693	-73.78
344.077	-56.38
344.46	-73.78
344.843	-54.8
345.226	-30.62
345.61	-35.14
345.993	-31.3
346.376	20
346.759	11.86
347.142	14.8
347.525	38.08
347.908	53.22
348.291	71.75
348.674	87.12
349.057	125.31
349.44	124.18
349.823	153.1
350.206	142.26
350.588	186.1
350.971	195.14
351.354	231.97
351.737	241.91
352.119	251.18
352.502	233.78
352.884	262.48
353.267	269.94
353.65	273.1
354.032	296.38
354.414	293.89
354.797	297.51
355.179	301.57
355.562	310.61
355.944	316.94
356.326	328.92
356.709	302.93
357.091	324.85
357.473	328.47
357.855	326.43
358.238	344.51
358.62	328.92
359.002	340.44
359.384	337.28
359.766	350.16
360.148	336.15
360.53	338.64
360.912	317.39
361.294	322.59
361.676	308.58
362.057	328.24
362.439	335.47
362.821	334.57
363.203	326.88
363.584	349.26
363.966	315.58
364.348	319.65
364.729	317.62
365.111	318.75
365.493	301.35
365.874	304.29
366.256	315.58
366.637	313.1
367.019	320.56
367.4	319.2
367.781	336.83
368.163	310.16
368.544	314
368.925	310.16
369.306	317.17
369.688	314.23
370.069	314.46
370.45	299.77
370.831	324.4
371.212	336.6
371.593	302.93
371.974	323.04
372.355	308.35
372.736	330.05
373.117	318.3
373.498	317.84
373.879	330.73
374.26	334.34
374.641	311.07
375.021	320.56
375.402	336.83
375.783	339.09
376.163	346.54
376.544	332.31
376.925	334.79
377.305	316.94
377.686	328.92
378.066	348.35
378.447	345.19
378.827	341.57
379.208	335.7
379.588	327.79
379.968	358.52
380.349	355.36
380.729	346.09
381.109	336.83
381.489	322.14
381.87	359.43
382.25	347
382.63	343.83
383.01	356.71
383.39	345.19
383.77	361.46
384.15	368.01
384.53	370.5
384.91	367.11
385.29	383.15
385.67	365.98
386.049	361.46
386.429	368.92
386.809	383.15
387.189	376.15
387.568	368.46
387.948	373.66
388.328	376.37
388.707	375.92
389.087	368.69
389.466	378.86
389.846	384.96
390.225	398.52
390.605	398.52
390.984	377.5
391.363	385.19
391.743	387.45
392.122	401.91
392.501	396.94
392.881	406.88
393.26	422.47
393.639	406.2
394.018	402.36
394.397	394.9
394.776	411.63
395.155	421.34
395.534	417.05
395.913	429.93
396.292	428.58
396.671	415.7
397.05	446.43
397.429	430.84
397.808	425.64
398.186	436.71
398.565	425.41
398.944	442.36
399.323	457.28
399.701	448.69
400.08	438.75
400.458	452.08
400.837	462.93
401.215	453.43
401.594	446.88
401.972	461.34
402.351	448.46
402.729	466.09
403.107	449.82
403.486	473.77
403.864	454.79
404.242	468.12
404.62	482.81
404.999	463.83
405.377	484.39
405.755	484.17
406.133	501.34
406.511	499.76
406.889	491.4
407.267	486.43
407.645	490.27
408.023	502.47
408.401	499.08
408.779	480.33
409.156	519.2
409.534	519.2
409.912	514.68
410.29	544.05
410.667	530.72
411.045	549.03
411.422	530.04
411.8	528.91
412.178	575.92
412.555	552.64
412.933	554.67
413.31	551.96
413.687	576.82
414.065	570.95
414.442	573.66
414.819	598.52
415.197	584.05
415.574	590.83
415.951	604.39
416.328	599.19
416.705	582.24
417.082	608.46
417.46	596.26
417.837	597.84
418.214	611.62
418.591	627.44
418.967	602.36
419.344	605.75
419.721	643.71
420.098	645.07
420.475	653.43
420.852	636.48
421.228	649.14
421.605	646.88
421.982	662.47
422.358	645.97
422.735	671.28
423.111	650.04
423.488	683.94
423.864	687.1
424.241	702.47
424.617	684.61
424.994	686.65
425.37	713.77
425.746	711.73
426.123	713.54
426.499	705.18
426.875	728.23
427.251	729.59
427.627	733.2
428.003	745.4
428.379	757.38
428.756	789.02
429.132	783.82
429.507	771.17
429.883	776.82
430.259	767.32
430.635	793.31
431.011	795.12
431.387	793.54
431.763	829.92
432.138	818.17
432.514	853.42
432.89	843.25
433.265	847.1
433.641	849.81
434.016	865.63
434.392	867.21
434.767	916.25
435.143	866.3
435.518	883.03
435.894	926.64
436.269	918.05
436.644	944.04
437.02	960.77
437.395	914.44
437.77	944.04
438.145	960.09
438.52	930.48
438.895	967.77
439.271	970.71
439.646	970.03
440.021	1000.31
440.395	997.15
440.77	1007.32
441.145	992.4
441.52	1026.53
441.895	1027.43
442.27	1034.89
442.645	1046.64
443.019	1026.53
443.394	1048.9
443.769	1050.48
444.143	1040.99
444.518	1066.98
444.892	1048.67
445.267	1090.48
445.641	1075.34
446.016	1079.86
446.39	1090.93
446.764	1101.33
447.139	1105.85
447.513	1112.17
447.887	1112.17
448.262	1105.17
448.636	1123.93
449.01	1124.83
449.384	1149.24
449.758	1174.32
450.132	1192.62
450.506	1179.74
450.88	1169.12
451.254	1177.94
451.628	1184.71
452.002	1226.07
452.376	1215
452.75	1229.01
453.123	1204.15
453.497	1243.7
453.871	1257.71
454.244	1256.13
454.618	1270.59
454.992	1274.88
455.365	1318.27
455.739	1326.18
456.112	1336.58
456.486	1336.35
456.859	1377.25
457.232	1368.21
457.606	1377.48
457.979	1396.46
458.352	1407.99
458.725	1431.26
459.099	1448.89
459.472	1450.7
459.845	1450.47
460.218	1459.06
460.591	1506.97
460.964	1500.64
461.337	1538.83
461.71	1560.52
462.083	1593.52
462.456	1579.73
462.829	1599.84
463.201	1603.23
463.574	1638.71
463.947	1646.17
464.32	1683.46
464.692	1690.92
465.065	1680.52
465.438	1698.6
465.81	1752.84
466.183	1777.02
466.555	1754.64
466.928	1778.15
467.3	1794.42
467.672	1828.54
468.045	1854.3
468.417	1847.52
468.789	1880.97
469.161	1889.33
469.534	1923.9
469.906	1953.73
470.278	1985.82
470.65	1973.17
471.022	2014.98
471.394	2055.88
471.766	2096.56
472.138	2082.09
472.51	2148.53
472.882	2146.27
473.253	2206.61
473.625	2214.07
473.997	2264.91
474.369	2235.76
474.74	2287.96
475.112	2356.66
475.484	2365.47
475.855	2446.38
476.227	2410.67
476.598	2479.37
476.97	2502.19
477.341	2512.36
477.713	2624.22
478.084	2592.59
478.455	2660.61
478.827	2658.57
479.198	2751.45
479.569	2801.4
479.94	2826.25
480.311	2839.13
480.682	2916.19
481.053	2978.57
481.424	3025.8
481.795	3088.85
482.166	3071.9
482.537	3121.61
482.908	3155.96
483.279	3217.66
483.65	3259.69
484.021	3335.84
484.391	3367.93
484.762	3427.37
485.133	3421.72
485.503	3449.51
485.874	3512.11
486.244	3592.33
486.615	3652.45
486.985	3684.54
487.356	3720.92
487.726	3805.44
488.097	3817.87
488.467	3844.08
488.837	3935.83
489.207	3949.39
489.578	3949.39
489.948	4020.8
490.318	4116.39
490.688	4116.61
491.058	4173.79
491.428	4234.8
491.798	4308.02
492.168	4346.67
492.538	4300.34
492.908	4367
493.278	4442.93
493.648	4483.84
494.017	4526.77
494.387	4561.57
494.757	4656.71
495.126	4637.51
495.496	4679.99
495.866	4696.71
496.235	4760.21
496.605	4809.7
496.974	4819.65
497.344	4850.61
497.713	4861
498.082	4955.46
498.452	4989.13
498.821	4997.5
499.19	5019.42
499.559	5068
499.928	5119.75
500.298	5132.86
500.667	5163.82
501.036	5205.63
501.405	5224.83
501.774	5253.31
502.143	5312.74
502.512	5297.83
502.88	5393.64
503.249	5418.73
503.618	5430.03
503.987	5465.05
504.356	5501.66
504.724	5519.52
505.093	5564.26
505.462	5615.78
505.83	5621.43
506.199	5696.91
506.567	5801.77
506.936	5737.82
507.304	5846.51
507.672	5822.56
508.041	5879.96
508.409	5942.1
508.777	5961.54
509.145	5985.04
509.514	5970.35
509.882	6107.52
510.25	6071.37
510.618	6156.11
510.986	6190.01
511.354	6276.78
511.722	6283.56
512.09	6371.92
512.458	6339.16
512.826	6433.84
513.193	6433.62
513.561	6462.54
513.929	6544.35
514.297	6583.22
514.664	6623.44
515.032	6620.73
515.4	6653.05
515.767	6712.25
516.135	6792.93
516.502	6822.76
516.869	6914.96
517.237	6914.51
517.604	6906.37
517.972	6989.31
518.339	7058.01
518.706	7068.4
519.073	7054.62
519.44	7170.77
519.808	7241.05
520.175	7177.1
520.542	7365.8
520.909	7370.09
521.276	7387.72
521.643	7521.72
522.009	7585.22
522.376	7618.9
522.743	7663.19
523.11	7725.11
523.477	7794.94
523.843	7900.24
524.21	7920.81
524.577	8012.33
524.943	7974.82
525.31	8148.15
525.676	8147.24
526.043	8282.61
526.409	8225.66
526.776	8352.66
527.142	8451.19
527.508	8423.62
527.874	8488.48
528.241	8511.08
528.607	8531.64
528.973	8664.07
529.339	8614.12
529.705	8725.31
530.071	8782.25
530.437	8896.38
530.803	8886.21
531.169	8951.52
531.535	8913.55
531.901	9044.62
532.267	8992.87
532.632	9071.96
532.998	9211.62
533.364	9244.62
533.73	9291.39
534.095	9353.99
534.461	9340.66
534.826	9285.52
535.192	9469.69
535.557	9491.84
535.923	9530.94
536.288	9543.14
536.653	9592.18
537.019	9608.67
537.384	9581.33
537.749	9680.08
538.114	9737.48
538.479	9805.28
538.845	9840.76
539.21	9843.24
539.575	9885.5
539.94	9962.11
540.305	9958.95
540.67	9980.19
541.034	10054.31
541.399	10105.16
541.764	10089.11
542.129	10189.22
542.494	10177.25
542.858	10219.51
543.223	10210.47
543.587	10271.26
543.952	10278.71
544.316	10367.07
544.681	10384.92
545.045	10492.94
545.41	10524.81
545.774	10532.94
546.138	10547.63
546.503	10594.41
546.867	10584.47
547.231	10718.48
547.595	10721.86
547.959	10737.68
548.324	10789.43
548.688	10748.98
549.052	10840.96
549.416	10859.26
549.779	10897
550.143	10979.94
550.507	11056.77
550.871	11081.18
551.235	11127.96
551.599	11197.11
551.962	11236.88
552.326	11254.73
552.689	11345.13
553.053	11297.9
553.417	11328.18
553.78	11453.6
554.143	11476.42
554.507	11548.28
554.87	11567.72
555.234	11644.55
555.597	11592.12
555.96	11741.27
556.323	11775.17
556.686	11800.48
557.05	11964.77
557.413	11953.47
557.776	11951.66
558.139	12127.48
558.502	12064.88
558.865	12085.9
559.228	12284.31
559.59	12273.01
559.953	12356.62
560.316	12447.02
560.679	12501.71
561.041	12588.26
561.404	12620.57
561.767	12761.36
562.129	12668.25
562.492	12892.43
562.854	12879.1
563.217	12952.54
563.579	12919.55
563.941	13076.83
564.304	13083.16
564.666	13248.13
565.028	13209.03
565.39	13257.84
565.753	13342.36
566.115	13475.01
566.477	13523.6
566.839	13631.84
567.201	13639.08
567.563	13681.79
567.925	13840.2
568.287	13813.08
568.648	13925.17
569.01	13967.43
569.372	14076.13
569.734	14077.26
570.095	14118.61
570.457	14260.3
570.819	14316.35
571.18	14304.37
571.542	14413.75
571.903	14438.38
572.265	14532.16
572.626	14602.67
572.987	14634.53
573.349	14640.41
573.71	14847.86
574.071	14861.42
574.432	14986.84
574.794	15036.78
575.155	15091.69
575.516	15123.33
575.877	15163.56
576.238	15117.46
576.599	15238.81
576.96	15229.77
577.32	15320.39
577.681	15467.95
578.042	15477.45
578.403	15533.94
578.763	15513.38
579.124	15475.86
579.485	15649.19
579.845	15697.78
580.206	15676.99
580.566	15818.45
580.927	15801.28
581.287	15881.05
581.648	15887.38
582.008	15899.36
582.368	15990.88
582.728	16067.94
583.089	16101.61
583.449	16095.06
583.809	16227.71
584.169	16113.59
584.529	16154.04
584.889	16383.19
585.249	16271.78
585.609	16269.06
585.969	16423.18
586.329	16400.36
586.688	16371.43
587.048	16512
587.408	16504.09
587.768	16465.22
588.127	16395.61
588.487	16457.76
588.846	16655.49
589.206	16491.2
589.565	16569.85
589.925	16696.17
590.284	16617.08
590.643	16620.92
591.003	16679.67
591.362	16848.71
591.721	16808.03
592.08	16810.29
592.44	16874.92
592.799	16964.64
593.158	16925.77
593.517	16958.09
593.876	17039.44
594.235	16986.56
594.593	17043.51
594.952	17090.96
595.311	17020.46
595.67	17084.64
596.029	17208.47
596.387	17227.91
596.746	17269.26
597.104	17191.75
597.463	17201.47
597.822	17334.8
598.18	17209.38
598.538	17282.82
598.897	17506.32
599.255	17387.9
599.613	17648.01
599.972	17520.1
600.33	17598.29
600.688	17488.24
601.046	17574.11
601.404	17624.96
601.762	17674
602.12	17846.2
602.478	17848.23
602.836	17811.62
603.194	17708.57
603.552	17776.37
603.91	17732.08
604.268	17839.19
604.625	17887.78
604.983	17935.01
605.341	17863.37
605.698	17955.35
606.056	18050.26
606.413	18047.1
606.771	18182.46
607.128	18131.16
607.485	18075.12
607.843	18159.41
608.2	18216.36
608.557	18216.36
608.914	18252.97
609.272	18265.4
609.629	18359.86
609.986	18425.84
610.343	18387.43
610.7	18503.36
611.057	18427.88
611.414	18443.47
611.771	18489.57
612.127	18551.49
612.484	18575.22
612.841	18651.83
613.198	18502.9
613.554	18509.68
613.911	18653.63
614.267	18729.79
614.624	18734.31
614.98	18762.11
615.337	18849.33
615.693	18828.09
616.05	18859.5
616.406	18974.3
616.762	18898.15
617.118	18924.14
617.475	18878.49
617.831	18890.69
618.187	18908.99
618.543	19065.6
618.899	19148.31
619.255	19020.63
619.611	19071.93
619.967	19077.35
620.323	19146.05
620.678	19046.84
621.034	19037.58
621.39	19065.83
621.746	19005.26
622.101	19326.61
622.457	19170.68
622.812	19286.39
623.168	19241.41
623.523	19256.78
623.879	19422.2
624.234	19142.89
624.589	19312.15
624.945	19291.81
625.3	19235.77
625.655	19276.22
626.01	19248.19
626.365	19230.79
626.72	19259.27
627.075	19198.7
627.43	19256.56
627.785	19106.5
628.14	19232.83
628.495	19235.99
628.85	19207.29
629.205	19156.9
629.559	19274.63
629.914	19094.98
630.269	19204.13
630.623	19148.99
630.978	19187.18
631.332	19231.02
631.687	19261.75
632.041	19110.57
632.396	19247.29
632.75	19043.45
633.104	19119.38
633.459	19059.27
633.813	19021.31
634.167	19032.83
634.521	19030.35
634.875	19145.6
635.229	19068.54
635.583	18939.28
635.937	18944.02
636.291	18992.83
636.645	18957.81
636.999	18942.89
637.352	18881.2
637.706	18826.51
638.06	18868.09
638.413	18842.1
638.767	18881.42
639.121	18860.86
639.474	18847.75
639.828	18813.86
640.181	18742.67
640.534	18899.05
640.888	18805.27
641.241	18713.29
641.594	18692.05
641.947	18783.12
642.301	18611.15
642.654	18707.87
643.007	18753.97
643.36	18579.74
643.713	18642.79
644.066	18817.47
644.419	18587.19
644.771	18573.41
645.124	18346.3
645.477	18295.45
645.83	18230.82
646.182	18114.21
646.535	17987.21
646.888	18020.88
647.24	17904.5
647.593	18212.29
647.945	18022.46
648.298	17991.28
648.65	17943.14
649.002	17877.16
649.355	17990.6
649.707	18014.55
650.059	18101.78
650.411	18231.95
650.763	18242.57
651.115	18405.28
651.467	18465.62
651.819	18439.63
652.171	18314.43
652.523	18280.54
652.875	18317.6
653.227	18210.93
653.578	18316.92
653.93	18328.44
654.282	18210.71
654.633	18227.66
654.985	18227.88
655.337	18201.67
655.688	18189.69
656.039	18411.83
656.391	18175.23
656.742	18226.75
657.094	18204.15
657.445	18330.48
657.796	18222.91
658.147	18184.04
658.498	18166.19
658.849	18239.86
659.2	18163.7
659.551	18092.29
659.902	18239.18
660.253	18257.94
660.604	18211.16
660.955	18088.22
661.306	18250.71
661.656	18189.92
662.007	18151.27
662.358	18117.38
662.708	18079.86
663.059	18203.93
663.409	18166.41
663.76	18082.8
664.11	18192.85
664.461	18156.47
664.811	18171.16
665.161	18227.2
665.511	18090.26
665.862	18148.11
666.212	18181.1
666.562	18242.12
666.912	18158.73
667.262	18147.66
667.612	18046.87
667.962	18177.49
668.312	18128.9
668.662	18190.37
669.011	18128.9
669.361	18128.9
669.711	18131.84
670.06	18157.83
670.41	18159.41
670.76	18110.6
671.109	18204.15
671.459	18107.89
671.808	17999.41
672.157	18174.1
672.507	18055.01
672.856	17980.66
673.205	18063.59
673.554	18084.61
673.904	18050.26
674.253	18196.24
674.602	18134.55
674.951	17792.64
675.3	17714.45
675.649	18037.38
675.998	18027.89
676.346	18052.29
676.695	18017.49
677.044	17944.95
677.393	18002.58
677.741	17999.64
678.09	17923.94
678.438	17977.95
678.787	17997.15
679.135	17987.44
679.484	17930.94
679.832	17961.9
680.181	17750.61
680.529	17859.3
680.877	17901.34
681.225	17934.33
681.573	17984.27
681.922	17894.56
682.27	17779.31
682.618	17816.14
682.966	17691.85
683.314	17783.15
683.661	17721
684.009	17640.55
684.357	17553.55
684.705	17602.14
685.053	17651.17
685.4	17611.18
685.748	17524.4
686.095	17542.02
686.443	17451.63
686.79	17420.45
687.138	17474.91
687.485	17395.81
687.832	17504.29
688.18	17419.09
688.527	17264.29
688.874	17358.07
689.221	17315.14
689.568	17238.53
689.915	17262.94
690.262	17270.17
690.609	17147.01
690.956	17161.02
691.303	17137.06
691.65	17075.6
691.997	17055.48
692.344	16941.59
692.69	17026.33
693.037	16922.83
693.383	16825.43
693.73	16953.57
694.077	16820.01
694.423	16817.75
694.769	16666.57
695.116	16695.49
695.462	16702.27
695.808	16681.03
696.155	16725.55
696.501	16569.85
696.847	16525.33
697.193	16393.35
697.539	16551.77
697.885	16332.11
698.231	16383.64
698.577	16389.06
698.923	16309.06
699.269	16272.23
699.614	16151.33
699.96	16199.69
700.306	16218.9
700.651	16055.06
700.997	16067.49
701.342	16052.57
701.688	16014.38
702.033	15998.34
702.379	15933.71
702.724	15895.51
703.069	15925.34
703.415	15786.82
703.76	15764.9
704.105	15891.67
704.45	15789.75
704.795	15695.97
705.14	15585.69
705.485	15631.11
705.83	15559.25
706.175	15572.13
706.52	15491.23
706.865	15458.92
707.209	15497.11
707.554	15446.03
707.899	15482.64
708.243	15338.92
708.588	15446.26
708.932	15310.44
709.277	15226.38
709.621	15304.57
709.966	15255.76
710.31	15305.02
710.654	15132.14
710.998	15160.39
711.342	15192.03
711.687	15088.3
712.031	15067.97
712.375	15057.57
712.719	15032.03
713.063	15081.3
713.407	15011.02
713.75	14988.19
714.094	15015.99
714.438	14927.18
714.782	14978.25
715.125	14830.01
715.469	14890.79
715.812	14890.12
716.156	14719.5
716.499	14811.47
716.843	14823.23
717.186	14697.35
717.53	14777.58
717.873	14763.11
718.216	14664.36
718.559	14671.37
718.902	14585.04
719.246	14579.16
719.589	14600.18
719.932	14502.1
720.275	14533.74
720.617	14576.68
720.96	14527.64
721.303	14471.14
721.646	14507.53
721.989	14460.07
722.331	14508.66
722.674	14464.14
723.016	14437.93
723.359	14382.56
723.701	14389.11
724.044	14339.85
724.386	14261.88
724.729	14336.46
725.071	14317.02
725.413	14295.33
725.755	14341.43
726.097	14236.57
726.439	14197.71
726.782	14247.2
727.124	14222.34
727.465	14124.26
727.807	14132.85
728.149	14153.87
728.491	14199.74
728.833	14120.19
729.175	14059.4
729.516	14038.84
729.858	14044.94
730.199	14001.55
730.541	14044.49
730.882	14007.43
731.224	13993.42
731.565	14009.24
731.906	13987.09
732.248	13996.36
732.589	13925.85
732.93	13909.35
733.271	13889.47
733.612	13958.16
733.953	13879.97
734.294	13850.82
734.635	13906.41
734.976	13915.91
735.317	13835.68
735.658	13863.48
735.999	13807.21
736.339	13910.26
736.68	13855.57
737.021	13787.77
737.361	13759.98
737.702	13798.17
738.042	13674.56
738.383	13711.84
738.723	13801.33
739.063	13677.49
739.404	13712.75
739.744	13699.87
740.084	13693.99
740.424	13634.56
740.764	13582.35
741.104	13697.15
741.444	13621
741.784	13599.98
742.124	13616.25
742.464	13548.01
742.804	13504.16
743.143	13572.19
743.483	13555.24
743.823	13461.45
744.162	13515.46
744.502	13494
744.841	13462.58
745.181	13392.76
745.52	13490.61
745.86	13440.44
746.199	13414.9
746.538	13361.34
746.877	13414
747.216	13336.49
747.556	13307.11
747.895	13371.96
748.234	13387.33
748.573	13258.52
748.911	13292.42
749.25	13261.69
749.589	13213.32
749.928	13266.88
750.267	13285.64
750.605	13253.78
750.944	13207.45
751.283	13056.72
751.621	13219.88
751.96	13130.84
752.298	13059.88
752.636	13139.88
752.975	12966.78
753.313	12924.52
753.651	13029.83
753.989	12976.95
754.327	13038.64
754.666	12933.78
755.004	12862.6
755.342	12896.5
755.679	12916.16
756.017	12793.67
756.355	12801.58
756.693	12831.87
757.031	12813.79
757.368	12759.78
