Data from tablewood_dark_bookshelf_FLMS001491_00059.txt Node
Date: Wed Feb 08 14:15:05 GMT 2017
User: dcchb
Spectrometer: FLMS00149
Trigger mode: 0
Integration Time (sec): 2.000000E-2
Scans to average: 10
Electric dark correction enabled: true
Nonlinearity correction enabled: false
Boxcar width: 0
XAxis mode: Wavelengths
Number of Pixels in Spectrum: 2048
>>>>>Begin Spectral Data<<<<<
341.393	-15.85
341.776	-15.85
342.16	-15.85
342.543	-56.75
342.927	-60.59
343.31	-52.23
343.693	-72.34
344.077	-63.3
344.46	-65.56
344.843	-38.9
345.226	-32.12
345.61	-19.24
345.993	-29.63
346.376	-8.39
346.759	3.81
347.142	27.54
347.525	39.97
347.908	55.56
348.291	47.88
348.674	99.63
349.057	107.31
349.44	119.06
349.823	138.05
350.206	137.37
350.588	190.25
350.971	205.84
351.354	190.93
351.737	229.8
352.119	227.08
352.502	248.55
352.884	284.03
353.267	262.11
353.65	270.25
354.032	270.47
354.414	302.11
354.797	296.69
355.179	275.67
355.562	317.03
355.944	332.62
356.326	322
356.709	328.55
357.091	319.06
357.473	329.68
357.855	310.7
358.238	320.87
358.62	328.78
359.002	335.56
359.384	334.88
359.766	319.29
360.148	331.94
360.53	315.9
360.912	348.66
361.294	324.93
361.676	328.78
362.057	332.17
362.439	304.6
362.821	316.12
363.203	308.89
363.584	330.13
363.966	287.42
364.348	313.41
364.729	300.75
365.111	306.63
365.493	305.5
365.874	321.77
366.256	304.82
366.637	325.84
367.019	297.37
367.4	307.31
367.781	306.86
368.163	302.34
368.544	314.54
368.925	307.31
369.306	307.31
369.688	307.08
370.069	312.05
370.45	317.48
370.831	319.51
371.212	330.81
371.593	320.64
371.974	313.86
372.355	313.86
372.736	307.76
373.117	329.91
373.498	310.7
373.879	303.47
374.26	303.01
374.641	308.21
375.021	321.77
375.402	313.64
375.783	320.19
376.163	328.1
376.544	339.4
376.925	319.06
377.305	338.49
377.686	324.48
378.066	338.27
378.447	334.2
378.827	296.24
379.208	331.49
379.588	340.98
379.968	328.55
380.349	347.31
380.729	326.06
381.109	338.27
381.489	345.05
381.87	338.49
382.25	349.57
382.63	330.13
383.01	340.08
383.39	361.32
383.77	357.25
384.15	369.45
384.53	358.38
384.91	354.76
385.29	365.39
385.67	369.23
386.049	386.85
386.429	373.52
386.809	374.43
387.189	378.04
387.568	359.74
387.948	385.05
388.328	392.5
388.707	376.01
389.087	377.36
389.466	388.89
389.846	397.7
390.225	383.01
390.605	378.72
390.984	396.35
391.363	395.67
391.743	399.96
392.122	410.36
392.501	405.38
392.881	408.77
393.26	397.02
393.639	388.66
394.018	417.14
394.397	425.72
394.776	413.97
395.155	417.36
395.534	431.37
395.913	436.8
396.292	418.27
396.671	418.04
397.05	432.05
397.429	431.15
397.808	448.32
398.186	422.56
398.565	427.31
398.944	439.51
399.323	426.18
399.701	440.19
400.08	437.93
400.458	448.32
400.837	438.6
401.215	445.38
401.594	455.78
401.972	440.19
402.351	436.8
402.729	438.6
403.107	479.06
403.486	451.71
403.864	486.51
404.242	492.39
404.62	486.74
404.999	466.17
405.377	496
405.755	482.44
406.133	494.87
406.511	484.93
406.889	480.19
407.267	518.15
407.645	485.83
408.023	509.56
408.401	508.21
408.779	503.91
409.156	497.81
409.534	521.77
409.912	526.74
410.29	538.94
410.667	546.4
411.045	542.33
411.422	547.3
411.8	530.58
412.178	535.1
412.555	555.66
412.933	568.77
413.31	561.31
413.687	564.93
414.065	567.41
414.442	580.07
414.819	596.79
415.197	601.54
415.574	599.5
415.951	597.47
416.328	614.19
416.705	600.63
417.082	606.06
417.46	599.28
417.837	633.18
418.214	619.39
418.591	623.68
418.967	623.91
419.344	632.5
419.721	646.51
420.098	640.86
420.475	650.35
420.852	643.8
421.228	669.11
421.605	685.6
421.982	686.28
422.358	661.65
422.735	684.47
423.111	673.63
423.488	703.91
423.864	706.85
424.241	715.66
424.617	705.94
424.994	717.47
425.37	712.72
425.746	741.2
426.123	728.09
426.499	737.35
426.875	752.04
427.251	755.88
427.627	758.82
428.003	764.02
428.379	771.25
428.756	774.87
429.132	775.54
429.507	773.96
429.883	815.77
430.259	819.84
430.635	808.76
431.011	820.52
431.387	821.65
431.763	835.43
432.138	877.91
432.514	850.12
432.89	858.48
433.265	853.51
433.641	886.05
434.016	888.99
434.392	920.85
434.767	927.63
435.143	917.01
435.518	907.74
435.894	937.57
436.269	957.01
436.644	956.33
437.02	948.87
437.395	906.84
437.77	974.41
438.145	1005.82
438.52	999.27
438.895	993.84
439.271	999.95
439.646	1024.13
440.021	1013.73
440.395	1022.77
440.77	1019.61
441.145	1019.61
441.52	1034.97
441.895	1038.81
442.27	1025.26
442.645	1062.99
443.019	1074.29
443.394	1074.29
443.769	1090.11
444.143	1086.5
444.518	1079.49
444.892	1106.16
445.267	1106.38
445.641	1114.07
446.016	1136.67
446.39	1130.79
446.764	1144.12
447.139	1135.31
447.513	1119.94
447.887	1138.47
448.262	1183.67
448.636	1145.03
449.01	1186.83
449.384	1199.04
449.758	1165.14
450.132	1196.55
450.506	1208.75
450.88	1227.96
451.254	1241.75
451.628	1225.93
452.002	1250.11
452.376	1251.46
452.75	1267.96
453.123	1286.94
453.497	1293.5
453.871	1273.38
454.244	1330.33
454.618	1315.19
454.992	1362.87
455.365	1368.98
455.739	1383.89
456.112	1394.96
456.486	1423.66
456.859	1416.21
457.232	1423.21
457.606	1421.86
457.979	1444.23
458.352	1507.5
458.725	1493.94
459.099	1497.33
459.472	1554.73
459.845	1542.08
460.218	1570.55
460.591	1562.64
460.964	1609.87
461.337	1628.63
461.71	1635.63
462.083	1681.74
462.456	1653.26
462.829	1658.69
463.201	1704.33
463.574	1714.5
463.947	1715.18
464.32	1769.42
464.692	1784.33
465.065	1780.94
465.438	1827.04
465.81	1815.97
466.183	1869.3
466.555	1885.8
466.928	1846.93
467.3	1873.59
467.672	1956.76
468.045	1986.13
468.417	1975.96
468.789	1984.78
469.161	2046.02
469.534	2036.3
469.906	2094.61
470.278	2086.7
470.65	2149.29
471.022	2164.89
471.394	2200.59
471.766	2196.75
472.138	2231.78
472.51	2267.93
472.882	2318.78
473.253	2299.8
473.625	2355.84
473.997	2408.04
474.369	2420.02
474.74	2452.34
475.112	2455.27
475.484	2547.93
475.855	2593.35
476.227	2581.6
476.598	2659.11
476.97	2693.69
477.341	2705.66
477.713	2756.28
478.084	2784.53
478.455	2821.59
478.827	2841.48
479.198	2975.94
479.569	2972.55
479.94	3035.37
480.311	3075.15
480.682	3153.79
481.053	3205.31
481.424	3221.36
481.795	3252.09
482.166	3316.27
482.537	3407.34
482.908	3434.68
483.279	3434.68
483.65	3518.52
484.021	3590.39
484.391	3628.58
484.762	3612.98
485.133	3695.24
485.503	3731.63
485.874	3768.46
486.244	3815.92
486.615	3902.47
486.985	3978.4
487.356	4060.2
487.726	4020.21
488.097	4140.88
488.467	4141.56
488.837	4223.14
489.207	4276.92
489.578	4330.93
489.948	4393.75
490.318	4415
490.688	4440.31
491.058	4527.76
491.428	4569.8
491.798	4615.9
492.168	4692.5
492.538	4702.67
492.908	4774.99
493.278	4850.92
493.648	4822.9
494.017	4888.43
494.387	4907.87
494.757	4977.47
495.126	5011.14
495.496	5059.95
495.866	5088.43
496.235	5131.81
496.605	5186.28
496.974	5187.63
497.344	5248.2
497.713	5285.26
498.082	5351.92
498.452	5409.77
498.821	5484.12
499.19	5446.83
499.559	5486.61
499.928	5548.53
500.298	5601.86
500.667	5613.38
501.036	5615.64
501.405	5685.47
501.774	5706.49
502.143	5705.13
502.512	5794.17
502.88	5838.01
503.249	5859.93
503.618	5902.42
503.987	5979.7
504.356	6017.44
504.724	6066.03
505.093	6073.26
505.462	6086.82
505.83	6082.52
506.199	6171.33
506.567	6202.07
506.936	6248.4
507.304	6308.51
507.672	6315.29
508.041	6366.58
508.409	6429.63
508.777	6486.81
509.145	6528.39
509.514	6501.95
509.882	6569.29
510.25	6621.72
510.618	6651.32
510.986	6654.26
511.354	6749.85
511.722	6823.07
512.09	6889.06
512.458	6896.74
512.826	6884.76
513.193	7019.45
513.561	6996.17
513.929	7043.18
514.297	7125.21
514.664	7145.55
515.032	7220.57
515.4	7301.25
515.767	7326.56
516.135	7390.74
516.502	7314.13
516.869	7575.59
517.237	7519.32
517.604	7483.62
517.972	7605.42
518.339	7681.8
518.706	7705.76
519.073	7784.63
519.44	7803.83
519.808	7902.59
520.175	7872.53
520.542	8004.73
520.909	8117.05
521.276	8091.28
521.643	8166.54
522.009	8208.34
522.376	8235.24
522.743	8330.37
523.11	8447.43
523.477	8486.3
523.843	8483.14
524.21	8602.91
524.577	8750.7
524.943	8711.61
525.31	8738.5
525.676	8916.35
526.043	8888.78
526.409	8944.6
526.776	9039.96
527.142	9129
527.508	9132.84
527.874	9209.9
528.241	9273.63
528.607	9304.81
528.973	9456.22
529.339	9344.81
529.705	9479.04
530.071	9584.35
530.437	9515.88
530.803	9655.09
531.169	9761.07
531.535	9724.24
531.901	9845.14
532.267	9756.55
532.632	9957.68
532.998	9897.79
533.364	10005.58
533.73	10032.48
534.095	10101.4
534.461	10186.37
534.826	10211.45
535.192	10311.34
535.557	10305.92
535.923	10310.21
536.288	10342.75
536.653	10383.2
537.019	10399.7
537.384	10490.32
537.749	10495.74
538.114	10483.54
538.479	10606.47
538.845	10632.69
539.21	10693.93
539.575	10654.15
539.94	10721.72
540.305	10846.69
540.67	10799.46
541.034	10806.24
541.399	10897.76
541.764	10948.61
542.129	11000.13
542.494	11066.8
542.858	11117.87
543.223	11048.04
543.587	11143.41
543.952	11187.25
544.316	11164.65
544.681	11250.3
545.045	11225.44
545.41	11347.7
545.774	11384.08
546.138	11343.18
546.503	11463.17
546.867	11451.87
547.231	11539.33
547.595	11536.17
547.959	11650.74
548.324	11585.66
548.688	11646.9
549.052	11731.64
549.416	11820.23
549.779	11785.42
550.143	11793.11
550.507	11856.84
550.871	11873.78
551.235	11911.52
551.599	12061.8
551.962	12078.98
552.326	12128.92
552.689	12224.51
553.053	12127.79
553.417	12238.29
553.78	12381.57
554.143	12274.68
554.507	12396.71
554.87	12402.81
555.234	12575.91
555.597	12489.36
555.96	12575.01
556.323	12662.92
556.686	12654.55
557.05	12827.66
557.413	12816.36
557.776	12882.12
558.139	12902.68
558.502	12935.68
558.865	12976.13
559.228	13100.64
559.59	13143.81
559.953	13219.96
560.316	13308.1
560.679	13296.8
561.041	13441.43
561.404	13480.75
561.767	13650.46
562.129	13608.2
562.492	13731.36
562.854	13756.45
563.217	13713.28
563.579	13873.51
563.941	13906.95
564.304	14050.9
564.666	14086.16
565.028	13995.54
565.39	14172.48
565.753	14280.5
566.115	14298.8
566.477	14444.34
566.839	14465.58
567.201	14528.4
567.563	14621.28
567.925	14642.98
568.287	14666.7
568.648	14814.27
569.01	14766.14
569.372	14967.71
569.734	14968.39
570.095	15041.38
570.457	15157.31
570.819	15294.71
571.18	15187.14
571.542	15344.88
571.903	15364.09
572.265	15441.37
572.626	15508.04
572.987	15559.34
573.349	15555.72
573.71	15680.92
574.071	15671.42
574.432	15696.06
574.794	16000.68
575.155	15996.39
575.516	15988.93
575.877	16090.17
576.238	16128.81
576.599	16171.3
576.96	16231.18
577.32	16182.15
577.681	16364.29
578.042	16414
578.403	16438.64
578.763	16464.62
579.124	16614.9
579.485	16588.46
579.845	16644.28
580.206	16751.85
580.566	16722.24
580.927	16841.56
581.287	16757.95
581.648	16887.89
582.008	16921.11
582.368	16935.8
582.728	16998.62
583.089	17006.98
583.449	16997.49
583.809	17091.95
584.169	17082.46
584.529	17154.55
584.889	17287.2
585.249	17180.54
585.609	17166.07
585.969	17364.26
586.329	17319.06
586.688	17374.88
587.048	17407.2
587.408	17363.81
587.768	17337.59
588.127	17444.03
588.487	17457.14
588.846	17564.93
589.206	17511.6
589.565	17567.65
589.925	17696.68
590.284	17636.34
590.643	17658.26
591.003	17771.71
591.362	17783.68
591.721	17773.29
592.08	17876.56
592.44	17805.38
592.799	17903.23
593.158	17872.04
593.517	17932.38
593.876	17992.94
594.235	17981.19
594.593	17941.19
594.952	18095.77
595.311	17977.8
595.67	18099.16
596.029	18280.85
596.387	18233.84
596.746	18280.17
597.104	18122.66
597.463	18180.51
597.822	18326.04
598.18	18230.9
598.538	18272.71
598.897	18403.1
599.255	18206.5
599.613	18581.4
599.972	18474.97
600.33	18615.98
600.688	18507.73
601.046	18638.13
601.404	18592.03
601.762	18745.92
602.12	18724.68
602.478	18805.58
602.836	18845.35
603.194	18706.6
603.552	18773.04
603.91	18777.56
604.268	18837.67
604.625	18745.47
604.983	18999.25
605.341	18835.18
605.698	18930.77
606.056	18993.14
606.413	18982.98
606.771	19067.27
607.128	19150.65
607.485	18939.59
607.843	19127.6
608.2	19187.72
608.557	19269.97
608.914	19235.62
609.272	19271.78
609.629	19282.18
609.986	19446.92
610.343	19295.06
610.7	19509.52
611.057	19473.36
611.414	19449.86
611.771	19468.84
612.127	19594.48
612.484	19498.67
612.841	19569.4
613.198	19568.95
613.554	19680.36
613.911	19701.83
614.267	19707.48
614.624	19708.83
614.98	19686.91
615.337	19866.12
615.693	19864.53
616.05	19825.89
616.406	19900.92
616.762	19752.67
617.118	19810.07
617.475	19871.99
617.831	20001.03
618.187	19913.35
618.543	19922.16
618.899	20082.83
619.255	19959.9
619.611	19928.94
619.967	20116.5
620.323	19999.45
620.678	20100.46
621.034	20052.55
621.39	20102.49
621.746	20008.03
622.101	20341.36
622.457	20119.67
622.812	20123.74
623.168	20210.06
623.523	20202.15
623.879	20285.77
624.234	20155.37
624.589	20224.75
624.945	20303.17
625.3	20263.39
625.655	20251.87
626.01	20206.67
626.365	20231.76
626.72	20186.11
627.075	20159.44
627.43	20194.24
627.785	20182.72
628.14	20109.5
628.495	20177.75
628.85	20122.61
629.205	20222.26
629.559	20145.2
629.914	20157.18
630.269	20209.61
630.623	20177.07
630.978	20075.6
631.332	20202.6
631.687	20217.97
632.041	20130.52
632.396	20156.28
632.75	20051.65
633.104	20055.94
633.459	19998.54
633.813	19996.96
634.167	19991.31
634.521	19956.28
634.875	19996.96
635.229	20051.87
635.583	19969.84
635.937	19973.46
636.291	19888.94
636.645	19909.05
636.999	19839.68
637.352	19796.51
637.706	19783.18
638.06	19846.23
638.413	19758.32
638.767	19808.49
639.121	19726.23
639.474	19665.67
639.828	19694.6
640.181	19733.46
640.534	19718.78
640.888	19666.8
641.241	19607.14
641.594	19522.62
641.947	19691.66
642.301	19585.67
642.654	19663.18
643.007	19598.1
643.36	19647.36
643.713	19487.37
644.066	19621.38
644.419	19508.84
644.771	19423.64
645.124	19185.68
645.477	19240.37
645.83	19009.87
646.182	18944.78
646.535	18879.93
646.888	18937.55
647.24	18771.91
647.593	18879.02
647.945	18816.2
648.298	18828.63
648.65	18851.68
649.002	18675.86
649.355	18861.4
649.707	18693.72
650.059	18982.3
650.411	19135.29
650.763	19214.38
651.115	19268.84
651.467	19255.06
651.819	19220.94
652.171	19145.46
652.523	19179.13
652.875	19094.16
653.227	19159.24
653.578	19192.46
653.93	19115.4
654.282	19070.43
654.633	19050.77
654.985	19003.99
655.337	19076.98
655.688	19083.54
656.039	19123.31
656.391	19056.87
656.742	19170.32
657.094	19143.65
657.445	19160.37
657.796	19051.67
658.147	19068.4
658.498	18988.85
658.849	19025.01
659.2	19101.39
659.551	18980.49
659.902	19053.93
660.253	19022.3
660.604	19047.83
660.955	18993.14
661.306	19117.44
661.656	19029.53
662.007	19034.27
662.358	19068.62
662.708	18954.73
663.059	19025.23
663.409	18928.97
663.76	19084.22
664.11	19019.36
664.461	19059.36
664.811	19006.03
665.161	19038.12
665.511	18910.89
665.862	19093.03
666.212	19116.53
666.562	19066.59
666.912	18923.32
667.262	18994.05
667.612	19068.4
667.962	19013.26
668.312	18983.88
668.662	19087.61
669.011	19029.3
669.361	18962.86
669.711	19029.08
670.06	18971.22
670.41	19001.73
670.76	19004.22
671.109	19019.13
671.459	18958.8
671.808	18985.69
672.157	18958.34
672.507	18872.24
672.856	18894.62
673.205	18955.18
673.554	18858.46
673.904	18872.92
674.253	19047.83
674.602	18883.77
674.951	18617.79
675.3	18521.52
675.649	18766.94
675.998	18835.86
676.346	18864.33
676.695	18944.33
677.044	18692.59
677.393	18822.3
677.741	18950.21
678.09	18876.31
678.438	18831.57
678.787	18788.63
679.135	18712.25
679.484	18695.98
679.832	18814.17
680.181	18613.49
680.529	18698.92
680.877	18679.71
681.225	18604.45
681.573	18714.51
681.922	18597.45
682.27	18529.2
682.618	18563.78
682.966	18608.07
683.314	18574.17
683.661	18506.38
684.009	18475.19
684.357	18443.55
684.705	18380.05
685.053	18380.05
685.4	18423.89
685.748	18295.76
686.095	18279.49
686.443	18307.06
686.79	18191.13
687.138	18300.96
687.485	18183.22
687.832	18108.2
688.18	18138.48
688.527	18016.9
688.874	18050.12
689.221	18034.98
689.568	18002.66
689.915	17911.59
690.262	17969.44
690.609	17916.11
690.956	17792.27
691.303	17852.16
691.65	17736.45
691.997	17692.61
692.344	17631.82
692.69	17607.42
693.037	17579.85
693.383	17439.74
693.73	17565.39
694.077	17450.59
694.423	17333.08
694.769	17388.22
695.116	17399.74
695.462	17321.32
695.808	17286.52
696.155	17172.85
696.501	17162.68
696.847	17168.79
697.193	16977.83
697.539	17196.13
697.885	17033.65
698.231	17009.47
698.577	16955.46
698.923	16924.05
699.269	16829.59
699.614	16752.3
699.96	16784.84
700.306	16743.71
700.651	16631.62
700.997	16586.2
701.342	16504.4
701.688	16490.39
702.033	16489.03
702.379	16560.44
702.724	16485.64
703.069	16542.81
703.415	16317.73
703.76	16340.33
704.105	16367.9
704.45	16315.7
704.795	16193.67
705.14	16115.25
705.485	16150.96
705.83	16054.24
706.175	16139.89
706.52	16047.23
706.865	15996.84
707.209	15948.7
707.554	15871.64
707.899	15966.11
708.243	15913.68
708.588	15797.3
708.932	15685.21
709.277	15713.23
709.621	15773.57
709.966	15581.03
710.31	15646.79
710.654	15527.7
710.998	15605.89
711.342	15552.78
711.687	15510.07
712.031	15458.77
712.375	15408.61
712.719	15458.1
713.063	15454.71
713.407	15475.05
713.75	15349.85
714.094	15343.52
714.438	15296.74
714.782	15360.47
715.125	15233.24
715.469	15222.62
715.812	15209.74
716.156	15240.93
716.499	15087.71
716.843	15094.04
717.186	15025.79
717.53	15070.99
717.873	15135.39
718.216	15136.75
718.559	14988.05
718.902	14910.31
719.246	14910.31
719.589	15005.45
719.932	14873.25
720.275	14920.26
720.617	14825.8
720.96	14877.77
721.303	14888.85
721.646	14814.05
721.989	14878.9
722.331	14905.57
722.674	14851.11
723.016	14880.03
723.359	14728.4
723.701	14830.77
724.044	14806.14
724.386	14708.29
724.729	14779.24
725.071	14655.41
725.413	14654.73
725.755	14699.92
726.097	14654.28
726.439	14613.82
726.782	14548.29
727.124	14690.88
727.465	14565.01
727.807	14575.86
728.149	14456.77
728.491	14549.65
728.833	14555.75
729.175	14528.86
729.516	14494.73
729.858	14448.41
730.199	14429.87
730.541	14416.09
730.882	14418.58
731.224	14471.91
731.565	14436.88
731.906	14391.23
732.248	14414.96
732.589	14271.01
732.93	14290.44
733.271	14339.71
733.612	14371.35
733.953	14195.53
734.294	14217.68
734.635	14256.32
734.976	14315.53
735.317	14221.97
735.658	14239.6
735.999	14273.04
736.339	14265.59
736.68	14250.67
737.021	14220.39
737.361	14158.47
737.702	14389.65
738.042	14286.6
738.383	14157.34
738.723	14268.07
739.063	14162.76
739.404	14182.88
739.744	14229.2
740.084	14232.82
740.424	14164.57
740.764	14121.41
741.104	14140.16
741.444	14185.81
741.784	14049.77
742.124	14095.19
742.464	13975.88
742.804	14048.64
743.143	14017.23
743.483	13941.3
743.823	14002.09
744.162	13955.54
744.502	14083.44
744.841	13892.94
745.181	13949.21
745.52	13978.59
745.86	13996.67
746.199	14005.48
746.538	14004.58
746.877	14043.22
747.216	13984.69
747.556	13965.71
747.895	13904.46
748.234	13879.15
748.573	13908.31
748.911	13873.96
749.25	13947.4
749.589	13799.16
749.928	13908.08
750.267	13894.52
750.605	13856.1
750.944	13880.06
751.283	13842.77
751.621	13857.46
751.96	13808.65
752.298	13767.52
752.636	13762.32
752.975	13705.37
753.313	13669.89
753.651	13828.99
753.989	13680.74
754.327	13661.99
754.666	13467.64
755.004	13667.86
755.342	13618.14
755.679	13616.56
756.017	13569.78
756.355	13588.99
756.693	13494.76
757.031	13419.51
