Data from tablewood_dark_bookshelf_FLMS001491_00095.txt Node
Date: Wed Feb 08 14:16:01 GMT 2017
User: dcchb
Spectrometer: FLMS00149
Trigger mode: 0
Integration Time (sec): 2.000000E-2
Scans to average: 10
Electric dark correction enabled: true
Nonlinearity correction enabled: false
Boxcar width: 0
XAxis mode: Wavelengths
Number of Pixels in Spectrum: 2048
>>>>>Begin Spectral Data<<<<<
341.393	-12.77
341.776	-12.77
342.16	-12.77
342.543	-64.74
342.927	-65.65
343.31	-75.37
343.693	-82.6
344.077	-58.42
344.46	-56.61
344.843	-42.37
345.226	-54.8
345.61	-27.68
345.993	-2.15
346.376	-3.73
346.759	2.37
347.142	24.07
347.525	48.25
347.908	53.67
348.291	88.7
348.674	103.39
349.057	83.27
349.44	127.57
349.823	140.22
350.206	155.14
350.588	195.36
350.971	191.52
351.354	222.71
351.737	243.04
352.119	250.5
352.502	267.45
352.884	283.04
353.267	291.86
353.65	279.65
354.032	295.02
354.414	297.73
354.797	304.96
355.179	320.1
355.562	309.03
355.944	308.58
356.326	315.13
356.709	314
357.091	326.21
357.473	333.21
357.855	329.37
358.238	337.28
358.62	333.44
359.002	333.44
359.384	347.67
359.766	349.48
360.148	325.08
360.53	359.88
360.912	332.53
361.294	337.28
361.676	330.5
362.057	330.73
362.439	332.76
362.821	309.48
363.203	337.51
363.584	314.68
363.966	306.77
364.348	329.82
364.729	320.33
365.111	304.06
365.493	316.26
365.874	309.03
366.256	326.66
366.637	323.72
367.019	325.08
367.4	304.96
367.781	316.71
368.163	317.84
368.544	303.83
368.925	329.82
369.306	309.26
369.688	313.1
370.069	309.94
370.45	331.18
370.831	317.62
371.212	311.97
371.593	316.26
371.974	307.22
372.355	316.26
372.736	315.81
373.117	318.3
373.498	318.52
373.879	314.91
374.26	318.97
374.641	293.66
375.021	309.71
375.402	329.14
375.783	320.78
376.163	325.53
376.544	337.51
376.925	336.83
377.305	327.11
377.686	337.05
378.066	321.01
378.447	339.77
378.827	339.99
379.208	338.86
379.588	347.67
379.968	343.38
380.349	349.26
380.729	369.82
381.109	337.96
381.489	352.19
381.87	354.23
382.25	345.19
382.63	355.81
383.01	341.57
383.39	353.1
383.77	347.22
384.15	340.22
384.53	365.08
384.91	342.25
385.29	352.19
385.67	356.26
386.049	365.53
386.429	386.77
386.809	349.26
387.189	380.67
387.568	360.33
387.948	365.3
388.328	388.8
388.707	387.67
389.087	370.95
389.466	390.84
389.846	395.13
390.225	380.67
390.605	387.22
390.984	389.03
391.363	394.45
391.743	390.61
392.122	398.07
392.501	406.66
392.881	408.69
393.26	399.42
393.639	406.43
394.018	396.03
394.397	403.72
394.776	426.32
395.155	416.83
395.534	429.03
395.913	425.41
396.292	412.31
396.671	429.71
397.05	439.88
397.429	419.99
397.808	420.44
398.186	427.22
398.565	435.81
398.944	439.65
399.323	445.75
399.701	435.81
400.08	440.78
400.458	430.61
400.837	444.62
401.215	442.81
401.594	445.07
401.972	457.5
402.351	447.78
402.729	482.36
403.107	460.89
403.486	438.29
403.864	435.13
404.242	478.07
404.62	472.64
404.999	474.68
405.377	460.44
405.755	466.77
406.133	475.13
406.511	499.76
406.889	470.38
407.267	511.29
407.645	511.96
408.023	484.39
408.401	501.79
408.779	528.46
409.156	534.79
409.534	506.31
409.912	512.42
410.29	514.9
410.667	539.08
411.045	531.62
411.422	532.08
411.8	537.27
412.178	563.26
412.555	558.06
412.933	546.77
413.31	592.19
413.687	573.88
414.065	553.54
414.442	582.92
414.819	562.13
415.197	569.36
415.574	568.46
415.951	590.61
416.328	601.45
416.705	580.21
417.082	584.96
417.46	585.86
417.837	635.8
418.214	589.48
418.591	601
418.967	622.92
419.344	623.37
419.721	630.83
420.098	636.71
420.475	649.36
420.852	647.33
421.228	652.07
421.605	654.33
421.982	641.68
422.358	671.06
422.735	649.59
423.111	695.91
423.488	659.3
423.864	676.03
424.241	682.35
424.617	701.79
424.994	699.98
425.37	709.25
425.746	699.76
426.123	707.67
426.499	709.02
426.875	733.2
427.251	725.52
427.627	739.3
428.003	749.7
428.379	767.55
428.756	775.69
429.132	767.55
429.507	773.2
429.883	789.02
430.259	788.79
430.635	799.87
431.011	812.3
431.387	803.93
431.763	840.99
432.138	852.07
432.514	819.3
432.89	861.33
433.265	860.43
433.641	854.78
434.016	887.32
434.392	889.81
434.767	909.92
435.143	901.11
435.518	930.26
435.894	943.59
436.269	915.8
436.644	942.24
437.02	934.78
437.395	944.72
437.77	942.91
438.145	951.05
438.52	972.97
438.895	969.81
439.271	987.21
439.646	1006.19
440.021	1008.22
440.395	1014.1
440.77	975.68
441.145	1030.82
441.52	1040.54
441.895	1036.02
442.27	1045.96
442.645	1038.96
443.019	1042.57
443.394	1068.11
443.769	1071.27
444.143	1053.19
444.518	1078.05
444.892	1078.5
445.267	1059.07
445.641	1109.01
446.016	1093.87
446.39	1086.86
446.764	1118.28
447.139	1106.98
447.513	1122.57
447.887	1112.85
448.262	1130.7
448.636	1136.81
449.01	1143.59
449.384	1156.92
449.758	1169.8
450.132	1171.16
450.506	1182.45
450.88	1173.42
451.254	1198.27
451.628	1191.72
452.002	1207.76
452.376	1234.43
452.75	1235.56
453.123	1269.01
453.497	1287.08
453.871	1274.2
454.244	1284.82
454.618	1278.27
454.992	1315.78
455.365	1335.45
455.739	1346.74
456.112	1350.36
456.486	1359.63
456.859	1366.4
457.232	1386.52
457.606	1409.57
457.979	1399.17
458.352	1450.24
458.725	1445.05
459.099	1443.92
459.472	1455.67
459.845	1515.55
460.218	1513.97
460.591	1518.94
460.964	1524.37
461.337	1567.98
461.71	1607.3
462.083	1598.26
462.456	1590.35
462.829	1604.14
463.201	1626.96
463.574	1628.77
463.947	1693.18
464.32	1710.35
464.692	1737.47
465.065	1680.07
465.438	1733.63
465.81	1766.39
466.183	1751.48
466.555	1836.22
466.928	1836.9
467.3	1854.3
467.672	1865.15
468.045	1851.14
468.417	1893.62
468.789	1925.71
469.161	1927.75
469.534	1958.93
469.906	2032.6
470.278	2011.81
470.65	2046.16
471.022	2086.16
471.394	2096.78
471.766	2115.54
472.138	2167.51
472.51	2204.35
472.882	2240.05
473.253	2276.89
473.625	2264.01
473.997	2295.87
474.369	2318.02
474.74	2327.96
475.112	2404.34
475.484	2455.19
475.855	2485.7
476.227	2461.97
476.598	2535.41
476.97	2550.78
477.341	2631.91
477.713	2653.15
478.084	2678.01
478.455	2745.58
478.827	2734.28
479.198	2827.61
479.569	2869.42
479.94	2917.1
480.311	2958
480.682	2985.57
481.053	3032.8
481.424	3097.66
481.795	3113.03
482.166	3151.67
482.537	3201.61
482.908	3318.44
483.279	3346.69
483.65	3361.83
484.021	3452
484.391	3458.1
484.762	3515.5
485.133	3487.25
485.503	3588.49
485.874	3629.85
486.244	3671.43
486.615	3737.42
486.985	3779.45
487.356	3852.44
487.726	3862.38
488.097	3946.22
488.467	3968.37
488.837	4051.31
489.207	4077.07
489.578	4160.23
489.948	4168.36
490.318	4215.82
490.688	4216.27
491.058	4287.01
491.428	4372.88
491.798	4461.92
492.168	4454.23
492.538	4520.22
492.908	4548.47
493.278	4618.07
493.648	4639.99
494.017	4677.28
494.387	4729.48
494.757	4783.26
495.126	4782.13
495.496	4793.21
495.866	4900.78
496.235	4958.4
496.605	4995.69
496.974	4992.3
497.344	5063.48
497.713	5113.2
498.082	5075.46
498.452	5240.43
498.821	5206.53
499.19	5208.11
499.559	5217.15
499.928	5331.05
500.298	5287.43
500.667	5394.55
501.036	5356.81
501.405	5474.77
501.774	5451.04
502.143	5554.09
502.512	5529.46
502.88	5541.89
503.249	5639.51
503.618	5631.83
503.987	5681.09
504.356	5696.01
504.724	5745.72
505.093	5792.96
505.462	5828.66
505.83	5853.29
506.199	5903.46
506.567	5976.9
506.936	5944.82
507.304	6049.22
507.672	6090.8
508.041	6093.51
508.409	6143.68
508.777	6210.12
509.145	6255.99
509.514	6225.49
509.882	6308.87
510.25	6351.13
510.618	6387.52
510.986	6384.35
511.354	6463.9
511.722	6498.93
512.09	6608.98
512.458	6539.83
512.826	6584.12
513.193	6665.25
513.561	6669.32
513.929	6768.07
514.297	6928.74
514.664	6838.58
515.032	6938.69
515.4	6959.93
515.767	7011.23
516.135	7012.58
516.502	7048.74
516.869	7222.75
517.237	7226.14
517.604	7205.57
517.972	7221.17
518.339	7336.87
518.706	7350.88
519.073	7455.06
519.44	7479.24
519.808	7565.11
520.175	7543.19
520.542	7655.28
520.909	7736.41
521.276	7749.51
521.643	7782.06
522.009	7817.53
522.376	7874.03
522.743	7958.77
523.11	7991.77
523.477	8124.87
523.843	8152.89
524.21	8233.12
524.577	8230.86
524.943	8293.91
525.31	8353.79
525.676	8441.25
526.043	8553.56
526.409	8534.35
526.776	8664.74
527.142	8728.02
527.508	8707.45
527.874	8802.37
528.241	8826.32
528.607	8902.48
528.973	8979.54
529.339	9030.84
529.705	9090.95
530.071	9168.69
530.437	9182.7
530.803	9263.82
531.169	9316.93
531.535	9346.99
531.901	9342.24
532.267	9463.14
532.632	9473.76
532.998	9516.02
533.364	9553.99
533.73	9530.26
534.095	9701.1
534.461	9702.46
534.826	9714.21
535.192	9797.14
535.557	9879.4
535.923	9917.59
536.288	9904.94
536.653	9958.27
537.019	9989.23
537.384	10041.43
537.749	10050.7
538.114	10181.54
538.479	10094.54
538.845	10200.07
539.21	10121.65
539.575	10205.49
539.94	10251.59
540.305	10319.39
540.67	10264.25
541.034	10407.52
541.399	10448.88
541.764	10433.96
542.129	10504.7
542.494	10519.61
542.858	10546.05
543.223	10524.58
543.587	10700.4
543.952	10676.22
544.316	10753.73
544.681	10761.41
545.045	10778.59
545.41	10849.77
545.774	10882.99
546.138	10916.44
546.503	10972.48
546.867	10987.39
547.231	10994.63
547.595	11101.74
547.959	11125.02
548.324	11175.41
548.688	11209.08
549.052	11278.23
549.416	11342.19
549.779	11311.45
550.143	11320.72
550.507	11451.56
550.871	11420.6
551.235	11427.38
551.599	11489.3
551.962	11553.48
552.326	11609.07
552.689	11722.06
553.053	11671.22
553.417	11719.58
553.78	11868.05
554.143	11741.5
554.507	11942.4
554.87	11949.86
555.234	12056.97
555.597	12022.62
555.96	12054.03
556.323	12172.67
556.686	12180.13
557.05	12266.68
557.413	12358.43
557.776	12285.89
558.139	12445.66
558.502	12497.19
558.865	12507.81
559.228	12674.81
559.59	12594.58
559.953	12647.24
560.316	12785.09
560.679	12820.34
561.041	12845.42
561.404	12948.93
561.767	13058.98
562.129	13035.25
562.492	13154.8
562.854	13126.77
563.217	13186.43
563.579	13242.7
563.941	13337.16
564.304	13450.83
564.666	13498.97
565.028	13592.98
565.39	13586.87
565.753	13686.31
566.115	13733.76
566.477	13799.75
566.839	13827.77
567.201	14008.11
567.563	14027.31
567.925	14090.59
568.287	14143.24
568.648	14109.57
569.01	14268.66
569.372	14407.87
569.734	14356.12
570.095	14476.34
570.457	14569.67
570.819	14653.06
571.18	14531.26
571.542	14742.78
571.903	14802.44
572.265	14930.57
572.626	14915.65
572.987	14928.76
573.349	15055.31
573.71	15110.68
574.071	15146.38
574.432	15172.82
574.794	15415.07
575.155	15430.89
575.516	15371.01
575.877	15322.65
576.238	15495.98
576.599	15572.81
576.96	15624.79
577.32	15619.59
577.681	15723.54
578.042	15699.59
578.403	15771.68
578.763	15890.54
579.124	15883.99
579.485	15983.65
579.845	16029.52
580.206	16002.86
580.566	16053.48
580.927	16130.31
581.287	16195.62
581.648	16176.86
582.008	16297.99
582.368	16273.81
582.728	16307.93
583.089	16336.41
583.449	16389.29
583.809	16422.28
584.169	16361.94
584.529	16519.9
584.889	16653.23
585.249	16572.33
585.609	16605.78
585.969	16689.39
586.329	16637.87
586.688	16693.01
587.048	16721.71
587.408	16738.88
587.768	16746.79
588.127	16816.62
588.487	16871.99
588.846	16988.82
589.206	16914.92
589.565	16945.88
589.925	17029.95
590.284	16984.3
590.643	17126.22
591.003	17173.22
591.362	17208.25
591.721	17199.43
592.08	17147.68
592.44	17232.88
592.799	17332.76
593.158	17310.84
593.517	17343.61
593.876	17318.3
594.235	17381.58
594.593	17429.49
594.952	17533.21
595.311	17395.36
595.67	17484.17
596.029	17554.68
596.387	17617.73
596.746	17660.21
597.104	17671.51
597.463	17694.56
597.822	17713.32
598.18	17680.1
598.538	17669.48
598.897	17790.15
599.255	17726.2
599.613	17895.91
599.972	17866.76
600.33	17949.92
600.688	17811.85
601.046	17955.57
601.404	18038.73
601.762	18059.98
602.12	18064.27
602.478	18092.97
602.836	18162.8
603.194	18065.63
603.552	18207.32
603.91	18094.1
604.268	18174.32
604.625	18163.25
604.983	18222.01
605.341	18118.28
605.698	18344.94
606.056	18428.78
606.413	18290.25
606.771	18367.31
607.128	18461.77
607.485	18364.6
607.843	18495.45
608.2	18502.9
608.557	18525.05
608.914	18492.73
609.272	18620.19
609.629	18655.22
609.986	18742.22
610.343	18650.7
610.7	18691.15
611.057	18753.29
611.414	18745.61
611.771	18748.32
612.127	18897.24
612.484	18758.94
612.841	18859.96
613.198	18887.53
613.554	18872.61
613.911	19029.67
614.267	19002.55
614.624	19015.66
614.98	18990.57
615.337	19249.78
615.693	19100.18
616.05	19106.28
616.406	19294.75
616.762	19062.44
617.118	19089.33
617.475	19190.79
617.831	19149.67
618.187	19287.74
618.543	19277.35
618.899	19416.55
619.255	19347.17
619.611	19269.21
619.967	19517.79
620.323	19420.62
620.678	19376.1
621.034	19384.46
621.39	19492.48
621.746	19401.64
622.101	19525.48
622.457	19403.9
622.812	19563.44
623.168	19554.63
623.523	19574.51
623.879	19612.48
624.234	19434.18
624.589	19478.47
624.945	19438.7
625.3	19510.79
625.655	19415.42
626.01	19616.55
626.365	19638.47
626.72	19572.93
627.075	19592.37
627.43	19580.84
627.785	19588.98
628.14	19626.72
628.495	19567.51
628.85	19572.25
629.205	19508.53
629.559	19536.32
629.914	19506.27
630.269	19472.37
630.623	19538.36
630.978	19393.05
631.332	19521.41
631.687	19483.89
632.041	19539.94
632.396	19464.91
632.75	19418.81
633.104	19426.95
633.459	19376.78
633.813	19364.12
634.167	19374.52
634.521	19311.7
634.875	19345.14
635.229	19425.14
635.583	19357.8
635.937	19377
636.291	19322.99
636.645	19301.98
636.999	19201.87
637.352	19196.22
637.706	19160.97
638.06	19265.37
638.413	19143.11
638.767	19168.42
639.121	19172.49
639.474	19086.16
639.828	19081.87
640.181	19066.5
640.534	19067.86
640.888	19115.32
641.241	18942.21
641.594	19019.95
641.947	18972.95
642.301	18934.08
642.654	18911.48
643.007	18917.36
643.36	18986.51
643.713	18880.07
644.066	19057.01
644.419	18885.04
644.771	18840.75
645.124	18677.59
645.477	18596.91
645.83	18460.64
646.182	18432.62
646.535	18366.64
646.888	18439.4
647.24	18302.68
647.593	18261.33
647.945	18265.4
648.298	18241.44
648.65	18153.99
649.002	18060.43
649.355	18229.46
649.707	18197.83
650.059	18253.42
650.411	18514.65
650.763	18597.36
651.115	18715.78
651.467	18725.5
651.819	18623.13
652.171	18652.28
652.523	18598.72
652.875	18568.21
653.227	18496.35
653.578	18601.43
653.93	18657.93
654.282	18540.19
654.633	18478.05
654.985	18512.17
655.337	18528.21
655.688	18501.55
656.039	18644.59
656.391	18355.79
656.742	18445.73
657.094	18463.81
657.445	18571.15
657.796	18553.07
658.147	18452.74
658.498	18556.69
658.849	18538.61
659.2	18523.47
659.551	18375.9
659.902	18501.32
660.253	18480.53
660.604	18466.97
660.955	18422
661.306	18481.66
661.656	18475.56
662.007	18394.88
662.358	18480.76
662.708	18430.36
663.059	18475.11
663.409	18355.11
663.76	18450.93
664.11	18555.11
664.461	18426.3
664.811	18435.56
665.161	18510.81
665.511	18468.78
665.862	18474.2
666.212	18596.01
666.562	18559.4
666.912	18443.47
667.262	18421.55
667.612	18409.12
667.962	18554.88
668.312	18365.73
668.662	18481.89
669.011	18353.08
669.361	18469.01
669.711	18404.83
670.06	18410.25
670.41	18381.78
670.76	18247.77
671.109	18459.51
671.459	18396.47
671.808	18444.6
672.157	18443.02
672.507	18355.56
672.856	18389.46
673.205	18443.7
673.554	18310.14
673.904	18383.36
674.253	18538.38
674.602	18364.6
674.951	18017.49
675.3	18087.77
675.649	18261.78
675.998	18227.88
676.346	18291.84
676.695	18369.35
677.044	18188.56
677.393	18268.11
677.741	18350.36
678.09	18299.97
678.438	18225.62
678.787	18177.49
679.135	18306.07
679.484	18176.36
679.832	18204.38
680.181	18097.26
680.529	18197.37
680.877	18178.62
681.225	18065.17
681.573	18213.87
681.922	18100.88
682.27	18112.63
682.618	18015.91
682.966	18009.36
683.314	18011.84
683.661	18007.32
684.009	17925.97
684.357	17910.38
684.705	17879.64
685.053	17935.91
685.4	17826.76
685.748	17652.53
686.095	17788.8
686.443	17744.73
686.79	17660.21
687.138	17768.46
687.485	17755.58
687.832	17663.6
688.18	17716.71
688.527	17535.25
688.874	17552.87
689.221	17480.78
689.568	17526.66
689.915	17447.11
690.262	17499.54
690.609	17398.07
690.956	17438.07
691.303	17358.98
691.65	17278.3
691.997	17279.66
692.344	17168.48
692.69	17190.85
693.037	17155.14
693.383	16983.17
693.73	17051.42
694.077	16957.41
694.423	16900.69
694.769	16935.49
695.116	16916.05
695.462	16784.3
695.808	16788.82
696.155	16835.38
696.501	16720.8
696.847	16765.55
697.193	16500.24
697.539	16590.64
697.885	16585.89
698.231	16560.58
698.577	16514.26
698.923	16469.96
699.269	16412.11
699.614	16383.41
699.96	16260.02
700.306	16356.75
700.651	16230.65
700.997	16136.86
701.342	16066.13
701.688	16087.37
702.033	16069.75
702.379	16096.41
702.724	15966.7
703.069	16057.54
703.415	15851.9
703.76	15880.37
704.105	15884.44
704.45	15885.35
704.795	15721.28
705.14	15696.2
705.485	15775.97
705.83	15701.85
706.175	15637.89
706.52	15651.68
706.865	15646.71
707.209	15534.62
707.554	15501.63
707.899	15526.94
708.243	15500.95
708.588	15418.46
708.932	15339.14
709.277	15366.71
709.621	15407.62
709.966	15216.21
710.31	15302.99
710.654	15140.28
710.998	15143.44
711.342	15161.07
711.687	15113.16
712.031	15060.28
712.375	14993.39
712.719	15030.23
713.063	14956.33
713.407	15018.7
713.75	14922.43
714.094	15002.88
714.438	14921.53
714.782	14909.1
715.125	14909.33
715.469	14924.24
715.812	14797.92
716.156	14678.37
716.499	14759.95
716.843	14762.44
717.186	14677.47
717.53	14733.96
717.873	14781.42
718.216	14729.22
718.559	14625.04
718.902	14592.95
719.246	14499.39
719.589	14482.22
719.932	14525.15
720.275	14465.72
720.617	14597.92
720.96	14433.86
721.303	14510.47
721.646	14457.81
721.989	14399.06
722.331	14488.32
722.674	14472.73
723.016	14415.33
723.359	14433.41
723.701	14376.01
724.044	14337.82
724.386	14255.11
724.729	14386.85
725.071	14321.09
725.413	14364.71
725.755	14281.77
726.097	14313.18
726.439	14191.6
726.782	14273.64
727.124	14276.12
727.465	14161.77
727.807	14233.41
728.149	14196.58
728.491	14129.68
728.833	14170.81
729.175	14075.45
729.516	14099.4
729.858	14150.93
730.199	14176.69
730.541	14080.42
730.882	14069.8
731.224	14171.72
731.565	14036.81
731.906	14037.26
732.248	13999.07
732.589	14045.17
732.93	13959.52
733.271	14027.31
733.612	13975.34
733.953	14025.28
734.294	14020.31
734.635	13938.5
734.976	14062.79
735.317	13817.38
735.658	13921.33
735.999	13920.88
736.339	13901.22
736.68	13852.18
737.021	13894.21
737.361	13853.08
737.702	13914.55
738.042	13780.77
738.383	13864.61
738.723	13817.38
739.063	13727.66
739.404	13789.35
739.744	13781.67
740.084	13873.65
740.424	13788.9
740.764	13774.67
741.104	13833.87
741.444	13685.18
741.784	13735.35
742.124	13743.48
742.464	13723.37
742.804	13767.66
743.143	13747.32
743.483	13745.51
743.823	13631.84
744.162	13729.7
744.502	13697.15
744.841	13628.23
745.181	13724.27
745.52	13640.66
745.86	13719.98
746.199	13598.63
746.538	13604.73
746.877	13583.94
747.216	13635.69
747.556	13615.35
747.895	13553.43
748.234	13480.89
748.573	13508.23
748.911	13474.56
749.25	13518.63
749.589	13463.49
749.928	13503.49
750.267	13517.05
750.605	13472.75
750.944	13497.39
751.283	13395.92
751.621	13478.85
751.96	13371.29
752.298	13372.64
752.636	13376.71
752.975	13284.06
753.313	13316.6
753.651	13366.77
753.989	13263.95
754.327	13249.71
754.666	13221.23
755.004	13190.73
755.342	13244.51
755.679	13172.65
756.017	13116.38
756.355	13185.3
756.693	13118.41
757.031	13168.35
