Data from tablewood_dark_bookshelf_FLMS001491_00100.txt Node
Date: Wed Feb 08 14:16:02 GMT 2017
User: dcchb
Spectrometer: FLMS00149
Trigger mode: 0
Integration Time (sec): 2.000000E-2
Scans to average: 10
Electric dark correction enabled: true
Nonlinearity correction enabled: false
Boxcar width: 0
XAxis mode: Wavelengths
Number of Pixels in Spectrum: 2048
>>>>>Begin Spectral Data<<<<<
341.393	-8.9
341.776	-8.9
342.16	-8.9
342.543	-45.28
342.927	-59.74
343.31	-68.78
343.693	-62.91
344.077	-61.33
344.46	-60.42
344.843	-44.38
345.226	-37.15
345.61	-20.42
345.993	-27.88
346.376	-8.67
346.759	12.34
347.142	24.77
347.525	29.07
347.908	53.93
348.291	58.44
348.674	111.32
349.057	102.06
349.44	131.44
349.823	141.38
350.206	140.02
350.588	202.17
350.971	196.97
351.354	219.34
351.737	220.7
352.119	238.78
352.502	248.5
352.884	266.57
353.267	279.91
353.65	267.93
354.032	287.82
354.414	290.53
354.797	305.67
355.179	296.86
355.562	322.17
355.944	296.4
356.326	323.75
356.709	342.96
357.091	324.65
357.473	324.43
357.855	336.63
358.238	352.45
358.62	328.72
359.002	321.71
359.384	335.5
359.766	328.49
360.148	331.43
360.53	314.94
360.912	318.1
361.294	344.31
361.676	329.62
362.057	320.13
362.439	315.16
362.821	316.74
363.203	327.14
363.584	312
363.966	312
364.348	334.37
364.729	338.89
365.111	289.4
365.493	290.08
365.874	319
366.256	323.75
366.637	325.33
367.019	320.36
367.4	310.19
367.781	293.69
368.163	311.77
368.544	291.88
368.925	310.87
369.306	307.48
369.688	307.7
370.069	309.06
370.45	298.21
370.831	311.77
371.212	324.43
371.593	324.43
371.974	326.01
372.355	306.8
372.736	313.35
373.117	301.83
373.498	341.38
373.879	311.55
374.26	330.53
374.641	304.31
375.021	323.3
375.402	289.4
375.783	313.81
376.163	321.94
376.544	330.53
376.925	326.23
377.305	312
377.686	337.53
378.066	318.32
378.447	339.12
378.827	306.35
379.208	332.34
379.588	329.17
379.968	328.27
380.349	349.74
380.729	340.92
381.109	340.7
381.489	336.63
381.87	346.57
382.25	349.96
382.63	331.66
383.01	363.52
383.39	353.58
383.77	342.28
384.15	373.01
384.53	380.7
384.91	353.13
385.29	380.92
385.67	352.22
386.049	364.65
386.429	375.5
386.809	381.15
387.189	378.89
387.568	378.89
387.948	387.02
388.328	403.52
388.707	345.67
389.087	386.12
389.466	399.9
389.846	354.48
390.225	367.36
390.605	394.03
390.984	383.86
391.363	389.51
391.743	400.13
392.122	404.88
392.501	393.8
392.881	417.31
393.26	393.35
393.639	409.85
394.018	396.06
394.397	415.72
394.776	401.49
395.155	412.79
395.534	428.83
395.913	432.45
396.292	410.53
396.671	412.56
397.05	431.09
397.429	434.48
397.808	433.58
398.186	410.3
398.565	425.21
398.944	429.96
399.323	419.11
399.701	429.06
400.08	442.39
400.458	429.73
400.837	437.42
401.215	450.75
401.594	458.66
401.972	473.58
402.351	451.65
402.729	458.66
403.107	451.88
403.486	452.11
403.864	480.58
404.242	458.21
404.62	460.24
404.999	477.87
405.377	464.76
405.755	471.99
406.133	467.7
406.511	488.26
406.889	469.51
407.267	490.98
407.645	478.09
408.023	495.72
408.401	520.58
408.779	508.83
409.156	530.97
409.534	509.73
409.912	508.6
410.29	504.99
410.667	541.6
411.045	546.12
411.422	552.44
411.8	534.82
412.178	538.21
412.555	534.36
412.933	554.7
413.31	556.96
413.687	549.05
414.065	566.45
414.442	575.27
414.819	581.37
415.197	568.49
415.574	579.79
415.951	586.57
416.328	577.3
416.705	595.61
417.082	585.44
417.46	631.09
417.837	647.36
418.214	627.7
418.591	625.44
418.967	616.4
419.344	627.02
419.721	637.86
420.098	646.9
420.475	658.43
420.852	643.74
421.228	627.92
421.605	631.31
421.982	675.6
422.358	663.17
422.735	648.49
423.111	658.88
423.488	672.89
423.864	679.45
424.241	695.04
424.617	691.87
424.994	708.82
425.37	694.59
425.746	713.79
426.123	739.78
426.499	715.83
426.875	723.06
427.251	710.86
427.627	743.4
428.003	739.78
428.379	759.67
428.756	774.58
429.132	744.08
429.507	776.62
429.883	824.53
430.259	766.45
430.635	787.01
431.011	768.03
431.387	806.9
431.763	822.49
432.138	839.67
432.514	824.07
432.89	843.06
433.265	879.67
433.641	862.94
434.016	873.11
434.392	856.39
434.767	897.74
435.143	883.96
435.518	902.72
435.894	910.85
436.269	923.96
436.644	948.82
437.02	912.66
437.395	927.8
437.77	939.1
438.145	955.82
438.52	958.08
438.895	956.95
439.271	988.59
439.646	1003.73
440.021	994.69
440.395	987.01
440.77	978.65
441.145	1012.77
441.52	1021.81
441.895	1012.09
442.27	1033.56
442.645	1044.86
443.019	1063.16
443.394	1031.98
443.769	1059.77
444.143	1070.4
444.518	1078.3
444.892	1085.31
445.267	1084.41
445.641	1077.4
446.016	1063.39
446.39	1086.89
446.764	1092.54
447.139	1107.68
447.513	1111.75
447.887	1109.72
448.262	1117.17
448.636	1115.37
449.01	1133.44
449.384	1168.92
449.758	1158.98
450.132	1150.39
450.506	1186.1
450.88	1177.51
451.254	1191.07
451.628	1196.72
452.002	1206.89
452.376	1223.16
452.75	1210.73
453.123	1258.19
453.497	1243.95
453.871	1271.52
454.244	1272.2
454.618	1301.58
454.992	1295.7
455.365	1305.42
455.739	1356.49
456.112	1323.04
456.486	1377.28
456.859	1392.65
457.232	1403.72
457.606	1373.44
457.979	1396.04
458.352	1441.69
458.725	1432.42
459.099	1461.8
459.472	1485.75
459.845	1499.08
460.218	1497.05
460.591	1531.85
460.964	1538.63
461.337	1565.52
461.71	1549.48
462.083	1634.67
462.456	1605.07
462.829	1611.62
463.201	1624.73
463.574	1669.93
463.947	1639.65
464.32	1694.33
464.692	1716.25
465.065	1717.61
465.438	1739.08
465.81	1771.17
466.183	1780.21
466.555	1819.3
466.928	1812.75
467.3	1816.36
467.672	1872.86
468.045	1895.91
468.417	1909.24
468.789	1911.05
469.161	1953.31
469.534	1941.11
469.906	1989.24
470.278	2030.6
470.65	2029.69
471.022	2052.74
471.394	2102.23
471.766	2138.62
472.138	2179.52
472.51	2227.43
472.882	2208.67
473.253	2232.62
473.625	2273.98
473.997	2325.73
474.369	2343.81
474.74	2342
475.112	2372.96
475.484	2405.05
475.855	2483.92
476.227	2455.22
476.598	2534.99
476.97	2560.3
477.341	2645.5
477.713	2666.51
478.084	2657.7
478.455	2751.71
478.827	2793.29
479.198	2834.19
479.569	2855.89
479.94	2918.93
480.311	2974.75
480.682	3018.37
481.053	3041.87
481.424	3106.27
481.795	3153.5
482.166	3166.61
482.537	3227.18
482.908	3292.48
483.279	3320.51
483.65	3363.89
484.021	3433.27
484.391	3468.07
484.762	3474.17
485.133	3525.02
485.503	3566.15
485.874	3657.45
486.244	3659.48
486.615	3735.18
486.985	3781.06
487.356	3839.81
487.726	3908.97
488.097	3934.5
488.467	3929.53
488.837	4025.12
489.207	4091.79
489.578	4093.59
489.948	4202.97
490.318	4240.48
490.688	4223.53
491.058	4339.24
491.428	4416.52
491.798	4403.42
492.168	4495.16
492.538	4497.88
492.908	4578.55
493.278	4626.46
493.648	4597.53
494.017	4682.73
494.387	4732.45
494.757	4723.63
495.126	4832.33
495.496	4808.6
495.866	4859
496.235	4928.15
496.605	4935.38
496.974	5015.15
497.344	5030.52
497.713	5087.47
498.082	5096.28
498.452	5181.93
498.821	5212.43
499.19	5245.43
499.559	5250.4
499.928	5328.36
500.298	5350.96
500.667	5418.3
501.036	5429.83
501.405	5445.65
501.774	5447.46
502.143	5462.82
502.512	5541.01
502.88	5533.1
503.249	5583.27
503.618	5657.62
503.987	5681.57
504.356	5699.43
504.724	5760.67
505.093	5761.57
505.462	5832.08
505.83	5832.08
506.199	5921.12
506.567	5934.45
506.936	5986.65
507.304	6018.97
507.672	6084.73
508.041	6125.86
508.409	6172.41
508.777	6204.95
509.145	6293.99
509.514	6204.05
509.882	6298.05
510.25	6363.82
510.618	6361.56
510.986	6363.59
511.354	6447.66
511.722	6529.24
512.09	6594.54
512.458	6576.24
512.826	6668.44
513.193	6731.26
513.561	6761.32
513.929	6783.24
514.297	6837.48
514.664	6886.51
515.032	6929.68
515.4	6990.92
515.767	6993.63
516.135	7081.54
516.502	7025.27
516.869	7124.47
517.237	7180.52
517.604	7148.43
517.972	7268.65
518.339	7369.66
518.706	7329.89
519.073	7337.8
519.44	7499.38
519.808	7488.31
520.175	7528.08
520.542	7600.62
520.909	7682.2
521.276	7726.27
521.643	7784.57
522.009	7838.13
522.376	7831.35
522.743	7931.23
523.11	7977.78
523.477	8109.98
523.843	8187.04
524.21	8245.8
524.577	8274.73
524.943	8387.04
525.31	8446.02
525.676	8470.2
526.043	8537.32
526.409	8590.42
526.776	8701.61
527.142	8680.59
527.508	8712.23
527.874	8819.57
528.241	8847.37
528.607	8897.08
528.973	9025.89
529.339	8983.18
529.705	9135.27
530.071	9154.25
530.437	9184.76
530.803	9306.34
531.169	9302.95
531.535	9360.12
531.901	9309.73
532.267	9354.92
532.632	9510.17
532.998	9453.23
533.364	9594.01
533.73	9607.8
534.095	9652.09
534.461	9683.73
534.826	9715.59
535.192	9782.93
535.557	9860.9
535.923	9884.63
536.288	9898.64
536.653	9988.58
537.019	9957.17
537.384	10084.62
537.749	10112.42
538.114	10096.6
538.479	10091.63
538.845	10212.08
539.21	10156.26
539.575	10201
539.94	10305.63
540.305	10370.49
540.67	10387.66
541.034	10423.14
541.399	10467.21
541.764	10493.42
542.129	10497.94
542.494	10488.68
542.858	10568.22
543.223	10630.14
543.587	10696.36
543.952	10718.5
544.316	10742.91
544.681	10767.54
545.045	10753.08
545.41	10846.64
545.774	10942.68
546.138	10895.45
546.503	10958.72
546.867	11010.7
547.231	11067.87
547.595	11118.49
547.959	11147.42
548.324	11147.87
548.688	11184.93
549.052	11287.98
549.416	11270.35
549.779	11301.99
550.143	11311.26
550.507	11377.7
550.871	11407.52
551.235	11448.65
551.599	11558.48
551.962	11583.34
552.326	11623.56
552.689	11694.52
553.053	11665.15
553.417	11715.77
553.78	11845.48
554.143	11804.12
554.507	11835.76
554.87	11952.14
555.234	12047.06
555.597	12004.57
555.96	11991.92
556.323	12118.69
556.686	12225.81
557.05	12233.49
557.413	12312.13
557.776	12364.56
558.139	12426.26
558.502	12518.46
558.865	12504.9
559.228	12590.09
559.59	12629.41
559.953	12613.14
560.316	12844.1
560.679	12780.37
561.041	12915.96
561.404	12978.78
561.767	12946.24
562.129	13058.1
562.492	13220.36
562.854	13208.38
563.217	13175.16
563.579	13284.99
563.941	13316.85
564.304	13394.82
564.666	13571.08
565.028	13553.01
565.39	13591.65
565.753	13666.22
566.115	13736.96
566.477	13868.93
566.839	13830.51
567.201	14006.78
567.563	14011.75
567.925	14024.41
568.287	14094.69
568.648	14189.15
569.01	14322.48
569.372	14366.32
569.734	14317.96
570.095	14559.53
570.457	14602.92
570.819	14617.16
571.18	14667.78
571.542	14721.56
571.903	14777.15
572.265	14839.07
572.626	14918.17
572.987	15003.81
573.349	15025.06
573.71	15088.78
574.071	15160.87
574.432	15284.94
574.794	15350.02
575.155	15353.41
575.516	15300.98
575.877	15458.27
576.238	15477.93
576.599	15561.09
576.96	15601.31
577.32	15681.08
577.681	15776.45
578.042	15737.81
578.403	15849.89
578.763	15813.96
579.124	15849.44
579.485	16004.92
579.845	16046.72
580.206	16001.98
580.566	16176.44
580.927	16115.2
581.287	16265.7
581.648	16293.27
582.008	16239.94
582.368	16266.83
582.728	16408.3
583.089	16431.8
583.449	16404.91
583.809	16405.36
584.169	16531.91
584.529	16414.4
584.889	16691
585.249	16572.13
585.609	16567.16
585.969	16649.65
586.329	16683.77
586.688	16758.12
587.048	16744.11
587.408	16709.76
587.768	16800.15
588.127	16803.99
588.487	16874.5
588.846	16943.2
589.206	16857.33
589.565	16971.22
589.925	17195.17
590.284	16978
590.643	17073.36
591.003	17105.91
591.362	17257.77
591.721	17248.28
592.08	17169.63
592.44	17234.94
592.799	17246.24
593.158	17290.99
593.517	17398.55
593.876	17425.45
594.235	17352.91
594.593	17366.69
594.952	17520.13
595.311	17360.36
595.67	17508.38
596.029	17617.53
596.387	17609.85
596.746	17679
597.104	17531.43
597.463	17596.97
597.822	17715.16
598.18	17690.52
598.538	17599.68
598.897	17754.02
599.255	17650.3
599.613	17895.26
599.972	17767.81
600.33	17951.08
600.688	17810.52
601.046	17958.31
601.404	18007.35
601.762	18016.16
602.12	18105.88
602.478	18147.69
602.836	18064.53
603.194	18071.76
603.552	18071.3
603.91	18081.7
604.268	18192.66
604.625	18148.59
604.983	18282.82
605.341	18172.09
605.698	18326.89
606.056	18354.91
606.413	18347.23
606.771	18355.36
607.128	18467
607.485	18327.79
607.843	18521.46
608.2	18528.24
608.557	18615.02
608.914	18524.63
609.272	18600.1
609.629	18645.98
609.986	18729.82
610.343	18669.71
610.7	18768.91
611.057	18814.79
611.414	18831.28
611.771	18777.05
612.127	18930.49
612.484	18937.04
612.841	18882.81
613.198	18861.79
613.554	18830.61
613.911	18897.5
614.267	19060.66
614.624	19042.8
614.98	19096.14
615.337	19158.06
615.693	19205.29
616.05	19034.44
616.406	19143.37
616.762	19197.38
617.118	19140.88
617.475	19175.46
617.831	19259.3
618.187	19303.14
618.543	19324.38
618.899	19298.62
619.255	19356.69
619.611	19324.38
619.967	19379.07
620.323	19470.36
620.678	19394.43
621.034	19317.6
621.39	19328.22
621.746	19414.09
622.101	19679.17
622.457	19508.55
622.812	19445.73
623.168	19529.8
623.523	19508.1
623.879	19613.41
624.234	19509.91
624.589	19571.83
624.945	19565.5
625.3	19480.31
625.655	19570.25
626.01	19593.3
626.365	19589.91
626.72	19561.66
627.075	19606.63
627.43	19489.35
627.785	19545.84
628.14	19500.87
628.495	19605.5
628.85	19549.46
629.205	19452.51
629.559	19433.98
629.914	19464.04
630.269	19483.02
630.623	19417.48
630.978	19439.4
631.332	19454.54
631.687	19447.77
632.041	19540.42
632.396	19491.61
632.75	19471.27
633.104	19462
633.459	19421.33
633.813	19325.06
634.167	19456.13
634.521	19424.72
634.875	19419.52
635.229	19364.83
635.583	19313.53
635.937	19246.19
636.291	19312.18
636.645	19243.48
636.999	19277.83
637.352	19349.91
637.706	19122.8
638.06	19299.29
638.413	19252.29
638.767	19190.82
639.121	19183.82
639.474	19026.53
639.828	19087.32
640.181	19049.58
640.534	19014.33
640.888	19073.76
641.241	18961.22
641.594	18999.64
641.947	19021.56
642.301	19031.28
642.654	19009.36
643.007	18914.45
643.36	18911.73
643.713	18904.73
644.066	18957.61
644.419	18958.29
644.771	18817.73
645.124	18685.53
645.477	18608.47
645.83	18527.34
646.182	18480.11
646.535	18366.44
646.888	18414.8
647.24	18264.75
647.593	18315.14
647.945	18282.15
648.298	18206.67
648.65	18136.16
649.002	18189.27
649.355	18192.43
649.707	18166.22
650.059	18342.26
650.411	18528.69
650.763	18620.67
651.115	18810.27
651.467	18708.12
651.819	18663.83
652.171	18583.61
652.523	18674.23
652.875	18582.7
653.227	18648.69
653.578	18660.22
653.93	18571.18
654.282	18539.54
654.633	18431.75
654.985	18471.75
655.337	18527.34
655.688	18531.86
656.039	18616.83
656.391	18490.05
656.742	18380.45
657.094	18469.49
657.445	18587.9
657.796	18473.55
658.147	18484.63
658.498	18438.3
658.849	18463.16
659.2	18415.02
659.551	18394.46
659.902	18509.71
660.253	18468.36
660.604	18476.72
660.955	18292.09
661.306	18511.74
661.656	18469.94
662.007	18393.56
662.358	18377.74
662.708	18423.16
663.059	18396.49
663.409	18208.25
663.76	18530.73
664.11	18510.61
664.461	18510.39
664.811	18509.03
665.161	18496.6
665.511	18395.14
665.862	18464.06
666.212	18494.12
666.562	18524.4
666.912	18510.39
667.262	18391.52
667.612	18407.79
667.962	18448.92
668.312	18430.84
668.662	18510.16
669.011	18382.93
669.361	18454.8
669.711	18431.97
670.06	18427.45
670.41	18420.22
670.76	18304.52
671.109	18479.2
671.459	18441.69
671.808	18220.45
672.157	18436.94
672.507	18339.55
672.856	18434.01
673.205	18364.86
673.554	18417.96
673.904	18370.51
674.253	18440.79
674.602	18370.96
674.951	18081.47
675.3	18021.81
675.649	18377.96
675.998	18338.64
676.346	18259.77
676.695	18341.81
677.044	18292.54
677.393	18229.27
677.741	18352.88
678.09	18263.39
678.438	18137.52
678.787	18227.23
679.135	18320.79
679.484	18118.99
679.832	18164.86
680.181	18168.25
680.529	18089.38
680.877	18166.67
681.225	18105.65
681.573	18187.91
681.922	18184.97
682.27	18087.35
682.618	18119.21
682.966	18024.07
683.314	18111.08
683.661	17960.35
684.009	17863.85
684.357	17894.36
684.705	17857.75
685.053	17869.28
685.4	17848.03
685.748	17778.88
686.095	17782.72
686.443	17695.5
686.79	17740.24
687.138	17734.36
687.485	17669.73
687.832	17625.67
688.18	17638.77
688.527	17564.88
688.874	17628.83
689.221	17590.19
689.568	17454.82
689.915	17441.26
690.262	17544.09
690.609	17429.29
690.956	17312.91
691.303	17375.28
691.65	17168.73
691.997	17267.26
692.344	17096.19
692.69	17124.21
693.037	17151.55
693.383	17046.25
693.73	17136.64
694.077	16952.24
694.423	17002.86
694.769	16947.94
695.116	16919.47
695.462	16872.69
695.808	16809.42
696.155	16782.52
696.501	16622.08
696.847	16703.2
697.193	16558.58
697.539	16586.82
697.885	16469.31
698.231	16479.93
698.577	16415.08
698.923	16419.82
699.269	16458.24
699.614	16354.51
699.96	16350.67
700.306	16214.63
700.651	16228.87
700.997	16204.69
701.342	16102.99
701.688	16068.42
702.033	16091.92
702.379	16113.39
702.724	16005.37
703.069	15972.15
703.415	15863
703.76	15824.36
704.105	15777.58
704.45	15825.26
704.795	15718.37
705.14	15725.83
705.485	15625.72
705.83	15604.25
706.175	15666.17
706.52	15654.64
706.865	15570.81
707.209	15465.5
707.554	15510.24
707.899	15537.81
708.243	15452.39
708.588	15384.14
708.932	15300.53
709.277	15269.8
709.621	15245.62
709.966	15175.34
710.31	15293.52
710.654	15153.64
710.998	15204.26
711.342	15160.65
711.687	15063.02
712.031	15000.2
712.375	15015.57
712.719	15010.59
713.063	15029.58
713.407	15030.03
713.75	14999.97
714.094	14914.55
714.438	14936.25
714.782	14926.75
715.125	14880.88
715.469	14987.77
715.812	14880.65
716.156	14774.89
716.499	14804.27
716.843	14746.42
717.186	14691.96
717.53	14696.7
717.873	14770.6
718.216	14716.36
718.559	14665.07
718.902	14548.46
719.246	14626.88
719.589	14544.17
719.932	14420.55
720.275	14505.52
720.617	14430.5
720.96	14477.05
721.303	14427.11
721.646	14528.8
721.989	14417.16
722.331	14449.93
722.674	14457.84
723.016	14496.48
723.359	14433.21
723.701	14444.73
724.044	14362.7
724.386	14357.28
724.729	14389.59
725.071	14277.73
725.413	14368.8
725.755	14323.83
726.097	14275.02
726.439	14225.53
726.782	14232.54
727.124	14322.7
727.465	14226.66
727.807	14210.16
728.149	14157.28
728.491	14206.77
728.833	14158.64
729.175	14166.32
729.516	14187.11
729.858	14081.35
730.199	14152.99
730.541	14062.37
730.882	14107.79
731.224	14071.18
731.565	13958.19
731.906	14086.55
732.248	14148.47
732.589	13980.79
732.93	13945.76
733.271	13952.99
733.612	14025.54
733.953	14046.33
734.294	13916.61
734.635	13940.79
734.976	13921.81
735.317	13901.02
735.658	13891.3
735.999	13863.28
736.339	13926.1
736.68	13960.45
737.021	13881.13
737.361	13805.88
737.702	13819.21
738.042	13797.29
738.383	13783.06
738.723	13851.53
739.063	13769.5
739.404	13785.54
739.744	13780.57
740.084	13748.03
740.424	13790.29
740.764	13714.81
741.104	13816.28
741.444	13790.74
741.784	13765.88
742.124	13719.33
742.464	13772.66
742.804	13722.49
743.143	13703.51
743.483	13711.65
743.823	13653.34
744.162	13633.23
744.502	13664.19
744.841	13626.9
745.181	13721.14
745.52	13546.68
745.86	13597.3
746.199	13603.63
746.538	13601.37
746.877	13636.17
747.216	13635.49
747.556	13538.54
747.895	13553.01
748.234	13501.03
748.573	13508.49
748.911	13461.03
749.25	13462.84
749.589	13484.31
749.928	13448.83
750.267	13513.46
750.605	13397.3
750.944	13390.07
751.283	13461.48
751.621	13379.45
751.96	13384.2
752.298	13429.17
752.636	13369.06
752.975	13296.97
753.313	13283.63
753.651	13357.98
753.989	13249.96
754.327	13187.59
754.666	13164.31
755.004	13265.33
755.342	13298.32
755.679	13091.1
756.017	13062.17
756.355	13146.69
756.693	13088.38
757.031	13152.56
757.368	13116.18
757.706	13065.56
