Data from tablewood_dark_bookshelf_FLMS001491_00094.txt Node
Date: Wed Feb 08 14:16:01 GMT 2017
User: dcchb
Spectrometer: FLMS00149
Trigger mode: 0
Integration Time (sec): 2.000000E-2
Scans to average: 10
Electric dark correction enabled: true
Nonlinearity correction enabled: false
Boxcar width: 0
XAxis mode: Wavelengths
Number of Pixels in Spectrum: 2048
>>>>>Begin Spectral Data<<<<<
341.393	-34.9
341.776	-34.9
342.16	-34.9
342.543	-55.92
342.927	-65.86
343.31	-73.09
343.693	-65.86
344.077	-60.66
344.46	-53.88
344.843	-40.78
345.226	-49.82
345.61	-24.28
345.993	-17.05
346.376	-19.31
346.759	29.96
347.142	28.37
347.525	29.73
347.908	54.14
348.291	80.35
348.674	79.9
349.057	102.27
349.44	114.25
349.823	153.8
350.206	163.06
350.588	188.6
350.971	204.87
351.354	212.32
351.737	201.03
352.119	240.8
352.502	255.94
352.884	254.13
353.267	258.2
353.65	284.64
354.032	274.02
354.414	284.41
354.797	310.18
355.179	307.69
355.562	325.54
355.944	344.52
356.326	325.09
356.709	341.14
357.091	341.14
357.473	343.17
357.855	315.37
358.238	331.42
358.62	330.06
359.002	357.63
359.384	361.47
359.766	326.22
360.148	324.19
360.53	346.78
360.912	320.57
361.294	332.32
361.676	346.33
362.057	315.6
362.439	327.58
362.821	334.36
363.203	349.5
363.584	325.54
363.966	319.89
364.348	310.4
364.729	331.42
365.111	321.47
365.493	322.83
365.874	304.53
366.256	307.24
366.637	327.35
367.019	335.71
367.4	315.15
367.781	313.79
368.163	330.06
368.544	306.79
368.925	321.02
369.306	317.86
369.688	311.76
370.069	306.79
370.45	313.11
370.831	325.99
371.212	328.71
371.593	318.08
371.974	313.34
372.355	312.21
372.736	341.81
373.117	322.15
373.498	325.09
373.879	330.97
374.26	317.41
374.641	316.5
375.021	316.73
375.402	320.8
375.783	328.25
376.163	338.88
376.544	335.03
376.925	337.75
377.305	319.89
377.686	311.31
378.066	321.7
378.447	317.86
378.827	338.65
379.208	343.17
379.588	342.72
379.968	335.26
380.349	363.73
380.729	334.58
381.109	349.04
381.489	341.36
381.87	353.11
382.25	370.06
382.63	355.37
383.01	356.5
383.39	369.38
383.77	348.14
384.15	363.28
384.53	355.15
384.91	373.9
385.29	365.54
385.67	380
386.049	370.29
386.429	370.29
386.809	382.04
387.189	358.99
387.568	387.01
387.948	371.87
388.328	366.22
388.707	363.06
389.087	384.07
389.466	387.46
389.846	380.68
390.225	405.77
390.605	377.52
390.984	380
391.363	375.26
391.743	405.99
392.122	394.92
392.501	386.33
392.881	426.33
393.26	416.16
393.639	400.34
394.018	412.09
394.397	392.21
394.776	413.68
395.155	402.83
395.534	435.14
395.913	428.82
396.292	426.33
396.671	409.38
397.05	424.3
397.429	409.83
397.808	427.91
398.186	439.21
398.565	439.21
398.944	448.25
399.323	420
399.701	463.84
400.08	439.66
400.458	449.15
400.837	443.51
401.215	469.04
401.594	471.3
401.972	449.61
402.351	437.63
402.729	463.62
403.107	445.77
403.486	463.39
403.864	464.52
404.242	483.73
404.62	463.62
404.999	478.53
405.377	461.81
405.755	497.29
406.133	494.8
406.511	493.45
406.889	497.52
407.267	496.16
407.645	508.14
408.023	504.07
408.401	504.29
408.779	499.55
409.156	531.86
409.534	521.02
409.912	525.99
410.29	517.63
410.667	537.06
411.045	544.52
411.422	545.65
411.8	547.68
412.178	539.55
412.555	550.4
412.933	566.44
413.31	540.9
413.687	586.33
414.065	559.21
414.442	582.48
414.819	568.47
415.197	580
415.574	594.69
415.951	580.45
416.328	609.83
416.705	594.24
417.082	598.3
417.46	589.49
417.837	602.82
418.214	618.42
418.591	635.14
418.967	619.32
419.344	633.56
419.721	643.05
420.098	644.18
420.475	643.95
420.852	644.18
421.228	681.69
421.605	667.45
421.982	652.77
422.358	662.03
422.735	681.47
423.111	660.45
423.488	681.92
423.864	688.24
424.241	698.41
424.617	683.27
424.994	712.2
425.37	696.61
425.746	723.95
426.123	721.69
426.499	707.45
426.875	713.55
427.251	731.41
427.627	752.65
428.003	738.64
428.379	780.45
428.756	771.41
429.132	774.34
429.507	769.6
429.883	779.09
430.259	791.29
430.635	821.8
431.011	816.6
431.387	839.2
431.763	839.2
432.138	842.82
432.514	845.98
432.89	826.55
433.265	862.25
433.641	868.58
434.016	860.9
434.392	897.96
434.767	923.72
435.143	891.63
435.518	942.93
435.894	928.69
436.269	941.12
436.644	934.79
437.02	939.76
437.395	930.05
437.77	956.71
438.145	964.4
438.52	971.4
438.895	970.95
439.271	963.94
439.646	977.05
440.021	998.52
440.395	1009.59
440.77	1011.4
441.145	994.23
441.52	1021.34
441.895	1008.24
442.27	1042.13
442.645	1053.43
443.019	1062.47
443.394	1057.5
443.769	1067.22
444.143	1050.27
444.518	1083.04
444.892	1097.27
445.267	1070.83
445.641	1078.97
446.016	1105.63
446.39	1117.39
446.764	1115.13
447.139	1106.09
447.513	1128.91
447.887	1126.88
448.262	1165.07
448.636	1108.57
449.01	1156.93
449.384	1163.49
449.758	1158.29
450.132	1184.05
450.506	1195.35
450.88	1195.35
451.254	1172.75
451.628	1193.54
452.002	1220.89
452.376	1261.34
452.75	1237.61
453.123	1219.98
453.497	1265.18
453.871	1263.14
454.244	1288.68
454.618	1306.53
454.992	1318.28
455.365	1334.1
455.739	1361
456.112	1344.5
456.486	1378.62
456.859	1381.11
457.232	1415.68
457.606	1417.94
457.979	1422.69
458.352	1447.09
458.725	1438.28
459.099	1476.92
459.472	1495.91
459.845	1525.74
460.218	1478.51
460.591	1540.2
460.964	1544.95
461.337	1556.92
461.71	1589.69
462.083	1592.85
462.456	1618.39
462.829	1615.9
463.201	1662.23
463.574	1654.77
463.947	1674.66
464.32	1711.49
464.692	1705.84
465.065	1703.59
465.438	1760.08
465.81	1765.73
466.183	1761.21
466.555	1822.45
466.928	1842.56
467.3	1862
467.672	1864.26
468.045	1909.23
468.417	1885.28
468.789	1910.36
469.161	1933.18
469.534	1985.61
469.906	2000.07
470.278	2009.79
470.65	2046.85
471.022	2065.84
471.394	2117.13
471.766	2130.24
472.138	2148.55
472.51	2187.87
472.882	2222.22
473.253	2232.16
473.625	2306.51
473.997	2322.33
474.369	2336.34
474.74	2374.53
475.112	2416.11
475.484	2455.43
475.855	2495.43
476.227	2487.29
476.598	2547.4
476.97	2536.33
477.341	2593.73
477.713	2643
478.084	2675.76
478.455	2758.02
478.827	2795.53
479.198	2823.56
479.569	2837.57
479.94	2922.54
480.311	2915.98
480.682	3009.77
481.053	3045.47
481.424	3151
481.795	3147.16
482.166	3162.08
482.537	3216.31
482.908	3294.96
483.279	3276.43
483.65	3342.86
484.021	3421.96
484.391	3463.99
484.762	3472.58
485.133	3520.49
485.503	3595.51
485.874	3636.64
486.244	3677.32
486.615	3730.2
486.985	3762.29
487.356	3821.27
487.726	3865.11
488.097	3969.97
488.467	3953.47
488.837	4086.12
489.207	4136.74
489.578	4115.95
489.948	4168.83
490.318	4209.06
490.688	4213.8
491.058	4313.46
491.428	4376.74
491.798	4401.59
492.168	4478.88
492.538	4509.16
492.908	4533.12
493.278	4614.47
493.648	4659.21
494.017	4731.53
494.387	4708.93
494.757	4795.71
495.126	4848.14
495.496	4808.14
495.866	4928.81
496.235	4945.99
496.605	5002.48
496.974	5012.2
497.344	5086.32
497.713	5071.18
498.082	5160.9
498.452	5158.18
498.821	5173.32
499.19	5214.68
499.559	5276.15
499.928	5309.82
500.298	5315.92
500.667	5406.76
501.036	5382.81
501.405	5425.75
501.774	5489.02
502.143	5498.51
502.512	5539.64
502.88	5579.87
503.249	5596.59
503.618	5628
503.987	5692.18
504.356	5683.14
504.724	5731.73
505.093	5783.93
505.462	5820.54
505.83	5873.19
506.199	5869.58
506.567	5936.02
506.936	5994.32
507.304	6019.63
507.672	6065.28
508.041	6091.04
508.409	6161.55
508.777	6206.29
509.145	6263.47
509.514	6214.88
509.882	6241.09
510.25	6321.99
510.618	6374.87
510.986	6419.62
511.354	6507.3
511.722	6501.65
512.09	6610.57
512.458	6592.95
512.826	6640.86
513.193	6665.04
513.561	6713.4
513.929	6742.32
514.297	6858.7
514.664	6903
515.032	6894.64
515.4	6971.92
515.767	7006.27
516.135	7031.58
516.502	6989.1
516.869	7211.91
517.237	7126.72
517.604	7162.2
517.972	7291.91
518.339	7320.61
518.706	7346.15
519.073	7380.05
519.44	7422.53
519.808	7547.5
520.175	7524.9
520.542	7660.49
520.909	7706.82
521.276	7662.3
521.643	7749.98
522.009	7795.18
522.376	7918.56
522.743	7994.04
523.11	8040.37
523.477	8134.15
523.843	8187.03
524.21	8243.3
524.577	8260.93
524.943	8362.17
525.31	8388.16
525.676	8524.42
526.043	8455.27
526.409	8570.52
526.776	8648.26
527.142	8736.39
527.508	8761.48
527.874	8814.36
528.241	8879.44
528.607	8852.32
528.973	8967.57
529.339	8965.54
529.705	9083.5
530.071	9179.09
530.437	9137.74
530.803	9253.9
531.169	9351.75
531.535	9308.13
531.901	9342.93
532.267	9445.08
532.632	9471.06
532.998	9459.77
533.364	9558.29
533.73	9631.74
534.095	9678.74
534.461	9721
534.826	9746.99
535.192	9801.23
535.557	9875.57
535.923	9821.34
536.288	9910.83
536.653	9974.78
537.019	9974.33
537.384	9939.3
537.749	10116.47
538.114	10085.51
538.479	10124.38
538.845	10203.02
539.21	10226.52
539.575	10256.35
539.94	10266.3
540.305	10362.34
540.67	10446.86
541.034	10415.22
541.399	10420.19
541.764	10473.98
542.129	10516.46
542.494	10488.66
542.858	10668.1
543.223	10588.55
543.587	10694.31
543.952	10725.27
544.316	10721.65
544.681	10682.78
545.045	10807.53
545.41	10849.33
545.774	10891.59
546.138	10887.3
546.503	10996
546.867	11008.2
547.231	11084.81
547.595	11033.74
547.959	11076.22
548.324	11142.88
548.688	11139.27
549.052	11292.49
549.416	11286.84
549.779	11278.7
550.143	11257.91
550.507	11372.94
550.871	11397.34
551.235	11434.4
551.599	11520.95
551.962	11604.79
552.326	11636.88
552.689	11674.85
553.053	11667.39
553.417	11741.74
553.78	11915.52
554.143	11839.82
554.507	11892.7
554.87	11834.17
555.234	12060.15
555.597	12021.51
555.96	12002.07
556.323	12110.09
556.686	12200.94
557.05	12206.36
557.413	12307.6
557.776	12277.32
558.139	12433.7
558.502	12432.79
558.865	12533.13
559.228	12534.94
559.59	12604.54
559.953	12641.83
560.316	12740.81
560.679	12748.27
561.041	12906.91
561.404	13036.39
561.767	13035.26
562.129	13045.21
562.492	13214.02
562.854	13169.27
563.217	13230.06
563.579	13218.99
563.941	13304.64
564.304	13465.99
564.666	13545.76
565.028	13463.05
565.39	13634.34
565.753	13744.17
566.115	13780.78
566.477	13802.48
566.839	13893.32
567.201	14014.9
567.563	13853.1
567.925	14129.47
568.287	14144.84
568.648	14160.88
569.01	14275.01
569.372	14350.71
569.734	14341.22
570.095	14527.43
570.457	14494.89
570.819	14694.88
571.18	14576.69
571.542	14758.38
571.903	14773.52
572.265	14857.82
572.626	14923.35
572.987	14918.6
573.349	14988.21
573.71	15152.95
574.071	15169.22
574.432	15218.03
574.794	15375.77
575.155	15267.3
575.516	15345.03
575.877	15450.12
576.238	15445.14
576.599	15483.79
576.96	15578.7
577.32	15596.55
577.681	15815.53
578.042	15813.04
578.403	15810.11
578.763	15837.9
579.124	15913.61
579.485	15892.36
579.845	15991.8
580.206	16076.31
580.566	16096.2
580.927	16120.16
581.287	16241.06
581.648	16213.26
582.008	16293.03
582.368	16268.63
582.728	16386.36
583.089	16441.95
583.449	16398.57
583.809	16431.33
584.169	16394.27
584.529	16456.87
584.889	16648.28
585.249	16605.11
585.609	16587.94
585.969	16685.34
586.329	16636.53
586.688	16809.63
587.048	16755.84
587.408	16817.99
587.768	16753.58
588.127	16736.64
588.487	16859.12
588.846	16921.04
589.206	16834.94
589.565	16956.74
589.925	17078.55
590.284	17020.92
590.643	17020.92
591.003	17155.38
591.362	17174.36
591.721	17203.29
592.08	17137.76
592.44	17261.82
592.799	17293.46
593.158	17292.33
593.517	17302.95
593.876	17353.57
594.235	17263.4
594.593	17396.28
594.952	17527.12
595.311	17402.16
595.67	17441.7
596.029	17591.53
596.387	17625.65
596.746	17681.02
597.104	17548.14
597.463	17612.55
597.822	17710.4
598.18	17612.77
598.538	17636.5
598.897	17809.6
599.255	17544.52
599.613	17872.2
599.972	17759.89
600.33	17921.92
600.688	17824.74
601.046	17968.24
601.404	18085.75
601.762	18061.35
602.12	18007.11
602.478	18123.04
602.836	18104.74
603.194	17993.1
603.552	18084.62
603.91	18109.48
604.268	18233.77
604.625	18130.72
604.983	18191.97
605.341	18246.2
605.698	18382.24
606.056	18322.13
606.413	18405.74
606.771	18479.19
607.128	18456.82
607.485	18393.32
607.843	18489.81
608.2	18521.9
608.557	18472.18
608.914	18520.09
609.272	18699.3
609.629	18561.45
609.986	18792.63
610.343	18690.71
610.7	18820.65
611.057	18679.64
611.414	18766.87
611.771	18757.15
612.127	18838.05
612.484	18863.13
612.841	18924.83
613.198	18890.48
613.554	18823.59
613.911	19020.42
614.267	19007.31
614.624	18968.22
614.98	18987.88
615.337	19184.71
615.693	19047.31
616.05	19054.32
616.406	19169.34
616.762	19134.77
617.118	19177.02
617.475	19146.29
617.831	19252.28
618.187	19227.87
618.543	19317.13
618.899	19404.14
619.255	19350.13
619.611	19239.4
619.967	19509.67
620.323	19452.95
620.678	19400.07
621.034	19349.9
621.39	19399.84
621.746	19404.81
622.101	19529.11
622.457	19449.79
622.812	19475.1
623.168	19535.88
623.523	19572.72
623.879	19651.81
624.234	19525.72
624.589	19555.77
624.945	19528.65
625.3	19461.08
625.655	19534.75
626.01	19654.75
626.365	19656.79
626.72	19544.7
627.075	19559.84
627.43	19660.4
627.785	19582.44
628.14	19619.5
628.495	19540.4
628.85	19596
629.205	19415.21
629.559	19561.65
629.914	19503.34
630.269	19597.8
630.623	19546.73
630.978	19416.34
631.332	19502.21
631.687	19551.93
632.041	19360.97
632.396	19530.46
632.75	19323.46
633.104	19338.6
633.459	19372.27
633.813	19375.66
634.167	19350.35
634.521	19446.17
634.875	19394.65
635.229	19457.92
635.583	19278.26
635.937	19232.84
636.291	19254.76
636.645	19246.4
636.999	19205.72
637.352	19269.45
637.706	19103.13
638.06	19242.78
638.413	19218.38
638.767	19060.42
639.121	19130.02
639.474	18997.14
639.828	18972.28
640.181	19079.85
640.534	19039.63
640.888	19026.97
641.241	18950.36
641.594	18963.7
641.947	19005.5
642.301	18907.2
642.654	18946.3
643.007	18951.27
643.36	19005.73
643.713	18921.44
644.066	18970.93
644.419	18875.56
644.771	18802.12
645.124	18653.2
645.477	18591.5
645.83	18492.97
646.182	18417.04
646.535	18487.32
646.888	18400.1
647.24	18225.18
647.593	18303.6
647.945	18237.16
648.298	18182.93
648.65	18179.31
649.002	18089.59
649.355	18201
649.707	18200.33
650.059	18328.23
650.411	18558.28
650.763	18525.52
651.115	18780.88
651.467	18653.87
651.819	18683.93
652.171	18630.37
652.523	18660.2
652.875	18596.47
653.227	18472.86
653.578	18671.05
653.93	18636.02
654.282	18591.28
654.633	18452.07
654.985	18554.22
655.337	18546.08
655.688	18482.35
656.039	18641.9
656.391	18433.31
656.742	18555.57
657.094	18533.2
657.445	18564.61
657.796	18552.63
658.147	18506.76
658.498	18390.6
658.849	18575.91
659.2	18457.04
659.551	18413.65
659.902	18496.59
660.253	18412.52
660.604	18358.51
660.955	18393.32
661.306	18441.45
661.656	18479.64
662.007	18433.77
662.358	18412.75
662.708	18422.92
663.059	18424.73
663.409	18304.5
663.76	18459.98
664.11	18446.65
664.461	18436.93
664.811	18406.42
665.161	18497.27
665.511	18408.23
665.862	18433.09
666.212	18581.11
666.562	18535.68
666.912	18507.44
667.262	18447.33
667.612	18440.32
667.962	18424.05
668.312	18408.46
668.662	18424.5
669.011	18473.54
669.361	18325.75
669.711	18439.87
670.06	18407.33
670.41	18408.68
670.76	18321.23
671.109	18439.42
671.459	18352.86
671.808	18369.81
672.157	18373.66
672.507	18337.27
672.856	18299.08
673.205	18429.47
673.554	18406.2
673.904	18327.78
674.253	18471.28
674.602	18302.47
674.951	18097.5
675.3	17992.2
675.649	18305.18
675.998	18269.25
676.346	18283.71
676.695	18446.2
677.044	18228.57
677.393	18264.73
677.741	18264.05
678.09	18276.71
678.438	18215.24
678.787	18176.15
679.135	18219.31
679.484	18117.62
679.832	18168.24
680.181	18172.3
680.529	18224.28
680.877	18194
681.225	18126.2
681.573	18156.49
681.922	18161.46
682.27	18099.09
682.618	18014.57
682.966	18026.09
683.314	18052.31
683.661	17925.31
684.009	17894.12
684.357	17932.54
684.705	17939.32
685.053	17871.52
685.4	17811.41
685.748	17756.04
686.095	17722.6
686.443	17759.66
686.79	17696.61
687.138	17807.79
687.485	17644.41
687.832	17636.95
688.18	17650.51
688.527	17562.38
688.874	17643.28
689.221	17517.63
689.568	17445.77
689.915	17346.34
690.262	17390.63
690.609	17303.17
690.956	17337.07
691.303	17370.07
691.65	17302.5
691.997	17294.36
692.344	17104.54
692.69	17078.32
693.037	17196.29
693.383	17080.36
693.73	17009.85
694.077	16950.64
694.423	16943.41
694.769	16974.14
695.116	16877.65
695.462	16921.49
695.808	16786.8
696.155	16791.1
696.501	16695.51
696.847	16768.73
697.193	16556.75
697.539	16615.96
697.885	16554.95
698.231	16525.79
698.577	16438.11
698.923	16490.09
699.269	16464.33
699.614	16370.32
699.96	16323.77
700.306	16356.08
700.651	16140.49
700.997	16166.03
701.342	16153.37
701.688	16150.21
702.033	16039.25
702.379	16060.5
702.724	15969.88
703.069	16029.54
703.415	15904.34
703.76	15816.66
704.105	15909.54
704.45	15893.72
704.795	15784.57
705.14	15674.52
705.485	15680.84
705.83	15620.51
706.175	15747.96
706.52	15550
706.865	15538.93
707.209	15524.92
707.554	15463
707.899	15520.62
708.243	15449.21
708.588	15362.66
708.932	15284.7
709.277	15377.35
709.621	15364.24
709.966	15300.06
710.31	15229.78
710.654	15136
710.998	15131.93
711.342	15122.67
711.687	15121.09
712.031	15081.76
712.375	15053.06
712.719	15048.54
713.063	15051.71
713.407	15076.57
713.75	15054.65
714.094	15007.19
714.438	14880.64
714.782	14949.79
715.125	14898.72
715.469	14963.35
715.812	14840.87
716.156	14776.91
716.499	14799.96
716.843	14762
717.186	14746.41
717.53	14740.3
717.873	14699.4
718.216	14728.1
718.559	14652.62
718.902	14540.08
719.246	14565.39
719.589	14532.4
719.932	14480.42
720.275	14487.43
720.617	14476.13
720.96	14355.23
721.303	14557.48
721.646	14559.29
721.989	14402.46
722.331	14495.34
722.674	14388.68
723.016	14421.67
723.359	14385.96
723.701	14415.57
724.044	14363.59
724.386	14328.79
724.729	14359.52
725.071	14333.08
725.413	14320.2
725.755	14371.73
726.097	14279.75
726.439	14143.94
726.782	14201.11
727.124	14260.77
727.465	14224.61
727.807	14189.13
728.149	14180.09
728.491	14197.95
728.833	14266.19
729.175	14161.79
729.516	14117.72
729.858	14091.51
730.199	14077.95
730.541	14065.75
730.882	14086.76
731.224	14055.35
731.565	13942.36
731.906	14029.14
732.248	14151.85
732.589	14060.77
732.93	13930.38
733.271	14075.46
733.612	13960.66
733.953	14033.88
734.294	13907.11
734.635	13985.07
734.976	13973.09
735.317	13910.72
735.658	13950.49
735.999	13921.34
736.339	13856.94
736.68	13826.66
737.021	13876.37
737.361	13892.64
737.702	13900.33
738.042	13821.46
738.383	13821.23
738.723	13829.59
739.063	13809.26
739.404	13765.64
739.744	13732.65
740.084	13773.1
740.424	13841.12
740.764	13766.77
741.104	13774.23
741.444	13665.08
741.784	13719.09
742.124	13730.16
742.464	13812.19
742.804	13752.31
743.143	13763.38
743.483	13727.68
743.823	13578.3
744.162	13691.74
744.502	13620.11
744.841	13657.85
745.181	13675.93
745.52	13609.26
745.86	13659.65
746.199	13613.78
746.538	13562.93
746.877	13613.55
747.216	13643.61
747.556	13549.83
747.895	13582.82
748.234	13475.93
748.573	13482.71
748.911	13510.73
749.25	13493.56
749.589	13501.24
749.928	13480.45
750.267	13514.8
750.605	13408.14
750.944	13468.02
751.283	13416.5
751.621	13458.76
751.96	13398.42
752.298	13317.52
752.636	13349.15
752.975	13247.91
753.313	13333.79
753.651	13336.27
753.989	13277.07
754.327	13237.97
754.666	13154.36
755.004	13173.79
755.342	13188.25
755.679	13207.24
756.017	13181.25
756.355	13164.98
756.693	13127.69
757.031	13107.81
757.368	13050.41
757.706	13063.51
758.044	12950.97
