Data from tablewood_brown_FLMS001491_022.txt Node
Date: Tue Feb 07 11:10:13 GMT 2017
User: dcchb
Spectrometer: FLMS00149
Trigger mode: 0
Integration Time (sec): 2.000000E-2
Scans to average: 10
Electric dark correction enabled: true
Nonlinearity correction enabled: false
Boxcar width: 0
XAxis mode: Wavelengths
Number of Pixels in Spectrum: 2048
>>>>>Begin Spectral Data<<<<<
341.393	1.57
341.776	1.57
342.16	1.57
342.543	-57.64
342.927	-69.39
343.31	-62.61
343.693	-62.61
344.077	-77.98
344.46	-62.61
344.843	-51.31
345.226	-36.62
345.61	-32.56
345.993	-22.61
346.376	7.44
346.759	-16.74
347.142	5.64
347.525	29.59
347.908	68.01
348.291	88.35
348.674	102.13
349.057	124.5
349.44	112.75
349.823	135.58
350.206	153.88
350.588	208.34
350.971	204.05
351.354	225.52
351.737	219.87
352.119	260.09
352.502	261
352.884	279.98
353.267	267.78
353.65	296.02
354.032	315.91
354.414	312.29
354.797	318.17
355.179	316.14
355.562	325.85
355.944	327.89
356.326	344.38
356.709	322.46
357.091	344.84
357.473	344.61
357.855	345.06
358.238	333.76
358.62	334.67
359.002	320.88
359.384	347.1
359.766	328.11
360.148	319.07
360.53	341.9
360.912	348.9
361.294	339.64
361.676	331.95
362.057	319.98
362.439	331.28
362.821	335.8
363.203	343.71
363.584	316.81
363.966	337.83
364.348	309.58
364.729	337.15
365.111	324.95
365.493	314.55
365.874	310.03
366.256	336.47
366.637	327.21
367.019	315.68
367.4	324.95
367.781	335.34
368.163	316.36
368.544	339.19
368.925	306.42
369.306	365.4
369.688	312.75
370.069	320.66
370.45	317.04
370.831	315.91
371.212	323.59
371.593	326.3
371.974	320.66
372.355	321.79
372.736	316.36
373.117	331.05
373.498	332.18
373.879	337.83
374.26	324.27
374.641	319.07
375.021	332.86
375.402	316.36
375.783	311.84
376.163	335.12
376.544	334.44
376.925	351.62
377.305	347.32
377.686	342.12
378.066	346.19
378.447	322.24
378.827	343.71
379.208	337.38
379.588	332.18
379.968	348.45
380.349	357.49
380.729	350.94
381.109	347.32
381.489	349.58
381.87	361.78
382.25	367.43
382.63	346.87
383.01	355.46
383.39	363.14
383.77	365.17
384.15	371.73
384.53	359.52
384.91	362.24
385.29	377.15
385.67	383.03
386.049	383.03
386.429	397.94
386.809	378.73
387.189	367.89
387.568	373.31
387.948	376.7
388.328	373.31
388.707	394.55
389.087	379.18
389.466	394.1
389.846	380.99
390.225	406.53
390.605	401.78
390.984	398.85
391.363	405.62
391.743	420.31
392.122	428.45
392.501	420.99
392.881	412.86
393.26	409.47
393.639	436.36
394.018	425.96
394.397	415.12
394.776	430.93
395.155	428
395.534	439.75
395.913	447.43
396.292	446.53
396.671	444.95
397.05	453.99
397.429	460.54
397.808	443.59
398.186	461.22
398.565	466.41
398.944	452.63
399.323	459.63
399.701	476.13
400.08	471.61
400.458	460.09
400.837	480.65
401.215	475.91
401.594	474.32
401.972	483.36
402.351	471.16
402.729	470.48
403.107	495.57
403.486	523.36
403.864	510.71
404.242	508
404.62	526.3
404.999	494.44
405.377	526.98
405.755	500.54
406.133	515
406.511	513.64
406.889	539.41
407.267	513.19
407.645	513.42
408.023	533.76
408.401	538.05
408.779	570.59
409.156	572.4
409.534	550.03
409.912	540.54
410.29	582.8
410.667	587.09
411.045	592.96
411.422	598.61
411.8	599.29
412.178	589.12
412.555	603.36
412.933	588.9
413.31	600.87
413.687	614.88
414.065	625.28
414.442	643.13
414.819	635.9
415.197	629.35
415.574	630.7
415.951	660.76
416.328	669.35
416.705	656.01
417.082	641.32
417.46	682.45
417.837	666.18
418.214	662.57
418.591	652.4
418.967	687.65
419.344	687.65
419.721	669.57
420.098	685.84
420.475	692.85
420.852	703.7
421.228	704.83
421.605	722.45
421.982	722.68
422.358	747.54
422.735	719.51
423.111	730.36
423.488	762.23
423.864	736.69
424.241	741.44
424.617	757.48
424.994	758.61
425.37	771.72
425.746	756.35
426.123	766.97
426.499	776.69
426.875	786.86
427.251	804.94
427.627	815.78
428.003	827.76
428.379	795.67
428.756	828.89
429.132	819.4
429.507	820.98
429.883	855.56
430.259	864.82
430.635	870.92
431.011	874.54
431.387	884.26
431.763	904.37
432.138	896.01
432.514	934.65
432.89	903.46
433.265	928.78
433.641	949.79
434.016	952.28
434.392	984.37
434.767	989.11
435.143	967.19
435.518	990.92
435.894	984.82
436.269	1020.52
436.644	1032.73
437.02	1042.44
437.395	1050.81
437.77	1073.18
438.145	1035.66
438.52	1046.74
438.895	1067.08
439.271	1085.38
439.646	1115.66
440.021	1113.85
440.395	1130.35
440.77	1108.66
441.145	1132.39
441.52	1152.05
441.895	1140.29
442.27	1146.85
442.645	1137.81
443.019	1173.51
443.394	1163.57
443.769	1170.58
444.143	1194.98
444.518	1200.18
444.892	1174.64
445.267	1208.99
445.641	1226.39
446.016	1225.26
446.39	1238.15
446.764	1221.42
447.139	1267.75
447.513	1261.2
447.887	1255.55
448.262	1259.61
448.636	1256.45
449.01	1271.36
449.384	1294.19
449.758	1314.53
450.132	1277.01
450.506	1335.32
450.88	1346.84
451.254	1307.07
451.628	1341.65
452.002	1335.09
452.376	1397.46
452.75	1372.38
453.123	1412.15
453.497	1414.86
453.871	1416.22
454.244	1455.99
454.618	1445.82
454.992	1477.24
455.365	1478.59
455.739	1484.92
456.112	1522.66
456.486	1531.92
456.859	1543
457.232	1570.34
457.606	1552.94
457.979	1606.72
458.352	1627.97
458.725	1600.62
459.099	1625.71
459.472	1660.96
459.845	1693.27
460.218	1710.9
460.591	1701.41
460.964	1710
461.337	1718.81
461.71	1778.02
462.083	1812.59
462.456	1802.65
462.829	1832.25
463.201	1846.94
463.574	1899.37
463.947	1882.42
464.32	1939.82
464.692	1928.75
465.065	1967.84
465.438	2021.18
465.81	2021.18
466.183	2054.4
466.555	2055.98
466.928	2105.24
467.3	2101.4
467.672	2147.95
468.045	2199.48
468.417	2208.29
468.789	2198.8
469.161	2234.73
469.534	2256.65
469.906	2324.44
470.278	2368.96
470.65	2389.53
471.022	2437.21
471.394	2468.85
471.766	2497.32
472.138	2552.46
472.51	2593.82
472.882	2638.79
473.253	2687.15
473.625	2722.85
473.997	2808.95
474.369	2827.93
474.74	2899.12
475.112	2944.77
475.484	2984.09
475.855	3044.43
476.227	3091.88
476.598	3173.69
476.97	3186.34
477.341	3242.16
477.713	3344.3
478.084	3374.59
478.455	3489.39
478.827	3493.91
479.198	3601.7
479.569	3663.84
479.94	3769.38
480.311	3783.62
480.682	3860.68
481.053	3977.51
481.424	4045.76
481.795	4091.18
482.166	4144.51
482.537	4226.32
482.908	4348.12
483.279	4343.37
483.65	4511.51
484.021	4580.2
484.391	4552.18
484.762	4690.03
485.133	4743.14
485.503	4836.02
485.874	4897.03
486.244	4964.83
486.615	5040.53
486.985	5117.37
487.356	5238.72
487.726	5247.08
488.097	5407.3
488.467	5412.72
488.837	5529.78
489.207	5603.91
489.578	5745.6
489.948	5777.69
490.318	5836.67
490.688	5835.31
491.058	5973.61
491.428	6075.98
491.798	6148.3
492.168	6236.66
492.538	6228.3
492.908	6316.43
493.278	6386.71
493.648	6442.98
494.017	6544.22
494.387	6579.7
494.757	6648.4
495.126	6719.81
495.496	6764.33
495.866	6801.39
496.235	6845
496.605	6923.87
496.974	6978.79
497.344	7050.87
497.713	7164.54
498.082	7158.22
498.452	7228.95
498.821	7292.9
499.19	7333.13
499.559	7463.29
499.928	7464.2
500.298	7491.99
500.667	7611.76
501.036	7531.31
501.405	7624.87
501.774	7685.89
502.143	7778.54
502.512	7874.36
502.88	7943.73
503.249	8023.73
503.618	8009.72
503.987	8028.25
504.356	8138.3
504.724	8200.22
505.093	8248.81
505.462	8227.11
505.83	8258.75
506.199	8432.08
506.567	8508.01
506.936	8486.77
507.304	8600.21
507.672	8675.92
508.041	8706.42
508.409	8802.92
508.777	8804.73
509.145	8924.95
509.514	8922.01
509.882	9044.04
510.25	9071.61
510.618	9160.65
510.986	9177.6
511.354	9278.39
511.722	9381.89
512.09	9490.13
512.458	9477.25
512.826	9585.72
513.193	9654.65
513.561	9677.02
513.929	9824.81
514.297	9899.39
514.664	9953.62
515.032	10048.99
515.4	10153.17
515.767	10187.74
516.135	10290.11
516.502	10207.18
516.869	10464.57
517.237	10455.76
517.604	10432.25
517.972	10592.7
518.339	10712.47
518.706	10822.98
519.073	10864.33
519.44	10878.34
519.808	11015.29
520.175	10964.67
520.542	11246.02
520.909	11300.71
521.276	11360.82
521.643	11486.46
522.009	11558.33
522.376	11636.29
522.743	11678.55
523.11	11794.7
523.477	11967.58
523.843	12017.97
524.21	12095.94
524.577	12198.08
524.943	12306.55
525.31	12426.33
525.676	12518.75
526.043	12610.73
526.409	12713.1
526.776	12885.97
527.142	12904.73
527.508	12987.44
527.874	13113.31
528.241	13071.96
528.607	13142.69
528.973	13398.5
529.339	13375
529.705	13506.75
530.071	13666.29
530.437	13659.74
530.803	13741.32
531.169	13900.41
531.535	13885.5
531.901	13875.55
532.267	14066.06
532.632	14107.86
532.998	14177.24
533.364	14253.4
533.73	14322.77
534.095	14361.42
534.461	14426.73
534.826	14600.73
535.192	14626.04
535.557	14725.7
535.923	14704.01
536.288	14799.37
536.653	14866.49
537.019	14838.69
537.384	14952.81
537.749	14929.76
538.114	15040.04
538.479	15064.67
538.845	15142.86
539.21	15178.57
539.575	15194.61
539.94	15205.69
540.305	15408.39
540.67	15381.5
541.034	15565.23
541.399	15547.15
541.764	15592.8
542.129	15691.32
542.494	15668.73
542.858	15752.57
543.223	15816.07
543.587	15955.72
543.952	15972.45
544.316	15910.98
544.681	15995.5
545.045	16079.79
545.41	16170.86
545.774	16197.75
546.138	16255.38
546.503	16315.94
546.867	16399.1
547.231	16524.3
547.595	16442.49
547.959	16596.39
548.324	16755.7
548.688	16677.06
549.052	16737.17
549.416	16816.94
549.779	16906.66
550.143	16976.04
550.507	17116.6
550.871	17111.85
551.235	17171.74
551.599	17346.2
551.962	17419.64
552.326	17409.47
552.689	17523.82
553.053	17531.28
553.417	17585.74
553.78	17989.57
554.143	17931.72
554.507	17997.03
554.87	18121.54
555.234	18283.12
555.597	18253.29
555.96	18360.63
556.323	18529.89
556.686	18532.61
557.05	18786.38
557.413	18770.57
557.776	18899.15
558.139	19043.1
558.502	19219.14
558.865	19339.36
559.228	19478.57
559.59	19471.79
559.953	19569.41
560.316	19888.05
560.679	19952.23
561.041	20132.56
561.404	20277.64
561.767	20549.95
562.129	20529.39
562.492	20729.16
562.854	20782.49
563.217	20823.85
563.579	21103.39
563.941	21204.63
564.304	21276.49
564.666	21474.9
565.028	21605.07
565.39	21710.6
565.753	21892.52
566.115	22156.01
566.477	22211.83
566.839	22238.27
567.201	22483.91
567.563	22512.61
567.925	22793.74
568.287	23023.34
568.648	23042.32
569.01	23274.63
569.372	23369.09
569.734	23390.56
570.095	23752.36
570.457	23839.13
570.819	24086.58
571.18	24104.21
571.542	24362.06
571.903	24399.57
572.265	24617.64
572.626	24754.36
572.987	24928.82
573.349	24957.52
573.71	25273.22
574.071	25309.38
574.432	25547.56
574.794	25775.81
575.155	25829.82
575.516	25809.02
575.877	26140.54
576.238	26168.79
576.599	26380.54
576.96	26386.86
577.32	26454.66
577.681	26659.62
578.042	26846.96
578.403	26931.93
578.763	27054.42
579.124	27112.04
579.485	27277.69
579.845	27410.79
580.206	27504.12
580.566	27384.35
580.927	27614.4
581.287	27815.07
581.648	27863.43
582.008	27979.14
582.368	27977.1
582.728	28125.57
583.089	28093.26
583.449	28090.09
583.809	28338.9
584.169	28293.71
584.529	28313.37
584.889	28492.57
585.249	28416.87
585.609	28432.68
585.969	28755.16
586.329	28595.17
586.688	28695.73
587.048	28684.88
587.408	28653.92
587.768	28690.76
588.127	28729.63
588.487	28791.32
588.846	28957.42
589.206	28809.4
589.565	28911.99
589.925	29195.38
590.284	28997.19
590.643	29096.4
591.003	29155.38
591.362	29139.78
591.721	29261.36
592.08	29218.65
592.44	29445.31
592.799	29288.03
593.158	29306.33
593.517	29291.65
593.876	29391.53
594.235	29276.96
594.593	29412.77
594.952	29448.25
595.311	29322.83
595.67	29498.19
596.029	29627.46
596.387	29639.66
596.746	29684.4
597.104	29625.42
597.463	29608.47
597.822	29743.38
598.18	29615.93
598.538	29844.85
598.897	29844.62
599.255	29678.3
599.613	30036.48
599.972	29898.63
600.33	29799.65
600.688	29747.23
601.046	29835.36
601.404	30008.46
601.762	29959.65
602.12	30125.52
602.478	30087.56
602.836	30183.6
603.194	30032.64
603.552	30119.65
603.91	29963.49
604.268	30304.5
604.625	30121.45
604.983	30260.43
605.341	30123.26
605.698	30267.21
606.056	30282.35
606.413	30234.45
606.771	30384.95
607.128	30290.04
607.485	30309.47
607.843	30252.75
608.2	30403.71
608.557	30540.43
608.914	30312.64
609.272	30579.29
609.629	30527.77
609.986	30682.79
610.343	30567.54
610.7	30822.23
611.057	30748.1
611.414	30751.04
611.771	30746.52
612.127	30815.9
612.484	30877.59
612.841	31010.92
613.198	30829.68
613.554	30856.12
613.911	31122.78
614.267	31059.28
614.624	31025.61
614.98	31135.21
615.337	31316.45
615.693	31186.51
616.05	31075.33
616.406	31298.82
616.762	31304.47
617.118	31296.34
617.475	31396.45
617.831	31369.33
618.187	31349.9
618.543	31446.84
618.899	31437.35
619.255	31413.17
619.611	31483.45
619.967	31548.76
620.323	31637.8
620.678	31544.24
621.034	31440.97
621.39	31538.59
621.746	31488.42
622.101	31842.54
622.457	31599.38
622.812	31743.33
623.168	31751.24
623.523	31737.23
623.879	31915.08
624.234	31527.52
624.589	31799.6
624.945	31765.25
625.3	31777
625.655	31747.85
626.01	31713.95
626.365	31672.83
626.72	31662.88
627.075	31661.75
627.43	31766.16
627.785	31713.95
628.14	31804.12
628.495	31707.63
628.85	31599.16
629.205	31542.66
629.559	31567.97
629.914	31447.29
630.269	31514.64
630.623	31489.55
630.978	31330.46
631.332	31527.97
631.687	31597.57
632.041	31469.21
632.396	31415.43
632.75	31233.06
633.104	31374.75
633.459	31235.77
633.813	31265.15
634.167	31214.98
634.521	31252.27
634.875	31258.82
635.229	31245.72
635.583	31019.51
635.937	31043.01
636.291	31019.74
636.645	31001.88
636.999	31006.63
637.352	30978.38
637.706	30864.03
638.06	30939.96
638.413	30811.83
638.767	30753.08
639.121	30766.63
639.474	30540.88
639.828	30679.18
640.181	30682.79
640.534	30827.2
640.888	30643.02
641.241	30544.72
641.594	30579.29
641.947	30650.48
642.301	30501.33
642.654	30497.94
643.007	30591.05
643.36	30590.14
643.713	30402.35
644.066	30534.55
644.419	30426.98
644.771	30358.96
645.124	29969.82
645.477	29862.48
645.83	29766.89
646.182	29625.87
646.535	29522.83
646.888	29617.29
647.24	29421.59
647.593	29610.51
647.945	29436.95
648.298	29367.8
648.65	29309.72
649.002	29217.75
649.355	29327.58
649.707	29404.86
650.059	29487.35
650.411	29725.08
650.763	29876.26
651.115	30103.15
651.467	30097.27
651.819	30025.19
652.171	29959.65
652.523	29961.91
652.875	30066.54
653.227	29987.67
653.578	30004.85
653.93	30088.46
654.282	29792.65
654.633	29799.65
654.985	29884.62
655.337	29856.6
655.688	29898.63
656.039	29920.33
656.391	29673.78
656.742	29779.32
657.094	29726.44
657.445	29944.06
657.796	29732.99
658.147	29725.76
658.498	29754.46
658.849	29793.1
659.2	29735.25
659.551	29693.67
659.902	29790.39
660.253	29690.96
660.604	29803.04
660.955	29580.9
661.306	29798.3
661.656	29755.14
662.007	29654.35
662.358	29707.91
662.708	29638.3
663.059	29597.85
663.409	29474.24
663.76	29688.02
664.11	29729.83
664.461	29687.11
664.811	29617.06
665.161	29670.84
665.511	29625.87
665.862	29632.2
666.212	29710.84
666.562	29742.71
666.912	29644.63
667.262	29642.14
667.612	29606.21
667.962	29567.8
668.312	29589.49
668.662	29814.8
669.011	29596.5
669.361	29488.7
669.711	29522.83
670.06	29466.1
670.41	29394.47
670.76	29382.49
671.109	29489.61
671.459	29481.92
671.808	29476.95
672.157	29479.21
672.507	29346.78
672.856	29357.41
673.205	29231.76
673.554	29442.38
673.904	29174.36
674.253	29424.3
674.602	29189.27
674.951	28866.35
675.3	28679.68
675.649	29180.46
675.998	28937.98
676.346	29069.96
676.695	29150.86
677.044	28942.73
677.393	29120.35
677.741	29070.86
678.09	28953.35
678.438	28994.93
678.787	29008.71
679.135	28935.72
679.484	28817.53
679.832	28833.8
680.181	28756.97
680.529	28882.84
680.877	28646.92
681.225	28590.87
681.573	28778.21
681.922	28446.02
682.27	28556.75
682.618	28651.89
682.966	28429.52
683.314	28516.75
683.661	28373.03
684.009	28190.88
684.357	28195.85
684.705	28128.96
685.053	28131.22
685.4	28192.92
685.748	27978.46
686.095	28016.42
686.443	27898.91
686.79	27834.96
687.138	27814.85
687.485	27825.92
687.832	27704.12
688.18	27714.51
688.527	27604.23
688.874	27523.78
689.221	27514.74
689.568	27279.27
689.915	27187.52
690.262	27153.17
690.609	27165.37
690.956	27263
691.303	26975.77
691.65	26853.74
691.997	26837.47
692.344	26642.68
692.69	26712.73
693.037	26747.31
693.383	26522
693.73	26637.7
694.077	26470.7
694.423	26404.26
694.769	26303.7
695.116	26168.34
695.462	26146.64
695.808	26017.15
696.155	25968.12
696.501	25790.27
696.847	25801.57
697.193	25654.68
697.539	25710.72
697.885	25491.07
698.231	25378.53
698.577	25457.17
698.923	25480.45
699.269	25314.12
699.614	25139.66
699.96	25165.65
700.306	25130.85
700.651	24863.51
700.997	24851.54
701.342	24874.13
701.688	24840.24
702.033	24668.26
702.379	24579.9
702.724	24593.46
703.069	24569.96
703.415	24326.35
703.76	24235.51
704.105	24307.14
704.45	24119.35
704.795	24065.79
705.14	23934.95
705.485	23965.68
705.83	23828.29
706.175	23796.65
706.52	23847.49
706.865	23690.66
707.209	23720.49
707.554	23515.75
707.899	23598.91
708.243	23444.12
708.588	23407.96
708.932	23240.73
709.277	23165.03
709.621	23200.28
709.966	23113.28
710.31	23083.45
710.654	22864.47
710.998	23037.8
711.342	22896.33
711.687	22981.53
712.031	22824.02
712.375	22811.59
712.719	22759.16
713.063	22749.44
713.407	22796.22
713.75	22620.63
714.094	22647.53
714.438	22376.35
714.782	22577.02
715.125	22425.84
715.469	22447.53
715.812	22429.68
716.156	22285.05
716.499	22328.89
716.843	22408.44
717.186	22104.72
717.53	22292.51
717.873	22227.65
718.216	22216.58
718.559	22097.26
718.902	22022.68
719.246	22184.04
719.589	21935
719.932	21906.3
720.275	22010.03
720.617	21834.67
720.96	21910.6
721.303	21976.81
721.646	21862.46
721.989	21665.63
722.331	21786.98
722.674	21672.64
723.016	21711.05
723.359	21742.01
723.701	21691.17
724.044	21669.47
724.386	21478.07
724.729	21622.69
725.071	21497.73
725.413	21622.24
725.755	21520.78
726.097	21474.45
726.439	21383.83
726.782	21470.38
727.124	21508.8
727.465	21386.99
727.807	21503.38
728.149	21413.89
728.491	21327.33
728.833	21377.95
729.175	21393.77
729.516	21230.39
729.858	21402.13
730.199	21343.38
730.541	21347.67
730.882	21165.08
731.224	21286.88
731.565	21186.1
731.906	21256.15
732.248	21137.96
732.589	21191.52
732.93	21060.45
733.271	21132.99
733.612	21259.99
733.953	21179.09
734.294	21044.4
734.635	21036.49
734.976	21101.13
735.317	21008.92
735.658	20974.12
735.999	21086.21
736.339	21057.51
736.68	21073.78
737.021	21081.01
737.361	21018.64
737.702	21107.68
738.042	21066.55
738.383	21000.56
738.723	21051.86
739.063	20993.78
739.404	21042.6
739.744	20982.49
740.084	20908.14
740.424	20948.81
740.764	20914.92
741.104	20944.97
741.444	20928.7
741.784	20858.42
742.124	20982.03
742.464	21026.78
742.804	20845.99
743.143	20887.35
743.483	20839.44
743.823	20774.58
744.162	20724.86
744.502	20851.42
744.841	20766.22
745.181	20889.61
745.52	20786.56
745.86	20905.88
746.199	20738.42
746.538	20799.21
746.877	20829.04
747.216	20823.85
747.556	20746.56
747.895	20794.47
748.234	20618.65
748.573	20685.54
748.911	20640.35
749.25	20750.4
749.589	20599.9
749.928	20499.11
750.267	20669.72
750.605	20547.69
750.944	20652.1
751.283	20469.73
751.621	20640.8
751.96	20437.41
752.298	20560.35
752.636	20474.02
752.975	20456.4
753.313	20459.33
753.651	20460.92
753.989	20348.6
754.327	20214.82
754.666	20256.85
755.004	20325.78
755.342	20327.59
755.679	20227.02
756.017	20129.4
756.355	20162.85
