Data from tablewood_dark_bookshelf_FLMS001491_00048.txt Node
Date: Wed Feb 08 14:14:49 GMT 2017
User: dcchb
Spectrometer: FLMS00149
Trigger mode: 0
Integration Time (sec): 2.000000E-2
Scans to average: 10
Electric dark correction enabled: true
Nonlinearity correction enabled: false
Boxcar width: 0
XAxis mode: Wavelengths
Number of Pixels in Spectrum: 2048
>>>>>Begin Spectral Data<<<<<
341.393	-19.62
341.776	-19.62
342.16	-19.62
342.543	-46.28
342.927	-49.45
343.31	-73.85
343.693	-61.2
344.077	-64.59
344.46	-68.88
344.843	-86.96
345.226	-30.92
345.61	-39.05
345.993	-1.09
346.376	-3.35
346.759	21.96
347.142	29.42
347.525	56.31
347.908	43.66
348.291	79.36
348.674	101.96
349.057	97.21
349.44	151.45
349.823	152.13
350.206	159.36
350.588	189.42
350.971	183.54
351.354	209.53
351.737	220.6
352.119	236.42
352.502	242.07
352.884	265.8
353.267	271.22
353.65	284.55
354.032	284.78
354.414	280.26
354.797	275.29
355.179	292.46
355.562	292.69
355.944	306.02
356.326	335.85
356.709	333.82
357.091	325.46
357.473	322.52
357.855	328.4
358.238	320.49
358.62	343.31
359.002	308.28
359.384	329.3
359.766	313.71
360.148	325.91
360.53	321.39
360.912	314.16
361.294	338.56
361.676	320.49
362.057	326.81
362.439	302.41
362.821	308.73
363.203	321.62
363.584	334.04
363.966	319.81
364.348	319.58
364.729	326.36
365.111	319.58
365.493	312.35
365.874	304.44
366.256	290.66
366.637	298.79
367.019	303.76
367.4	325.23
367.781	294.95
368.163	324.78
368.544	298.79
368.925	327.49
369.306	309.64
369.688	284.78
370.069	312.35
370.45	305.12
370.831	312.8
371.212	313.25
371.593	293.14
371.974	316.42
372.355	306.25
372.736	308.96
373.117	290.66
373.498	301.73
373.879	322.29
374.26	323.42
374.641	297.89
375.021	311.9
375.402	313.48
375.783	322.07
376.163	311.22
376.544	327.49
376.925	320.26
377.305	316.42
377.686	312.58
378.066	331.79
378.447	327.49
378.827	343.54
379.208	343.99
379.588	312.8
379.968	329.75
380.349	332.69
380.729	337.43
381.109	321.84
381.489	353.93
381.87	347.6
382.25	349.64
382.63	323.42
383.01	343.31
383.39	333.59
383.77	341.73
384.15	344.67
384.53	345.57
384.91	340.37
385.29	352.58
385.67	334.27
386.049	347.6
386.429	332.46
386.809	349.64
387.189	360.48
387.568	335.4
387.948	354.16
388.328	357.32
388.707	340.82
389.087	339.69
389.466	364.55
389.846	374.27
390.225	388.05
390.605	382.63
390.984	378.11
391.363	390.77
391.743	398.9
392.122	374.5
392.501	384.67
392.881	394.38
393.26	417.21
393.639	384.44
394.018	377.43
394.397	377.43
394.776	374.5
395.155	396.42
395.534	393.03
395.913	418.34
396.292	398.22
396.671	376.98
397.05	403.65
397.429	407.26
397.808	396.87
398.186	397.77
398.565	397.32
398.944	409.98
399.323	426.02
399.701	414.49
400.08	430.31
400.458	422.18
400.837	428.73
401.215	435.74
401.594	413.36
401.972	438.22
402.351	421.95
402.729	428.51
403.107	429.41
403.486	428.96
403.864	432.35
404.242	424.89
404.62	467.83
404.999	453.14
405.377	454.49
405.755	434.38
406.133	441.16
406.511	477.77
406.889	472.35
407.267	463.31
407.645	459.47
408.023	476.41
408.401	470.99
408.779	487.49
409.156	468.96
409.534	464.66
409.912	491.55
410.29	483.19
410.667	503.76
411.045	486.58
411.422	499.24
411.8	490.2
412.178	503.76
412.555	518.45
412.933	525.23
413.31	506.7
413.687	525.9
414.065	528.84
414.442	540.82
414.819	529.97
415.197	548.28
415.574	543.3
415.951	541.72
416.328	532.91
416.705	547.82
417.082	564.55
417.46	550.31
417.837	568.16
418.214	564.55
418.591	583.76
418.967	558.9
419.344	568.61
419.721	581.04
420.098	607.48
420.475	595.73
420.852	592.8
421.228	590.54
421.605	596.86
421.982	605
422.358	601.16
422.735	603.64
423.111	600.25
423.488	616.52
423.864	617.65
424.241	625.11
424.617	654.94
424.994	651.32
425.37	646.13
425.746	646.13
426.123	669.4
426.499	657.65
426.875	663.98
427.251	660.59
427.627	675.73
428.003	691.1
428.379	681.83
428.756	665.79
429.132	689.74
429.507	719.8
429.883	705.79
430.259	715.5
430.635	748.72
431.011	738.1
431.387	750.98
431.763	755.28
432.138	735.39
432.514	757.99
432.89	757.54
433.265	779.46
433.641	780.36
434.016	801.6
434.392	780.59
434.767	808.83
435.143	788.95
435.518	830.08
435.894	815.84
436.269	817.2
436.644	844.77
437.02	823.52
437.395	834.37
437.77	838.89
438.145	882.05
438.52	894.48
438.895	870.08
439.271	881.6
439.646	890.19
440.021	901.94
440.395	917.08
440.77	896.52
441.145	910.75
441.52	936.29
441.895	913.24
442.27	939.9
442.645	958.89
443.019	977.19
443.394	951.88
443.769	981.03
444.143	973.8
444.518	962.05
444.892	965.67
445.267	960.47
445.641	1002.05
446.016	994.82
446.39	985.55
446.764	1004.31
447.139	1008.38
447.513	1011.99
447.887	1009.96
448.262	1010.41
448.636	1027.13
449.01	1034.14
449.384	1028.04
449.758	1061.48
450.132	1061.26
450.506	1057.87
450.88	1079.34
451.254	1058.32
451.628	1086.79
452.002	1066.23
452.376	1102.61
452.75	1115.27
453.123	1117.75
453.497	1133.35
453.871	1163.18
454.244	1167.7
454.618	1168.15
454.992	1189.62
455.365	1218.09
455.739	1220.58
456.112	1221.48
456.486	1249.05
456.859	1248.15
457.232	1262.61
457.606	1243.4
457.979	1261.03
458.352	1295.38
458.725	1294.47
459.099	1335.37
459.472	1348.03
459.845	1363.17
460.218	1369.05
460.591	1367.69
460.964	1377.18
461.337	1384.41
461.71	1441.36
462.083	1435.48
462.456	1430.29
462.829	1452.66
463.201	1489.49
463.574	1477.29
463.947	1463.05
464.32	1543.73
464.692	1522.04
465.065	1552.09
465.438	1569.72
465.81	1574.46
466.183	1608.81
466.555	1621.02
466.928	1642.94
467.3	1672.54
467.672	1682.03
468.045	1707.12
468.417	1706.89
468.789	1720
469.161	1756.38
469.534	1738.3
469.906	1817.85
470.278	1795.7
470.65	1841.12
471.022	1866.66
471.394	1922.93
471.766	1910.05
472.138	1945.75
472.51	1987.33
472.882	1990.95
473.253	2008.13
473.625	2004.28
473.997	2087.22
474.369	2082.47
474.74	2129.48
475.112	2162.92
475.484	2207.89
475.855	2202.92
476.227	2241.79
476.598	2298.29
476.97	2319.53
477.341	2334.9
477.713	2380.77
478.084	2444.95
478.455	2485.4
478.827	2460.77
479.198	2578.51
479.569	2563.36
479.94	2611.73
480.311	2619.18
480.682	2711.61
481.053	2738.95
481.424	2776.47
481.795	2771.72
482.166	2851.94
482.537	2872.06
482.908	2929.23
483.279	2947.54
483.65	3023.01
484.021	3083.58
484.391	3134.2
484.762	3129.45
485.133	3194.08
485.503	3229.34
485.874	3314.08
486.244	3279.73
486.615	3364.47
486.985	3378.03
487.356	3451.93
487.726	3519.72
488.097	3571.93
488.467	3590.91
488.837	3636.1
489.207	3674.3
489.578	3721.98
489.948	3768.08
490.318	3815.54
490.688	3809.43
491.058	3893.5
491.428	3943.67
491.798	3973.72
492.168	4079.26
492.538	4029.31
492.908	4080.16
493.278	4168.29
493.648	4165.58
494.017	4255.98
494.387	4262.76
494.757	4301.4
495.126	4382.98
495.496	4374.62
495.866	4404.67
496.235	4477.66
496.605	4458.91
496.974	4478.79
497.344	4525.8
497.713	4580.26
498.082	4596.53
498.452	4686.7
498.821	4670.43
499.19	4691.22
499.559	4761.27
499.928	4757.21
500.298	4817.99
500.667	4846.69
501.036	4845.34
501.405	4921.49
501.774	4935.28
502.143	4963.98
502.512	5016.41
502.88	5016.63
503.249	5055.73
503.618	5089.85
503.987	5115.16
504.356	5164.43
504.724	5168.95
505.093	5188.15
505.462	5246.23
505.83	5256.63
506.199	5312.67
506.567	5369.84
506.936	5351.54
507.304	5529.16
507.672	5506.34
508.041	5509.05
508.409	5474.93
508.777	5612.55
509.145	5613
509.514	5637.86
509.882	5674.92
510.25	5706.33
510.618	5799.21
510.986	5802.83
511.354	5843.96
511.722	5895.71
512.09	5967.34
512.458	5970.28
512.826	6056.83
513.193	6045.31
513.561	6088.92
513.929	6133.67
514.297	6166.89
514.664	6196.72
515.032	6273.32
515.4	6271.97
515.767	6361.01
516.135	6365.75
516.502	6316.71
516.869	6472.64
517.237	6501.57
517.604	6503.6
517.972	6579.76
518.339	6570.94
518.706	6586.99
519.073	6719.41
519.44	6746.31
519.808	6768
520.175	6797.15
520.542	6913.53
520.909	6951.95
521.276	6963.25
521.643	7016.58
522.009	7081.44
522.376	7157.37
522.743	7127.31
523.11	7235.56
523.477	7290.92
523.843	7404.82
524.21	7449.11
524.577	7492.73
524.943	7495.44
525.31	7558.94
525.676	7724.81
526.043	7663.12
526.409	7719.39
526.776	7832.83
527.142	7850.68
527.508	7927.52
527.874	7987.85
528.241	8074.41
528.607	8099.72
528.973	8122.77
529.339	8099.94
529.705	8282.31
530.071	8291.58
530.437	8305.13
530.803	8383.55
531.169	8396.66
531.535	8381.97
531.901	8424.68
532.267	8527.95
532.632	8531.57
532.998	8547.84
533.364	8674.62
533.73	8680.72
534.095	8789.42
534.461	8729.76
534.826	8831.9
535.192	8786.7
535.557	8880.94
535.923	8861.28
536.288	8909.64
536.653	8989.18
537.019	8992.57
537.384	9047.71
537.749	9109.86
538.114	9089.29
538.479	9163.64
538.845	9144.21
539.21	9132.23
539.575	9226.92
539.94	9245.45
540.305	9366.8
540.67	9311.89
541.034	9293.13
541.399	9422.85
541.764	9466.91
542.129	9422.85
542.494	9486.35
542.858	9558.89
543.223	9506.69
543.587	9621.26
543.952	9621.48
544.316	9644.08
544.681	9716.62
545.045	9693.57
545.41	9740.13
545.774	9821.25
546.138	9862.83
546.503	9871.2
546.867	9872.33
547.231	9929.27
547.595	9960.91
547.959	9913.45
548.324	9998.88
548.688	10032.77
549.052	10077.29
549.416	10061.25
549.779	10098.31
550.143	10123.62
550.507	10188.93
550.871	10224.63
551.235	10206.1
551.599	10332.2
551.962	10346.66
552.326	10485.19
552.689	10499.65
553.053	10432.54
553.417	10424.85
553.78	10638.63
554.143	10514.34
554.507	10614.45
554.87	10682.7
555.234	10735.58
555.597	10756.14
555.96	10795.24
556.323	10804.28
556.686	10839.08
557.05	10963.14
557.413	10978.28
557.776	10990.49
558.139	11020.54
558.502	11124.5
558.865	11072.97
559.228	11199.97
559.59	11188
559.953	11268.45
560.316	11392.96
560.679	11307.09
561.041	11445.62
561.404	11564.71
561.767	11571.94
562.129	11569.91
562.492	11683.58
562.854	11677.7
563.217	11693.97
563.579	11808.77
563.941	11956.34
564.304	11968.09
564.666	12040.18
565.028	12082.66
565.39	12077.01
565.753	12114.07
566.115	12183.22
566.477	12254.41
566.839	12343.9
567.201	12401.07
567.563	12496.21
567.925	12525.14
568.287	12578.24
568.648	12597.9
569.01	12665.92
569.372	12736.88
569.734	12685.36
570.095	12872.92
570.457	12898.69
570.819	12931.68
571.18	12841.51
571.542	13019.81
571.903	13095.07
572.265	13082.86
572.626	13147.27
572.987	13165.57
573.349	13230.43
573.71	13188.62
574.071	13315.17
574.432	13419.12
574.794	13464.77
575.155	13544.54
575.516	13462.74
575.877	13605.11
576.238	13577.09
576.599	13620.48
576.96	13657.31
577.32	13708.16
577.681	13794.26
578.042	13841.94
578.403	13810.75
578.763	13901.15
579.124	13959.22
579.485	13962.16
579.845	14041.03
580.206	14071.54
580.566	14144.76
580.927	14115.38
581.287	14178.43
581.648	14173.91
582.008	14274.47
582.368	14229.5
582.728	14300.68
583.089	14315.37
583.449	14218.2
583.809	14301.81
584.169	14431.3
584.529	14335.48
584.889	14547.68
585.249	14363.05
585.609	14485.31
585.969	14527.8
586.329	14465.2
586.688	14498.87
587.048	14511.07
587.408	14582.71
587.768	14603.73
588.127	14676.04
588.487	14553.33
588.846	14612.77
589.206	14645.31
589.565	14653.44
589.925	14676.27
590.284	14630.62
590.643	14737.96
591.003	14803.95
591.362	14821.8
591.721	14833.78
592.08	14749.71
592.44	14809.82
592.799	14867.45
593.158	14830.84
593.517	14927.79
593.876	14964.62
594.235	14842.59
594.593	14926.2
594.952	15057.73
595.311	14957.39
595.67	14933.89
596.029	15074
596.387	15069.02
596.746	15036.03
597.104	15166.65
597.463	15124.84
597.822	15154.22
598.18	15151.96
598.538	15249.36
598.897	15259.98
599.255	15056.37
599.613	15397.15
599.972	15284.16
600.33	15343.59
600.688	15289.36
601.046	15372.07
601.404	15440.99
601.762	15384.04
602.12	15482.12
602.478	15516.24
602.836	15456.36
603.194	15456.81
603.552	15501.56
603.91	15431.95
604.268	15491.61
604.625	15564.83
604.983	15573.87
605.341	15519.86
605.698	15606.19
606.056	15596.69
606.413	15651.38
606.771	15735.22
607.128	15642.34
607.485	15628.11
607.843	15716.01
608.2	15810.47
608.557	15798.27
608.914	15843.92
609.272	15780.64
609.629	15849.34
609.986	16012.5
610.343	15901.32
610.7	16034.42
611.057	15962.56
611.414	15960.53
611.771	16028.1
612.127	16133.4
612.484	16062.9
612.841	16126.62
613.198	16082.11
613.554	16106.06
613.911	16225.83
614.267	16151.93
614.624	16205.04
614.98	16196.23
615.337	16227.64
615.693	16179.28
616.05	16298.82
616.406	16389.44
616.762	16303.79
617.118	16325.94
617.475	16269.9
617.831	16450.68
618.187	16312.38
618.543	16309.9
618.899	16574.3
619.255	16462.89
619.611	16370.69
619.967	16472.38
620.323	16454.07
620.678	16442.55
621.034	16381.76
621.39	16492.94
621.746	16474.41
622.101	16524.13
622.457	16485.48
622.812	16440.06
623.168	16577.01
623.523	16578.14
623.879	16605.26
624.234	16490
624.589	16648.42
624.945	16469.21
625.3	16601.41
625.655	16515.31
626.01	16583.56
626.365	16625.82
626.72	16489.78
627.075	16550.12
627.43	16589.21
627.785	16497.46
628.14	16656.1
628.495	16656.33
628.85	16520.96
629.205	16491.81
629.559	16604.58
629.914	16415.43
630.269	16489.78
630.623	16421.76
630.978	16411.36
631.332	16456.11
631.687	16542.21
632.041	16469.44
632.396	16451.81
632.75	16429.89
633.104	16497.46
633.459	16374.98
633.813	16334.53
634.167	16394.19
634.521	16370.91
634.875	16386.96
635.229	16378.37
635.583	16270.8
635.937	16270.58
636.291	16364.13
636.645	16304.7
636.999	16273.74
637.352	16285.49
637.706	16160.3
638.06	16296.34
638.413	16267.86
638.767	16177.7
639.121	16165.72
639.474	16163.46
639.828	16104.25
640.181	16138.6
640.534	16095.66
640.888	16055.21
641.241	15958.04
641.594	16052.05
641.947	15984.48
642.301	16047.98
642.654	16058.83
643.007	16075.1
643.36	16031.49
643.713	16101.99
644.066	16018.83
644.419	15895.22
644.771	15864.94
645.124	15731.61
645.477	15731.83
645.83	15598.28
646.182	15531.39
646.535	15428.56
646.888	15484.38
647.24	15224.95
647.593	15429.92
647.945	15321.67
648.298	15361.9
648.65	15329.13
649.002	15220.21
649.355	15356.7
649.707	15376.59
650.059	15414.78
650.411	15604.15
650.763	15606.19
651.115	15787.88
651.467	15788.33
651.819	15669.46
652.171	15722.34
652.523	15692.51
652.875	15608.45
653.227	15603.93
653.578	15679.63
653.93	15609.58
654.282	15521.44
654.633	15583.36
654.985	15613.64
655.337	15554.44
655.688	15605.51
656.039	15655.22
656.391	15533.65
656.742	15493.65
657.094	15540.2
657.445	15521.89
657.796	15489.58
658.147	15516.7
658.498	15475.79
658.849	15572.29
659.2	15520.31
659.551	15457.26
659.902	15546.3
660.253	15545.85
660.604	15525.96
660.955	15467.21
661.306	15620.2
661.656	15544.27
662.007	15500.43
662.358	15560.76
662.708	15544.04
663.059	15482.57
663.409	15425.17
663.76	15536.36
664.11	15517.37
664.461	15535.68
664.811	15392.86
665.161	15463.59
665.511	15388.11
665.862	15520.54
666.212	15454.55
666.562	15516.92
666.912	15479.86
667.262	15467.66
667.612	15476.92
667.962	15475.12
668.312	15447.32
668.662	15482.57
669.011	15477.83
669.361	15443.03
669.711	15472.86
670.06	15424.95
670.41	15482.35
670.76	15410.48
671.109	15425.63
671.459	15272.41
671.808	15424.27
672.157	15424.5
672.507	15347.66
672.856	15406.19
673.205	15439.41
673.554	15331.84
673.904	15291.84
674.253	15427.43
674.602	15354.67
674.951	15123.71
675.3	15085.97
675.649	15327.32
675.998	15279.64
676.346	15386.98
676.695	15428.34
677.044	15246.87
677.393	15321.45
677.741	15330.71
678.09	15187.89
678.438	15252.52
678.787	15250.49
679.135	15288
679.484	15119.87
679.832	15242.81
680.181	15081
680.529	15146.76
680.877	15165.75
681.225	15117.84
681.573	15174.33
681.922	15132.53
682.27	15054.34
682.618	15044.17
682.966	15048.91
683.314	15051.62
683.661	15006.65
684.009	14884.17
684.357	14857.28
684.705	14923.27
685.053	14816.38
685.4	14843.04
685.748	14770.5
686.095	14766.43
686.443	14791.74
686.79	14693.67
687.138	14697.28
687.485	14712.42
687.832	14606.66
688.18	14601.01
688.527	14560.34
688.874	14548.13
689.221	14563.28
689.568	14479.44
689.915	14573.44
690.262	14512.2
690.609	14496.84
690.956	14443.05
691.303	14375.26
691.65	14268.82
691.997	14241.48
692.344	14306.78
692.69	14156.96
693.037	14185.66
693.383	14205.32
693.73	14196.05
694.077	14107.92
694.423	14124.87
694.769	13956.74
695.116	14032.89
695.462	13960.13
695.808	13903.41
696.155	14007.13
696.501	13876.06
696.847	13795.16
697.193	13693.24
697.539	13859.11
697.885	13699.57
698.231	13696.18
698.577	13674.49
698.923	13618.67
699.269	13535.28
699.614	13574.37
699.96	13537.54
700.306	13491.89
700.651	13446.69
700.997	13403.31
701.342	13330.99
701.688	13364.66
702.033	13345.68
702.379	13303.87
702.724	13286.47
703.069	13261.84
703.415	13091.22
703.76	13042.41
704.105	13060.04
704.45	13079.25
704.795	13012.36
705.14	13006.03
705.485	12939.14
705.83	12899.36
706.175	12961.74
706.52	12926.26
706.865	12860.72
707.209	12841.96
707.554	12788.63
707.899	12787.95
708.243	12689.2
708.588	12749.99
708.932	12674.06
709.277	12654.85
709.621	12680.16
709.966	12569.2
710.31	12610.33
710.654	12519.71
710.998	12540.05
711.342	12616.21
711.687	12470.9
712.031	12446.49
712.375	12432.94
712.719	12442.43
713.063	12404.24
713.407	12401.07
713.75	12308.42
714.094	12396.33
714.438	12253.51
714.782	12286.27
715.125	12291.92
715.469	12247.4
715.812	12200.85
716.156	12219.16
716.499	12186.84
716.843	12177.35
717.186	12096.22
717.53	12128.09
717.873	12174.86
718.216	12119.5
718.559	12071.36
718.902	12004.7
719.246	11983.91
719.589	11895.32
719.932	11906.4
720.275	11940.07
720.617	11985.49
720.96	11950.24
721.303	11945.72
721.646	11987.3
721.989	11855.78
722.331	11922.44
722.674	11831.14
723.016	11923.12
723.359	11865.04
723.701	11856
724.044	11813.07
724.386	11709.56
724.729	11841.09
725.071	11728.1
725.413	11721.09
725.755	11750.02
726.097	11683.13
726.439	11669.11
726.782	11627.76
727.124	11585.5
727.465	11626.63
727.807	11569
728.149	11534.88
728.491	11603.81
728.833	11552.06
729.175	11586.18
729.516	11522
729.858	11595.44
730.199	11615.33
730.541	11505.28
730.882	11559.96
731.224	11530.59
731.565	11499.63
731.906	11536.91
732.248	11483.58
732.589	11490.81
732.93	11453.07
733.271	11477.93
733.612	11516.8
733.953	11467.31
734.294	11405.17
734.635	11453.75
734.976	11511.15
735.317	11436.13
735.658	11388.67
735.999	11469.35
736.339	11470.7
736.68	11401.55
737.021	11397.71
737.361	11381.89
737.702	11404.71
738.042	11404.04
738.383	11301.67
738.723	11458.5
739.063	11341.44
739.404	11361.1
739.744	11300.99
740.084	11262.8
740.424	11292.17
740.764	11251.95
741.104	11301.67
741.444	11277.26
741.784	11318.61
742.124	11246.53
742.464	11282.46
742.804	11270.03
743.143	11277.94
743.483	11314.77
743.823	11221.67
744.162	11234.32
744.502	11237.94
744.841	11182.35
745.181	11264.83
745.52	11174.44
745.86	11177.38
746.199	11140.99
746.538	11155.68
746.877	11156.13
747.216	11191.39
747.556	11169.92
747.895	11209.01
748.234	11243.81
748.573	11045.63
748.911	11103.93
749.25	11109.13
749.589	11113.87
749.928	11060.32
750.267	11147.09
750.605	11057.15
750.944	10991.17
751.283	11042.46
751.621	11021.9
751.96	11001.79
752.298	11030.26
752.636	11068
752.975	10941
753.313	10979.19
753.651	10990.04
753.989	10904.39
754.327	10920.89
754.666	10798.63
755.004	10888.57
755.342	10869.36
755.679	10898.29
756.017	10753.21
756.355	10848.34
756.693	10787.1
757.031	10781.68
757.368	10746.2
757.706	10684.51
758.044	10694.68
758.381	10713.43
