Data from tablewood_dark_bookshelf_FLMS001491_00036.txt Node
Date: Wed Feb 08 14:14:26 GMT 2017
User: dcchb
Spectrometer: FLMS00149
Trigger mode: 0
Integration Time (sec): 2.000000E-2
Scans to average: 10
Electric dark correction enabled: true
Nonlinearity correction enabled: false
Boxcar width: 0
XAxis mode: Wavelengths
Number of Pixels in Spectrum: 2048
>>>>>Begin Spectral Data<<<<<
341.393	-23.7
341.776	-23.7
342.16	-23.7
342.543	-63.02
342.927	-73.19
343.31	-58.05
343.693	-59.18
344.077	-72.74
344.46	-56.02
344.843	-51.95
345.226	-47.65
345.61	-7.43
345.993	-28.22
346.376	-2.23
346.759	4.55
347.142	41.61
347.525	23.53
347.908	49.29
348.291	77.31
348.674	74.38
349.057	112.79
349.44	137.2
349.823	146.24
350.206	175.84
350.588	182.4
350.971	201.6
351.354	236.63
351.737	210.87
352.119	241.6
352.502	252.68
352.884	261.04
353.267	251.32
353.65	267.37
354.032	294.03
354.414	306.69
354.797	311.66
355.179	308.49
355.562	307.14
355.944	338.1
356.326	326.35
356.709	347.59
357.091	316.18
357.473	327.03
357.855	336.06
358.238	343.97
358.62	325.22
359.002	328.16
359.384	346.91
359.766	340.13
360.148	336.74
360.53	336.06
360.912	333.8
361.294	358.89
361.676	323.41
362.057	341.04
362.439	327.7
362.821	337.42
363.203	311.43
363.584	335.39
363.966	317.31
364.348	313.92
364.729	309.85
365.111	303.98
365.493	322.05
365.874	309.4
366.256	329.74
366.637	306.23
367.019	301.04
367.4	318.44
367.781	339.68
368.163	329.51
368.544	303.75
368.925	310.98
369.306	319.57
369.688	316.4
370.069	304.2
370.45	326.8
370.831	301.49
371.212	334.03
371.593	303.07
371.974	306.91
372.355	317.08
372.736	313.47
373.117	321.15
373.498	315.27
373.879	327.25
374.26	326.35
374.641	322.73
375.021	323.64
375.402	330.64
375.783	312.79
376.163	337.19
376.544	333.13
376.925	347.36
377.305	322.05
377.686	310.53
378.066	337.19
378.447	333.13
378.827	332.22
379.208	328.61
379.588	349.4
379.968	359.57
380.349	349.4
380.729	336.52
381.109	379.23
381.489	333.35
381.87	350.75
382.25	348.27
382.63	354.14
383.01	350.98
383.39	354.37
383.77	355.05
384.15	364.76
384.53	350.75
384.91	374.48
385.29	372.67
385.67	360.02
386.049	375.61
386.429	383.52
386.809	365.44
387.189	364.76
387.568	384.65
387.948	370.64
388.328	363.18
388.707	418.55
389.087	382.17
389.466	405.22
389.846	383.97
390.225	405.22
390.605	384.88
390.984	390.98
391.363	393.92
391.743	400.24
392.122	393.24
392.501	391.66
392.881	393.69
393.26	409.96
393.639	403.86
394.018	418.77
394.397	412.9
394.776	417.64
395.155	403.63
395.534	396.4
395.913	432.33
396.292	411.99
396.671	408.83
397.05	421.71
397.429	438.66
397.808	442.5
398.186	441.37
398.565	422.16
398.944	446.57
399.323	427.36
399.701	423.07
400.08	445.67
400.458	439.34
400.837	450.19
401.215	446.8
401.594	431.2
401.972	456.97
402.351	455.84
402.729	458.1
403.107	461.71
403.486	458.55
403.864	461.71
404.242	470.75
404.62	464.87
404.999	449.51
405.377	470.75
405.755	519.79
406.133	493.8
406.511	491.09
406.889	493.8
407.267	487.7
407.645	501.71
408.023	513.01
408.401	508.04
408.779	491.99
409.156	499.45
409.534	512.78
409.912	522.95
410.29	529.73
410.667	527.02
411.045	520.01
411.422	535.83
411.8	550.97
412.178	567.7
412.555	547.81
412.933	570.41
413.31	543.74
413.687	562.27
414.065	551.65
414.442	569.5
414.819	555.95
415.197	572.89
415.574	559.34
415.951	573.35
416.328	591.43
416.705	573.57
417.082	602.27
417.46	587.58
417.837	605.44
418.214	594.59
418.591	620.12
418.967	614.02
419.344	621.71
419.721	631.2
420.098	613.35
420.475	615.38
420.852	638.43
421.228	632.33
421.605	633.68
421.982	644.53
422.358	655.6
422.735	651.76
423.111	649.05
423.488	661.25
423.864	669.62
424.241	691.31
424.617	676.62
424.994	671.42
425.37	688.82
425.746	685.43
426.123	689.05
426.499	695.6
426.875	705.55
427.251	724.08
427.627	700.57
428.003	723.4
428.379	752.32
428.756	701.03
429.132	741.25
429.507	753
429.883	752.32
430.259	757.3
430.635	766.34
431.011	775.6
431.387	786.45
431.763	792.1
432.138	816.96
432.514	790.29
432.89	806.79
433.265	825.32
433.641	839.1
434.016	828.26
434.392	852.89
434.767	861.47
435.143	841.36
435.518	866.67
435.894	872.32
436.269	868.03
436.644	876.62
437.02	917.52
437.395	887.91
437.77	915.03
438.145	917.29
438.52	917.29
438.895	916.84
439.271	935.82
439.646	920.91
440.021	938.76
440.395	947.12
440.77	939.89
441.145	948.03
441.52	969.72
441.895	979.89
442.27	956.16
442.645	989.83
443.019	985.09
443.394	975.37
443.769	985.99
444.143	1000.23
444.518	1025.09
444.892	988.93
445.267	1000.23
445.641	1007.46
446.016	1044.52
446.39	1032.54
446.764	1023.28
447.139	1047.68
447.513	1035.48
447.887	1057.18
448.262	1056.95
448.636	1052.2
449.01	1078.42
449.384	1083.62
449.758	1072.54
450.132	1071.86
450.506	1092.88
450.88	1111.64
451.254	1111.64
451.628	1118.87
452.002	1132.88
452.376	1130.62
452.75	1151.18
453.123	1162.26
453.497	1171.07
453.871	1189.15
454.244	1200.9
454.618	1181.24
454.992	1207.23
455.365	1214.46
455.739	1222.37
456.112	1229.83
456.486	1241.8
456.859	1260.56
457.232	1279.54
457.606	1277.28
457.979	1282.71
458.352	1346.66
458.725	1343.5
459.099	1342.14
459.472	1350.95
459.845	1380.1
460.218	1380.33
460.591	1359.99
460.964	1412.19
461.337	1433.21
461.71	1430.73
462.083	1491.06
462.456	1484.06
462.829	1466.43
463.201	1484.28
463.574	1498.75
463.947	1519.08
464.32	1565.64
464.692	1549.14
465.065	1574.9
465.438	1560.21
465.81	1621
466.183	1619.87
466.555	1631.4
466.928	1648.57
467.3	1655.8
467.672	1664.84
468.045	1733.32
468.417	1721.79
468.789	1742.81
469.161	1739.19
469.534	1755.01
469.906	1789.59
470.278	1799.08
470.65	1806.76
471.022	1873.43
471.394	1871.17
471.766	1909.36
472.138	1947.77
472.51	1956.14
472.882	1988.9
473.253	2016.02
473.625	2030.26
473.997	2060.54
474.369	2080.2
474.74	2123.14
475.112	2123.81
475.484	2195
475.855	2178.05
476.227	2223.92
476.598	2260.31
476.97	2273.64
477.341	2319.06
477.713	2354.54
478.084	2340.98
478.455	2440.87
478.827	2508.66
479.198	2506.85
479.569	2483.8
479.94	2572.62
480.311	2577.81
480.682	2613.29
481.053	2705.49
481.424	2753.85
481.795	2756.11
482.166	2793.4
482.537	2850.57
482.908	2866.62
483.279	2914.75
483.65	3031.81
484.021	3035.65
484.391	3017.58
484.762	3065.03
485.133	3075.88
485.503	3119.72
485.874	3166.72
486.244	3210.79
486.615	3276.1
486.985	3343.22
487.356	3350
487.726	3376.21
488.097	3418.02
488.467	3491.91
488.837	3518.81
489.207	3538.01
489.578	3616.88
489.948	3648.29
490.318	3732.59
490.688	3692.13
491.058	3778.69
491.428	3782.3
491.798	3860.72
492.168	3891.9
492.538	3883.99
492.908	3975.29
493.278	4021.17
493.648	4062.29
494.017	4072.24
494.387	4081.95
494.757	4078.11
495.126	4215.28
495.496	4179.81
495.866	4198.56
496.235	4238.79
496.605	4273.36
496.974	4305.23
497.344	4375.28
497.713	4340.03
498.082	4443.53
498.452	4500.47
498.821	4491.44
499.19	4490.53
499.559	4581.15
499.928	4558.55
500.298	4614.37
500.667	4607.36
501.036	4632
501.405	4671.54
501.774	4731.88
502.143	4740.92
502.512	4803.29
502.88	4804.87
503.249	4815.49
503.618	4828.15
503.987	4860.24
504.356	4926.9
504.724	4945.89
505.093	4978.88
505.462	4994.7
505.83	5032.44
506.199	5070.18
506.567	5102.72
506.936	5104.53
507.304	5197.18
507.672	5206.9
508.041	5205.54
508.409	5255.03
508.777	5258.65
509.145	5380.9
509.514	5331.19
509.882	5403.95
510.25	5388.81
510.618	5467.23
510.986	5486.21
511.354	5540.67
511.722	5553.78
512.09	5654.79
512.458	5656.15
512.826	5710.84
513.193	5716.71
513.561	5712.87
513.929	5729.37
514.297	5830.84
514.664	5870.61
515.032	5913.32
515.4	5916.71
515.767	5982.02
516.135	6066.54
516.502	6031.06
516.869	6106.31
517.237	6132.75
517.604	6121.22
517.972	6213.88
518.339	6240.54
518.706	6342.91
519.073	6296.36
519.44	6317.6
519.808	6460.2
520.175	6436.02
520.542	6501.78
520.909	6556.47
521.276	6604.15
521.643	6636.01
522.009	6728.44
522.376	6742.22
522.743	6769.57
523.11	6860.86
523.477	6883.92
523.843	6924.82
524.21	7043.91
524.577	7090.01
524.943	7081.42
525.31	7146.73
525.676	7243.91
526.043	7251.81
526.409	7281.87
526.776	7408.42
527.142	7396.67
527.508	7439.15
527.874	7519.6
528.241	7545.59
528.607	7587.85
528.973	7663.56
529.339	7674.85
529.705	7742.65
530.071	7812.93
530.437	7866.26
530.803	7852.25
531.169	7908.52
531.535	7953.94
531.901	7984.68
532.267	8054.05
532.632	8090.66
532.998	8092.7
533.364	8208.4
533.73	8201.62
534.095	8260.6
534.461	8336.53
534.826	8312.13
535.192	8351.22
535.557	8478.45
535.923	8473.93
536.288	8403.65
536.653	8563.42
537.019	8452.01
537.384	8535.85
537.749	8608.84
538.114	8611.55
538.479	8633.7
538.845	8688.39
539.21	8679.8
539.575	8740.59
539.94	8840.47
540.305	8857.65
540.67	8856.07
541.034	8948.04
541.399	8979
541.764	8960.02
542.129	8999.79
542.494	9025.55
542.858	9003.41
543.223	9153.46
543.587	9133.35
543.952	9177.64
544.316	9164.08
544.681	9188.49
545.045	9224.87
545.41	9284.53
545.774	9295.38
546.138	9298.31
546.503	9356.39
546.867	9376.96
547.231	9491.76
547.595	9552.09
547.959	9515.48
548.324	9570.17
548.688	9577.4
549.052	9584.86
549.416	9637.06
549.779	9681.13
550.143	9688.59
550.507	9758.87
550.871	9823.5
551.235	9830.73
551.599	9911.41
551.962	9966.55
552.326	10004.06
552.689	10091.97
553.053	10002.7
553.417	10064.17
553.78	10177.16
554.143	10083.15
554.507	10209.03
554.87	10269.81
555.234	10265.52
555.597	10325.18
555.96	10332.19
556.323	10438.4
556.686	10422.81
557.05	10498.51
557.413	10531.73
557.776	10620.09
558.139	10729.01
558.502	10700.09
558.865	10692.63
559.228	10756.58
559.59	10855.11
559.953	10855.11
560.316	11043.13
560.679	10992.06
561.041	11181.2
561.404	11150.92
561.767	11309.79
562.129	11199.28
562.492	11399.28
562.854	11393.63
563.217	11375.32
563.579	11432.04
563.941	11534.19
564.304	11616.22
564.666	11733.51
565.028	11639.04
565.39	11701.19
565.753	11797.01
566.115	11842.88
566.477	11898.7
566.839	11994.52
567.201	12041.75
567.563	12130.33
567.925	12272.47
568.287	12226.15
568.648	12298.01
569.01	12313.15
569.372	12392.24
569.734	12354.51
570.095	12561.51
570.457	12608.28
570.819	12605.57
571.18	12667.49
571.542	12734.83
571.903	12742.29
572.265	12819.13
572.626	12895.51
572.987	12942.06
573.349	12937.54
573.71	13060.7
574.071	13098.44
574.432	13170.76
574.794	13289.17
575.155	13297.76
575.516	13338.21
575.877	13302.73
576.238	13465.44
576.599	13525.55
576.96	13450.97
577.32	13577.75
577.681	13670.63
578.042	13687.13
578.403	13602.38
578.763	13752.21
579.124	13782.49
579.485	13794.47
579.845	13902.71
580.206	13908.14
580.566	13854.81
580.927	14005.99
581.287	14085.99
581.648	14044.63
582.008	14010.51
582.368	14104.06
582.728	14109.26
583.089	14189.94
583.449	14135.02
583.809	14223.84
584.169	14314.23
584.529	14285.08
584.889	14419.54
585.249	14289.14
585.609	14337.73
585.969	14468.12
586.329	14537.73
586.688	14471.74
587.048	14526.2
587.408	14434
587.768	14577.27
588.127	14538.86
588.487	14542.7
588.846	14693.2
589.206	14628.12
589.565	14641.45
589.925	14742.24
590.284	14706.53
590.643	14728.68
591.003	14843.03
591.362	14825.63
591.721	14848.23
592.08	14924.38
592.44	14915.79
592.799	14952.86
593.158	14979.75
593.517	14956.7
593.876	15015.45
594.235	14924.38
594.593	15007.77
594.952	15074.21
595.311	15080.99
595.67	15103.13
596.029	15228.55
596.387	15222.9
596.746	15286.18
597.104	15300.19
597.463	15316.01
597.822	15293.86
598.18	15256.35
598.538	15311.26
598.897	15459.96
599.255	15318.27
599.613	15539.73
599.972	15425.16
600.33	15485.5
600.688	15428.1
601.046	15529.79
601.404	15614.31
601.762	15617.02
602.12	15571.82
602.478	15663.35
602.836	15632.16
603.194	15539.28
603.552	15630.35
603.91	15612.05
604.268	15725.72
604.625	15687.3
604.983	15788.77
605.341	15724.36
605.698	15866.28
606.056	15892.49
606.413	15792.83
606.771	15957.8
607.128	16000.06
607.485	15828.54
607.843	15949.89
608.2	16008.65
608.557	16064.69
608.914	16002.09
609.272	16067.4
609.629	16140.17
609.986	16151.92
610.343	16066.72
610.7	16248.41
611.057	16217.45
611.414	16218.81
611.771	16198.25
612.127	16299.94
612.484	16343.55
612.841	16310.11
613.198	16277.11
613.554	16349.43
613.911	16417
614.267	16498.35
614.624	16388.98
614.98	16510.78
615.337	16518.01
615.693	16473.95
616.05	16532.93
616.406	16741.96
616.762	16559.37
617.118	16692.47
617.475	16617.44
617.831	16683.21
618.187	16610.89
618.543	16694.05
618.899	16787.84
619.255	16809.3
619.611	16759.36
619.967	16815.18
620.323	16880.04
620.678	16723.88
621.034	16723.43
621.39	16770.21
621.746	16749.19
622.101	16877.1
622.457	16787.61
622.812	16806.59
623.168	16929.98
623.523	16874.61
623.879	16924.78
624.234	16772.69
624.589	16791.45
624.945	16832.13
625.3	16928.17
625.655	16860.15
626.01	16890.66
626.365	16887.49
626.72	16844.56
627.075	16898.57
627.43	16922.3
627.785	16870.77
628.14	16765.46
628.495	16863.09
628.85	16909.87
629.205	16826.25
629.559	16817.67
629.914	16839.81
630.269	16813.82
630.623	16848.4
630.978	16782.41
631.332	16753.26
631.687	16868.06
632.041	16869.64
632.396	16874.61
632.75	16771.56
633.104	16799.13
633.459	16664.9
633.813	16813.37
634.167	16811.34
634.521	16800.72
634.875	16715.29
635.229	16782.41
635.583	16584.9
635.937	16677.78
636.291	16580.38
636.645	16552.14
636.999	16615.41
637.352	16581.51
637.706	16555.53
638.06	16570.21
638.413	16501.74
638.767	16561.4
639.121	16599.37
639.474	16521.85
639.828	16499.93
640.181	16512.81
640.534	16497.9
640.888	16409.99
641.241	16344.46
641.594	16371.35
641.947	16425.36
642.301	16328.86
642.654	16400.05
643.007	16341.75
643.36	16417
643.713	16305.14
644.066	16391.46
644.419	16270.56
644.771	16184.91
645.124	15978.59
645.477	15965.94
645.83	15913.73
646.182	15791.03
646.535	15794.42
646.888	15849.33
647.24	15847.97
647.593	15944.47
647.945	15874.64
648.298	15913.73
648.65	15836
649.002	15738.15
649.355	15808.43
649.707	15760.52
650.059	15812.72
650.411	16014.75
650.763	15989.66
651.115	16150.11
651.467	16139.26
651.819	16042.54
652.171	16119.38
652.523	16064.24
652.875	16098.81
653.227	16064.24
653.578	16173.16
653.93	16028.99
654.282	16002.09
654.633	16023.34
654.985	15975.65
655.337	16033.5
655.688	16042.54
656.039	15999.38
656.391	15906.5
656.742	15995.54
657.094	15995.99
657.445	16108.08
657.796	16068.76
658.147	16071.7
658.498	15909.21
658.849	16007.97
659.2	16011.13
659.551	15864.02
659.902	16002.32
660.253	15919.16
660.604	15968.65
660.955	16014.97
661.306	15985.6
661.656	15935.65
662.007	15937.91
662.358	15983.56
662.708	15963.9
663.059	15988.53
663.409	15857.92
663.76	16008.42
664.11	15987.86
664.461	15980.63
664.811	15957.35
665.161	15944.47
665.511	15825.15
665.862	15990.79
666.212	15897.46
666.562	16045.48
666.912	15931.81
667.262	15910.12
667.612	15916.67
667.962	15976.33
668.312	15914.86
668.662	15910.12
669.011	15996.44
669.361	15884.36
669.711	15870.12
670.06	15899.95
670.41	15837.13
670.76	15909.21
671.109	15991.92
671.459	15897.69
671.808	15839.84
672.157	15880.97
672.507	15842.32
672.856	15829.22
673.205	15886.16
673.554	15944.02
673.904	15828.31
674.253	15888.65
674.602	15833.06
674.951	15681.42
675.3	15592.39
675.649	15862.44
675.998	15829.44
676.346	15827.63
676.695	15847.97
677.044	15738.15
677.393	15820.4
677.741	15830.8
678.09	15700.63
678.438	15668.54
678.787	15769.78
679.135	15818.82
679.484	15728.2
679.832	15728.2
680.181	15674.42
680.529	15740.86
680.877	15638.26
681.225	15697.24
681.573	15694.53
681.922	15636
682.27	15616.57
682.618	15554.87
682.966	15501.32
683.314	15605.49
683.661	15561.88
684.009	15427.19
684.357	15478.04
684.705	15363.24
685.053	15407.53
685.4	15415.67
685.748	15362.34
686.095	15305.39
686.443	15310.81
686.79	15345.84
687.138	15364.6
687.485	15311.26
687.832	15218.39
688.18	15238.05
688.527	15244.83
688.874	15214.77
689.221	15142.45
689.568	15081.21
689.915	14981.56
690.262	15059.52
690.609	15031.95
690.956	14912.4
691.303	14914.66
691.65	14871.05
691.997	14840.77
692.344	14840.99
692.69	14775.01
693.037	14819.07
693.383	14720.55
693.73	14794.22
694.077	14627.89
694.423	14655.24
694.769	14630.15
695.116	14521.68
695.462	14609.81
695.808	14569.59
696.155	14545.63
696.501	14434.45
696.847	14456.82
697.193	14442.59
697.539	14512.64
697.885	14393.55
698.231	14307.9
698.577	14242.82
698.923	14342.02
699.269	14228.35
699.614	14093.44
699.96	14134.8
700.306	14060.9
700.651	14032.65
700.997	13991.3
701.342	14024.29
701.688	13957.18
702.033	13863.39
702.379	13961.24
702.724	13817.97
703.069	13868.82
703.415	13760.57
703.76	13762.38
704.105	13701.81
704.45	13722.38
704.795	13657.52
705.14	13603.74
705.485	13584.3
705.83	13541.37
706.175	13534.14
706.52	13546.34
706.865	13465.44
707.209	13453.46
707.554	13321.49
707.899	13454.82
708.243	13399.22
708.588	13362.16
708.932	13288.27
709.277	13257.08
709.621	13278.32
709.966	13257.76
710.31	13216.4
710.654	13177.99
710.998	13163.07
711.342	13224.09
711.687	13138.89
712.031	13030.42
712.375	13040.59
712.719	12984.55
713.063	13069.29
713.407	13073.58
713.75	12991.33
714.094	13020.25
714.438	12899.12
714.782	12964.43
715.125	12899.35
715.469	12885.34
715.812	12832.69
716.156	12782.52
716.499	12796.75
716.843	12837.43
717.186	12771.44
717.53	12907.49
717.873	12781.16
718.216	12740.48
718.559	12662.52
718.902	12635.63
719.246	12736.19
719.589	12723.54
719.932	12571.45
720.275	12632.69
720.617	12695.29
720.96	12626.59
721.303	12599.92
721.646	12597.44
721.989	12556.99
722.331	12568.06
722.674	12543.65
723.016	12531.45
723.359	12551.34
723.701	12580.26
724.044	12402.87
724.386	12402.64
724.729	12497.1
725.071	12509.53
725.413	12387.27
725.755	12374.17
726.097	12379.36
726.439	12313.38
726.782	12375.07
727.124	12392.92
727.465	12282.64
727.807	12309.76
728.149	12294.62
728.491	12296.65
728.833	12389.53
729.175	12258.91
729.516	12256.43
729.858	12292.36
730.199	12270.89
730.541	12277.45
730.882	12258.69
731.224	12287.61
731.565	12179.37
731.906	12229.76
732.248	12207.16
732.589	12199.03
732.93	12075.19
733.271	12211.68
733.612	12177.34
733.953	12198.35
734.294	12129.43
734.635	12078.81
734.976	12138.47
735.317	12081.29
735.658	12065.02
735.999	12096.43
736.339	12111.12
736.68	12144.79
737.021	12032.25
737.361	12101.4
737.702	12080.39
738.042	12016.21
738.383	12000.84
738.723	12082.87
739.063	12019.15
739.404	12069.77
739.744	11988.41
740.084	11932.14
740.424	12023.21
740.764	11889.89
741.104	12012.37
741.444	11961.52
741.784	11870.45
742.124	11950.45
742.464	11951.13
742.804	11928.98
743.143	11943.89
743.483	11909.77
743.823	11841.98
744.162	11872.03
744.502	11855.54
744.841	11895.99
745.181	11914.52
745.52	11851.24
745.86	11861.64
746.199	11792.49
746.538	11907.29
746.877	11914.07
747.216	11815.76
747.556	11890.56
747.895	11829.77
748.234	11834.75
748.573	11809.21
748.911	11800.17
749.25	11766.05
749.589	11773.73
749.928	11718.14
750.267	11727.86
750.605	11712.94
750.944	11684.47
751.283	11618.03
751.621	11656.67
751.96	11592.49
752.298	11610.8
752.636	11625.03
752.975	11567.41
753.313	11597.46
753.651	11597.01
753.989	11544.58
754.327	11501.65
754.666	11532.15
755.004	11496.22
755.342	11537.13
755.679	11513.4
756.017	11477.69
756.355	11503.68
756.693	11458.71
757.031	11460.29
757.368	11368.99
757.706	11302.56
758.044	11349.11
758.381	11334.65
