Data from tablewood_brown_FLMS001491_043.txt Node
Date: Tue Feb 07 11:10:30 GMT 2017
User: dcchb
Spectrometer: FLMS00149
Trigger mode: 0
Integration Time (sec): 2.000000E-2
Scans to average: 10
Electric dark correction enabled: true
Nonlinearity correction enabled: false
Boxcar width: 0
XAxis mode: Wavelengths
Number of Pixels in Spectrum: 2048
>>>>>Begin Spectral Data<<<<<
341.393	1.55
341.776	1.55
342.16	1.55
342.543	-64.43
342.927	-64.89
343.31	-79.8
343.693	-70.53
344.077	-54.49
344.46	-55.62
344.843	-48.16
345.226	-50.42
345.61	-48.39
345.993	-28.5
346.376	5.62
346.759	15.11
347.142	35
347.525	30.93
347.908	69.12
348.291	79.52
348.674	85.62
349.057	115
349.44	103.92
349.823	135.34
350.206	178.72
350.588	186.86
350.971	216.92
351.354	212.4
351.737	222.79
352.119	245.62
352.502	255.78
352.884	269.12
353.267	276.35
353.65	303.24
354.032	313.18
354.414	317.48
354.797	294.2
355.179	321.55
355.562	328.32
355.944	329
356.326	352.28
356.709	349.57
357.091	332.62
357.473	322
357.855	338.95
358.238	345.73
358.62	348.89
359.002	342.79
359.384	338.27
359.766	326.97
360.148	342.79
360.53	332.39
360.912	336.23
361.294	351.37
361.676	339.85
362.057	350.7
362.439	330.58
362.821	339.85
363.203	326.74
363.584	344.6
363.966	319.51
364.348	302.34
364.729	319.06
365.111	324.48
365.493	313.18
365.874	314.99
366.256	306.18
366.637	334.43
367.019	303.01
367.4	303.92
367.781	318.83
368.163	306.63
368.544	330.81
368.925	313.18
369.306	328.78
369.688	315.9
370.069	336.46
370.45	323.58
370.831	342.56
371.212	335.78
371.593	330.81
371.974	318.16
372.355	312.28
372.736	332.62
373.117	317.93
373.498	351.15
373.879	316.8
374.26	342.11
374.641	326.52
375.021	310.92
375.402	307.99
375.783	329
376.163	353.18
376.544	335.78
376.925	341.43
377.305	348.21
377.686	344.82
378.066	344.82
378.447	335.1
378.827	338.72
379.208	330.36
379.588	351.37
379.968	335.78
380.349	362
380.729	363.35
381.109	351.6
381.489	356.8
381.87	352.96
382.25	362
382.63	349.57
383.01	381.66
383.39	377.36
383.77	377.59
384.15	383.46
384.53	368.1
384.91	359.96
385.29	376.23
385.67	354.76
386.049	371.04
386.429	384.37
386.809	362.9
387.189	392.05
387.568	394.09
387.948	392.73
388.328	401.54
388.707	377.36
389.087	397.02
389.466	415.78
389.846	416.46
390.225	400.41
390.605	434.31
390.984	419.4
391.363	399.28
391.743	426.63
392.122	420.3
392.501	425.72
392.881	430.47
393.26	418.94
393.639	437.93
394.018	421.88
394.397	455.33
394.776	432.05
395.155	453.75
395.534	444.48
395.913	449.45
396.292	438.83
396.671	450.58
397.05	437.93
397.429	466.63
397.808	433.63
398.186	458.94
398.565	447.64
398.944	465.5
399.323	470.69
399.701	476.12
400.08	472.73
400.458	481.32
400.837	481.54
401.215	478.83
401.594	504.82
401.972	472.73
402.351	487.64
402.729	507.76
403.107	507.98
403.486	501.88
403.864	529.68
404.242	532.16
404.62	499.85
404.999	533.07
405.377	521.31
405.755	535.78
406.133	519.96
406.511	541.65
406.889	551.37
407.267	562.89
407.645	538.26
408.023	552.73
408.401	570.35
408.779	576.91
409.156	586.62
409.534	544.36
409.912	582.56
410.29	603.57
410.667	578.71
411.045	610.35
411.422	591.14
411.8	621.2
412.178	607.64
412.555	631.59
412.933	628.88
413.31	633.85
413.687	652.61
414.065	631.59
414.442	638.15
414.819	631.82
415.197	669.56
415.574	655.77
415.951	658.71
416.328	701.42
416.705	686.28
417.082	687.64
417.46	685.15
417.837	670.46
418.214	703.91
418.591	693.06
418.967	690.12
419.344	696.22
419.721	717.47
420.098	720.86
420.475	688.32
420.852	710.69
421.228	739.39
421.605	716.79
421.982	732.83
422.358	740.74
422.735	759.05
423.111	738.94
423.488	745.26
423.864	751.59
424.241	756.79
424.617	775.32
424.994	787.52
425.37	793.17
425.746	780.97
426.123	790.91
426.499	769.22
426.875	795.21
427.251	800.63
427.627	817.13
428.003	845.6
428.379	839.72
428.756	853.96
429.132	841.08
429.507	853.73
429.883	882.66
430.259	903.45
430.635	898.93
431.011	900.97
431.387	935.31
431.763	929.66
432.138	930.34
432.514	937.12
432.89	942.55
433.265	944.35
433.641	983.22
434.016	987.74
434.392	994.52
434.767	1011.47
435.143	994.52
435.518	1023
435.894	984.8
436.269	1027.97
436.644	1061.86
437.02	1042.43
437.395	1049.44
437.77	1088.76
438.145	1100.73
438.52	1095.54
438.895	1086.04
439.271	1126.5
439.646	1109.32
440.021	1135.31
440.395	1152.03
440.77	1137.57
441.145	1153.16
441.52	1183.67
441.895	1169.66
442.27	1168.75
442.645	1194.97
443.019	1176.66
443.394	1202.2
443.769	1198.58
444.143	1200.39
444.518	1227.51
444.892	1208.53
445.267	1228.64
445.641	1264.8
446.016	1226.38
446.39	1244.68
446.764	1279.49
447.139	1284.46
447.513	1278.58
447.887	1298.24
448.262	1293.5
448.636	1298.24
449.01	1292.82
449.384	1345.7
449.758	1354.96
450.132	1335.98
450.506	1326.72
450.88	1338.24
451.254	1367.39
451.628	1369.88
452.002	1379.37
452.376	1387.28
452.75	1381.18
453.123	1419.6
453.497	1427.05
453.871	1414.85
454.244	1455.53
454.618	1483.1
454.992	1485.36
455.365	1494.4
455.739	1510.44
456.112	1527.39
456.486	1541.63
456.859	1531.91
457.232	1591.79
457.606	1582.98
457.979	1620.49
458.352	1626.37
458.725	1639.25
459.099	1642.87
459.472	1711.34
459.845	1689.19
460.218	1712.02
460.591	1716.54
460.964	1757.21
461.337	1780.26
461.71	1782.52
462.083	1823.88
462.456	1843.31
462.829	1846.25
463.201	1865.23
463.574	1905.46
463.947	1905.68
464.32	1932.12
464.692	1963.08
465.065	2022.74
465.438	2012.35
465.81	2065.23
466.183	2069.52
466.555	2092.35
466.928	2122.18
467.3	2141.16
467.672	2164.89
468.045	2237.43
468.417	2232.23
468.789	2252.79
469.161	2289.86
469.534	2317.2
469.906	2365.56
470.278	2388.84
470.65	2366.69
471.022	2457.31
471.394	2529.4
471.766	2536.63
472.138	2544.76
472.51	2634.48
472.882	2689.84
473.253	2728.94
473.625	2737.3
473.997	2814.81
474.369	2821.82
474.74	2895.71
475.112	2944.08
475.484	2984.98
475.855	3068.59
476.227	3098.65
476.598	3176.16
476.97	3218.19
477.341	3306.55
477.713	3361.69
478.084	3384.52
478.455	3511.74
478.827	3567.56
479.198	3621.12
479.569	3626.09
479.94	3777.05
480.311	3800.78
480.682	3919.19
481.053	4022.92
481.424	4068.79
481.795	4122.58
482.166	4194.89
482.537	4282.57
482.908	4337.26
483.279	4438.27
483.65	4525.95
484.021	4625.61
484.391	4638.95
484.762	4707.64
485.133	4727.53
485.503	4857.25
485.874	4959.62
486.244	4989.22
486.615	5073.74
486.985	5224.47
487.356	5269.66
487.726	5291.58
488.097	5413.84
488.467	5454.97
488.837	5562.99
489.207	5671.69
489.578	5739.48
489.948	5787.84
490.318	5813.38
490.688	5909.42
491.058	6032.36
491.428	6082.3
491.798	6138.34
492.168	6280.94
492.538	6302.63
492.908	6369.97
493.278	6433.93
493.648	6486.13
494.017	6569.97
494.387	6637.99
494.757	6677.31
495.126	6821.94
495.496	6814.48
495.866	6870.75
496.235	6947.59
496.605	6971.99
496.974	7002.5
497.344	7137.64
497.713	7162.95
498.082	7247.46
498.452	7290.85
498.821	7356.61
499.19	7374.24
499.559	7453.34
499.928	7513.67
500.298	7511.19
500.667	7604.07
501.036	7611.3
501.405	7764.97
501.774	7724.51
502.143	7816.49
502.512	7873.89
502.88	7995.24
503.249	7948.46
503.618	7999.99
503.987	8068.46
504.356	8156.14
504.724	8162.69
505.093	8257.16
505.462	8294.67
505.83	8375.12
506.199	8447.21
506.567	8533.08
506.936	8535.57
507.304	8624.15
507.672	8729.91
508.041	8762.91
508.409	8837.25
508.777	8901.66
509.145	8953.86
509.514	9032.73
509.882	9066.63
510.25	9114.31
510.618	9246.73
510.986	9263.46
511.354	9337.58
511.722	9423.9
512.09	9513.39
512.458	9542.55
512.826	9603.34
513.193	9680.4
513.561	9761.3
513.929	9812.6
514.297	9963.78
514.664	10014.4
515.032	10085.58
515.4	10110.67
515.767	10212.81
516.135	10288.06
516.502	10320.38
516.869	10495.51
517.237	10521.05
517.604	10563.54
517.972	10618.45
518.339	10754.04
518.706	10793.59
519.073	10853.7
519.44	10970.98
519.808	11023.41
520.175	11080.36
520.542	11313.35
520.909	11304.08
521.276	11324.19
521.643	11508.82
522.009	11589.72
522.376	11648.93
522.743	11712.21
523.11	11905.65
523.477	11991.07
523.843	12064.29
524.21	12174.57
524.577	12327.78
524.943	12322.59
525.31	12412.07
525.676	12582.69
526.043	12654.55
526.409	12765.96
526.776	12848.45
527.142	12925.51
527.508	13044.15
527.874	13148.33
528.241	13236.46
528.607	13229.23
528.973	13398.04
529.339	13381.54
529.705	13566.85
530.071	13648.43
530.437	13708.76
530.803	13856.78
531.169	13944.01
531.535	13939.94
531.901	13993.73
532.267	14082.31
532.632	14230.11
532.998	14276.43
533.364	14382.19
533.73	14411.8
534.095	14440.04
534.461	14588.97
534.826	14662.19
535.192	14655.63
535.557	14778.11
535.923	14825.12
536.288	14838.45
536.653	14891.56
537.019	14946.7
537.384	15138.56
537.749	15105.56
538.114	15216.75
538.479	15181.95
538.845	15363.41
539.21	15305.78
539.575	15436.63
539.94	15391.21
540.305	15598.21
540.67	15543.07
541.034	15616.51
541.399	15744.87
541.764	15749.16
542.129	15827.8
542.494	15834.81
542.858	15965.2
543.223	15908.25
543.587	16039.55
543.952	16050.85
544.316	16078.87
544.681	16105.31
545.045	16145.99
545.41	16308.7
545.774	16342.82
546.138	16397.96
546.503	16449.71
546.867	16516.37
547.231	16609.7
547.595	16610.83
547.959	16706.2
548.324	16746.65
548.688	16795.69
549.052	16820.09
549.416	16932.18
549.779	17056.7
550.143	17183.47
550.507	17199.52
550.871	17331.04
551.235	17424.15
551.599	17648.77
551.962	17616.46
552.326	17630.92
552.689	17933.29
553.053	17756.12
553.417	17862.33
553.78	18128.08
554.143	18073.85
554.507	18254.86
554.87	18252.6
555.234	18467.06
555.597	18467.51
555.96	18686.94
556.323	18768.29
556.686	18730.33
557.05	19028.62
557.413	19008.51
557.776	19148.17
558.139	19326.02
558.502	19325.34
558.865	19396.98
559.228	19670.64
559.59	19678.55
559.953	19861.37
560.316	20082.38
560.679	20136.62
561.041	20251.19
561.404	20346.56
561.767	20550.84
562.129	20560.34
562.492	20777.5
562.854	20883.26
563.217	20996.48
563.579	21162.58
563.941	21372.97
564.304	21571.16
564.666	21685.05
565.028	21807.76
565.39	21962.11
565.753	22156
566.115	22214.98
566.477	22480.28
566.839	22559.15
567.201	22812.25
567.563	22917.11
567.925	23036.88
568.287	23118.01
568.648	23243.43
569.01	23481.61
569.372	23719.8
569.734	23715.73
570.095	23984.43
570.457	24258.09
570.819	24367.47
571.18	24361.82
571.542	24607.23
571.903	24721.36
572.265	24922.03
572.626	25036.15
572.987	25118.41
573.349	25301.45
573.71	25521.11
574.071	25705.06
574.432	25726.07
574.794	26138.95
575.155	26074.54
575.516	26140.08
575.877	26502.78
576.238	26439.73
576.599	26687.63
576.96	26768.53
577.32	26820.28
577.681	27117.9
578.042	27193.61
578.403	27204.23
578.763	27381.4
579.124	27446.48
579.485	27552.92
579.845	27826.58
580.206	27759.02
580.566	27810.31
580.927	28017.54
581.287	28140.93
581.648	28156.52
582.008	28445.78
582.368	28384.99
582.728	28474.25
583.089	28604.19
583.449	28666.79
583.809	28722.83
584.169	28825.43
584.529	28730.74
584.889	29103.39
585.249	28867.91
585.609	28900.91
585.969	29130.28
586.329	29009.15
586.688	29161.69
587.048	29203.95
587.408	29221.12
587.768	29271.07
588.127	29241.91
588.487	29305.64
588.846	29481.46
589.206	29347.9
589.565	29418.41
589.925	29652.75
590.284	29664.73
590.643	29526.88
591.003	29641
591.362	29754.44
591.721	29738.4
592.08	29660.89
592.44	29780.66
592.799	29847.77
593.158	29798.06
593.517	29738.62
593.876	29807.78
594.235	29845.74
594.593	29892.97
594.952	29966.19
595.311	29920.99
595.67	29949.92
596.029	30132.51
596.387	30170.93
596.746	30144.94
597.104	30265.16
597.463	30074.89
597.822	30215.22
598.18	30100.88
598.538	30076.47
598.897	30297.93
599.255	30057.71
599.613	30552.84
599.972	30331.83
600.33	30443.01
600.688	30325.05
601.046	30484.82
601.404	30633.74
601.762	30403.92
602.12	30632.16
602.478	30675.55
602.836	30658.37
603.194	30562.11
603.552	30570.02
603.91	30487.76
604.268	30693.85
604.625	30580.64
604.983	30690.01
605.341	30601.43
605.698	30831.48
606.056	30671.48
606.413	30769.56
606.771	30906.28
607.128	30887.07
607.485	30757.13
607.843	30806.85
608.2	31015.88
608.557	31136.78
608.914	31052.04
609.272	31196.89
609.629	31154.18
609.986	31313.05
610.343	31117.57
610.7	31390.78
611.057	31412.48
611.414	31254.52
611.771	31357.11
612.127	31421.29
612.484	31538.35
612.841	31595.3
613.198	31320.96
613.554	31472.14
613.911	31816.99
614.267	31607.73
614.624	31780.15
614.98	31682.75
615.337	31731.79
615.693	31848.63
616.05	31718.46
616.406	31874.84
616.762	31819.02
617.118	31822.64
617.475	31897.66
617.831	31985.35
618.187	31937.89
618.543	31977.21
618.899	32191.67
619.255	32050.65
619.611	32093.37
619.967	32252.01
620.323	32373.36
620.678	32120.71
621.034	31930.88
621.39	31967.72
621.746	31940.6
622.101	32459.91
622.457	32073.93
622.812	32166.36
623.168	32248.39
623.523	32222.18
623.879	32407.26
624.234	32221.72
624.589	32281.38
624.945	32305.79
625.3	32294.04
625.655	32386.46
626.01	32354.83
626.365	32295.17
626.72	32268.73
627.075	32329.29
627.43	32302.4
627.785	32343.75
628.14	32326.81
628.495	32301.27
628.85	32308.5
629.205	32236.64
629.559	32329.29
629.914	32228.05
630.269	32189.86
630.623	32210.88
630.978	32238.67
631.332	32139.24
631.687	32286.58
632.041	31986.02
632.396	31988.74
632.75	31993.93
633.104	31950.32
633.459	31858.34
633.813	31886.36
634.167	31927.95
634.521	32021.95
634.875	31920.71
635.229	31897.44
635.583	31807.95
635.937	31699.7
636.291	31697.44
636.645	31642.53
636.999	31472.82
637.352	31690.44
637.706	31489.77
638.06	31679.82
638.413	31517.79
638.767	31449.77
639.121	31482.99
639.474	31290.67
639.828	31313.95
640.181	31318.02
640.534	31349.88
640.888	31295.42
641.241	31145.59
641.594	31259.26
641.947	31198.47
642.301	31246.61
642.654	31196.44
643.007	31131.58
643.36	31211.13
643.713	31076.67
644.066	31093.17
644.419	31010.23
644.771	30875.54
645.124	30426.97
645.477	30383.35
645.83	30255.9
646.182	30162.34
646.535	30064.49
646.888	30190.59
647.24	29973.19
647.593	30276.01
647.945	29979.3
648.298	30100.88
648.65	30030.82
649.002	29843.93
649.355	30068.11
649.707	30026.07
650.059	30114.21
650.411	30487.76
650.763	30522.56
651.115	30764.59
651.467	30650.92
651.819	30646.85
652.171	30606.85
652.523	30561.43
652.875	30478.27
653.227	30509.45
653.578	30671.71
653.93	30561.65
654.282	30481.2
654.633	30498.83
654.985	30478.49
655.337	30446.63
655.688	30532.73
656.039	30556.68
656.391	30372.28
656.742	30352.39
657.094	30384.94
657.445	30563.91
657.796	30428.55
658.147	30399.4
658.498	30511.03
658.849	30491.37
659.2	30416.35
659.551	30330.47
659.902	30418.61
660.253	30378.38
660.604	30429.91
660.955	30324.82
661.306	30490.47
661.656	30376.8
662.007	30357.37
662.358	30325.28
662.708	30285.73
663.059	30418.38
663.409	30339.96
663.76	30415.44
664.11	30380.42
664.461	30328.67
664.811	30441.66
665.161	30430.81
665.511	30331.15
665.862	30316.46
666.212	30401.43
666.562	30415.9
666.912	30388.55
667.262	30383.13
667.612	30274.88
667.962	30367.08
668.312	30406.4
668.662	30579.28
669.011	30304.71
669.361	30196.01
669.711	30304.71
670.06	30230.36
670.41	30158.05
670.76	30130.7
671.109	30121.89
671.459	30194.43
671.808	30058.84
672.157	30037.6
672.507	29985.62
672.856	29945.63
673.205	30066.75
673.554	30117.15
673.904	29930.03
674.253	30192.4
674.602	30005.28
674.951	29654.11
675.3	29450.5
675.649	29934.33
675.998	29855.23
676.346	29850.26
676.695	29938.17
677.044	29712.41
677.393	29888.23
677.741	29798.28
678.09	29761.45
678.438	29683.26
678.787	29751.05
679.135	29680.77
679.484	29519.65
679.832	29729.59
680.181	29488.91
680.529	29503.6
680.877	29386.54
681.225	29347
681.573	29532.08
681.922	29347
682.27	29242.37
682.618	29131.64
682.966	29132.99
683.314	29231.75
683.661	29158.08
684.009	29035.37
684.357	28954.01
684.705	28849.38
685.053	29009.38
685.4	28952.66
685.748	28751.53
686.095	28594.25
686.443	28590.63
686.79	28630.41
687.138	28553.35
687.485	28568.03
687.832	28601.93
688.18	28437.42
688.527	28329.17
688.874	28141.15
689.221	28220.25
689.568	28064.54
689.915	28032.91
690.262	27911.1
690.609	27904.1
690.956	27802.86
691.303	27809.64
691.65	27589.75
691.997	27515.86
692.344	27349.76
692.69	27390.21
693.037	27412.13
693.383	27163.33
693.73	27307.05
694.077	27140.5
694.423	27012.14
694.769	26992.93
695.116	26871.13
695.462	26834.07
695.808	26750.68
696.155	26765.6
696.501	26514.3
696.847	26595.2
697.193	26369.67
697.539	26357.47
697.885	26173.29
698.231	26176.46
698.577	26028.21
698.923	26164.48
699.269	25918.16
699.614	25848.33
699.96	25727.43
700.306	25659.18
700.651	25491.96
700.997	25648.79
701.342	25459.19
701.688	25423.94
702.033	25398.4
702.379	25373.77
702.724	25285.63
703.069	25276.14
703.415	24962.48
703.76	25050.39
704.105	24892.2
704.45	24853.56
704.795	24727.91
705.14	24533.11
705.485	24556.84
705.83	24449.27
706.175	24526.56
706.52	24530.63
706.865	24352.1
707.209	24286.34
707.554	24209.05
707.899	24228.49
708.243	24108.04
708.588	24027.36
708.932	23847.25
709.277	23851.77
709.621	23916.18
709.966	23670.31
710.31	23842.51
710.654	23614.94
710.998	23592.12
711.342	23587.83
711.687	23566.13
712.031	23401.84
712.375	23322.52
712.719	23490.65
713.063	23269.64
713.407	23439.13
713.75	23240.72
714.094	23232.81
714.438	23102.64
714.782	23112.81
715.125	23036.43
715.469	23096.54
715.812	22983.55
716.156	22925.02
716.499	22854.74
716.843	22902.42
717.186	22792.59
717.53	22886.83
717.873	22758.92
718.216	22760.28
718.559	22637.12
718.902	22463.79
719.246	22665.59
719.589	22630.34
719.932	22439.16
720.275	22500.62
720.617	22563.22
720.96	22368.2
721.303	22425.14
721.646	22358.48
721.989	22278.48
722.331	22348.76
722.674	22303.34
723.016	22324.58
723.359	22287.3
723.701	22285.71
724.044	22265.15
724.386	22095.44
724.729	22259.73
725.071	22235.32
725.413	22293.4
725.755	22220.18
726.097	22141.99
726.439	22114.64
726.782	22076.91
727.124	22202.33
727.465	22033.97
727.807	22108.77
728.149	21909.23
728.491	21885.05
728.833	22077.58
729.175	21948.77
729.516	21934.54
729.858	21881.88
730.199	21919.4
730.541	21886.85
730.882	21877.81
731.224	21918.94
731.565	21663.36
731.906	21780.87
732.248	21881.66
732.589	21814.54
732.93	21697.48
733.271	21743.81
733.612	21840.08
733.953	21840.98
734.294	21732.28
734.635	21690.02
734.976	21733.41
735.317	21623.58
735.658	21701.77
735.999	21722.11
736.339	21755.33
736.68	21765.5
737.021	21734.77
737.361	21707.88
737.702	21766.18
738.042	21759.63
738.383	21613.87
738.723	21703.81
739.063	21659.74
739.404	21613.19
739.744	21618.61
740.084	21643.92
740.424	21642.11
740.764	21502.68
741.104	21711.27
741.444	21655.67
741.784	21597.82
742.124	21663.13
742.464	21536.13
742.804	21581.1
743.143	21490.93
743.483	21637.37
743.823	21515.11
744.162	21536.58
744.502	21482.8
744.841	21536.58
745.181	21544.94
745.52	21456.58
745.86	21542.46
746.199	21598.95
746.538	21475.11
746.877	21560.76
747.216	21521.89
747.556	21377.94
747.895	21539.29
748.234	21483.93
748.573	21466.98
748.911	21520.76
749.25	21523.25
749.589	21449.58
749.928	21436.47
750.267	21458.39
750.605	21379.3
750.944	21374.32
751.283	21348.11
751.621	21277.15
751.96	21270.37
752.298	21294.55
752.636	21400.31
752.975	21249.13
753.313	21212.52
753.651	21199.19
753.989	21134.33
754.327	21176.59
754.666	21099.3
755.004	21116.25
755.342	21126.42
755.679	21057.95
756.017	20966.2
