Data from tablewood_dark_bookshelf_FLMS001491_00047.txt Node
Date: Wed Feb 08 14:14:49 GMT 2017
User: dcchb
Spectrometer: FLMS00149
Trigger mode: 0
Integration Time (sec): 2.000000E-2
Scans to average: 10
Electric dark correction enabled: true
Nonlinearity correction enabled: false
Boxcar width: 0
XAxis mode: Wavelengths
Number of Pixels in Spectrum: 2048
>>>>>Begin Spectral Data<<<<<
341.393	-14.12
341.776	-14.12
342.16	-14.12
342.543	-55.48
342.927	-67
343.31	-62.48
343.693	-65.87
344.077	-58.42
344.46	-78.53
344.843	-51.41
345.226	-35.14
345.61	-33.33
345.993	-31.98
346.376	-10.51
346.759	30.17
347.142	8.02
347.525	34.46
347.908	73.33
348.291	78.53
348.674	99.77
349.057	103.39
349.44	123.27
349.823	157.17
350.206	154.91
350.588	197.85
350.971	200.79
351.354	208.92
351.737	238.52
352.119	248.02
352.502	244.85
352.884	255.93
353.267	266.55
353.65	271.74
354.032	283.72
354.414	291.86
354.797	292.08
355.179	318.75
355.562	320.56
355.944	310.16
356.326	327.34
356.709	345.19
357.091	343.61
357.473	313.33
357.855	318.52
358.238	347.9
358.62	336.15
359.002	339.77
359.384	325.98
359.766	329.14
360.148	327.56
360.53	331.4
360.912	344.96
361.294	341.35
361.676	312.2
362.057	325.53
362.439	325.98
362.821	306.77
363.203	319.88
363.584	316.49
363.966	336.83
364.348	327.56
364.729	317.62
365.111	302.93
365.493	307.22
365.874	316.26
366.256	311.29
366.637	329.14
367.019	293.44
367.4	300.9
367.781	316.49
368.163	335.47
368.544	309.94
368.925	313.1
369.306	319.88
369.688	311.97
370.069	324.62
370.45	306.77
370.831	321.69
371.212	323.04
371.593	316.49
371.974	325.3
372.355	311.07
372.736	314.91
373.117	318.75
373.498	310.84
373.879	288.69
374.26	337.96
374.641	302.03
375.021	323.27
375.402	323.72
375.783	317.17
376.163	336.15
376.544	332.08
376.925	339.77
377.305	313.78
377.686	332.76
378.066	318.3
378.447	303.83
378.827	330.73
379.208	353.55
379.588	331.4
379.968	342.25
380.349	346.54
380.729	337.73
381.109	332.31
381.489	339.54
381.87	330.95
382.25	335.25
382.63	343.15
383.01	347.67
383.39	333.66
383.77	349.93
384.15	351.74
384.53	365.3
384.91	350.84
385.29	355.58
385.67	359.43
386.049	351.74
386.429	344.96
386.809	366.43
387.189	355.81
387.568	365.53
387.948	370.05
388.328	354
388.707	377.5
389.087	356.49
389.466	373.66
389.846	363.95
390.225	366.43
390.605	376.15
390.984	381.8
391.363	384.06
391.743	396.49
392.122	392.19
392.501	384.51
392.881	392.65
393.26	379.09
393.639	398.75
394.018	379.54
394.397	411.63
394.776	383.83
395.155	381.57
395.534	397.16
395.913	396.03
396.292	387.67
396.671	392.65
397.05	411.4
397.429	401.23
397.808	411.85
398.186	387.22
398.565	413.44
398.944	407.79
399.323	418.63
399.701	416.6
400.08	418.86
400.458	412.08
400.837	428.35
401.215	439.88
401.594	432.42
401.972	429.03
402.351	421.12
402.729	424.28
403.107	445.07
403.486	463.83
403.864	442.36
404.242	466.32
404.62	448.01
404.999	448.69
405.377	468.58
405.755	475.81
406.133	462.47
406.511	449.37
406.889	448.24
407.267	453.66
407.645	465.64
408.023	476.71
408.401	457.05
408.779	485.07
409.156	509.25
409.534	507.67
409.912	494.79
410.29	496.82
410.667	500.89
411.045	495.69
411.422	479.2
411.8	484.62
412.178	522.36
412.555	525.07
412.933	512.42
413.31	509.25
413.687	541.79
414.065	539.76
414.442	519.87
414.819	528.91
415.197	547.67
415.574	541.12
415.951	549.93
416.328	559.87
416.705	554.67
417.082	564.84
417.46	548.12
417.837	574.79
418.214	574.56
418.591	582.24
418.967	587.89
419.344	591.06
419.721	583.37
420.098	582.92
420.475	591.06
420.852	590.83
421.228	585.41
421.605	608.23
421.982	610.49
422.358	623.37
422.735	614.79
423.111	640.55
423.488	639.19
423.864	626.76
424.241	644.62
424.617	639.42
424.994	615.01
425.37	636.25
425.746	638.06
426.123	661.34
426.499	650.94
426.875	666.76
427.251	668.34
427.627	695.69
428.003	664.5
428.379	668.34
428.756	703.6
429.132	709.25
429.507	730.49
429.883	727.1
430.259	714.67
430.635	732.98
431.011	749.02
431.387	737.27
431.763	723.94
432.138	751.28
432.514	776.82
432.89	765.74
433.265	773.2
433.641	782.01
434.016	787.66
434.392	805.52
434.767	817.27
435.143	810.94
435.518	838.96
435.894	826.08
436.269	800.32
436.644	833.31
437.02	833.54
437.395	854.1
437.77	864.72
438.145	842.8
438.52	890.71
438.895	886.42
439.271	884.61
439.646	891.61
440.021	892.52
440.395	902.91
440.77	881.9
441.145	913.99
441.52	904.95
441.895	926.64
442.27	953.31
442.645	940.65
443.019	933.2
443.394	952.86
443.769	964.38
444.143	961.44
444.518	973.19
444.892	976.36
445.267	997.6
445.641	997.83
446.016	987.21
446.39	986.75
446.764	1016.36
447.139	998.73
447.513	1010.26
447.887	1044.83
448.262	1014.78
448.636	1054.1
449.01	1041.89
449.384	1045.96
449.758	1058.16
450.132	1041.22
450.506	1080.99
450.88	1080.99
451.254	1059.97
451.628	1100.88
452.002	1114.21
452.376	1114.21
452.75	1120.76
453.123	1129.57
453.497	1167.31
453.871	1158.5
454.244	1133.42
454.618	1175
454.992	1193.53
455.365	1177.03
455.739	1211.61
456.112	1204.83
456.486	1246.18
456.859	1256.35
457.232	1244.83
457.606	1278.05
457.979	1270.36
458.352	1296.35
458.725	1319.85
459.099	1320.3
459.472	1323.92
459.845	1374.31
460.218	1346.97
460.591	1398.72
460.964	1409.12
461.337	1426.29
461.71	1414.31
462.083	1447.31
462.456	1445.95
462.829	1467.42
463.201	1473.52
463.574	1504.71
463.947	1495.44
464.32	1527.98
464.692	1551.94
465.065	1577.25
465.438	1599.62
465.81	1608.66
466.183	1598.04
466.555	1659.5
466.928	1617.7
467.3	1612.73
467.672	1665.83
468.045	1746.96
468.417	1715.1
468.789	1701.31
469.161	1728.66
469.534	1749.22
469.906	1799.84
470.278	1800.29
470.65	1828.77
471.022	1850.46
471.394	1863.79
471.766	1921.64
472.138	1955.54
472.51	1962.55
472.882	2016.78
473.253	2030.12
473.625	2043.9
473.997	2067.86
474.369	2097.46
474.74	2131.58
475.112	2133.16
475.484	2177.23
475.855	2218.59
476.227	2224.01
476.598	2264.01
476.97	2287.96
477.341	2380.16
477.713	2377.45
478.084	2400.73
478.455	2470.1
478.827	2493.83
479.198	2550.33
479.569	2569.99
479.94	2621.96
480.311	2680.27
480.682	2722.3
481.053	2722.75
481.424	2795.75
481.795	2828.29
482.166	2879.36
482.537	2919.13
482.908	2919.58
483.279	2972.24
483.65	3032.8
484.021	3145.79
484.391	3098.11
484.762	3152.35
485.133	3194.61
485.503	3192.8
485.874	3254.49
486.244	3320.7
486.615	3389.63
486.985	3403.87
487.356	3497.2
487.726	3507.59
488.097	3588.72
488.467	3545.78
488.837	3647.25
489.207	3691.54
489.578	3734.7
489.948	3760.92
490.318	3830.52
490.688	3834.36
491.058	3905.32
491.428	3953.91
491.798	3952.1
492.168	4049.27
492.538	4078.2
492.908	4091.76
493.278	4152.55
493.648	4173.56
494.017	4255.59
494.387	4194.58
494.757	4286.55
495.126	4357.96
495.496	4363.39
495.866	4371.3
496.235	4420.11
496.605	4470.05
496.974	4433.22
497.344	4558.64
497.713	4574.23
498.082	4637.28
498.452	4683.83
498.821	4646.77
499.19	4664.85
499.559	4745.98
499.928	4785.98
500.298	4851.06
500.667	4876.14
501.036	4796.6
501.405	4918.85
501.774	4960.66
502.143	4978.51
502.512	4999.98
502.88	5053.31
503.249	5047.66
503.618	5088.79
503.987	5125.85
504.356	5150.71
504.724	5203.82
505.093	5218.28
505.462	5218.51
505.83	5238.39
506.199	5266.42
506.567	5367.43
506.936	5412.85
507.304	5454.21
507.672	5458.05
508.041	5535.56
508.409	5559.51
508.777	5598.38
509.145	5657.82
509.514	5670.25
509.882	5691.94
510.25	5720.64
510.618	5748.66
510.986	5831.15
511.354	5846.96
511.722	5868.43
512.09	5985.94
512.458	5916.57
512.826	6023.01
513.193	6065.49
513.561	6086.51
513.929	6091.7
514.297	6177.58
514.664	6218.71
515.032	6221.64
515.4	6345.26
515.767	6290.57
516.135	6338.48
516.502	6383
516.869	6410.34
517.237	6484.01
517.604	6491.92
517.972	6548.87
518.339	6643.78
518.706	6593.84
519.073	6677.23
519.44	6742.99
519.808	6799.71
520.175	6738.92
520.542	6893.72
520.909	6943.43
521.276	6947.95
521.643	7038.35
522.009	7079.47
522.376	7135.07
522.743	7187.72
523.11	7281.28
523.477	7323.08
523.843	7377.77
524.21	7431.78
524.577	7500.48
524.943	7561.72
525.31	7522.85
525.676	7646.69
526.043	7716.97
526.409	7726.01
526.776	7853.01
527.142	7886.69
527.508	7887.36
527.874	7989.96
528.241	8028.83
528.607	8034.25
528.973	8094.59
529.339	8138.66
529.705	8229.73
530.071	8208.03
530.437	8308.37
530.803	8361.48
531.169	8434.69
531.535	8362.6
531.901	8433.34
532.267	8428.14
532.632	8523.28
532.998	8530.74
533.364	8655.7
533.73	8632.2
534.095	8773.22
534.461	8749.71
534.826	8789.03
535.192	8847.34
535.557	8934.79
535.923	8951.52
536.288	8985.19
536.653	8973.66
537.019	8974.34
537.384	9055.02
537.749	9097.27
538.114	9065.41
538.479	9086.43
538.845	9136.14
539.21	9145.18
539.575	9203.71
539.94	9275.58
540.305	9301.56
540.67	9365.29
541.034	9387.89
541.399	9443.03
541.764	9408.45
542.129	9446.19
542.494	9483.93
542.858	9536.81
543.223	9551.27
543.587	9551.5
543.952	9594.89
544.316	9717.6
544.681	9704.49
545.045	9673.08
545.41	9775.68
545.774	9763.02
546.138	9837.14
546.503	9869.68
546.867	9860.42
547.231	9969.12
547.595	9979.06
547.959	9970.92
548.324	10067.87
548.688	10076.23
549.052	10059.96
549.416	10132.05
549.779	10103.8
550.143	10144.71
550.507	10187.87
550.871	10212.95
551.235	10256.11
551.599	10390.8
551.962	10302.67
552.326	10403.23
552.689	10458.6
553.053	10447.97
553.417	10483.91
553.78	10628.53
554.143	10535.2
554.507	10626.95
554.87	10679.15
555.234	10770.68
555.597	10630.57
555.96	10825.59
556.323	10831.92
556.686	10800.51
557.05	10969.99
557.413	10933.38
557.776	10993.5
558.139	11066.49
558.502	11097.67
558.865	11134.74
559.228	11137.9
559.59	11271.91
559.953	11294.28
560.316	11348.97
560.679	11435.97
561.041	11454.28
561.404	11494.5
561.767	11632.58
562.129	11586.02
562.492	11748.5
562.854	11703.08
563.217	11671.9
563.579	11758.22
563.941	11934.94
564.304	11929.74
564.666	11968.39
565.028	12071.21
565.39	12044.54
565.753	12104.43
566.115	12214.48
566.477	12318.89
566.839	12245.21
567.201	12429.39
567.563	12403.85
567.925	12456.06
568.287	12539.22
568.648	12550.07
569.01	12615.6
569.372	12738.08
569.734	12797.29
570.095	12798.87
570.457	12911.64
570.819	12939.21
571.18	12966.33
571.542	12979.66
571.903	13016.49
572.265	13130.62
572.626	13166.09
572.987	13158.64
573.349	13189.14
573.71	13402.02
574.071	13362.25
574.432	13449.02
574.794	13489.02
575.155	13487.22
575.516	13433.66
575.877	13526.09
576.238	13659.19
576.599	13671.17
576.96	13661.9
577.32	13693.09
577.681	13717.04
578.042	13853.31
578.403	13800.65
578.763	13905.96
579.124	13963.59
579.485	13989.8
579.845	14067.31
580.206	13990.25
580.566	14066.64
580.927	14072.51
581.287	14124.94
581.648	14103.92
582.008	14215.78
582.368	14246.29
582.728	14250.59
583.089	14285.84
583.449	14286.07
583.809	14286.07
584.169	14466.17
584.529	14381.2
584.889	14510.92
585.249	14393.18
585.609	14375.78
585.969	14463.91
586.329	14517.92
586.688	14531.48
587.048	14529.22
587.408	14592.72
587.768	14533.29
588.127	14604.7
588.487	14533.29
588.846	14689.9
589.206	14557.7
589.565	14621.65
589.925	14655.32
590.284	14693.51
590.643	14695.32
591.003	14784.58
591.362	14847.86
591.721	14815.54
592.08	14770.12
592.44	14944.35
592.799	14830.46
593.158	14886.5
593.517	14840.17
593.876	14893.96
594.235	14912.04
594.593	14952.04
594.952	14996.33
595.311	15004.92
595.67	15019.15
596.029	15133.5
596.387	15168.53
596.746	15211.01
597.104	15056.67
597.463	15101.64
597.822	15196.1
598.18	15204.23
598.538	15135.31
598.897	15292.59
599.255	15191.58
599.613	15349.99
599.972	15385.7
600.33	15351.12
600.688	15305.25
601.046	15326.26
601.404	15520.16
601.762	15406.71
602.12	15485.81
602.478	15491.68
602.836	15505.69
603.194	15444.23
603.552	15480.84
603.91	15451.46
604.268	15467.05
604.625	15502.98
604.983	15546.6
605.341	15492.81
605.698	15589.53
606.056	15648.97
606.413	15674.28
606.771	15698.68
607.128	15715.18
607.485	15682.64
607.843	15648.74
608.2	15712.02
608.557	15875.18
608.914	15730.32
609.272	15808.74
609.629	15988.39
609.986	15990.43
610.343	15888.73
610.7	16078.11
611.057	16030.65
611.414	16014.38
611.771	16003.53
612.127	16140.71
612.484	16042.86
612.841	16102.29
613.198	16107.49
613.554	16109.07
613.911	16182.74
614.267	16190.42
614.624	16244.66
614.98	16190.42
615.337	16261.83
615.693	16272.68
616.05	16267.03
616.406	16413.92
616.762	16221.16
617.118	16371.89
617.475	16284.43
617.831	16377.54
618.187	16368.72
618.543	16385.67
618.899	16442.84
619.255	16436.52
619.611	16504.76
619.967	16513.58
620.323	16507.93
620.678	16410.08
621.034	16473.35
621.39	16462.05
621.746	16477.65
622.101	16623.4
622.457	16480.36
622.812	16491.2
623.168	16566.68
623.523	16559.9
623.879	16595.83
624.234	16515.84
624.589	16501.15
624.945	16600.58
625.3	16620.69
625.655	16535.95
626.01	16564.88
626.365	16607.81
626.72	16528.49
627.075	16482.62
627.43	16548.38
627.785	16519.9
628.14	16579.34
628.495	16551.99
628.85	16542.28
629.205	16461.6
629.559	16525.78
629.914	16471.77
630.269	16500.47
630.623	16527.81
630.978	16401.94
631.332	16554.93
631.687	16514.03
632.041	16370.76
632.396	16501.6
632.75	16449.4
633.104	16491.66
633.459	16263.87
633.813	16469.51
634.167	16402.39
634.521	16417.31
634.875	16356.97
635.229	16388.83
635.583	16266.58
635.937	16287.37
636.291	16208.73
636.645	16314.26
636.999	16224.77
637.352	16251.21
637.706	16098.45
638.06	16297.31
638.413	16264.09
638.767	16179.12
639.121	16210.76
639.474	16028.62
639.828	16099.8
640.181	16123.3
640.534	16146.81
640.888	16039.92
641.241	15994.49
641.594	15986.59
641.947	16077.43
642.301	15915.63
642.654	16116.07
643.007	16043.76
643.36	16039.47
643.713	16067.71
644.066	16102.29
644.419	15995.17
644.771	15848.28
645.124	15798.79
645.477	15639.93
645.83	15593.38
646.182	15513.83
646.535	15440.16
646.888	15473.15
647.24	15304.8
647.593	15326.26
647.945	15261.63
648.298	15310.44
648.65	15338.01
649.002	15231.58
649.355	15397.22
649.707	15392.02
650.059	15488.97
650.411	15711.34
650.763	15646.71
651.115	15818.23
651.467	15794.73
651.819	15740.26
652.171	15681.28
652.523	15662.53
652.875	15683.77
653.227	15615.75
653.578	15697.55
653.93	15691.9
654.282	15575.52
654.633	15550.66
654.985	15603.32
655.337	15528.52
655.688	15647.84
656.039	15629.53
656.391	15456.66
656.742	15534.17
657.094	15538.91
657.445	15634.5
657.796	15523.77
658.147	15595.41
658.498	15541.4
658.849	15621.85
659.2	15496.65
659.551	15542.08
659.902	15556.09
660.253	15578.46
660.604	15533.04
660.955	15526.71
661.306	15570.78
661.656	15576.88
662.007	15464.34
662.358	15500.04
662.708	15608.52
663.059	15477.9
663.409	15443.1
663.76	15561.96
664.11	15467.5
664.461	15521.51
664.811	15497.56
665.161	15503.43
665.511	15447.16
665.862	15544.34
666.212	15512.7
666.562	15524.9
666.912	15455.98
667.262	15388.63
667.612	15505.24
667.962	15424.57
668.312	15486.94
668.662	15496.88
669.011	15429.09
669.361	15494.17
669.711	15533.49
670.06	15437.45
670.41	15468.41
670.76	15483.32
671.109	15428.18
671.459	15410.1
671.808	15373.95
672.157	15467.73
672.507	15291.91
672.856	15342.53
673.205	15465.92
673.554	15417.56
673.904	15402.65
674.253	15434.96
674.602	15426.15
674.951	15198.36
675.3	15135.08
675.649	15312.25
675.998	15344.79
676.346	15347.51
676.695	15335.53
677.044	15153.84
677.393	15244.68
677.741	15250.79
678.09	15303.89
678.438	15184.57
678.787	15231.35
679.135	15211.69
679.484	15143.9
679.832	15225.93
680.181	15091.69
680.529	15222.31
680.877	15057.12
681.225	15218.92
681.573	15244.23
681.922	15042.88
682.27	15090.11
682.618	15093.73
682.966	14993.17
683.314	15010.11
683.661	15054.86
684.009	14873.62
684.357	14775.32
684.705	14899.61
685.053	14858.48
685.4	14862.55
685.748	14767.41
686.095	14833.4
686.443	14742.55
686.79	14651.25
687.138	14776.45
687.485	14688.31
687.832	14618.94
688.18	14594.98
688.527	14558.83
688.874	14541.65
689.221	14548.88
689.568	14497.36
689.915	14590.69
690.262	14484.48
690.609	14520.18
690.956	14393.18
691.303	14421.65
691.65	14338.72
691.997	14312.05
692.344	14258.27
692.69	14232.96
693.037	14282.9
693.383	14125.39
693.73	14147.99
694.077	13973.08
694.423	14083.13
694.769	14062.34
695.116	14018.05
695.462	13925.62
695.808	13987.99
696.155	13977.6
696.501	13860.77
696.847	13890.14
697.193	13790.71
697.539	13827.55
697.885	13779.64
698.231	13582.58
698.577	13619.87
698.923	13651.05
699.269	13539.64
699.614	13428.46
699.96	13513.88
700.306	13520.44
700.651	13441.57
700.997	13430.04
701.342	13375.35
701.688	13426.2
702.033	13341.68
702.379	13393.66
702.724	13250.84
703.069	13240.89
703.415	13146.43
703.76	13072.31
704.105	13100.79
704.45	13136.04
704.795	12969.26
705.14	13017.62
705.485	12935.82
705.83	12927.68
706.175	12940.34
706.52	12840.91
706.865	12809.95
707.209	12815.6
707.554	12727.46
707.899	12855.37
708.243	12699.21
708.588	12787.12
708.932	12626.45
709.277	12580.8
709.621	12724.3
709.966	12619.44
710.31	12661.25
710.654	12523.4
710.998	12637.29
711.342	12417.19
711.687	12519.33
712.031	12460.12
712.375	12391.43
712.719	12400.01
713.063	12428.03
713.407	12435.72
713.75	12312.33
714.094	12359.79
714.438	12299.9
714.782	12312.33
715.125	12315.04
715.469	12264.65
715.812	12139.91
716.156	12116.63
716.499	12097.87
716.843	12190.3
717.186	12086.35
717.53	12168.38
717.873	12193.01
718.216	12129.06
718.559	11987.59
718.902	11948.05
719.246	12004.54
719.589	11952.12
719.932	11929.97
720.275	11960.25
720.617	11963.87
720.96	11969.29
721.303	11941.27
721.646	11874.83
721.989	11885
722.331	11926.81
722.674	11846.81
723.016	11886.58
723.359	11895.85
723.701	11878.9
724.044	11815.62
724.386	11759.8
724.729	11797.09
725.071	11730.2
725.413	11824.21
725.755	11809.07
726.097	11649.75
726.439	11568.85
726.782	11628.28
727.124	11678.45
727.465	11636.19
727.807	11586.02
728.149	11587.83
728.491	11523.65
728.833	11644.33
729.175	11503.31
729.516	11567.72
729.858	11604.1
730.199	11575.63
730.541	11581.28
730.882	11523.43
731.224	11558
731.565	11420.15
731.906	11535.85
732.248	11544.44
732.589	11558
732.93	11393.26
733.271	11459.7
733.612	11529.53
733.953	11506.48
734.294	11465.35
734.635	11490.43
734.976	11434.16
735.317	11456.99
735.658	11521.17
735.999	11414.28
736.339	11412.47
736.68	11421.06
737.021	11367.5
737.361	11330.66
737.702	11458.57
738.042	11391.23
738.383	11449.76
738.723	11300.83
739.063	11313.26
739.404	11405.01
739.744	11344.67
740.084	11371.34
740.424	11334.5
740.764	11311
741.104	11410.21
741.444	11353.03
741.784	11248.63
742.124	11310.1
742.464	11231.23
742.804	11227.39
743.143	11244.34
743.483	11250.21
743.823	11241.4
744.162	11197.11
744.502	11258.57
744.841	11209.54
745.181	11228.52
745.52	11171.8
745.86	11177.67
746.199	11137.67
746.538	11210.67
746.877	11236.65
747.216	11180.16
747.556	11155.98
747.895	11191.46
748.234	11104.91
748.573	11130.89
748.911	11181.97
749.25	11108.75
749.589	11118.01
749.928	11046.15
750.267	11131.35
750.605	11140.16
750.944	11112.82
751.283	10969.54
751.621	11065.13
751.96	11006.38
752.298	11047.96
752.636	10981.07
752.975	10912.14
753.313	10935.42
753.651	11027.85
753.989	10932.48
754.327	10873.05
754.666	10896.78
755.004	10829.88
755.342	10919.83
755.679	10926.83
756.017	10841.41
756.355	10824.91
756.693	10815.2
757.031	10776.33
757.368	10717.12
757.706	10787.85
758.044	10656.78
