Data from tablewood_brown_FLMS001491_056.txt Node
Date: Tue Feb 07 11:10:42 GMT 2017
User: dcchb
Spectrometer: FLMS00149
Trigger mode: 0
Integration Time (sec): 2.000000E-2
Scans to average: 10
Electric dark correction enabled: true
Nonlinearity correction enabled: false
Boxcar width: 0
XAxis mode: Wavelengths
Number of Pixels in Spectrum: 2048
>>>>>Begin Spectral Data<<<<<
341.393	6.96
341.776	6.96
342.16	6.96
342.543	-66.93
342.927	-53.6
343.31	-65.8
343.693	-49.31
344.077	-67.61
344.46	-65.13
344.843	-49.76
345.226	-34.84
345.61	-41.85
345.993	-17.9
346.376	-16.31
346.759	1.99
347.142	9
347.525	41.09
347.908	52.84
348.291	94.42
348.674	107.53
349.057	101.65
349.44	116.34
349.823	131.48
350.206	173.29
350.588	210.35
350.971	214.87
351.354	222.55
351.737	240.86
352.119	271.14
352.502	252.61
352.884	255.09
353.267	302.77
353.65	305.26
354.032	302.1
354.414	304.36
354.797	319.95
355.179	347.07
355.562	311.59
355.944	346.62
356.326	343.68
356.709	349.78
357.091	346.16
357.473	333.51
357.855	352.26
358.238	335.77
358.62	347.75
359.002	337.12
359.384	336.45
359.766	353.85
360.148	352.26
360.53	354.98
360.912	345.03
361.294	329.21
361.676	326.28
362.057	362.21
362.439	358.82
362.821	346.39
363.203	332.38
363.584	347.29
363.966	344.36
364.348	345.71
364.729	327.41
365.111	345.03
365.493	328.08
365.874	328.31
366.256	342.77
366.637	341.19
367.019	323.79
367.4	347.29
367.781	322.44
368.163	315.2
368.544	330.12
368.925	316.33
369.306	322.89
369.688	350.68
370.069	340.06
370.45	332.15
370.831	335.54
371.212	319.72
371.593	355.65
371.974	354.98
372.355	351.36
372.736	326.05
373.117	316.79
373.498	343.23
373.879	347.07
374.26	343.9
374.641	350.23
375.021	337.58
375.402	349.78
375.783	371.47
376.163	375.31
376.544	369.67
376.925	353.85
377.305	359.95
377.686	358.37
378.066	365.82
378.447	372.15
378.827	377.57
379.208	378.03
379.588	372.38
379.968	369.21
380.349	370.57
380.729	356.56
381.109	368.54
381.489	380.29
381.87	390.46
382.25	398.37
382.63	383.68
383.01	386.61
383.39	387.74
383.77	390.46
384.15	377.35
384.53	387.97
384.91	415.31
385.29	407.18
385.67	400.85
386.049	413.05
386.429	406.95
386.809	409.44
387.189	417.35
387.568	402.66
387.948	418.25
388.328	415.99
388.707	413.73
389.087	409.89
389.466	436.78
389.846	429.55
390.225	422.55
390.605	419.38
390.984	437.69
391.363	441.75
391.743	452.6
392.122	465.93
392.501	448.08
392.881	466.61
393.26	453.28
393.639	469.1
394.018	467.52
394.397	478.14
394.776	454.41
395.155	478.59
395.534	474.3
395.913	486.05
396.292	483.33
396.671	513.84
397.05	497.8
397.429	482.88
397.808	516.55
398.186	504.35
398.565	512.49
398.944	517.68
399.323	517.91
399.701	524.92
400.08	544.35
400.458	517.23
400.837	549.1
401.215	534.18
401.594	549.1
401.972	549.77
402.351	521.98
402.729	551.81
403.107	578.25
403.486	564.69
403.864	570.11
404.242	581.64
404.62	580.51
404.999	544.8
405.377	597
405.755	607.85
406.133	610.56
406.511	582.77
406.889	598.13
407.267	603.56
407.645	629.55
408.023	642.88
408.401	637.68
408.779	630.68
409.156	638.81
409.534	656.44
409.912	655.53
410.29	669.09
410.667	683.78
411.045	686.49
411.422	696.89
411.8	706.15
412.178	701.18
412.555	711.58
412.933	731.24
413.31	741.63
413.687	713.61
414.065	735.53
414.442	733.72
414.819	728.75
415.197	734.18
415.574	749.99
415.951	768.98
416.328	747.06
416.705	774.85
417.082	775.3
417.46	784.12
417.837	782.08
418.214	819.82
418.591	800.39
418.967	809.2
419.344	819.6
419.721	823.21
420.098	834.96
420.475	834.06
420.852	843.1
421.228	851.69
421.605	868.41
421.982	847.62
422.358	897.79
422.735	877
423.111	866.6
423.488	905.24
423.864	895.75
424.241	921.97
424.617	933.04
424.994	928.29
425.37	920.16
425.746	902.98
426.123	959.48
426.499	962.42
426.875	949.99
427.251	979.82
427.627	1011.23
428.003	1001.29
428.379	1035.86
428.756	1034.05
429.132	1035.86
429.507	1025.92
429.883	1052.59
430.259	1064.34
430.635	1063.88
431.011	1080.16
431.387	1095.52
431.763	1131.91
432.138	1120.61
432.514	1145.92
432.89	1123.77
433.265	1156.99
433.641	1174.16
434.016	1192.92
434.392	1192.24
434.767	1205.12
435.143	1229.76
435.518	1273.14
435.894	1251
436.269	1254.39
436.644	1255.97
437.02	1285.12
437.395	1313.6
437.77	1297.55
438.145	1331
438.52	1326.93
438.895	1359.47
439.271	1352.24
439.646	1387.04
440.021	1388.62
440.395	1428.39
440.77	1395.85
441.145	1407.83
441.52	1457.32
441.895	1446.93
442.27	1478.34
442.645	1473.82
443.019	1484.89
443.394	1472.24
443.769	1478.34
444.143	1481.27
444.518	1491.67
444.892	1527.6
445.267	1547.71
445.641	1528.05
446.016	1557.88
446.39	1564.44
446.764	1588.39
447.139	1589.52
447.513	1601.72
447.887	1591.78
448.262	1624.1
448.636	1616.86
449.01	1641.72
449.384	1647.6
449.758	1658.22
450.132	1662.74
450.506	1697.54
450.88	1700.93
451.254	1713.36
451.628	1737.54
452.002	1735.96
452.376	1764.43
452.75	1765.79
453.123	1783.41
453.497	1799.23
453.871	1803.98
454.244	1855.28
454.618	1871.09
454.992	1876.74
455.365	1915.84
455.739	1907.48
456.112	1940.92
456.486	1976.18
456.859	1976.63
457.232	2019.57
457.606	2013.46
457.979	2022.73
458.352	2087.81
458.725	2119.45
459.099	2116.74
459.472	2157.64
459.845	2175.49
460.218	2224.31
460.591	2216.4
460.964	2253.23
461.337	2294.59
461.71	2309.95
462.083	2372.1
462.456	2375.49
462.829	2378.65
463.201	2418.43
463.574	2447.8
463.947	2482.83
464.32	2519.21
464.692	2515.37
465.065	2552.21
465.438	2606.44
465.81	2617.06
466.183	2656.61
466.555	2684.18
466.928	2700.68
467.3	2756.5
467.672	2806.44
468.045	2907.9
468.417	2868.58
468.789	2884.85
469.161	2953.1
469.534	3000.33
469.906	3081.01
470.278	3092.31
470.65	3146.54
471.022	3193.09
471.394	3266.54
471.766	3335.01
472.138	3399.42
472.51	3432.64
472.882	3463.14
473.253	3505.18
473.625	3622.01
473.997	3703.82
474.369	3725.96
474.74	3777.03
475.112	3830.82
475.484	3879.63
475.855	3944.94
476.227	4009.57
476.598	4161.66
476.97	4206.63
477.341	4343.8
477.713	4368.88
478.084	4391.25
478.455	4544.47
478.827	4566.39
479.198	4744.69
479.569	4754.86
479.94	4845.03
480.311	4944.69
480.682	5082.54
481.053	5224.9
481.424	5265.81
481.795	5305.58
482.166	5450.89
482.537	5487.95
482.908	5663.99
483.279	5759.81
483.65	5835.74
484.021	5983.3
484.391	6058.78
484.762	6106.01
485.133	6192.34
485.503	6263.52
485.874	6395.95
486.244	6481.82
486.615	6577.86
486.985	6772.21
487.356	6816.5
487.726	6897.18
488.097	7063.95
488.467	7027.8
488.837	7271.63
489.207	7316.6
489.578	7528.57
489.948	7475.24
490.318	7665.74
490.688	7664.61
491.058	7811.73
491.428	7933.53
491.798	8001.78
492.168	8136.92
492.538	8169.46
492.908	8267.31
493.278	8422.56
493.648	8465.72
494.017	8561.31
494.387	8615.1
494.757	8679.28
495.126	8832.04
495.496	8859.16
495.866	8970.8
496.235	9054.41
496.605	9073.84
496.974	9190.45
497.344	9312.26
497.713	9333.5
498.082	9436.77
498.452	9579.59
498.821	9589.76
499.19	9629.76
499.559	9689.87
499.928	9835.63
500.298	9787.04
500.667	9952.69
501.036	9938.45
501.405	10053.03
501.774	10130.54
502.143	10182.97
502.512	10285.79
502.88	10405.33
503.249	10448.5
503.618	10460.7
503.987	10600.81
504.356	10689.85
504.724	10751.31
505.093	10785.21
505.462	10853.68
505.83	10955.83
506.199	10998.09
506.567	11233.79
506.936	11222.71
507.304	11352.88
507.672	11407.12
508.041	11355.14
508.409	11550.84
508.777	11605.3
509.145	11726.43
509.514	11825.86
509.882	11937.5
510.25	11968.46
510.618	11979.3
510.986	12108.11
511.354	12220.88
511.722	12352.63
512.09	12472.17
512.458	12473.3
512.826	12676.69
513.193	12784.25
513.561	12789.45
513.929	12947.64
514.297	12977.7
514.664	13173.85
515.032	13312.83
515.4	13308.53
515.767	13436.21
516.135	13412.94
516.502	13523.67
516.869	13707.39
517.237	13765.7
517.604	13859.71
517.972	13969.76
518.339	14111.9
518.706	14158.91
519.073	14340.6
519.44	14388.96
519.808	14534.72
520.175	14491.55
520.542	14801.15
520.909	14864.65
521.276	14936.74
521.643	15087.24
522.009	15151.88
522.376	15286.79
522.743	15353
523.11	15517.74
523.477	15711.63
523.843	15848.35
524.21	16074.79
524.577	16114.34
524.943	16191.17
525.31	16415.12
525.676	16472.97
526.043	16613.98
526.409	16703.25
526.776	16872.28
527.142	16941.66
527.508	17117.25
527.874	17257.58
528.241	17349.11
528.607	17450.35
528.973	17628.87
529.339	17594.07
529.705	17727.85
530.071	18002.87
530.437	18052.59
530.803	18240.83
531.169	18322.87
531.535	18332.58
531.901	18337.1
532.267	18511.34
532.632	18543.2
532.998	18752.23
533.364	18751.55
533.73	18921.72
534.095	19017.08
534.461	19107.03
534.826	19182.96
535.192	19299.79
535.557	19486.9
535.923	19440.58
536.288	19579.78
536.653	19640.12
537.019	19636.28
537.384	19744.98
537.749	19817.29
538.114	19888.47
538.479	20007.79
538.845	20064.51
539.21	20083.95
539.575	20171.86
539.94	20244.4
540.305	20363.72
540.67	20320.78
541.034	20423.15
541.399	20576.82
541.764	20654.56
542.129	20688.23
542.494	20747.66
542.858	20925.96
543.223	20870.6
543.587	21100.65
543.952	21010.93
544.316	21063.13
544.681	21212.06
545.045	21301.54
545.41	21333.41
545.774	21441.2
546.138	21537.02
546.503	21486.17
546.867	21541.54
547.231	21755.09
547.595	21860.17
547.959	21887.74
548.324	21943.34
548.688	22017.23
549.052	22179.04
549.416	22274.85
549.779	22323.66
550.143	22395.53
550.507	22586.03
550.871	22682.53
551.235	22584.45
551.599	22862.63
551.962	22844.1
552.326	22966.59
552.689	23126.36
553.053	23043.42
553.417	23326.8
553.78	23623.29
554.143	23549.17
554.507	23730.41
554.87	23753.91
555.234	24068.25
555.597	23926.79
555.96	24124.52
556.323	24354.35
556.686	24442.93
557.05	24584.85
557.413	24705.52
557.776	24887.89
558.139	24909.13
558.502	25199.07
558.865	25207.88
559.228	25523.81
559.59	25526.07
559.953	25758.15
560.316	26046.5
560.679	26083.11
561.041	26281.75
561.404	26407.4
561.767	26617.79
562.129	26669.54
562.492	27054.16
562.854	26959.7
563.217	27220.71
563.579	27338.67
563.941	27574.83
564.304	27735.27
564.666	27986.11
565.028	28018.43
565.39	28264.07
565.753	28529.6
566.115	28749.26
566.477	28834.91
566.839	28856.6
567.201	29241.22
567.563	29315.57
567.925	29730.48
568.287	29720.08
568.648	29669.91
569.01	30055.44
569.372	30262.89
569.734	30307.86
570.095	30626.5
570.457	30869.2
570.819	31037.11
571.18	31181.28
571.542	31457.44
571.903	31596.41
572.265	31756.18
572.626	31969.51
572.987	32181.48
573.349	32269.39
573.71	32433.23
574.071	32659.44
574.432	32718.19
574.794	33064.62
575.155	33214.68
575.516	33091.29
575.877	33520.21
576.238	33660.77
576.599	33796.58
576.96	33891.5
577.32	33980.99
577.681	34183.69
578.042	34359.05
578.403	34338.72
578.763	34529.45
579.124	34534.42
579.485	34773.05
579.845	35028.42
580.206	35085.59
580.566	34990.22
580.927	35155.87
581.287	35418.46
581.648	35358.58
582.008	35685.12
582.368	35664.56
582.728	35821.39
583.089	35824.78
583.449	35918.79
583.809	35959.24
584.169	36177.09
584.529	35938.22
584.889	36354.03
585.249	36173.7
585.609	36092.79
585.969	36402.39
586.329	36343.63
586.688	36469.96
587.048	36557.19
587.408	36588.37
587.768	36534.14
588.127	36562.84
588.487	36553.35
588.846	36843.73
589.206	36689.39
589.565	36649.39
589.925	36945.88
590.284	36863.4
590.643	36904.3
591.003	37082.82
591.362	36980.91
591.721	37031.3
592.08	37173.44
592.44	37203.95
592.799	37162.14
593.158	37175.25
593.517	37231.97
593.876	37261.35
594.235	37142.03
594.593	37373.21
594.952	37485.75
595.311	37295.93
595.67	37399.65
596.029	37520.55
596.387	37546.77
596.746	37696.59
597.104	37548.8
597.463	37549.48
597.822	37742.69
598.18	37578.63
598.538	37553.77
598.897	37929.81
599.255	37493.21
599.613	38074.89
599.972	37818.85
600.33	37867.66
600.688	37824.73
601.046	37908.57
601.404	38152.17
601.762	37999.18
602.12	38258.61
602.478	38132.51
602.836	38215.22
603.194	38045.74
603.552	38175.45
603.91	37989.47
604.268	38271.95
604.625	38149.01
604.983	38330.48
605.341	38202.34
605.698	38303.58
606.056	38464.03
606.413	38383.36
606.771	38543.12
607.128	38495.67
607.485	38440.53
607.843	38554.2
608.2	38584.48
608.557	38726.85
608.914	38639.17
609.272	38778.82
609.629	38801.2
609.986	38891.82
610.343	38781.99
610.7	38986.96
611.057	38934.53
611.414	38913.28
611.771	39043.22
612.127	39169.32
612.484	39057.69
612.841	39271.92
613.198	39191.7
613.554	39183.11
613.911	39430.56
614.267	39405.7
614.624	39316.44
614.98	39315.08
615.337	39340.62
615.693	39421.97
616.05	39471.24
616.406	39663.77
616.762	39616.54
617.118	39475.08
617.475	39551.69
617.831	39628.75
618.187	39659.48
618.543	39824.45
618.899	39895.18
619.255	39843.66
619.611	39806.14
619.967	40140.15
620.323	39999.58
620.678	39969.53
621.034	39819.7
621.39	39846.82
621.746	39846.14
622.101	40224.21
622.457	39889.98
622.812	39885.69
623.168	40233.93
623.523	40008.17
623.879	40205.23
624.234	39889.08
624.589	40027.15
624.945	40108.51
625.3	40198.67
625.655	40214.49
626.01	40167.49
626.365	40283.87
626.72	40049.3
627.075	39953.48
627.43	40035.74
627.785	40121.84
628.14	40039.13
628.495	40039.81
628.85	39922.07
629.205	39938.79
629.559	40029.64
629.914	39877.78
630.269	39911.45
630.623	39941.73
630.978	39782.19
631.332	39920.49
631.687	40023.76
632.041	39738.12
632.396	39800.95
632.75	39607.96
633.104	39803.2
633.459	39571.57
633.813	39634.4
634.167	39659.71
634.521	39525.92
634.875	39595.07
635.229	39594.4
635.583	39447.28
635.937	39340.17
636.291	39398.24
636.645	39426.72
636.999	39148.76
637.352	39363.67
637.706	39181.3
638.06	39159.38
638.413	39189.21
638.767	39119.16
639.121	39123
639.474	38948.76
639.828	38829.9
640.181	38769.33
640.534	38885.26
640.888	38774.53
641.241	38673.52
641.594	38700.18
641.947	38770.24
642.301	38684.59
642.654	38652.5
643.007	38567.76
643.36	38618.15
643.713	38487.08
644.066	38755.55
644.419	38600.3
644.771	38205.28
645.124	38100.88
645.477	37910.83
645.83	37670.15
646.182	37480.1
646.535	37394.91
646.888	37408.47
647.24	37266.77
647.593	37467.45
647.945	37308.13
648.298	37096.61
648.65	37120.56
649.002	37031.75
649.355	37165.31
649.707	37203.73
650.059	37305.42
650.411	37832.41
650.763	37856.14
651.115	38012.52
651.467	38009.81
651.819	38026.75
652.171	38008.22
652.523	37917.83
652.875	37943.14
653.227	37759.19
653.578	38038.28
653.93	37840.09
654.282	37764.16
654.633	37667.67
654.985	37791.96
655.337	37644.84
655.688	37761.22
656.039	37887.1
656.391	37691.85
656.742	37605.97
657.094	37646.88
657.445	37707.44
657.796	37592.87
658.147	37562.81
658.498	37528.24
658.849	37700.89
659.2	37490.27
659.551	37614.56
659.902	37704.05
660.253	37591.51
660.604	37629.7
660.955	37404.17
661.306	37514.68
661.656	37366.66
662.007	37530.27
662.358	37483.72
662.708	37497.95
663.059	37423.61
663.409	37210.73
663.76	37524.62
664.11	37403.72
664.461	37496.15
664.811	37525.98
665.161	37317.17
665.511	37379.77
665.862	37420.44
666.212	37499.31
666.562	37518.07
666.912	37394
667.262	37396.49
667.612	37322.37
667.962	37461.57
668.312	37242.14
668.662	37562.59
669.011	37251.86
669.361	37251.41
669.711	37217.06
670.06	37085.76
670.41	37117.4
670.76	37118.53
671.109	37230.17
671.459	37208.47
671.808	37100
672.157	37215.02
672.507	36896.61
672.856	36905.88
673.205	37038.31
673.554	37080.34
673.904	36889.84
674.253	37165.99
674.602	37045.99
674.951	36428.15
675.3	36286.91
675.649	36915.82
675.998	36880.12
676.346	36952.88
676.695	36919.21
677.044	36570.07
677.393	36683.51
677.741	36730.97
678.09	36660.91
678.438	36604.64
678.787	36644.19
679.135	36767.13
679.484	36250.3
679.832	36531.2
680.181	36329.85
680.529	36387.93
680.877	36390.41
681.225	36183.19
681.573	36462.5
681.922	36026.35
682.27	35987.26
682.618	35974.83
682.966	35912.23
683.314	35930.31
683.661	35848.51
684.009	35643.54
684.357	35736.19
684.705	35567.84
685.053	35622.07
685.4	35611.45
685.748	35544.79
686.095	35453.71
686.443	35260.5
686.79	35147.06
687.138	35246.04
687.485	35287.62
687.832	35096.66
688.18	35011.24
688.527	34844.47
688.874	34894.18
689.221	34797.69
689.568	34484.25
689.915	34456.68
690.262	34474.53
690.609	34470.24
690.956	34251.71
691.303	34240.19
691.65	34106.86
691.997	34020.53
692.344	33949.35
692.69	33963.13
693.037	33826.41
693.383	33499.64
693.73	33754.78
694.077	33532.86
694.423	33435.46
694.769	33341.23
695.116	33376.26
695.462	33209.71
695.808	33182.14
696.155	33118.86
696.501	32745.76
696.847	32789.38
697.193	32667.12
697.539	32768.36
697.885	32467.35
698.231	32335.83
698.577	32311.2
698.923	32279.11
699.269	32006.8
699.614	31847.48
699.96	31873.7
700.306	31936.29
700.651	31622.4
700.997	31708.05
701.342	31587.38
701.688	31542.41
702.033	31305.35
702.379	31208.63
702.724	31175.86
703.069	31262.19
703.415	30867.85
703.76	30951.69
704.105	30943.55
704.45	30863.33
704.795	30609.55
705.14	30554.18
705.485	30407.07
705.83	30382.89
706.175	30339.72
706.52	30348.31
706.865	30201.2
707.209	30109
707.554	30038.94
707.899	30025.83
708.243	29784.94
708.588	29751.27
708.932	29634.43
709.277	29519.18
709.621	29639.4
709.966	29527.32
710.31	29416.59
710.654	29238.28
710.998	29252.97
711.342	29196.03
711.687	29112.41
712.031	29067.67
712.375	29017.5
712.719	29029.48
713.063	29008.23
713.407	29006.88
713.75	28736.15
714.094	28792.87
714.438	28692.54
714.782	28732.99
715.125	28543.61
715.469	28703.38
715.812	28605.31
716.156	28460.9
716.499	28296.61
716.843	28314.24
717.186	28158.99
717.53	28327.35
717.873	28401.92
718.216	28154.92
718.559	28146.56
718.902	28007.81
719.246	28046.9
719.589	27908.38
719.932	27937.3
720.275	27829.51
720.617	27863.41
720.96	27801.03
721.303	27770.98
721.646	27815.05
721.989	27653.24
722.331	27660.7
722.674	27711.55
723.016	27708.16
723.359	27653.24
723.701	27614.6
724.044	27546.35
724.386	27436.52
724.729	27465.9
725.071	27363.31
725.413	27330.31
725.755	27404.43
726.097	27372.35
726.439	27126.93
726.782	27206.02
727.124	27361.5
727.465	27200.6
727.807	27286.02
728.149	27088.28
728.491	27048.96
728.833	27222.07
729.175	27036.08
729.516	27028.4
729.858	27064.1
730.199	27069.53
730.541	27048.06
730.882	26839.25
731.224	27043.09
731.565	26886.93
731.906	26929.65
732.248	26876.99
732.589	26770.78
732.93	26726.94
733.271	26767.16
733.612	26801.96
733.953	26915.41
734.294	26550.67
734.635	26604.91
734.976	26730.55
735.317	26598.58
735.658	26667.05
735.999	26717.22
736.339	26511.58
736.68	26671.57
737.021	26597.9
737.361	26434.74
737.702	26692.59
738.042	26680.16
738.383	26519.26
738.723	26583.44
739.063	26599.26
739.404	26565.13
739.744	26453.73
740.084	26450.79
740.424	26460.5
740.764	26448.53
741.104	26416.89
741.444	26387.96
741.784	26439.04
742.124	26474.74
742.464	26371.69
742.804	26390.22
743.143	26404.46
743.483	26198.36
743.823	26206.95
744.162	26317.46
744.502	26408.3
744.841	26299.83
745.181	26327.17
745.52	26216.67
745.86	26342.77
746.199	26204.24
746.538	26221.64
746.877	26357
747.216	26273.17
747.556	26060.06
747.895	26079.95
748.234	26154.52
748.573	26100.06
748.911	26000.86
749.25	26047.18
749.589	25998.82
749.928	25981.2
750.267	25990.69
750.605	25887.41
750.944	25818.71
751.283	25796.12
751.621	25853.97
751.96	25799.28
752.298	25858.03
752.636	25844.48
752.975	25714.99
753.313	25551.38
753.651	25722.67
753.989	25510.25
754.327	25490.59
754.666	25402.45
755.004	25507.76
755.342	25431.61
