Data from tablewood_dark_bookshelf_FLMS001491_00035.txt Node
Date: Wed Feb 08 14:14:26 GMT 2017
User: dcchb
Spectrometer: FLMS00149
Trigger mode: 0
Integration Time (sec): 2.000000E-2
Scans to average: 10
Electric dark correction enabled: true
Nonlinearity correction enabled: false
Boxcar width: 0
XAxis mode: Wavelengths
Number of Pixels in Spectrum: 2048
>>>>>Begin Spectral Data<<<<<
341.393	-23.09
341.776	-23.09
342.16	-23.09
342.543	-50.21
342.927	-53.37
343.31	-65.58
343.693	-66.26
344.077	-77.33
344.46	-51.57
344.843	-41.17
345.226	-52.7
345.61	-47.5
345.993	-17.67
346.376	-8.86
346.759	15.55
347.142	32.73
347.525	52.61
347.908	51.93
348.291	86.96
348.674	82.89
349.057	105.94
349.44	131.25
349.823	154.98
350.206	177.13
350.588	176.22
350.971	204.25
351.354	220.74
351.737	231.36
352.119	247.86
352.502	244.47
352.884	253.51
353.267	275.88
353.65	280.4
354.032	287.86
354.414	306.39
354.797	296
355.179	305.71
355.562	306.62
355.944	316.79
356.326	307.52
356.709	329.89
357.091	346.62
357.473	324.24
357.855	330.8
358.238	335.54
358.62	337.35
359.002	332.38
359.384	332.15
359.766	321.53
360.148	327.63
360.53	338.71
360.912	338.71
361.294	324.02
361.676	336.22
362.057	327.86
362.439	323.11
362.821	306.16
363.203	320.63
363.584	320.18
363.966	322.89
364.348	330.8
364.729	339.38
365.111	298.93
365.493	309.1
365.874	323.11
366.256	310.01
366.637	300.74
367.019	310.91
367.4	313.85
367.781	314.75
368.163	293.74
368.544	292.15
368.925	314.75
369.306	325.82
369.688	319.05
370.069	318.37
370.45	329.44
370.831	297.35
371.212	348.65
371.593	306.84
371.974	307.07
372.355	301.87
372.736	335.54
373.117	320.63
373.498	325.37
373.879	317.69
374.26	315.43
374.641	310.23
375.021	315.2
375.402	335.77
375.783	326.05
376.163	333.51
376.544	342.55
376.925	337.58
377.305	328.08
377.686	334.86
378.066	327.41
378.447	330.34
378.827	355.2
379.208	340.74
379.588	352.94
379.968	319.95
380.349	348.2
380.729	348.2
381.109	343.68
381.489	361.08
381.87	334.86
382.25	345.94
382.63	356.78
383.01	350.91
383.39	348.65
383.77	357.01
384.15	352.04
384.53	363.56
384.91	357.46
385.29	356.33
385.67	373.73
386.049	361.08
386.429	369.89
386.809	372.38
387.189	373.28
387.568	368.54
387.948	375.09
388.328	362.89
388.707	373.06
389.087	383.45
389.466	383.45
389.846	396.11
390.225	394.3
390.605	384.58
390.984	397.01
391.363	388.42
391.743	401.3
392.122	379.38
392.501	411.47
392.881	396.33
393.26	415.31
393.639	393.85
394.018	397.46
394.397	414.41
394.776	408.08
395.155	415.31
395.534	413.51
395.913	411.7
396.292	451.02
396.671	417.12
397.05	424.81
397.429	440.4
397.808	431.81
398.186	432.49
398.565	423.45
398.944	419.61
399.323	440.17
399.701	444.69
400.08	455.54
400.458	437.46
400.837	432.04
401.215	442.43
401.594	448.53
401.972	431.58
402.351	457.57
402.729	450.57
403.107	472.94
403.486	447.63
403.864	452.83
404.242	471.81
404.62	480.4
404.999	464.58
405.377	458.25
405.755	464.8
406.133	480.17
406.511	473.62
406.889	483.33
407.267	487.18
407.645	496.22
408.023	501.64
408.401	512.71
408.779	494.86
409.156	517.91
409.534	516.55
409.912	515.42
410.29	508.42
410.667	524.01
411.045	525.82
411.422	527.63
411.8	536.44
412.178	541.41
412.555	562.43
412.933	539.38
413.31	554.97
413.687	581.64
414.065	566.95
414.442	576.89
414.819	572.6
415.197	570.79
415.574	584.58
415.951	597.91
416.328	561.07
416.705	593.16
417.082	607.4
417.46	591.58
417.837	595.87
418.214	607.17
418.591	610.11
418.967	613.5
419.344	618.7
419.721	609.89
420.098	605.37
420.475	630.22
420.852	609.66
421.228	628.87
421.605	639.49
421.982	621.64
422.358	651.69
422.735	638.81
423.111	622.77
423.488	651.47
423.864	633.61
424.241	667.51
424.617	683.56
424.994	675.19
425.37	672.03
425.746	697.57
426.123	683.78
426.499	660.51
426.875	675.19
427.251	711.35
427.627	705.7
428.003	732.37
428.379	743.44
428.756	751.8
429.132	747.28
429.507	756.1
429.883	741.86
430.259	789.32
430.635	763.55
431.011	774.85
431.387	784.8
431.763	777.11
432.138	780.73
432.514	796.32
432.89	808.98
433.265	815.76
433.641	830.22
434.016	853.27
434.392	836.09
434.767	842.2
435.143	848.52
435.518	880.39
435.894	858.69
436.269	880.61
436.644	886.71
437.02	902.98
437.395	893.95
437.77	897.11
438.145	924.68
438.52	892.59
438.895	928.07
439.271	916.09
439.646	927.84
440.021	918.35
440.395	933.72
440.77	940.72
441.145	943.44
441.52	956.09
441.895	972.14
442.27	974.85
442.645	958.58
443.019	966.03
443.394	958.35
443.769	989.76
444.143	976.88
444.518	992.93
444.892	1007.39
445.267	1002.87
445.641	1039.25
446.016	1020.5
446.39	1014.17
446.764	1034.05
447.139	1023.89
447.513	1039.03
447.887	1039.93
448.262	1053.26
448.636	1059.36
449.01	1067.27
449.384	1069.99
449.758	1118.35
450.132	1072.25
450.506	1088.06
450.88	1087.16
451.254	1100.72
451.628	1131.45
452.002	1124
452.376	1143.88
452.75	1143.66
453.123	1130.78
453.497	1161.73
453.871	1155.86
454.244	1214.39
454.618	1185.01
454.992	1213.26
455.365	1231.79
455.739	1219.36
456.112	1245.57
456.486	1259.59
456.859	1269.53
457.232	1267.04
457.606	1272.24
457.979	1302.75
458.352	1326.48
458.725	1363.09
459.099	1312.92
459.472	1369.87
459.845	1398.79
460.218	1382.75
460.591	1391.79
460.964	1390.2
461.337	1404.67
461.71	1455.51
462.083	1486.47
462.456	1447.15
462.829	1464.55
463.201	1476.53
463.574	1510.65
463.947	1496.42
464.32	1542.74
464.692	1563.53
465.065	1545.68
465.438	1562.63
465.81	1602.18
466.183	1596.07
466.555	1647.15
466.928	1643.76
467.3	1648.5
467.672	1671.78
468.045	1705.68
468.417	1723.98
468.789	1738.89
469.161	1742.28
469.534	1795.84
469.906	1843.98
470.278	1773.92
470.65	1813.24
471.022	1864.32
471.394	1869.74
471.766	1894.37
472.138	1939.12
472.51	1982.96
472.882	1985.44
473.253	1996.74
473.625	2019.79
473.997	2048.04
474.369	2089.17
474.74	2123.74
475.112	2113.8
475.484	2182.95
475.855	2190.41
476.227	2196.06
476.598	2296.85
476.97	2341.82
477.341	2328.03
477.713	2371.42
478.084	2350.86
478.455	2427.46
478.827	2433.11
479.198	2525.09
479.569	2500.23
479.94	2571.42
480.311	2618.42
480.682	2655.93
481.053	2719.66
481.424	2744.97
481.795	2762.14
482.166	2802.82
482.537	2824.52
482.908	2897.51
483.279	2935.7
483.65	2938.41
484.021	2969.6
484.391	3034.91
484.762	3107.22
485.133	3132.53
485.503	3143.38
485.874	3205.3
486.244	3201.23
486.615	3298.4
486.985	3299.08
487.356	3364.61
487.726	3363.49
488.097	3438.51
488.467	3469.92
488.837	3547.21
489.207	3575.91
489.578	3615.68
489.948	3669.01
490.318	3632.86
490.688	3687.09
491.058	3773.19
491.428	3790.14
491.798	3831.72
492.168	3897.93
492.538	3930.93
492.908	3940.87
493.278	3975.22
493.648	4016.12
494.017	4081.66
494.387	4113.75
494.757	4105.16
495.126	4151.49
495.496	4215.67
495.866	4224.48
496.235	4252.73
496.605	4269.22
496.974	4308.32
497.344	4333.85
497.713	4394.19
498.082	4405.04
498.452	4450.01
498.821	4504.7
499.19	4524.36
499.559	4516
499.928	4556.22
500.298	4559.84
500.667	4664.92
501.036	4676.22
501.405	4659.72
501.774	4687.97
502.143	4755.31
502.512	4741.3
502.88	4820.17
503.249	4806.84
503.618	4838.47
503.987	4901.98
504.356	4906.95
504.724	4920.73
505.093	4918.47
505.462	4979.04
505.83	5006.61
506.199	5080.05
506.567	5090.9
506.936	5081.18
507.304	5222.42
507.672	5205.24
508.041	5205.24
508.409	5212.7
508.777	5326.6
509.145	5365.01
509.514	5347.16
509.882	5415.41
510.25	5396.43
510.618	5460.38
510.986	5512.36
511.354	5562.3
511.722	5591.68
512.09	5644.55
512.458	5617.66
512.826	5700.6
513.193	5746.47
513.561	5783.99
513.929	5790.09
514.297	5864.89
514.664	5868.5
515.032	5933.36
515.4	5963.64
515.767	6022.85
516.135	6042.51
516.502	5988.27
516.869	6076.86
517.237	6143.75
517.604	6135.62
517.972	6206.57
518.339	6274.37
518.706	6263.52
519.073	6235.5
519.44	6361.37
519.808	6461.03
520.175	6444.31
520.542	6531.09
520.909	6509.62
521.276	6589.84
521.643	6600.91
522.009	6691.31
522.376	6726.56
522.743	6793.45
523.11	6881.13
523.477	6866.44
523.843	6964.07
524.21	7021.02
524.577	7069.83
524.943	7121.35
525.31	7140.56
525.676	7230.5
526.043	7251.74
526.409	7314.57
526.776	7345.75
527.142	7401.34
527.508	7472.53
527.874	7494.9
528.241	7603.37
528.607	7634.33
528.973	7711.62
529.339	7677.04
529.705	7785.29
530.071	7828.9
530.437	7811.5
530.803	7884.5
531.169	7961.33
531.535	7905.96
531.901	7960.2
532.267	8048.33
532.632	8035.9
532.998	8062.12
533.364	8145.05
533.73	8105.73
534.095	8298.27
534.461	8306.18
534.826	8318.83
535.192	8336.91
535.557	8380.08
535.923	8491.03
536.288	8465.72
536.653	8523.58
537.019	8519.28
537.384	8508.66
537.749	8611.71
538.114	8651.26
538.479	8649.45
538.845	8674.76
539.21	8721.08
539.575	8725.15
539.94	8812.61
540.305	8826.62
540.67	8820.74
541.034	8791.82
541.399	8893.28
541.764	8954.98
542.129	9011.02
542.494	9011.47
542.858	9110
543.223	9047.63
543.587	9078.81
543.952	9125.14
544.316	9143.22
544.681	9159.26
545.045	9176.89
545.41	9303.67
545.774	9328.07
546.138	9320.84
546.503	9330.11
546.867	9392.03
547.231	9495.53
547.595	9468.41
547.959	9509.76
548.324	9509.54
548.688	9561.51
549.052	9617.78
549.416	9623.43
549.779	9671.12
550.143	9722.19
550.507	9774.39
550.871	9836.54
551.235	9768.74
551.599	9892.58
551.962	9891
552.326	9966.48
552.689	9999.69
553.053	10039.24
553.417	10061.61
553.78	10158.56
554.143	10157.2
554.507	10192.91
554.87	10257.54
555.234	10386.35
555.597	10277.65
555.96	10279.24
556.323	10380.7
556.686	10480.13
557.05	10518.1
557.413	10566.01
557.776	10608.27
558.139	10655.5
558.502	10713.35
558.865	10773.01
559.228	10848.94
559.59	10817.07
559.953	10917.41
560.316	11053.45
560.679	10982.27
561.041	11150.85
561.404	11179.55
561.767	11257.29
562.129	11214.58
562.492	11375.25
562.854	11336.61
563.217	11321.24
563.579	11491.86
563.941	11544.51
564.304	11540.22
564.666	11651.63
565.028	11707.9
565.39	11740.21
565.753	11821.79
566.115	11959.87
566.477	11902.47
566.839	11921.23
567.201	12076.02
567.563	12154.44
567.925	12161.22
568.287	12158.51
568.648	12269.24
569.01	12327.54
569.372	12441.21
569.734	12410.25
570.095	12537.93
570.457	12595.33
570.819	12654.31
571.18	12660.87
571.542	12813.63
571.903	12819.96
572.265	12807.98
572.626	12892.5
572.987	12950.8
573.349	13053.85
573.71	13153.28
574.071	13137.01
574.432	13238.03
574.794	13299.04
575.155	13283.22
575.516	13267.63
575.877	13394.86
576.238	13403.22
576.599	13543.56
576.96	13532.71
577.32	13552.37
577.681	13645.7
578.042	13706.04
578.403	13658.36
578.763	13718.02
579.124	13737.45
579.485	13826.49
579.845	13918.46
580.206	13865.58
580.566	13855.19
580.927	13914.85
581.287	14074.16
581.648	14013.15
582.008	14105.8
582.368	14086.14
582.728	14163.43
583.089	14101.96
583.449	14172.92
583.809	14210.21
584.169	14256.53
584.529	14256.53
584.889	14336.3
585.249	14248.17
585.609	14350.31
585.969	14403.87
586.329	14440.93
586.688	14564.09
587.048	14509.63
587.408	14427.6
587.768	14573.81
588.127	14539.91
588.487	14567.94
588.846	14733.13
589.206	14613.58
589.565	14656.52
589.925	14729.74
590.284	14729.29
590.643	14745.11
591.003	14901.49
591.362	14846.57
591.721	14770.87
592.08	14903.97
592.44	14890.87
592.799	14919.79
593.158	14988.26
593.517	14940.36
593.876	14970.64
594.235	14950.3
594.593	14974.93
594.952	15042.73
595.311	15056.96
595.67	15116.62
596.029	15149.84
596.387	15242.27
596.746	15268.03
597.104	15184.64
597.463	15322.49
597.822	15279.33
598.18	15230.29
598.538	15271.87
598.897	15404.3
599.255	15333.11
599.613	15496.95
599.972	15434.81
600.33	15460.79
600.688	15466.44
601.046	15502.15
601.404	15546.44
601.762	15590.28
602.12	15741.01
602.478	15614.24
602.836	15613.33
603.194	15534.92
603.552	15621.47
603.91	15702.6
604.268	15783.05
604.625	15759.09
604.983	15742.37
605.341	15693.78
605.698	15843.61
606.056	15827.34
606.413	15853.55
606.771	15921.12
607.128	15971.29
607.485	15896.04
607.843	15900.78
608.2	15906.66
608.557	16027.78
608.914	15938.52
609.272	16122.25
609.629	16175.8
609.986	16236.59
610.343	16013.55
610.7	16292.86
611.057	16146.43
611.414	16198.85
611.771	16238.85
612.127	16270.26
612.484	16341
612.841	16364.27
613.198	16265.52
613.554	16325.4
613.911	16407.21
614.267	16387.55
614.624	16377.15
614.98	16540.31
615.337	16631.38
615.693	16595.23
616.05	16593.42
616.406	16675
616.762	16539.86
617.118	16569.01
617.475	16538.05
617.831	16682.68
618.187	16627.09
618.543	16749.35
618.899	16756.81
619.255	16723.59
619.611	16807.43
619.967	16811.72
620.323	16841.32
620.678	16762.23
621.034	16716.58
621.39	16768.56
621.746	16588.9
622.101	16889.01
622.457	16759.52
622.812	16764.94
623.168	16922.22
623.523	16941.21
623.879	16896.46
624.234	16817.37
624.589	16829.12
624.945	16868.21
625.3	16931.49
625.655	16887.65
626.01	16903.69
626.365	16807.88
626.72	16887.2
627.075	16932.62
627.43	16832.74
627.785	16925.39
628.14	16861.21
628.495	16935.11
628.85	16885.62
629.205	16823.47
629.559	16933.52
629.914	16784.83
630.269	16835.67
630.623	16770.82
630.978	16843.13
631.332	16807.65
631.687	16826.63
632.041	16790.48
632.396	16859.18
632.75	16705.28
633.104	16812.4
633.459	16753.64
633.813	16730.59
634.167	16806.07
634.521	16726.75
634.875	16674.32
635.229	16771.95
635.583	16660.54
635.937	16674.77
636.291	16582.35
636.645	16698.73
636.999	16661.89
637.352	16622.57
637.706	16531.95
638.06	16629.58
638.413	16527.88
638.767	16545.96
639.121	16591.61
639.474	16396.14
639.828	16520.88
640.181	16482.69
640.534	16512.74
640.888	16405.18
641.241	16375.35
641.594	16325.4
641.947	16486.76
642.301	16318.85
642.654	16413.31
643.007	16390.26
643.36	16376.25
643.713	16323.6
644.066	16322.92
644.419	16347.78
644.771	16285.41
645.124	15944.85
645.477	15939.43
645.83	15883.61
646.182	15809.03
646.535	15808.36
646.888	15981.91
647.24	15778.75
647.593	15936.49
647.945	15871.18
648.298	15807.9
648.65	15802.93
649.002	15730.39
649.355	15898.97
649.707	15793.21
650.059	15859.43
650.411	16058.52
650.763	15997.96
651.115	16191.17
651.467	16100.55
651.819	16049.71
652.171	16134.67
652.523	16081.12
652.875	16021.91
653.227	15992.98
653.578	16054.22
653.93	16066.2
654.282	15902.36
654.633	15968.58
654.985	16004.51
655.337	16051.74
655.688	15996.83
656.039	16025.98
656.391	15919.77
656.742	15945.53
657.094	16012.42
657.445	16033.66
657.796	15974.9
658.147	15953.44
658.498	15981.91
658.849	16004.96
659.2	15971.97
659.551	15857.85
659.902	16002.25
660.253	16017.16
660.604	15962.25
660.955	15889.48
661.306	15983.49
661.656	15952.08
662.007	15929.26
662.358	16025.98
662.708	15960.44
663.059	15982.14
663.409	15786.44
663.76	15978.52
664.11	15949.82
664.461	16006.54
664.811	15959.31
665.161	15943.49
665.511	15799.77
665.862	15947.33
666.212	15951.85
666.562	16010.61
666.912	15963.38
667.262	15933.78
667.612	15972.87
667.962	15925.41
668.312	15902.36
668.662	15997.5
669.011	15988.92
669.361	15938.3
669.711	15884.29
670.06	15865.3
670.41	15922.93
670.76	15861.69
671.109	15945.3
671.459	15931.29
671.808	15814.01
672.157	15978.29
672.507	15851.07
672.856	15818.75
673.205	15792.31
673.554	15916.15
673.904	15868.24
674.253	15860.56
674.602	15832.54
674.951	15563.39
675.3	15526.1
675.649	15812.42
675.998	15771.97
676.346	15748.47
676.695	15832.54
677.044	15685.19
677.393	15841.57
677.741	15813.1
678.09	15686.78
678.438	15685.87
678.787	15730.17
679.135	15801.35
679.484	15745.31
679.832	15760.45
680.181	15654.46
680.529	15720
680.877	15641.35
681.225	15725.65
681.573	15766.1
681.922	15667.79
682.27	15662.82
682.618	15576.27
682.966	15650.62
683.314	15630.06
683.661	15491.75
684.009	15563.39
684.357	15529.27
684.705	15441.36
685.053	15504.63
685.4	15377.18
685.748	15355.26
686.095	15286.11
686.443	15254.92
686.79	15378.76
687.138	15333.57
687.485	15321.14
687.832	15303.96
688.18	15315.26
688.527	15158.66
688.874	15126.11
689.221	15086.11
689.568	15007.25
689.915	15019.68
690.262	14945.55
690.609	15012.9
690.956	14942.62
691.303	14968.15
691.65	14895.39
691.997	14867.36
692.344	14829.62
692.69	14828.49
693.037	14881.6
693.383	14671.89
693.73	14740.59
694.077	14636.63
694.423	14670.31
694.769	14536.07
695.116	14553.47
695.462	14588.73
695.808	14579.69
696.155	14527.26
696.501	14425.12
696.847	14512.57
697.193	14410.43
697.539	14417.88
697.885	14328.17
698.231	14288.17
698.577	14259.7
698.923	14192.13
699.269	14141.96
699.614	14189.64
699.96	14117.78
700.306	14061.06
700.651	14042.3
700.997	13986.03
701.342	13979.03
701.688	13952.59
702.033	13901.74
702.379	13893.6
702.724	13804.79
703.069	13883.21
703.415	13773.83
703.76	13805.24
704.105	13750.56
704.45	13740.84
704.795	13652.25
705.14	13675.98
705.485	13583.33
705.83	13527.06
706.175	13501.98
706.52	13516.44
706.865	13525.25
707.209	13454.52
707.554	13460.17
707.899	13461.3
708.243	13373.62
708.588	13339.49
708.932	13190.8
709.277	13282.55
709.621	13238.71
709.966	13220.4
710.31	13223.56
710.654	13119.16
710.998	13165.26
711.342	13177.01
711.687	13116.22
712.031	13104.7
712.375	13098.6
712.719	13048.65
713.063	13080.07
713.407	13136.79
713.75	12988.09
714.094	12973.63
714.438	12946.51
714.782	12906.74
715.125	12859.51
715.469	12839.17
715.812	12810.47
716.156	12759.4
716.499	12807.98
716.843	12812.05
717.186	12746.29
717.53	12822.45
717.873	12860.41
718.216	12797.14
718.559	12688.44
718.902	12613.86
719.246	12674.2
719.589	12621.55
719.932	12591.94
720.275	12614.99
720.617	12638.95
720.96	12589.23
721.303	12666.74
721.646	12631.72
721.989	12564.15
722.331	12613.86
722.674	12533.64
723.016	12473.08
723.359	12514.88
723.701	12506.07
724.044	12462.91
724.386	12404.83
724.729	12422.68
725.071	12400.08
725.413	12386.52
725.755	12438.73
726.097	12329.35
726.439	12341.1
726.782	12332.29
727.124	12365.28
727.465	12266.53
727.807	12377.94
728.149	12335.68
728.491	12337.71
728.833	12346.53
729.175	12259.52
729.516	12214.55
729.858	12226.08
730.199	12272.18
730.541	12257.94
730.882	12287.09
731.224	12328.67
731.565	12172.97
731.906	12164.38
732.248	12193.31
732.589	12131.16
732.93	12070.83
733.271	12095.23
733.612	12123.25
733.953	12200.54
734.294	12195.12
734.635	12062.24
734.976	12108.11
735.317	12025.4
735.658	12040.09
735.999	12097.94
736.339	12090.71
736.68	12105.63
737.021	12035.12
737.361	11996.7
737.702	12066.53
738.042	12065.18
738.383	12072.41
738.723	12078.28
739.063	12030.38
739.404	12082.13
739.744	11957.38
740.084	11992.18
740.424	12018.62
740.764	11942.69
741.104	12091.17
741.444	11924.16
741.784	11942.24
742.124	11959.42
742.464	11985.41
742.804	11932.98
743.143	11932.75
743.483	11895.01
743.823	11843.04
744.162	11894.33
744.502	11857.27
744.841	11885.29
745.181	11822.7
745.52	11810.04
745.86	11897.27
746.199	11886.2
746.538	11846.43
746.877	11888.23
747.216	11844.39
747.556	11841.68
747.895	11814.56
748.234	11790.61
748.573	11722.14
748.911	11785.86
749.25	11735.24
749.589	11763.49
749.928	11683.04
750.267	11759.87
750.605	11765.98
750.944	11691.85
751.283	11614.12
751.621	11667
751.96	11669.93
752.298	11574.57
752.636	11622.48
752.975	11564.17
753.313	11560.11
753.651	11549.71
753.989	11549.26
754.327	11570.27
754.666	11513.1
755.004	11521.24
755.342	11495.25
755.679	11471.29
756.017	11482.82
756.355	11450.73
756.693	11387
757.031	11399.66
757.368	11360.34
757.706	11403.27
758.044	11340.45
