Data from tablewood_dark_bookshelf_FLMS001491_00020.txt Node
Date: Wed Feb 08 14:13:44 GMT 2017
User: dcchb
Spectrometer: FLMS00149
Trigger mode: 0
Integration Time (sec): 2.000000E-2
Scans to average: 10
Electric dark correction enabled: true
Nonlinearity correction enabled: false
Boxcar width: 0
XAxis mode: Wavelengths
Number of Pixels in Spectrum: 2048
>>>>>Begin Spectral Data<<<<<
341.393	-16.4
341.776	-16.4
342.16	-16.4
342.543	-62.5
342.927	-71.99
343.31	-93.91
343.693	-72.89
344.077	-64.76
344.46	-52.1
344.843	-55.27
345.226	-57.07
345.61	-33.12
345.993	-19.34
346.376	4.62
346.759	21.12
347.142	32.64
347.525	45.75
347.908	55.92
348.291	76.71
348.674	107.67
349.057	104.05
349.44	112.86
349.823	152.86
350.206	172.07
350.588	196.48
350.971	196.25
351.354	205.29
351.737	212.07
352.119	230.6
352.502	236.48
352.884	250.71
353.267	280.77
353.65	266.31
354.032	271.28
354.414	291.84
354.797	284.16
355.179	302.01
355.562	301.11
355.944	310.15
356.326	334.55
356.709	328.45
357.091	325.51
357.473	321.67
357.855	316.47
358.238	338.17
358.62	311.73
359.002	330.94
359.384	330.94
359.766	332.97
360.148	330.71
360.53	329.58
360.912	326.42
361.294	335.68
361.676	315.57
362.057	332.29
362.439	332.07
362.821	322.12
363.203	337.49
363.584	313.31
363.966	319.41
364.348	320.32
364.729	301.11
365.111	309.47
365.493	317.38
365.874	328
366.256	298.17
366.637	316.93
367.019	321.45
367.4	285.74
367.781	306.08
368.163	308.34
368.544	340.2
368.925	318.28
369.306	339.3
369.688	324.16
370.069	297.49
370.45	302.92
370.831	321.9
371.212	309.02
371.593	326.64
371.974	291.84
372.355	311.96
372.736	319.19
373.117	319.19
373.498	318.73
373.879	332.97
374.26	317.6
374.641	301.11
375.021	325.06
375.402	320.32
375.783	320.32
376.163	328.23
376.544	314.67
376.925	337.94
377.305	328.23
377.686	336.59
378.066	334.78
378.447	320.09
378.827	335.68
379.208	328.68
379.588	352.86
379.968	339.3
380.349	344.27
380.729	339.3
381.109	347.89
381.489	324.38
381.87	339.52
382.25	346.98
382.63	338.85
383.01	343.59
383.39	355.12
383.77	350.37
384.15	351.5
384.53	365.29
384.91	342.91
385.29	349.02
385.67	352.18
386.049	359.64
386.429	379.3
386.809	381.11
387.189	357.15
387.568	371.39
387.948	372.29
388.328	372.07
388.707	370.48
389.087	387.89
389.466	361.22
389.846	368.9
390.225	376.36
390.605	399.18
390.984	393.76
391.363	374.78
391.743	396.02
392.122	403.03
392.501	385.4
392.881	391.28
393.26	422.01
393.639	383.59
394.018	400.54
394.397	398.28
394.776	378.39
395.155	403.7
395.534	427.43
395.913	426.08
396.292	419.3
396.671	432.18
397.05	432.18
397.429	419.75
397.808	404.16
398.186	431.05
398.565	426.98
398.944	438.05
399.323	448.9
399.701	426.08
400.08	442.12
400.458	464.04
400.837	435.12
401.215	441.9
401.594	439.86
401.972	440.77
402.351	450.48
402.729	465.4
403.107	478.05
403.486	470.14
403.864	476.24
404.242	485.28
404.62	467.66
404.999	478.05
405.377	473.98
405.755	488.22
406.133	481.89
406.511	472.63
406.889	484.15
407.267	508.56
407.645	498.39
408.023	501.33
408.401	498.62
408.779	511.95
409.156	526.64
409.534	520.09
409.912	533.64
410.29	530.03
410.667	532.06
411.045	520.09
411.422	526.86
411.8	529.58
412.178	565.51
412.555	550.14
412.933	540.42
413.31	555.11
413.687	566.41
414.065	567.99
414.442	566.19
414.819	567.32
415.197	575.9
415.574	595.79
415.951	599.86
416.328	609.8
416.705	595.34
417.082	623.36
417.46	615.22
417.837	605.05
418.214	611.16
418.591	619.52
418.967	633.98
419.344	637.82
419.721	619.74
420.098	635.79
420.475	633.08
420.852	643.92
421.228	630.59
421.605	664.94
421.982	669.46
422.358	639.18
422.735	662
423.111	670.82
423.488	668.78
423.864	669.69
424.241	674.88
424.617	686.18
424.994	695.22
425.37	692.51
425.746	696.13
426.123	718.95
426.499	715.11
426.875	700.42
427.251	742.23
427.627	742.68
428.003	736.58
428.379	745.84
428.756	760.53
429.132	753.3
429.507	760.98
429.883	779.06
430.259	779.97
430.635	767.54
431.011	776.35
431.387	799.63
431.763	828.78
432.138	845.73
432.514	823.58
432.89	854.54
433.265	849.12
433.641	856.12
434.016	864.71
434.392	861.32
434.767	868.32
435.143	886.18
435.518	884.37
435.894	885.95
436.269	910.81
436.644	919.85
437.02	934.09
437.395	915.78
437.77	935.89
438.145	936.12
438.52	953.29
438.895	981.54
439.271	956.46
439.646	995.55
440.021	958.94
440.395	991.94
440.77	991.71
441.145	1001.65
441.52	1011.82
441.895	1032.84
442.27	1030.81
442.645	1007.98
443.019	1020.19
443.394	1036.23
443.769	1035.55
444.143	1070.81
444.518	1051.14
444.892	1064.7
445.267	1058.83
445.641	1101.09
446.016	1078.71
446.39	1085.04
446.764	1120.52
447.139	1081.65
447.513	1109.22
447.887	1100.86
448.262	1123.23
448.636	1140.63
449.01	1130.69
449.384	1142.44
449.758	1116
450.132	1142.67
450.506	1142.44
450.88	1167.75
451.254	1183.8
451.628	1197.36
452.002	1187.86
452.376	1204.14
452.75	1228.54
453.123	1238.71
453.497	1230.12
453.871	1250.91
454.244	1273.29
454.618	1259.73
454.992	1267.86
455.365	1294.75
455.739	1330.46
456.112	1318.71
456.486	1365.94
456.859	1316
457.232	1373.62
457.606	1354.41
457.979	1385.6
458.352	1412.27
458.725	1422.43
459.099	1449.33
459.472	1454.52
459.845	1469.66
460.218	1471.92
460.591	1500.17
460.964	1502.43
461.337	1565.03
461.71	1550.11
462.083	1584.92
462.456	1568.19
462.829	1597.57
463.201	1631.92
463.574	1619.27
463.947	1597.57
464.32	1660.85
464.692	1671.24
465.065	1674.63
465.438	1717.79
465.81	1701.07
466.183	1754.18
466.555	1772.03
466.928	1795.98
467.3	1798.92
467.672	1799.15
468.045	1847.96
468.417	1841.86
468.789	1874.85
469.161	1863.78
469.534	1926.38
469.906	1944.68
470.278	1979.93
470.65	1990.56
471.022	2027.16
471.394	2054.28
471.766	2062.42
472.138	2099.03
472.51	2135.18
472.882	2154.17
473.253	2198.23
473.625	2221.96
473.997	2221.06
474.369	2278.91
474.74	2301.51
475.112	2334.95
475.484	2378.34
475.855	2399.58
476.227	2399.58
476.598	2489.07
476.97	2500.6
477.341	2536.98
477.713	2556.42
478.084	2599.58
478.455	2667.15
478.827	2663.08
479.198	2784.43
479.569	2766.81
479.94	2842.51
480.311	2836.18
480.682	2909.85
481.053	2947.82
481.424	3007.25
481.795	3055.39
482.166	3077.98
482.537	3111.2
482.908	3161.15
483.279	3189.17
483.65	3270.97
484.021	3312.1
484.391	3317.53
484.762	3390.29
485.133	3383.29
485.503	3488.82
485.874	3550.29
486.244	3580.12
486.615	3622.15
486.985	3668.7
487.356	3704.41
487.726	3708.25
488.097	3835.93
488.467	3836.16
488.837	3905.31
489.207	3943.5
489.578	3996.15
489.948	4052.42
490.318	4089.03
490.688	4139.65
491.058	4141.01
491.428	4239.08
491.798	4251.06
492.168	4315.92
492.538	4351.17
492.908	4398.63
493.278	4450.38
493.648	4490.38
494.017	4495.8
494.387	4545.74
494.757	4603.82
495.126	4653.54
495.496	4684.72
495.866	4712.07
496.235	4744.83
496.605	4804.72
496.974	4800.42
497.344	4840.65
497.713	4878.61
498.082	4899.63
498.452	4965.84
498.821	5032.51
499.19	4968.56
499.559	5039.51
499.928	5082.23
500.298	5138.49
500.667	5191.83
501.036	5218.27
501.405	5226.4
501.774	5247.42
502.143	5340.07
502.512	5298.04
502.88	5321.09
503.249	5405.15
503.618	5432.5
503.987	5478.6
504.356	5505.04
504.724	5512.95
505.093	5490.35
505.462	5551.14
505.83	5608.31
506.199	5658.48
506.567	5718.82
506.936	5700.97
507.304	5788.2
507.672	5773.51
508.041	5849.44
508.409	5908.19
508.777	6015.31
509.145	5992.71
509.514	5987.06
509.882	6055.53
510.25	6008.75
510.618	6147.96
510.986	6202.87
511.354	6185.7
511.722	6251.91
512.09	6397.44
512.458	6325.81
512.826	6400.38
513.193	6366.03
513.561	6468.18
513.929	6489.87
514.297	6580.26
514.664	6623.65
515.032	6677.89
515.4	6693.26
515.767	6724.89
516.135	6803.31
516.502	6736.87
516.869	6888.51
517.237	6887.6
517.604	6879.24
517.972	7001.5
518.339	6969.63
518.706	7058.9
519.073	7060.7
519.44	7138.22
519.808	7265.9
520.175	7243.98
520.542	7380.7
520.909	7375.05
521.276	7394.93
521.643	7423.63
522.009	7574.59
522.376	7556.06
522.743	7620.69
523.11	7714.7
523.477	7841.7
523.843	7803.74
524.21	7882.15
524.577	8003.28
524.943	8013.9
525.31	8111.3
525.676	8121.02
526.043	8187
526.409	8307.45
526.776	8399.65
527.142	8372.76
527.508	8397.62
527.874	8431.97
528.241	8552.87
528.607	8514.45
528.973	8643.26
529.339	8621.34
529.705	8713.54
530.071	8787.44
530.437	8810.04
530.803	8866.76
531.169	8899.3
531.535	8990.6
531.901	8987.89
532.267	8944.72
532.632	9109.24
532.998	9141.1
533.364	9209.35
533.73	9342
534.095	9298.39
534.461	9383.81
534.826	9416.57
535.192	9462.9
535.557	9493.41
535.923	9446.4
536.288	9573.41
536.653	9624.93
537.019	9578.83
537.384	9617.7
537.749	9742.44
538.114	9780.63
538.479	9734.76
538.845	9804.13
539.21	9857.69
539.575	9825.6
539.94	9917.13
540.305	9979.72
540.67	9947.63
541.034	10064.47
541.399	10145.14
541.764	10154.86
542.129	10187.85
542.494	10245.25
542.858	10228.98
543.223	10190.57
543.587	10304.69
543.952	10317.57
544.316	10345.82
544.681	10417.45
545.045	10396.21
545.41	10481.18
545.774	10511.01
546.138	10538.35
546.503	10657.9
546.867	10634.62
547.231	10753.49
547.595	10711.23
547.959	10776.76
548.324	10737.44
548.688	10751.91
549.052	10862.19
549.416	10898.34
549.779	10928.85
550.143	10938.57
550.507	11079.36
550.871	11048.85
551.235	11084.55
551.599	11160.71
551.962	11229.63
552.326	11294.94
552.689	11296.75
553.053	11297.88
553.417	11282.29
553.78	11482.73
554.143	11426.47
554.507	11579.91
554.87	11581.94
555.234	11602.05
555.597	11682.05
555.96	11714.37
556.323	11771.31
556.686	11761.6
557.05	11824.42
557.413	11979.9
557.776	11947.58
558.139	12018.77
558.502	12082.72
558.865	12164.07
559.228	12284.52
559.59	12261.02
559.953	12294.46
560.316	12463.73
560.679	12492.88
561.041	12623.04
561.404	12642.03
561.767	12748.46
562.129	12621.46
562.492	12867.33
562.854	12858.74
563.217	12829.37
563.579	12973.32
563.941	12959.76
564.304	13126.31
564.666	13117.49
565.028	13162.92
565.39	13298.96
565.753	13352.74
566.115	13404.04
566.477	13579.63
566.839	13503.47
567.201	13642.23
567.563	13688.55
567.925	13726.07
568.287	13804.71
568.648	13835.67
569.01	13998.37
569.372	14074.08
569.734	14073.18
570.095	14163.12
570.457	14161.31
570.819	14186.39
571.18	14313.85
571.542	14439.27
571.903	14394.52
572.265	14596.33
572.626	14595.42
572.987	14552.26
573.349	14672.71
573.71	14726.27
574.071	14885.36
574.432	14891.01
574.794	14972.59
575.155	15116.09
575.516	14966.94
575.877	15087.39
576.238	15172.36
576.599	15274.95
576.96	15251
577.32	15319.92
577.681	15388.39
578.042	15496.87
578.403	15492.12
578.763	15428.62
579.124	15567.83
579.485	15648.5
579.845	15714.71
580.206	15709.97
580.566	15691.21
580.927	15801.27
581.287	15855.5
581.648	15796.97
582.008	16010.53
582.368	16020.47
582.728	16105.44
583.089	16148.6
583.449	16093.69
583.809	16133.46
584.169	16187.47
584.529	16133.69
584.889	16280.35
585.249	16220.01
585.609	16120.35
585.969	16359.44
586.329	16281.25
586.688	16422.72
587.048	16439.44
587.408	16425.88
587.768	16467.91
588.127	16359.67
588.487	16430.63
588.846	16710.39
589.206	16489.16
589.565	16514.01
589.925	16702.48
590.284	16586.78
590.643	16724.4
591.003	16765.99
591.362	16756.72
591.721	16763.05
592.08	16828.58
592.44	16812.54
592.799	16881.01
593.158	16881.91
593.517	16904.74
593.876	16998.07
594.235	16946.77
594.593	17043.72
594.952	17064.51
595.311	16999.43
595.67	17027
596.029	17199.42
596.387	17250.94
596.746	17250.94
597.104	17261.79
597.463	17237.84
597.822	17329.13
598.18	17256.59
598.538	17298.4
598.897	17410.04
599.255	17260.66
599.613	17542.01
599.972	17456.59
600.33	17492.75
600.688	17335.24
601.046	17580.65
601.404	17582.46
601.762	17598.73
602.12	17751.72
602.478	17732.74
602.836	17755.56
603.194	17633.76
603.552	17716.7
603.91	17655
604.268	17867.88
604.625	17862.45
604.983	17930.47
605.341	17830.14
605.698	17985.61
606.056	18014.31
606.413	18038.49
606.771	18054.77
607.128	18079.17
607.485	18078.27
607.843	18006.41
608.2	18268.32
608.557	18276.91
608.914	18166.63
609.272	18266.96
609.629	18385.6
609.986	18436
610.343	18368.2
610.7	18459.73
611.057	18398.71
611.414	18426.51
611.771	18421.99
612.127	18494.08
612.484	18524.13
612.841	18614.52
613.198	18583.79
613.554	18661.53
613.911	18706.73
614.267	18635.54
614.624	18693.84
614.98	18741.08
615.337	18809.55
615.693	18758.93
616.05	18854.52
616.406	18903.33
616.762	18927.28
617.118	18876.44
617.475	18819.72
617.831	18874.18
618.187	18859.72
618.543	18943.33
618.899	19101.29
619.255	19068.98
619.611	18987.85
619.967	19060.39
620.323	19102.42
620.678	19067.62
621.034	19066.94
621.39	19021.97
621.746	19029.2
622.101	19235.07
622.457	19200.27
622.812	19171.12
623.168	19167.96
623.523	19220.38
623.879	19344.22
624.234	19204.79
624.589	19266.71
624.945	19162.31
625.3	19261.06
625.655	19320.95
626.01	19236.2
626.365	19278.91
626.72	19232.36
627.075	19161.18
627.43	19130.22
627.785	19135.64
628.14	19211.35
628.495	19207.96
628.85	19132.03
629.205	19146.26
629.559	19348.74
629.914	19136.77
630.269	19213.38
630.623	19080.73
630.978	19143.32
631.332	19264.9
631.687	19286.82
632.041	19071.01
632.396	19197.11
632.75	19057
633.104	19184.45
633.459	19017
633.813	19054.74
634.167	19013.16
634.521	19088.41
634.875	19043.67
635.229	18969.09
635.583	18841.19
635.937	18978.58
636.291	18908.98
636.645	18974.52
636.999	18990.33
637.352	18918.25
637.706	18838.7
638.06	18878.47
638.413	18817.23
638.767	18803.9
639.121	18833.05
639.474	18766.61
639.828	18768.87
640.181	18730.45
640.534	18786.72
640.888	18812.71
641.241	18638.03
641.594	18791.92
641.947	18677.57
642.301	18638.7
642.654	18654.3
643.007	18746.5
643.36	18687.07
643.713	18656.33
644.066	18705.14
644.419	18612.49
644.771	18467.86
645.124	18343.35
645.477	18306.74
645.83	18163.01
646.182	18076.69
646.535	18057.93
646.888	18072.62
647.24	18028.55
647.593	18096.57
647.945	18035.78
648.298	17899.06
648.65	17905.62
649.002	17910.81
649.355	17960.98
649.707	17873.53
650.059	17947.42
650.411	18219.96
650.763	18250.24
651.115	18431.7
651.467	18380.86
651.819	18318.94
652.171	18340.86
652.523	18385.15
652.875	18338.83
653.227	18183.35
653.578	18396.23
653.93	18199.39
654.282	18194.65
654.633	18192.16
654.985	18234.42
655.337	18332.5
655.688	18306.28
656.039	18343.8
656.391	18193.29
656.742	18266.51
657.094	18193.52
657.445	18206.17
657.796	18135.67
658.147	18169.56
658.498	18247.98
658.849	18264.25
659.2	18168.66
659.551	18137.02
659.902	18190.36
660.253	18192.84
660.604	18180.41
660.955	18160.75
661.306	18128.66
661.656	18135.89
662.007	18088.21
662.358	18161.2
662.708	18130.92
663.059	18153.29
663.409	18035.56
663.76	18178.15
664.11	18115.78
664.461	18114.88
664.811	18152.62
665.161	18235.33
665.511	18051.38
665.862	18201.2
666.212	18210.47
666.562	18129.57
666.912	18076.91
667.262	18125.5
667.612	18128.66
667.962	18109.68
668.312	18160.53
668.662	18183.8
669.011	18155.1
669.361	18046.86
669.711	18130.47
670.06	18014.09
670.41	18009.57
670.76	18082.34
671.109	18154.65
671.459	18076.23
671.808	18083.69
672.157	18137.7
672.507	18025.61
672.856	18043.24
673.205	18096.57
673.554	18087.53
673.904	18087.31
674.253	18162.33
674.602	17996.91
674.951	17820.2
675.3	17657.94
675.649	18017.93
675.998	18042.79
676.346	18028.55
676.695	18026.07
677.044	17907.65
677.393	17962.11
677.741	17939.51
678.09	17957.37
678.438	17944.71
678.787	17960.3
679.135	18003.47
679.484	17847.31
679.832	18045.05
680.181	17831.95
680.529	17912.62
680.877	17882.57
681.225	17903.81
681.573	17963.24
681.922	17832.62
682.27	17725.06
682.618	17687.77
682.966	17718.05
683.314	17791.04
683.661	17678.5
684.009	17607.32
684.357	17539.52
684.705	17564.38
685.053	17654.32
685.4	17649.58
685.748	17560.77
686.095	17452.07
686.443	17449.58
686.79	17401.22
687.138	17466.08
687.485	17500.88
687.832	17403.71
688.18	17305.18
688.527	17330.04
688.874	17214.11
689.221	17296.37
689.568	17242.36
689.915	17285.29
690.262	17231.96
690.609	17191.74
690.956	17261.11
691.303	17117.61
691.65	17095.69
691.997	17046.66
692.344	16875.36
692.69	16960.56
693.037	16945.42
693.383	16854.8
693.73	16902.48
694.077	16744.74
694.423	16778.87
694.769	16764.86
695.116	16761.92
695.462	16735.7
695.808	16628.36
696.155	16665.42
696.501	16656.61
696.847	16485.77
697.193	16362.15
697.539	16528.25
697.885	16354.7
698.231	16398.31
698.577	16262.5
698.923	16294.36
699.269	16231.31
699.614	16144.08
699.96	16034.93
700.306	16147.47
700.651	16042.16
700.997	16042.39
701.342	16031.99
701.688	16001.94
702.033	16012.33
702.379	15927.59
702.724	15909.29
703.069	15880.59
703.415	15751.55
703.76	15812.79
704.105	15865.44
704.45	15749.52
704.795	15771.89
705.14	15667.03
705.485	15617.77
705.83	15522.85
706.175	15515.17
706.52	15570.99
706.865	15438.56
707.209	15502.06
707.554	15428.85
707.899	15427.26
708.243	15416.42
708.588	15265.91
708.932	15299.36
709.277	15279.25
709.621	15329.19
709.966	15262.97
710.31	15243.99
710.654	15055.3
710.998	15146.59
711.342	15098.23
711.687	15194.5
712.031	15093.71
712.375	14945.92
712.719	15018.46
713.063	15034.51
713.407	14987.28
713.75	14896.43
714.094	14922.42
714.438	14865.92
714.782	14921.74
715.125	14845.58
715.469	14832.25
715.812	14767.85
716.156	14742.08
716.499	14744.12
716.843	14761.97
717.186	14684.46
717.53	14806.26
717.873	14782.99
718.216	14762.65
718.559	14639.94
718.902	14578.02
719.246	14629.77
719.589	14524.01
719.932	14486.5
720.275	14524.69
720.617	14503.67
720.96	14526.95
721.303	14518.59
721.646	14450.34
721.989	14395.88
722.331	14421.87
722.674	14447.18
723.016	14414.41
723.359	14338.03
723.701	14415.54
724.044	14310.23
724.386	14257.8
724.729	14256.22
725.071	14295.99
725.413	14324.47
725.755	14223
726.097	14262.32
726.439	14179.39
726.782	14158.82
727.124	14121.99
727.465	14159.5
727.807	14168.09
728.149	14088.32
728.491	14128.31
728.833	14130.57
729.175	14063.91
729.516	14027.75
729.858	14096.45
730.199	14025.04
730.541	14042.22
730.882	14042.89
731.224	14047.19
731.565	13956.12
731.906	14027.07
732.248	13986.85
732.589	13993.63
732.93	13881.99
733.271	13920.41
733.612	13947.53
733.953	13945.49
734.294	13903.46
734.635	13854.88
734.976	13921.54
735.317	13847.64
735.658	13790.7
735.999	13824.82
736.339	13742.11
736.68	13876.8
737.021	13817.81
737.361	13711.15
737.702	13824.37
738.042	13769.68
738.383	13648.33
738.723	13652.62
739.063	13688.55
739.404	13749.34
739.744	13587.76
740.084	13548.67
740.424	13569.91
740.764	13614.66
741.104	13679.29
741.444	13577.37
741.784	13543.47
742.124	13637.71
742.464	13561.78
742.804	13583.7
743.143	13559.52
743.483	13536.92
743.823	13469.8
744.162	13415.57
744.502	13448.11
744.841	13455.79
745.181	13478.16
745.52	13439.07
745.86	13446.98
746.199	13452.85
746.538	13406.53
746.877	13408.79
747.216	13377.15
747.556	13322.01
747.895	13426.64
748.234	13304.83
748.573	13294.66
748.911	13238.39
749.25	13316.58
749.589	13198.4
749.928	13256.02
750.267	13231.84
750.605	13253.08
750.944	13253.54
751.283	13156.82
751.621	13236.59
751.96	13183.71
752.298	13090.38
752.636	13114.1
752.975	13026.65
753.313	13000.66
753.651	13057.38
753.989	12933.54
754.327	12960.44
754.666	12846.99
755.004	12858.07
755.342	12914.34
755.679	12902.81
756.017	12749.82
756.355	12834.79
756.693	12753.66
757.031	12749.59
757.368	12694.91
