Data from tablewood_dark_bookshelf_FLMS001491_00001.txt Node
Date: Wed Feb 08 14:13:19 GMT 2017
User: dcchb
Spectrometer: FLMS00149
Trigger mode: 0
Integration Time (sec): 2.000000E-2
Scans to average: 10
Electric dark correction enabled: true
Nonlinearity correction enabled: false
Boxcar width: 0
XAxis mode: Wavelengths
Number of Pixels in Spectrum: 2048
>>>>>Begin Spectral Data<<<<<
341.393	-16.48
341.776	-16.48
342.16	-16.48
342.543	-51.28
342.927	-70.94
343.31	-71.85
343.693	-58.29
344.077	-72.3
344.46	-54
344.843	-53.09
345.226	-58.06
345.61	-36.14
345.993	-23.71
346.376	1.37
346.759	34.14
347.142	26.68
347.525	57.87
347.908	54.7
348.291	73.01
348.674	83.18
349.057	96.51
349.44	110.07
349.823	140.8
350.206	148.71
350.588	192.33
350.971	197.07
351.354	226.9
351.737	235.49
352.119	236.17
352.502	243.17
352.884	269.16
353.267	279.1
353.65	287.69
354.032	264.19
354.414	280.68
354.797	298.09
355.179	317.97
355.562	307.58
355.944	322.27
356.326	316.62
356.709	318.88
357.091	316.39
357.473	346.9
357.855	310.51
358.238	346.45
358.62	353.23
359.002	332.21
359.384	324.75
359.766	344.86
360.148	339.21
360.53	333.34
360.912	336.28
361.294	349.16
361.676	334.92
362.057	327.92
362.439	331.3
362.821	336.95
363.203	332.21
363.584	329.95
363.966	319.78
364.348	330.17
364.729	320.91
365.111	337.63
365.493	314.58
365.874	315.94
366.256	310.29
366.637	322.94
367.019	329.95
367.4	311.87
367.781	303.73
368.163	320.68
368.544	322.49
368.925	327.24
369.306	345.77
369.688	320.46
370.069	311.19
370.45	308.48
370.831	335.6
371.212	332.89
371.593	333.34
371.974	325.88
372.355	311.87
372.736	318.88
373.117	320.46
373.498	350.51
373.879	340.57
374.26	338.99
374.641	321.59
375.021	330.17
375.402	334.92
375.783	351.87
376.163	351.87
376.544	351.87
376.925	353.68
377.305	357.07
377.686	329.72
378.066	359.1
378.447	372.21
378.827	351.42
379.208	352.77
379.588	360.23
379.968	352.55
380.349	352.77
380.729	365.43
381.109	353.9
381.489	371.53
381.87	356.84
382.25	367.01
382.63	355.71
383.01	370.63
383.39	350.29
383.77	374.69
384.15	363.39
384.53	379.67
384.91	357.74
385.29	378.76
385.67	376.28
386.049	385.54
386.429	394.58
386.809	389.38
387.189	386.9
387.568	380.12
387.948	399.78
388.328	401.59
388.707	400
389.087	418.76
389.466	405.43
389.846	416.95
390.225	412.66
390.605	412.21
390.984	419.89
391.363	417.4
391.743	426.22
392.122	413.56
392.501	415.37
392.881	431.19
393.26	438.19
393.639	442.04
394.018	434.58
394.397	443.62
394.776	436.61
395.155	439.32
395.534	440.68
395.913	441.58
396.292	462.37
396.671	452.66
397.05	462.83
397.429	440.23
397.808	452.21
398.186	473.45
398.565	464.41
398.944	473.67
399.323	490.17
399.701	465.31
400.08	476.84
400.458	466.44
400.837	487.91
401.215	476.39
401.594	495.59
401.972	493.56
402.351	504.63
402.729	519.32
403.107	484.52
403.486	498.76
403.864	516.38
404.242	501.24
404.62	514.35
404.999	538.08
405.377	545.99
405.755	527.91
406.133	531.07
406.511	529.04
406.889	537.63
407.267	574.24
407.645	565.42
408.023	552.32
408.401	574.46
408.779	564.29
409.156	564.52
409.534	574.01
409.912	574.24
410.29	596.38
410.667	597.29
411.045	605.42
411.422	592.99
411.8	618.3
412.178	628.92
412.555	631.41
412.933	623.5
413.31	634.12
413.687	630.96
414.065	653.56
414.442	658.3
414.819	664.18
415.197	666.44
415.574	667.34
415.951	664.18
416.328	696.72
416.705	700.33
417.082	680.9
417.46	703.27
417.837	705.98
418.214	691.07
418.591	720.67
418.967	694.91
419.344	704.18
419.721	736.49
420.098	732.42
420.475	741.24
420.852	751.18
421.228	779.88
421.605	757.73
421.982	764.74
422.358	763.16
422.735	802.48
423.111	767.68
423.488	807.9
423.864	799.54
424.241	807.68
424.617	817.17
424.994	813.1
425.37	797.73
425.746	829.14
426.123	826.89
426.499	832.31
426.875	840.44
427.251	867.56
427.627	877.28
428.003	894.91
428.379	892.19
428.756	903.04
429.132	905.53
429.507	896.71
429.883	931.29
430.259	930.61
430.635	950.95
431.011	952.31
431.387	981.91
431.763	996.15
432.138	1004.51
432.514	1026.65
432.89	1004.51
433.265	1044.51
433.641	1041.79
434.016	1044.28
434.392	1075.47
434.767	1067.78
435.143	1078.4
435.518	1096.48
435.894	1096.26
436.269	1127.44
436.644	1140.1
437.02	1140.78
437.395	1139.65
437.77	1137.61
438.145	1170.83
438.52	1161.34
438.895	1169.7
439.271	1191.17
439.646	1221.45
440.021	1225.74
440.395	1242.69
440.77	1224.39
441.145	1229.59
441.52	1239.08
441.895	1235.46
442.27	1276.36
442.645	1262.13
443.019	1289.25
443.394	1268.46
443.769	1288.34
444.143	1281.34
444.518	1333.09
444.892	1272.52
445.267	1299.19
445.641	1342.35
446.016	1346.65
446.39	1341.22
446.764	1337.83
447.139	1359.98
447.513	1378.51
447.887	1383.48
448.262	1385.29
448.636	1399.75
449.01	1380.54
449.384	1429.81
449.758	1416.93
450.132	1426.19
450.506	1446.08
450.88	1475.23
451.254	1452.18
451.628	1493.08
452.002	1484.27
452.376	1479.52
452.75	1506.87
453.123	1529.92
453.497	1548.67
453.871	1575.79
454.244	1587.77
454.618	1582.35
454.992	1624.83
455.365	1579.41
455.739	1685.62
456.112	1694.43
456.486	1691.27
456.859	1707.99
457.232	1753.87
457.606	1736.24
457.979	1767.2
458.352	1772.17
458.725	1815.56
459.099	1819.63
459.472	1832.51
459.845	1857.59
460.218	1870.25
460.591	1888.1
460.964	1919.29
461.337	1934.43
461.71	1958.38
462.083	2012.39
462.456	2032.05
462.829	2045.38
463.201	2051.71
463.574	2040.41
463.947	2100.98
464.32	2167.19
464.692	2161.54
465.065	2164.25
465.438	2201.76
465.81	2212.16
466.183	2249.45
466.555	2248.32
466.928	2311.14
467.3	2311.37
467.672	2323.79
468.045	2393.17
468.417	2395.43
468.789	2451.93
469.161	2425.94
469.534	2486.28
469.906	2550.23
470.278	2572.15
470.65	2607.86
471.022	2653.73
471.394	2662.99
471.766	2699.38
472.138	2748.42
472.51	2818.7
472.882	2832.93
473.253	2871.35
473.625	2895.08
473.997	2954.96
474.369	2963.33
474.74	3035.87
475.112	3063.89
475.484	3088.75
475.855	3121.29
476.227	3178.91
476.598	3220.27
476.97	3285.13
477.341	3338.91
477.713	3359.02
478.084	3413.03
478.455	3490.77
478.827	3515.85
479.198	3667.26
479.569	3625.23
479.94	3722.18
480.311	3774.15
480.682	3832.91
481.053	3957.65
481.424	4024.77
481.795	4031.55
482.166	4058.66
482.537	4118.1
482.908	4203.97
483.279	4261.15
483.65	4302.95
484.021	4404.42
484.391	4480.12
484.762	4496.17
485.133	4563.74
485.503	4629.5
485.874	4690.96
486.244	4794.92
486.615	4836.5
486.985	4920.56
487.356	4995.81
487.726	4998.53
488.097	5131.86
488.467	5154.45
488.837	5262.47
489.207	5305.19
489.578	5425.18
489.948	5417.95
490.318	5493.43
490.688	5485.29
491.058	5620.88
491.428	5681.22
491.798	5742.69
492.168	5818.39
492.538	5814.78
492.908	5926.41
493.278	5974.77
493.648	6045.73
494.017	6072.17
494.387	6113.98
494.757	6226.74
495.126	6260.64
495.496	6278.49
495.866	6354.88
496.235	6411.82
496.605	6487.98
496.974	6542.21
497.344	6622.89
497.713	6603.23
498.082	6691.82
498.452	6736.79
498.821	6764.58
499.19	6740.63
499.559	6829.89
499.928	6905.82
500.298	6955.31
500.667	7025.14
501.036	7059.49
501.405	7088.64
501.774	7144.69
502.143	7219.94
502.512	7215.19
502.88	7278.69
503.249	7253.16
503.618	7410.89
503.987	7417.45
504.356	7427.84
504.724	7511
505.093	7562.08
505.462	7637.33
505.83	7652.24
506.199	7784.22
506.567	7809.07
506.936	7860.15
507.304	7857.89
507.672	7940.6
508.041	7981.05
508.409	8075.73
508.777	8097.43
509.145	8213.58
509.514	8181.04
509.882	8296.52
510.25	8320.25
510.618	8300.81
510.986	8381.49
511.354	8444.76
511.722	8583.74
512.09	8603.18
512.458	8661.26
512.826	8677.98
513.193	8813.34
513.561	8755.26
513.929	8898.99
514.297	9048.14
514.664	9045.65
515.032	9017.18
515.4	9120.23
515.767	9225.99
516.135	9218.98
516.502	9242.26
516.869	9354.8
517.237	9468.01
517.604	9359.77
517.972	9548.46
518.339	9597.5
518.706	9660.33
519.073	9748.46
519.44	9803.82
519.808	9936.93
520.175	9895.12
520.542	10116.81
520.909	10103.48
521.276	10123.14
521.643	10227.54
522.009	10276.81
522.376	10393.19
522.743	10484.48
523.11	10544.14
523.477	10671.6
523.843	10705.27
524.21	10805.83
524.577	10854.87
524.943	10983.23
525.31	11042.89
525.676	11198.36
526.043	11224.8
526.409	11312.03
526.776	11419.37
527.142	11410.56
527.508	11524.46
527.874	11547.28
528.241	11689.88
528.607	11681.74
528.973	11857.56
529.339	11814.17
529.705	11948.63
530.071	12069.53
530.437	12130.09
530.803	12243.08
531.169	12272.01
531.535	12250.99
531.901	12239.01
532.267	12415.96
532.632	12565.33
532.998	12475.17
533.364	12592.45
533.73	12650.08
534.095	12764.2
534.461	12824.31
534.826	12906.34
535.192	12937.98
535.557	13029.28
535.923	13103.4
536.288	13102.04
536.653	13203.73
537.019	13240.12
537.384	13237.63
537.749	13355.82
538.114	13327.12
538.479	13423.39
538.845	13483.28
539.21	13438.76
539.575	13505.42
539.94	13511.98
540.305	13636.94
540.67	13669.03
541.034	13686.21
541.399	13846.66
541.764	13847.56
542.129	13930.72
542.494	13898.86
542.858	13998.29
543.223	14003.04
543.587	14076.25
543.952	14115.35
544.316	14188.12
544.681	14207.1
545.045	14374.1
545.41	14315.57
545.774	14435.11
546.138	14396.25
546.503	14462.91
546.867	14541.1
547.231	14654.09
547.595	14628.56
547.959	14705.84
548.324	14756.46
548.688	14788.33
549.052	14814.77
549.416	14876.46
549.779	14874.2
550.143	14871.49
550.507	15142.89
550.871	15084.59
551.235	15131.37
551.599	15222.89
551.962	15324.36
552.326	15268.99
552.689	15492.26
553.053	15410
553.417	15469.89
553.78	15706.49
554.143	15597.8
554.507	15728.41
554.87	15785.14
555.234	15890.44
555.597	15841.63
555.96	15982.64
556.323	16032.81
556.686	15984
557.05	16174.96
557.413	16250.66
557.776	16343.54
558.139	16434.61
558.502	16443.65
558.865	16434.16
559.228	16589.86
559.59	16658.11
559.953	16635.73
560.316	16891.1
560.679	16923.41
561.041	17049.28
561.404	16952.11
561.767	17171.99
562.129	17104.88
562.492	17383.51
562.854	17305.32
563.217	17430.74
563.579	17467.35
563.941	17581.47
564.304	17724.29
564.666	17763.16
565.028	17953.21
565.39	17921.8
565.753	18096.49
566.115	18121.8
566.477	18174
566.839	18186.43
567.201	18422.35
567.563	18356.37
567.925	18555.01
568.287	18508.23
568.648	18552.75
569.01	18771.05
569.372	18832.97
569.734	18798.62
570.095	19014.66
570.457	19052.39
570.819	19165.61
571.18	19190.02
571.542	19329.9
571.903	19358.15
572.265	19402.22
572.626	19445.15
572.987	19429.79
573.349	19633.4
573.71	19749.78
574.071	19797.01
574.432	19846.72
574.794	20099.82
575.155	20014.4
575.516	19995.19
575.877	20100.5
576.238	20113.38
576.599	20287.62
576.96	20305.02
577.32	20375.3
577.681	20372.81
578.042	20435.18
578.403	20528.51
578.763	20436.54
579.124	20677.44
579.485	20624.1
579.845	20742.52
580.206	20783.87
580.566	20738.9
580.927	20816.87
581.287	20954.72
581.648	20959.46
582.008	20992.23
582.368	21019.12
582.728	21023.87
583.089	20968.05
583.449	21109.29
583.809	21109.29
584.169	21204.43
584.529	21175.95
584.889	21288.27
585.249	21280.58
585.609	21260.25
585.969	21381.15
586.329	21324.65
586.688	21406.91
587.048	21429.96
587.408	21354.71
587.768	21417.76
588.127	21388.6
588.487	21396.06
588.846	21598.77
589.206	21543.4
589.565	21598.99
589.925	21656.39
590.284	21704.08
590.643	21686.45
591.003	21713.57
591.362	21808.03
591.721	21755.37
592.08	21735.04
592.44	21803.51
592.799	21936.16
593.158	21847.8
593.517	21958.53
593.876	21874.92
594.235	21886.22
594.593	21991.53
594.952	22035.14
595.311	21950.85
595.67	22117.85
596.029	22152.88
596.387	22166.89
596.746	22222.93
597.104	22162.82
597.463	22123.73
597.822	22316.94
598.18	22175.48
598.538	22231.07
598.897	22310.61
599.255	22192.88
599.613	22614.33
599.972	22373.89
600.33	22473.55
600.688	22422.02
601.046	22508.57
601.404	22628.12
601.762	22516.71
602.12	22621.79
602.478	22635.8
602.836	22647.78
603.194	22531.4
603.552	22657.27
603.91	22643.71
604.268	22750.6
604.625	22688.01
604.983	22779.98
605.341	22688.91
605.698	22836.02
606.056	22915.57
606.413	22855.23
606.771	23005.51
607.128	23014.32
607.485	23043.02
607.843	22989.24
608.2	23116.69
608.557	23106.07
608.914	23135.68
609.272	23269.91
609.629	23294.54
609.986	23314.88
610.343	23231.04
610.7	23368.44
611.057	23330.02
611.414	23429.68
611.771	23491.37
612.127	23416.35
612.484	23498.15
612.841	23536.34
613.198	23425.16
613.554	23568.43
613.911	23704.7
614.267	23654.08
614.624	23603.46
614.98	23744.7
615.337	23826.96
615.693	23781.08
616.05	23817.92
616.406	23884.36
616.762	23737.24
617.118	23742.67
617.475	23858.82
617.831	23902.89
618.187	23978.14
618.543	23981.08
618.899	24217.46
619.255	24009.55
619.611	24083
619.967	24180.62
620.323	24169.1
620.678	24060.17
621.034	23987.86
621.39	24028.08
621.746	23995.99
622.101	24238.25
622.457	23990.57
622.812	24197.12
623.168	24247.29
623.523	24349.2
623.879	24365.02
624.234	24214.52
624.589	24268.75
624.945	24347.17
625.3	24209.32
625.655	24157.8
626.01	24172.49
626.365	24324.57
626.72	24257.91
627.075	24205.25
627.43	24164.12
627.785	24144.24
628.14	24229.89
628.495	24276.66
628.85	24110.34
629.205	24149.44
629.559	24222.65
629.914	24060.4
630.269	24235.76
630.623	24059.04
630.978	24050.46
631.332	24100.85
631.687	24057.91
632.041	23956.67
632.396	24087.97
632.75	23973.4
633.104	24075.99
633.459	23985.6
633.813	23907.41
634.167	23993.06
634.521	23876.22
634.875	23972.49
635.229	23896.79
635.583	23917.35
635.937	23833.29
636.291	23816.34
636.645	23914.87
636.999	23744.02
637.352	23848.65
637.706	23699.96
638.06	23748.09
638.413	23673.97
638.767	23666.28
639.121	23638.94
639.474	23507.42
639.828	23537.25
640.181	23637.58
640.534	23637.36
640.888	23513.97
641.241	23393.07
641.594	23536.12
641.947	23539.51
642.301	23575.89
642.654	23496.8
643.007	23470.13
643.36	23458.38
643.713	23339.06
644.066	23377.48
644.419	23302.23
644.771	23210.48
645.124	23031.95
645.477	22893.2
645.83	22808
646.182	22647.78
646.535	22687.1
646.888	22692.52
647.24	22476.03
647.593	22548.35
647.945	22541.34
648.298	22371.18
648.65	22314.68
649.002	22350.16
649.355	22491.17
649.707	22416.37
650.059	22472.42
650.411	22809.81
650.763	22723.71
651.115	23035.34
651.467	22870.37
651.819	22927.77
652.171	22850.26
652.523	22808.23
652.875	22815.46
653.227	22796.7
653.578	22870.6
653.93	22772.3
654.282	22739.3
654.633	22623.37
654.985	22839.19
655.337	22709.02
655.688	22801.9
656.039	22782.24
656.391	22576.6
656.742	22661.57
657.094	22653.66
657.445	22717.61
657.796	22742.24
658.147	22634
658.498	22599.19
658.849	22744.95
659.2	22668.8
659.551	22646.88
659.902	22683.94
660.253	22715.12
660.604	22738.17
660.955	22572.75
661.306	22647.1
661.656	22583.15
662.007	22600.1
662.358	22659.76
662.708	22671.06
663.059	22639.42
663.409	22445.07
663.76	22587.89
664.11	22533.21
664.461	22565.97
664.811	22546.54
665.161	22584.73
665.511	22450.72
665.862	22551.06
666.212	22537.73
666.562	22687.78
666.912	22597.39
667.262	22451.18
667.612	22609.59
667.962	22581.79
668.312	22547.22
668.662	22624.96
669.011	22554.68
669.361	22464.06
669.711	22494.11
670.06	22436.03
670.41	22419.54
670.76	22463.6
671.109	22440.55
671.459	22450.5
671.808	22427
672.157	22444.85
672.507	22261.35
672.856	22288.69
673.205	22300.9
673.554	22384.96
673.904	22275.59
674.253	22457.5
674.602	22349.93
674.951	21937.74
675.3	21931.19
675.649	22333.66
675.998	22303.38
676.346	22169.37
676.695	22295.02
677.044	22102.48
677.393	22274.46
677.741	22274.46
678.09	22136.61
678.438	22141.13
678.787	22262.48
679.135	22202.59
679.484	22141.8
679.832	22162.37
680.181	21944.52
680.529	22076.27
680.877	21995.59
681.225	22001.92
681.573	22182.93
681.922	21977.52
682.27	21948.14
682.618	21929.16
682.966	21880.79
683.314	22014.8
683.661	21853
684.009	21734.13
684.357	21620.01
684.705	21707.24
685.053	21684.19
685.4	21728.03
685.748	21509.28
686.095	21542.95
686.443	21494.82
686.79	21495.95
687.138	21505.66
687.485	21445.1
687.832	21368.94
688.18	21333.24
688.527	21297.08
688.874	21217.99
689.221	21256.4
689.568	21186.8
689.915	21184.54
690.262	21184.32
690.609	21095.05
690.956	21002.17
691.303	21022.96
691.65	20957.88
691.997	20856.64
692.344	20784.78
692.69	20673.14
693.037	20668.85
693.383	20531.45
693.73	20694.39
694.077	20482.19
694.423	20547.95
694.769	20437.22
695.116	20279.25
695.462	20418.01
695.808	20374.39
696.155	20332.36
696.501	20237.67
696.847	20179.37
697.193	20043.78
697.539	20204.68
697.885	19946.38
698.231	19886.95
698.577	20063.89
698.923	19830.91
699.269	19868.64
699.614	19793.39
699.96	19662.32
700.306	19729.66
700.651	19597.46
700.997	19531.48
701.342	19529.44
701.688	19456.23
702.033	19405.83
702.379	19460.29
702.724	19380.75
703.069	19562.66
703.415	19227.53
703.76	19196.57
704.105	19331.03
704.45	19260.3
704.795	19065.5
705.14	19011.49
705.485	18994.54
705.83	18988.89
706.175	18985.5
706.52	18844.49
706.865	18797.94
707.209	18727.43
707.554	18684.72
707.899	18651.05
708.243	18627.55
708.588	18635.23
708.932	18488.12
709.277	18500.09
709.621	18541
709.966	18516.14
710.31	18368.8
710.654	18225.52
710.998	18339.87
711.342	18308.46
711.687	18310.72
712.031	18124.06
712.375	18068.24
712.719	18137.84
713.063	18095.36
713.407	18143.94
713.75	18071.63
714.094	18020.33
714.438	17979.43
714.782	17932.2
715.125	17882.71
715.469	17990.95
715.812	17755.03
716.156	17738.98
716.499	17824.86
716.843	17808.36
717.186	17753.45
717.53	17843.16
717.873	17799.55
718.216	17765.87
718.559	17682.71
718.902	17583.51
719.246	17611.08
719.589	17511.19
719.932	17419.9
720.275	17473.23
720.617	17537.41
720.96	17502.15
721.303	17434.81
721.646	17359.56
721.989	17311.2
722.331	17414.02
722.674	17256.28
723.016	17388.71
723.359	17399.78
723.701	17336.06
724.044	17221.48
724.386	17125.89
724.729	17204.53
725.071	17185.32
725.413	17183.97
725.755	17080.47
726.097	17139.45
726.439	16967.7
726.782	17043.86
727.124	17066.91
727.465	16933.35
727.807	16923.41
728.149	16944.65
728.491	16956.4
728.833	16954.14
729.175	16921.38
729.516	16980.58
729.858	16794.15
730.199	16888.84
730.541	16857.65
730.882	16856.29
731.224	16862.62
731.565	16769.74
731.906	16762.51
732.248	16795.05
732.589	16693.36
732.93	16728.39
733.271	16662.85
733.612	16712.12
733.953	16718.9
734.294	16628.28
734.635	16569.3
734.976	16593.48
735.317	16612.68
735.658	16457.21
735.999	16541.5
736.339	16595.74
736.68	16619.46
737.021	16498.34
737.361	16427.6
737.702	16470.99
738.042	16425.8
738.383	16454.95
738.723	16491.33
739.063	16482.07
739.404	16426.47
739.744	16367.72
740.084	16297.44
740.424	16454.04
740.764	16341.05
741.104	16334.27
741.444	16212.92
741.784	16234.39
742.124	16209.76
742.464	16194.62
742.804	16130.89
743.143	16127.5
743.483	16177.67
743.823	16100.16
744.162	16143.77
744.502	16155.3
744.841	16088.18
745.181	16197.33
745.52	15996.2
745.86	16170.21
746.199	16088.63
746.538	15992.59
746.877	16071.91
747.216	15988.52
747.556	16048.18
747.895	15882.99
748.234	15900.61
748.573	15954.17
748.911	15832.59
749.25	15946.71
749.589	15770.67
749.928	15768.87
750.267	15830.56
750.605	15767.74
750.944	15725.93
751.283	15737.45
751.621	15791.69
751.96	15657.23
752.298	15678.47
752.636	15664.01
752.975	15617.23
753.313	15523.45
753.651	15630.56
753.989	15511.92
754.327	15478.7
754.666	15471.92
755.004	15535.42
755.342	15549.44
755.679	15504.01
756.017	15381.3
