Data from tablewood_dark_bookshelf_FLMS001491_00004.txt Node
Date: Wed Feb 08 14:13:19 GMT 2017
User: dcchb
Spectrometer: FLMS00149
Trigger mode: 0
Integration Time (sec): 2.000000E-2
Scans to average: 10
Electric dark correction enabled: true
Nonlinearity correction enabled: false
Boxcar width: 0
XAxis mode: Wavelengths
Number of Pixels in Spectrum: 2048
>>>>>Begin Spectral Data<<<<<
341.393	-5.07
341.776	-5.07
342.16	-5.07
342.543	-51.85
342.927	-67.89
343.31	-90.72
343.693	-68.12
344.077	-36.93
344.46	-66.54
344.843	-53.66
345.226	-33.09
345.61	-45.97
345.993	-25.41
346.376	-10.95
346.759	11.88
347.142	19.56
347.525	49.62
347.908	55.49
348.291	64.76
348.674	106.11
349.057	123.97
349.44	119.22
349.823	144.08
350.206	160.57
350.588	209.39
350.971	223.4
351.354	241.02
351.737	233.57
352.119	244.41
352.502	255.94
352.884	256.39
353.267	295.03
353.65	283.96
354.032	301.59
354.414	307.46
354.797	315.83
355.179	320.34
355.562	326.9
355.944	325.77
356.326	324.64
356.709	343.39
357.091	336.62
357.473	346.33
357.855	326.45
358.238	344.75
358.62	351.53
359.002	343.17
359.384	334.13
359.766	360.57
360.148	333.68
360.53	338.65
360.912	348.82
361.294	349.5
361.676	323.96
362.057	347.91
362.439	342.49
362.821	328.71
363.203	348.14
363.584	313.34
363.966	328.93
364.348	331.19
364.729	328.25
365.111	314.24
365.493	341.14
365.874	325.77
366.256	328.71
366.637	324.86
367.019	333.68
367.4	337.97
367.781	319.67
368.163	319.89
368.544	332.1
368.925	314.92
369.306	320.8
369.688	311.76
370.069	353.56
370.45	328.03
370.831	315.15
371.212	326.9
371.593	331.87
371.974	312.44
372.355	321.93
372.736	331.87
373.117	319.44
373.498	346.78
373.879	325.77
374.26	341.81
374.641	326.22
375.021	354.24
375.402	354.47
375.783	329.61
376.163	350.85
376.544	349.95
376.925	334.36
377.305	337.75
377.686	361.47
378.066	344.75
378.447	359.44
378.827	348.37
379.208	355.37
379.588	353.34
379.968	353.11
380.349	387.24
380.729	345.2
381.109	359.21
381.489	373
381.87	370.06
382.25	386.56
382.63	373.45
383.01	368.93
383.39	389.5
383.77	371.87
384.15	377.07
384.53	381.59
384.91	387.24
385.29	399.66
385.67	381.36
386.049	401.02
386.429	386.33
386.809	400.34
387.189	385.43
387.568	398.76
387.948	384.75
388.328	396.5
388.707	414.58
389.087	409.38
389.466	398.76
389.846	395.6
390.225	431.53
390.605	418.2
390.984	433.79
391.363	434.01
391.743	426.33
392.122	454.35
392.501	459.55
392.881	439.44
393.26	455.93
393.639	455.93
394.018	444.86
394.397	467.46
394.776	450.28
395.155	438.76
395.534	461.13
395.913	464.3
396.292	470.62
396.671	453.45
397.05	460.91
397.429	463.84
397.808	474.01
398.186	484.86
398.565	469.95
398.944	463.62
399.323	477.4
399.701	498.65
400.08	487.57
400.458	490.51
400.837	505.88
401.215	523.73
401.594	500
401.972	496.61
402.351	518.76
402.729	495.48
403.107	538.42
403.486	523.5
403.864	512.88
404.242	514.69
404.62	528.47
404.999	514.24
405.377	517.18
405.755	523.28
406.133	528.93
406.511	551.3
406.889	565.99
407.267	565.76
407.645	555.14
408.023	552.88
408.401	552.65
408.779	580.68
409.156	609.15
409.534	577.97
409.912	585.65
410.29	579.55
410.667	594.69
411.045	622.71
411.422	625.2
411.8	636.95
412.178	627.91
412.555	644.63
412.933	649.38
413.31	657.06
413.687	641.92
414.065	643.73
414.442	666.32
414.819	659.09
415.197	686.21
415.574	645.99
415.951	677.17
416.328	676.49
416.705	698.19
417.082	665.42
417.46	707.91
417.837	714.46
418.214	714.46
418.591	716.04
418.967	732.54
419.344	728.47
419.721	742.03
420.098	742.25
420.475	741.8
420.852	788.58
421.228	749.49
421.605	765.3
421.982	740.67
422.358	799.2
422.735	788.35
423.111	779.09
423.488	785.42
423.864	799.88
424.241	831.97
424.617	825.42
424.994	817.73
425.37	818.86
425.746	817.28
426.123	830.16
426.499	848.47
426.875	860.9
427.251	854.57
427.627	874
428.003	881.01
428.379	904.06
428.756	926.2
429.132	917.84
429.507	898.41
429.883	963.49
430.259	944.06
430.635	930.95
431.011	954.45
431.387	982.47
431.763	990.84
432.138	1009.37
432.514	1019.54
432.89	1017.5
433.265	1005.75
433.641	1024.96
434.016	1055.69
434.392	1084.84
434.767	1091.62
435.143	1066.31
435.518	1090.04
435.894	1117.39
436.269	1123.26
436.644	1111.96
437.02	1127.33
437.395	1137.72
437.77	1172.98
438.145	1170.27
438.52	1168.23
438.895	1195.35
439.271	1165.97
439.646	1226.08
440.021	1211.85
440.395	1215.46
440.77	1206.2
441.145	1252.75
441.52	1238.74
441.895	1240.55
442.27	1271.96
442.645	1269.47
443.019	1282.35
443.394	1280.09
443.769	1274.22
444.143	1280.32
444.518	1313.76
444.892	1306.31
445.267	1319.19
445.641	1315.12
446.016	1362.13
446.39	1358.51
446.764	1325.29
447.139	1362.35
447.513	1412.07
447.887	1407.32
448.262	1403.93
448.636	1368.23
449.01	1444.83
449.384	1428.79
449.758	1438.73
450.132	1446.19
450.506	1462.69
450.88	1489.58
451.254	1460.88
451.628	1502.23
452.002	1492.97
452.376	1495.23
452.75	1521.44
453.123	1526.19
453.497	1570.93
453.871	1584.94
454.244	1620.42
454.618	1603.02
454.992	1651.16
455.365	1613.19
455.739	1634.43
456.112	1668.78
456.486	1671.27
456.859	1725.96
457.232	1747.2
457.606	1786.97
457.979	1763.02
458.352	1793.75
458.725	1821.77
459.099	1844.6
459.472	1863.58
459.845	1861.77
460.218	1899.29
460.591	1882.34
460.964	1922.34
461.337	1965.73
461.71	2000.98
462.083	1993.75
462.456	1987.87
462.829	2050.92
463.201	2080.07
463.574	2094.76
463.947	2091.37
464.32	2154.42
464.692	2129.79
465.065	2176.79
465.438	2218.83
465.81	2264.7
466.183	2275.55
466.555	2283.23
466.928	2304.93
467.3	2296.56
467.672	2340.86
468.045	2402.32
468.417	2412.49
468.789	2421.31
469.161	2459.95
469.534	2496.11
469.906	2560.51
470.278	2573.39
470.65	2562.55
471.022	2643.22
471.394	2682.77
471.766	2727.29
472.138	2762.54
472.51	2796.44
472.882	2885.47
473.253	2873.5
473.625	2880.05
473.997	2946.94
474.369	2986.72
474.74	3003.44
475.112	3047.96
475.484	3096.09
475.855	3186.94
476.227	3220.38
476.598	3294.96
476.97	3290.21
477.341	3367.72
477.713	3426.25
478.084	3453.82
478.455	3558.68
478.827	3578.11
479.198	3653.59
479.569	3629.18
479.94	3754.6
480.311	3772.46
480.682	3866.24
481.053	3978.1
481.424	3976.07
481.795	4029.17
482.166	4112.79
482.537	4108.04
482.908	4260.13
483.279	4277.08
483.65	4346.91
484.021	4389.39
484.391	4453.8
484.762	4504.64
485.133	4557.3
485.503	4600.91
485.874	4733.56
486.244	4755.48
486.615	4812.66
486.985	4906.44
487.356	4986.44
487.726	4988.24
488.097	5127.22
488.467	5159.54
488.837	5261.01
489.207	5319.31
489.578	5350.49
489.948	5439.98
490.318	5526.08
490.688	5520.66
491.058	5559.98
491.428	5670.49
491.798	5777.6
492.168	5889.01
492.538	5867.77
492.908	5956.35
493.278	5997.71
493.648	6044.71
494.017	6105.73
494.387	6126.07
494.757	6169.46
495.126	6264.82
495.496	6277.25
495.866	6343.92
496.235	6415.33
496.605	6486.96
496.974	6486.74
497.344	6585.94
497.713	6591.59
498.082	6653.74
498.452	6700.06
498.821	6770.57
499.19	6791.81
499.559	6822.55
499.928	6912.04
500.298	6966.05
500.667	7034.97
501.036	7022.77
501.405	7103.67
501.774	7112.26
502.143	7172.82
502.512	7174.4
502.88	7262.08
503.249	7326.26
503.618	7420.95
503.987	7455.52
504.356	7500.27
504.724	7496.2
505.093	7623.66
505.462	7640.15
505.83	7679.47
506.199	7674.95
506.567	7801.05
506.936	7855.97
507.304	7910.43
507.672	7912.01
508.041	7998.79
508.409	8078.56
508.777	8127.6
509.145	8179.12
509.514	8254.37
509.882	8269.06
510.25	8259.57
510.618	8371.43
510.986	8430.19
511.354	8537.3
511.722	8589.28
512.09	8663.63
512.458	8636.06
512.826	8671.99
513.193	8778.43
513.561	8817.07
513.929	8850.97
514.297	8957.63
514.664	9009.38
515.032	9053
515.4	9140
515.767	9186.33
516.135	9299.54
516.502	9181.58
516.869	9349.71
517.237	9452.31
517.604	9473.1
517.972	9544.51
518.339	9693.21
518.706	9695.92
519.073	9806.42
519.44	9837.16
519.808	9906.99
520.175	9928
520.542	10058.17
520.909	10148.33
521.276	10157.83
521.643	10291.38
522.009	10308.78
522.376	10393.07
522.743	10437.37
523.11	10567.31
523.477	10701.77
523.843	10677.81
524.21	10875.77
524.577	10934.75
524.943	10974.3
525.31	11101.98
525.676	11135.88
526.043	11254.29
526.409	11330.68
526.776	11413.84
527.142	11396.89
527.508	11537
527.874	11558.02
528.241	11660.61
528.607	11746.48
528.973	11916.42
529.339	11856.09
529.705	12011.79
530.071	11976.99
530.437	12122.75
530.803	12237.77
531.169	12183.54
531.535	12307.83
531.901	12392.34
532.267	12371.78
532.632	12565.22
532.998	12498.1
533.364	12622.62
533.73	12732.22
534.095	12748.27
534.461	12771.54
534.826	12943.29
535.192	12933.12
535.557	13065.55
535.923	13017.41
536.288	13193.45
536.653	13173.11
537.019	13151.65
537.384	13230.97
537.749	13355.48
538.114	13371.3
538.479	13373.56
538.845	13449.94
539.21	13416.5
539.575	13555.48
539.94	13594.12
540.305	13630.5
540.67	13719.54
541.034	13689.48
541.399	13881.57
541.764	13836.6
542.129	13894.9
542.494	13984.84
542.858	13999.53
543.223	14051.96
543.587	14065.75
543.952	14135.12
544.316	14207.44
544.681	14171.28
545.045	14298.73
545.41	14503.47
545.774	14396.58
546.138	14349.35
546.503	14473.87
546.867	14450.14
547.231	14709.57
547.595	14670.93
547.959	14769.23
548.324	14775.78
548.688	14799.06
549.052	14846.52
549.416	14900.53
549.779	14933.29
550.143	14987.76
550.507	15031.6
550.871	15093.97
551.235	15070.47
551.599	15311.14
551.962	15315.2
552.326	15385.71
552.689	15409.44
553.053	15443.11
553.417	15489.21
553.78	15593.39
554.143	15600.85
554.507	15722.65
554.87	15746.61
555.234	15914.06
555.597	15919.03
555.96	15909.54
556.323	16074.28
556.686	16048.52
557.05	16200.61
557.413	16218.23
557.776	16315.4
558.139	16395.63
558.502	16432.01
558.865	16595.4
559.228	16657.09
559.59	16650.54
559.953	16669.52
560.316	16932.56
560.679	16973.69
561.041	16931.43
561.404	17025.89
561.767	17178.66
562.129	17138.89
562.492	17352.89
562.854	17311.54
563.217	17410.52
563.579	17518.31
563.941	17601.02
564.304	17738.87
564.666	17794.46
565.028	17869.71
565.39	18027.68
565.753	18048.47
566.115	18101.35
566.477	18232.64
566.839	18158.75
567.201	18424.95
567.563	18341.79
567.925	18593.76
568.287	18533.43
568.648	18680.09
569.01	18840.31
569.372	18847.54
569.734	18833.98
570.095	18900.2
570.457	19114.2
570.819	19118.95
571.18	19127.08
571.542	19240.53
571.903	19333.86
572.265	19409.33
572.626	19484.13
572.987	19528.2
573.349	19578.14
573.71	19742.66
574.071	19755.54
574.432	19859.94
574.794	19943.78
575.155	19904.91
575.516	19968.87
575.877	20025.82
576.238	20196.88
576.599	20244.11
576.96	20280.27
577.32	20345.58
577.681	20294.28
578.042	20552.81
578.403	20497.89
578.763	20639.58
579.124	20501.96
579.485	20603.88
579.845	20769.3
580.206	20782.86
580.566	20783.08
580.927	20899.69
581.287	20907.15
581.648	21002.74
582.008	21067.37
582.368	21017.88
582.728	21124.77
583.089	21101.49
583.449	21135.16
583.809	21029.63
584.169	21115.73
584.529	21217.42
584.889	21394.14
585.249	21268.49
585.609	21305.1
585.969	21425.78
586.329	21313.69
586.688	21476.4
587.048	21424.65
587.408	21335.61
587.768	21488.6
588.127	21432.78
588.487	21486.12
588.846	21599.11
589.206	21434.82
589.565	21506.23
589.925	21625.55
590.284	21565.44
590.643	21656.73
591.003	21741.02
591.362	21827.35
591.721	21823.73
592.08	21720.69
592.44	21963.17
592.799	21824.19
593.158	21933.34
593.517	21845.65
593.876	21926.1
594.235	21924.3
594.593	22074.8
594.952	22037.06
595.311	21960.23
595.67	21928.36
596.029	22072.99
596.387	22138.98
596.746	22194.35
597.104	22223.72
597.463	22168.13
597.822	22362.03
598.18	22234.8
598.538	22251.07
598.897	22453.32
599.255	22214.23
599.613	22569.03
599.972	22482.02
600.33	22448.35
600.688	22411.52
601.046	22409.48
601.404	22631.17
601.762	22604.28
602.12	22564.73
602.478	22648.35
602.836	22648.57
603.194	22590.72
603.552	22729.25
603.91	22551.85
604.268	22749.36
604.625	22711.39
604.983	22842.92
605.341	22701.9
605.698	22798.85
606.056	22885.4
606.413	22960.88
606.771	23070.93
607.128	23016.92
607.485	23019.63
607.843	22965.4
608.2	23002.23
608.557	23143.47
608.914	23133.53
609.272	23231.15
609.629	23280.42
609.986	23249.23
610.343	23272.51
610.7	23441.09
611.057	23362.68
611.414	23423.01
611.771	23464.14
612.127	23478.61
612.484	23390.25
612.841	23590.24
613.198	23540.53
613.554	23524.93
613.911	23685.61
614.267	23624.59
614.624	23703.23
614.98	23744.36
615.337	23803.57
615.693	23866.17
616.05	23783
616.406	24026.84
616.762	23874.08
617.118	23843.12
617.475	23754.3
617.831	23927.41
618.187	23923.11
618.543	23996.33
618.899	24117.23
619.255	24086.5
619.611	24033.62
619.967	24185.71
620.323	24147.29
620.678	24087.86
621.034	23996.11
621.39	24058.93
621.746	23912.94
622.101	24215.76
622.457	24056.44
622.812	24167.85
623.168	24149.77
623.523	24247.17
623.879	24269.32
624.234	24114.07
624.589	24315.87
624.945	24279.94
625.3	24215.76
625.655	24348.64
626.01	24255.99
626.365	24357
626.72	24270.45
627.075	24282.88
627.43	24277.91
627.785	24215.08
628.14	24271.58
628.495	24241.52
628.85	24140.96
629.205	24005.37
629.559	24210.79
629.914	24134.86
630.269	24238.13
630.623	24205.82
630.978	24204.46
631.332	24038.14
631.687	24036.11
632.041	24021.42
632.396	24227.51
632.75	23943
633.104	24137.12
633.459	23949.33
633.813	23933.28
634.167	23933.06
634.521	23946.84
634.875	23966.95
635.229	23941.42
635.583	23938.48
635.937	23786.85
636.291	23777.58
636.645	23851.93
636.999	23854.19
637.352	23752.95
637.706	23680.86
638.06	23804.92
638.413	23659.84
638.767	23550.92
639.121	23578.72
639.474	23521.32
639.828	23496.23
640.181	23571.71
640.534	23493.97
640.888	23424.82
641.241	23403.35
641.594	23485.16
641.947	23496.46
642.301	23375.33
642.654	23447.65
643.007	23531.71
643.36	23419.17
643.713	23420.08
644.066	23392.96
644.419	23211.72
644.771	23251.27
645.124	22884.5
645.477	22884.95
645.83	22842.69
646.182	22670.94
646.535	22563.6
646.888	22578.97
647.24	22385.98
647.593	22551.62
647.945	22549.14
648.298	22425.3
648.65	22441.8
649.002	22318.64
649.355	22484.51
649.707	22380.1
650.059	22509.14
650.411	22772.64
650.763	22832.3
651.115	22951.16
651.467	22980.99
651.819	22943.03
652.171	22843.14
652.523	22863.71
652.875	22736.03
653.227	22750.94
653.578	22968.34
653.93	22973.53
654.282	22650.6
654.633	22683.82
654.985	22716.82
655.337	22804.95
655.688	22709.36
656.039	22763.14
656.391	22612.64
656.742	22597.73
657.094	22725.63
657.445	22675.24
657.796	22672.98
658.147	22684.73
658.498	22651.28
658.849	22802.92
659.2	22630.72
659.551	22608.57
659.902	22696.71
660.253	22617.84
660.604	22634.79
660.955	22619.87
661.306	22678.4
661.656	22656.25
662.007	22612.19
662.358	22531.51
662.708	22688.57
663.059	22604.73
663.409	22448.35
663.76	22682.47
664.11	22648.12
664.461	22501
664.811	22445.86
665.161	22590.72
665.511	22574.45
665.862	22616.93
666.212	22609.93
666.562	22639.08
666.912	22563.6
667.262	22571.74
667.612	22493.77
667.962	22559.99
668.312	22618.52
668.662	22568.8
669.011	22569.7
669.361	22543.26
669.711	22448.12
670.06	22456.71
670.41	22492.19
670.76	22399.54
671.109	22549.36
671.459	22420.33
671.808	22427.79
672.157	22467.33
672.507	22269.37
672.856	22368.13
673.205	22326.32
673.554	22362.93
673.904	22308.69
674.253	22412.42
674.602	22287.22
674.951	21998.19
675.3	21817.41
675.649	22287.68
675.998	22224.63
676.346	22199.09
676.695	22291.97
677.044	22100.34
677.393	22234.34
677.741	22280.9
678.09	22182.37
678.438	22215.59
678.787	22231.63
679.135	22222.14
679.484	22099.89
679.832	22228.24
680.181	22040
680.529	22079.77
680.877	22050.39
681.225	22084.74
681.573	22141.47
681.922	22015.82
682.27	21944.86
682.618	21912.55
682.966	21983.28
683.314	21964.52
683.661	21869.16
684.009	21718.43
684.357	21721.59
684.705	21646.79
685.053	21686.11
685.4	21709.39
685.748	21572.44
686.095	21670.07
686.443	21545.55
686.79	21447.02
687.138	21553.68
687.485	21491.09
687.832	21442.5
688.18	21326.12
688.527	21270.08
688.874	21221.04
689.221	21287.25
689.568	21279.12
689.915	21186.91
690.262	21246.57
690.609	21193.47
690.956	21067.14
691.303	20969.75
691.65	20879.35
691.997	20909.86
692.344	20733.37
692.69	20704.22
693.037	20759.58
693.383	20565.91
693.73	20667.61
694.077	20427.16
694.423	20657.66
694.769	20465.13
695.116	20392.81
695.462	20371.34
695.808	20277.56
696.155	20385.35
696.501	20213.61
696.847	20175.64
697.193	20114.63
697.539	20119.37
697.885	20070.33
698.231	19955.76
698.577	19992.6
698.923	20046.15
699.269	19767.97
699.614	19723.22
699.96	19672.15
700.306	19731.59
700.651	19605.04
700.997	19519.61
701.342	19624.24
701.688	19462.67
702.033	19424.93
702.379	19519.39
702.724	19435.32
703.069	19463.57
703.415	19139.28
703.76	19287.76
704.105	19135.67
704.45	19132.73
704.795	19081.43
705.14	19000.31
705.485	19011.38
705.83	18915.34
706.175	19035.11
706.52	18838.05
706.865	18711.95
707.209	18773.64
707.554	18712.86
707.899	18736.81
708.243	18545.63
708.588	18694.78
708.932	18485.97
709.277	18506.99
709.621	18517.15
709.966	18290.49
710.31	18415.01
710.654	18234.68
710.998	18378.63
711.342	18295.69
711.687	18244.17
712.031	18132.53
712.375	18278.52
712.719	18141.57
713.063	18186.77
713.407	18152.42
713.75	18087.56
714.094	18048.92
714.438	17999.43
714.782	18061.12
715.125	17979.09
715.469	17944.74
715.812	17780.9
716.156	17753.56
716.499	17786.1
716.843	17799.43
717.186	17724.63
717.53	17830.17
717.873	17588.37
718.216	17827.23
718.559	17655.03
718.902	17538.87
719.246	17533
719.589	17518.76
719.932	17496.84
720.275	17434.02
720.617	17495.03
720.96	17407.35
721.303	17460.91
721.646	17458.88
721.989	17327.13
722.331	17335.72
722.674	17290.97
723.016	17404.64
723.359	17306.11
723.701	17353.57
724.044	17230.18
724.386	17109.06
724.729	17196.29
725.071	17136.85
725.413	17208.94
725.755	17141.15
726.097	17070.41
726.439	17010.75
726.782	17053.46
727.124	17083.52
727.465	16961.26
727.807	16998.32
728.149	16942.96
728.491	16872.68
728.833	16919.91
729.175	16920.13
729.516	16855.28
729.858	16789.52
730.199	16980.02
730.541	16820.02
730.882	16819.12
731.224	16936.18
731.565	16715.39
731.906	16725.79
732.248	16843.3
732.589	16618
732.93	16630.88
733.271	16678.33
733.612	16740.25
733.953	16706.13
734.294	16583.87
734.635	16568.96
734.976	16571.89
735.317	16523.31
735.658	16599.24
735.999	16587.04
736.339	16461.62
736.68	16641.95
737.021	16542.97
737.361	16385.23
737.702	16498.22
738.042	16483.99
738.383	16395.63
738.723	16511.56
739.063	16370.77
739.404	16420.94
739.744	16412.8
740.084	16354.5
740.424	16309.98
740.764	16311.34
741.104	16383.88
741.444	16215.75
741.784	16147.27
742.124	16286.03
742.464	16235.86
742.804	16188.85
743.143	16189.31
743.483	16147.95
743.823	16076.09
744.162	16101.4
744.502	16155.18
744.841	16087.61
745.181	16074.51
745.52	16085.13
745.86	16034.73
746.199	16054.39
746.538	16003.32
746.877	16081.29
747.216	16072.02
747.556	15895.98
747.895	16033.15
748.234	15966.26
748.573	15828.19
748.911	15933.27
749.25	15904.57
749.589	15808.07
749.928	15835.19
750.267	15892.36
750.605	15893.27
750.944	15762.42
751.283	15735.76
751.621	15774.63
751.96	15594.97
752.298	15637.23
752.636	15682.43
752.975	15577.8
753.313	15529.89
753.651	15753.39
753.989	15613.95
754.327	15504.58
754.666	15510
755.004	15558.59
755.342	15511.13
755.679	15435.43
