Data from tablewood_dark_bookshelf_FLMS001491_00053.txt Node
Date: Wed Feb 08 14:15:04 GMT 2017
User: dcchb
Spectrometer: FLMS00149
Trigger mode: 0
Integration Time (sec): 2.000000E-2
Scans to average: 10
Electric dark correction enabled: true
Nonlinearity correction enabled: false
Boxcar width: 0
XAxis mode: Wavelengths
Number of Pixels in Spectrum: 2048
>>>>>Begin Spectral Data<<<<<
341.393	-3.21
341.776	-3.21
342.16	-3.21
342.543	-83.2
342.927	-68.29
343.31	-78.91
343.693	-65.8
344.077	-76.42
344.46	-57.67
344.843	-66.48
345.226	-48.63
345.61	-19.48
345.993	-16.31
346.376	1.77
346.759	13.06
347.142	25.27
347.525	51.71
347.908	59.62
348.291	74.53
348.674	93.06
349.057	110.69
349.44	125.6
349.823	157.69
350.206	160.18
350.588	198.6
350.971	197.92
351.354	208.09
351.737	203.79
352.119	249.22
352.502	245.37
352.884	272.49
353.267	274.53
353.65	276.33
354.032	289.44
354.414	308.65
354.797	301.19
355.179	285.6
355.562	325.82
355.944	319.27
356.326	326.28
356.709	318.14
357.091	329.67
357.473	324.47
357.855	318.59
358.238	328.99
358.62	321.53
359.002	337.8
359.384	324.92
359.766	338.48
360.148	321.98
360.53	335.09
360.912	326.5
361.294	313.17
361.676	330.34
362.057	325.6
362.439	322.44
362.821	309.78
363.203	310.46
363.584	299.38
363.966	333.96
364.348	314.53
364.729	332.6
365.111	319.5
365.493	308.2
365.874	330.34
366.256	296.45
366.637	306.62
367.019	305.26
367.4	322.44
367.781	307.75
368.163	327.86
368.544	330.34
368.925	304.36
369.306	299.38
369.688	292.15
370.069	324.24
370.45	305.03
370.831	305.26
371.212	306.62
371.593	306.62
371.974	315.88
372.355	317.92
372.736	316.79
373.117	303.45
373.498	315.88
373.879	346.16
374.26	319.5
374.641	324.92
375.021	335.54
375.402	289.89
375.783	330.57
376.163	348.2
376.544	338.48
376.925	341.42
377.305	342.32
377.686	334.41
378.066	320.18
378.447	358.82
378.827	334.64
379.208	338.93
379.588	352.94
379.968	348.2
380.349	333.28
380.729	327.63
381.109	363.56
381.489	350
381.87	316.11
382.25	356.11
382.63	347.29
383.01	332.6
383.39	350
383.77	354.98
384.15	345.49
384.53	367.86
384.91	361.3
385.29	361.08
385.67	366.05
386.049	361.98
386.429	364.69
386.809	359.5
387.189	362.21
387.568	390.23
387.948	371.47
388.328	360.63
388.707	368.08
389.087	395.43
389.466	372.83
389.846	385.48
390.225	402.43
390.605	404.69
390.984	396.78
391.363	413.28
391.743	377.57
392.122	390
392.501	407.4
392.881	406.5
393.26	381.87
393.639	384.35
394.018	405.37
394.397	408.76
394.776	434.75
395.155	416.44
395.534	431.81
395.913	404.24
396.292	416.44
396.671	436.78
397.05	401.75
397.429	431.13
397.808	419.38
398.186	410.57
398.565	440.4
398.944	433.62
399.323	452.83
399.701	423.9
400.08	439.27
400.458	449.21
400.837	437.46
401.215	448.31
401.594	443.79
401.972	451.47
402.351	457.12
402.729	477.46
403.107	436.78
403.486	465.26
403.864	479.04
404.242	469.78
404.62	467.29
404.999	470.91
405.377	483.79
405.755	484.69
406.133	494.63
406.511	511.81
406.889	498.7
407.267	519.94
407.645	506.84
408.023	524.92
408.401	513.62
408.779	501.19
409.156	527.85
409.534	527.4
409.912	528.31
410.29	545.48
410.667	552.03
411.045	525.82
411.422	558.36
411.8	544.12
412.178	562.88
412.555	584.35
412.933	566.95
413.31	573.95
413.687	573.95
414.065	597.68
414.442	572.37
414.819	578.47
415.197	584.8
415.574	603.78
415.951	614.63
416.328	606.04
416.705	592.94
417.082	609.43
417.46	615.31
417.837	637.45
418.214	610.11
418.591	616.44
418.967	636.55
419.344	652.37
419.721	643.33
420.098	641.07
420.475	647.62
420.852	636.1
421.228	662.31
421.605	669.09
421.982	656.21
422.358	696.44
422.735	683.56
423.111	674.74
423.488	692.14
423.864	673.16
424.241	716.77
424.617	722.2
424.994	716.32
425.37	715.19
425.746	711.58
426.123	727.4
426.499	723.78
426.875	720.16
427.251	750.22
427.627	775.3
428.003	764.91
428.379	770.11
428.756	754.97
429.132	769.2
429.507	815.3
429.883	786.6
430.259	815.53
430.635	818.24
431.011	831.12
431.387	843.78
431.763	860.27
432.138	843.33
432.514	886.26
432.89	858.01
433.265	883.78
433.641	850.33
434.016	886.49
434.392	904.11
434.767	926.03
435.143	912.48
435.518	923.55
435.894	949.54
436.269	941.85
436.644	939.59
437.02	954.96
437.395	972.36
437.77	991.12
438.145	978.01
438.52	967.39
438.895	979.14
439.271	1022.08
439.646	1024.79
440.021	1038.12
440.395	1035.41
440.77	1010.55
441.145	1026.82
441.52	1037.44
441.895	1043.32
442.27	1068.86
442.645	1053.49
443.019	1058.23
443.394	1066.82
443.769	1070.21
444.143	1053.49
444.518	1102.3
444.892	1094.84
445.267	1112.7
445.641	1114.28
446.016	1099.59
446.39	1128.52
446.764	1128.97
447.139	1152.7
447.513	1147.72
447.887	1167.38
448.262	1184.79
448.636	1179.81
449.01	1186.59
449.384	1174.62
449.758	1191.56
450.132	1206.93
450.506	1239.25
450.88	1220.49
451.254	1231.11
451.628	1242.18
452.002	1246.03
452.376	1261.17
452.75	1254.39
453.123	1295.06
453.497	1306.59
453.871	1333.48
454.244	1333.48
454.618	1332.35
454.992	1351.56
455.365	1364.22
455.739	1376.87
456.112	1385.68
456.486	1402.86
456.859	1430.43
457.232	1485.34
457.606	1431.56
457.979	1444.89
458.352	1482.4
458.725	1500.48
459.099	1512.69
459.472	1519.24
459.845	1518.79
460.218	1575.28
460.591	1559.46
460.964	1561.95
461.337	1600.14
461.71	1648.05
462.083	1671.78
462.456	1652.34
462.829	1683.08
463.201	1720.14
463.574	1717.88
463.947	1734.83
464.32	1737.99
464.692	1786.8
465.065	1779.57
465.438	1773.24
465.81	1833.81
466.183	1861.15
466.555	1888.04
466.928	1863.19
467.3	1887.37
467.672	1922.39
468.045	1999.68
468.417	1973.01
468.789	1982.73
469.161	2006.01
469.534	2058.21
469.906	2106.12
470.278	2084.87
470.65	2129.85
471.022	2152.44
471.394	2186.11
471.766	2234.48
472.138	2239.22
472.51	2297.52
472.882	2307.47
473.253	2309.05
473.625	2390.4
473.997	2406.22
474.369	2410.97
474.74	2410.74
475.112	2514.24
475.484	2526.44
475.855	2575.71
476.227	2610.06
476.598	2668.14
476.97	2687.57
477.341	2740.22
477.713	2775.25
478.084	2794.01
478.455	2834.46
478.827	2865.19
479.198	2939.77
479.569	2918.75
479.94	3045.53
480.311	3054.79
480.682	3128.24
481.053	3182.47
481.424	3252.08
481.795	3252.53
482.166	3317.61
482.537	3322.58
482.908	3403.26
483.279	3468.34
483.65	3506.08
484.021	3598.51
484.391	3604.38
484.762	3639.41
485.133	3699.07
485.503	3738.16
485.874	3819.52
486.244	3829.24
486.615	3906.97
486.985	3958.27
487.356	3995.11
487.726	4030.36
488.097	4094.77
488.467	4203.01
488.837	4251.37
489.207	4258.83
489.578	4298.83
489.948	4382.22
490.318	4431.48
490.688	4425.15
491.058	4545.6
491.428	4547.41
491.798	4628.08
492.168	4704.47
492.538	4691.36
492.908	4719.83
493.278	4815.42
493.648	4816.1
494.017	4928.42
494.387	4959.38
494.757	4974.52
495.126	5011.35
495.496	5069.2
495.866	5056.55
496.235	5169.99
496.605	5236.43
496.974	5228.75
497.344	5248.18
497.713	5286.15
498.082	5338.8
498.452	5403.66
498.821	5444.11
499.19	5457.22
499.559	5509.64
499.928	5522.52
500.298	5582.41
500.667	5624.44
501.036	5633.71
501.405	5718.45
501.774	5709.64
502.143	5758.68
502.512	5841.84
502.88	5870.76
503.249	5839.13
503.618	5906.24
503.987	5959.35
504.356	5993.47
504.724	6002.96
505.093	6035.96
505.462	6065.33
505.83	6065.33
506.199	6174.03
506.567	6294.93
506.936	6242.28
507.304	6342.84
507.672	6324.09
508.041	6400.02
508.409	6384.42
508.777	6504.65
509.145	6511.42
509.514	6505.55
509.882	6598.43
510.25	6624.19
510.618	6661.93
510.986	6719.1
511.354	6805.2
511.722	6807.69
512.09	6863.51
512.458	6886.78
512.826	6953.9
513.193	6977.63
513.561	7011.3
513.929	7059.21
514.297	7138.98
514.664	7249.94
515.032	7258.75
515.4	7292.65
515.767	7299.88
516.135	7377.39
516.502	7359.76
516.869	7493.32
517.237	7503.26
517.604	7522.47
517.972	7572.41
518.339	7706.65
518.706	7698.74
519.073	7707.78
519.44	7781.22
519.808	7845.4
520.175	7898.73
520.542	8007.2
520.909	8034.77
521.276	8065.06
521.643	8138.73
522.009	8200.42
522.376	8283.58
522.743	8332.85
523.11	8385.05
523.477	8477.02
523.843	8549.56
524.21	8676.57
524.577	8689.67
524.943	8693.51
525.31	8758.37
525.676	8830.91
526.043	8921.76
526.409	8927.63
526.776	9077.23
527.142	9082.88
527.508	9141.41
527.874	9275.42
528.241	9237.91
528.607	9279.26
528.973	9392.71
529.339	9374.63
529.705	9517.9
530.071	9594.06
530.437	9613.49
530.803	9672.7
531.169	9745.01
531.535	9752.47
531.901	9774.39
532.267	9840.6
532.632	9940.26
532.998	9975.51
533.364	10031.33
533.73	10066.81
534.095	10098.68
534.461	10252.12
534.826	10216.19
535.192	10290.08
535.557	10310.65
535.923	10380.02
536.288	10321.49
536.653	10424.99
537.019	10432.45
537.384	10514.71
537.749	10533.01
538.114	10477.2
538.479	10582.5
538.845	10678.32
539.21	10618.89
539.575	10660.24
539.94	10751.31
540.305	10777.75
540.67	10763.74
541.034	10864.76
541.399	10946.11
541.764	10948.37
542.129	11043.06
542.494	11081.47
542.858	11105.88
543.223	11078.31
543.587	11139.78
543.952	11142.49
544.316	11258.19
544.681	11236.27
545.045	11297.74
545.41	11353.11
545.774	11398.53
546.138	11373.22
546.503	11444.18
546.867	11443.95
547.231	11584.06
547.595	11575.7
547.959	11596.71
548.324	11546.09
548.688	11700.89
549.052	11718.07
549.416	11696.6
549.779	11793.77
550.143	11831.74
550.507	11888.23
550.871	11887.78
551.235	11968.46
551.599	12065.63
551.962	12048.45
552.326	12156.02
552.689	12160.77
553.053	12175.68
553.417	12172.29
553.78	12299.75
554.143	12348.11
554.507	12391.72
554.87	12487.54
555.234	12502.91
555.597	12436.69
555.96	12562.34
556.323	12664.48
556.686	12656.35
557.05	12748.32
557.413	12799.62
557.776	12794.88
558.139	12905.16
558.502	12976.79
558.865	12981.31
559.228	13147.86
559.59	13148.76
559.953	13248.2
560.316	13334.3
560.679	13371.58
561.041	13430.34
561.404	13500.62
561.767	13617
562.129	13588.98
562.492	13770.22
562.854	13692.03
563.217	13730.44
563.579	13768.86
563.941	13955.52
564.304	14015.63
564.666	14077.78
565.028	14096.54
565.39	14183.54
565.753	14345.12
566.115	14297.89
566.477	14409.97
566.839	14563.87
567.201	14547.82
567.563	14527.71
567.925	14690.42
568.287	14693.58
568.648	14748.04
569.01	14853.35
569.372	14933.8
569.734	14939.68
570.095	15030.97
570.457	15168.15
570.819	15192.78
571.18	15231.65
571.542	15295.37
571.903	15343.28
572.265	15364.07
572.626	15463.28
572.987	15479.32
573.349	15602.03
573.71	15658.08
574.071	15697.4
574.432	15858.07
574.794	15939.88
575.155	15962.93
575.516	16006.99
575.877	16076.82
576.238	16082.02
576.599	16162.92
576.96	16234.78
577.32	16176.93
577.681	16262.58
578.042	16392.29
578.403	16459.86
578.763	16493.08
579.124	16608.33
579.485	16656.02
579.845	16727.2
580.206	16748.44
580.566	16630.25
580.927	16750.7
581.287	16850.36
581.648	16830.7
582.008	16886.07
582.368	16932.62
582.728	17022.11
583.089	16960.19
583.449	17080.41
583.809	17143.01
584.169	17092.16
584.529	17110.92
584.889	17312.27
585.249	17132.16
585.609	17227.3
585.969	17328.09
586.329	17237.92
586.688	17402.89
587.048	17386.17
587.408	17440.4
587.768	17411.48
588.127	17423.23
588.487	17454.87
588.846	17529.44
589.206	17515.66
589.565	17567.63
589.925	17606.05
590.284	17678.59
590.643	17680.62
591.003	17719.27
591.362	17781.64
591.721	17844.23
592.08	17795.65
592.44	17924.23
592.799	17918.81
593.158	17872.26
593.517	17938.24
593.876	17948.86
594.235	17987.28
594.593	18045.81
594.952	18072.48
595.311	18159.03
595.67	18196.99
596.029	18256.2
596.387	18288.29
596.746	18284.67
597.104	18239.25
597.463	18200.83
597.822	18349.53
598.18	18208.97
598.538	18251.23
598.897	18409.64
599.255	18311.79
599.613	18617.32
599.972	18436.08
600.33	18446.25
600.688	18485.8
601.046	18632.91
601.404	18675.62
601.762	18642.86
602.12	18739.58
602.478	18832.91
602.836	18759.01
603.194	18665.23
603.552	18829.97
603.91	18790.2
604.268	18800.82
604.625	18786.81
604.983	18897.31
605.341	18854.38
605.698	19053.24
606.056	19066.12
606.413	18984.09
606.771	19050.3
607.128	19013.47
607.485	19012.79
607.843	19043.75
608.2	19077.65
608.557	19261.82
608.914	19218.66
609.272	19282.84
609.629	19313.12
609.986	19424.53
610.343	19350.41
610.7	19467.47
611.057	19390.41
611.414	19460.01
611.771	19494.13
612.127	19486.45
612.484	19488.94
612.841	19615.26
613.198	19537.75
613.554	19557.64
613.911	19643.06
614.267	19700.23
614.624	19697.29
614.98	19617.75
615.337	19818.87
615.693	19835.14
616.05	19748.59
616.406	19852.99
616.762	19853.45
617.118	19803.73
617.475	19838.76
617.831	19897.06
618.187	19875.82
618.543	19983.84
618.899	20042.14
619.255	19989.71
619.611	19938.42
619.967	20088.24
620.323	20101.12
620.678	20008.92
621.034	20064.74
621.39	20119.2
621.746	20004.18
622.101	20286.66
622.457	20076.72
622.812	20155.36
623.168	20185.87
623.523	20178.41
623.879	20305.64
624.234	20148.81
624.589	20158.75
624.945	20172.53
625.3	20300.67
625.655	20127.56
626.01	20288.01
626.365	20192.42
626.72	20224.06
627.075	20128.24
627.43	20163.27
627.785	20175.25
628.14	20132.99
628.495	20197.84
628.85	20184.74
629.205	20111.52
629.559	20268.58
629.914	20234
630.269	20112.42
630.623	20051.63
630.978	19991.75
631.332	20182.93
631.687	20208.92
632.041	20037.4
632.396	20090.5
632.75	19971.64
633.104	20095.25
633.459	20008.92
633.813	19977.51
634.167	20090.05
634.521	19896.61
634.875	19977.06
635.229	19969.38
635.583	19925.31
635.937	19907.46
636.291	19909.72
636.645	19934.35
636.999	19728.03
637.352	19922.37
637.706	19694.36
638.06	19862.94
638.413	19827.23
638.767	19778.87
639.121	19759.44
639.474	19617.07
639.828	19738.65
640.181	19650.29
640.534	19777.97
640.888	19657.29
641.241	19555.38
641.594	19663.17
641.947	19643.51
642.301	19656.62
642.654	19629.27
643.007	19567.8
643.36	19560.35
643.713	19495.49
644.066	19648.25
644.419	19508.15
644.771	19379.79
645.124	19189.96
645.477	19126.23
645.83	19059.12
646.182	18872.91
646.535	18951.32
646.888	18916.52
647.24	18846.92
647.593	18866.35
647.945	18900.48
648.298	18788.16
648.65	18750.2
649.002	18680.6
649.355	18728.5
649.707	18776.64
650.059	18834.72
650.411	19133.47
650.763	19209.62
651.115	19410.52
651.467	19322.84
651.819	19250.52
652.171	19192.45
652.523	19139.34
652.875	19213.46
653.227	19027.71
653.578	19180.24
653.93	19032.9
654.282	19044.88
654.633	19064.54
654.985	19016.18
655.337	19133.47
655.688	19100.25
656.039	19134.37
656.391	19032.68
656.742	18974.6
657.094	19095.05
657.445	19118.78
657.796	19050.76
658.147	19067.93
658.498	19048.5
658.849	19023.64
659.2	19010.08
659.551	18913.13
659.902	19144.54
660.253	19081.49
660.604	19027.25
660.955	18994.03
661.306	19008.95
661.656	19000.36
662.007	19047.59
662.358	18972.11
662.708	18991.55
663.059	19033.58
663.409	18938.22
663.76	19006.24
664.11	19070.19
664.461	19042.62
664.811	19051.21
665.161	18985.45
665.511	19003.98
665.862	19046.24
666.212	19157.65
666.562	19079.68
666.912	19057.54
667.262	19055.5
667.612	19041.49
667.962	18988.38
668.312	19011.66
668.662	19083.3
669.011	19098.89
669.361	18896.41
669.711	18956.52
670.06	18949.29
670.41	18853.02
670.76	18978.44
671.109	18962.17
671.459	18999.46
671.808	18975.73
672.157	18997.88
672.507	18898.22
672.856	18980.48
673.205	18859.35
673.554	18933.25
673.904	18930.08
674.253	18987.25
674.602	18853.7
674.951	18658.45
675.3	18544.78
675.649	18886.24
675.998	18827.94
676.346	18846.69
676.695	18929.86
677.044	18740.26
677.393	18820.03
677.741	18845.56
678.09	18803.08
678.438	18748.17
678.787	18718.34
679.135	18853.25
679.484	18661.61
679.832	18780.03
680.181	18684.66
680.529	18756.3
680.877	18689.86
681.225	18588.17
681.573	18696.64
681.922	18572.12
682.27	18564.44
682.618	18544.55
682.966	18580.71
683.314	18636.76
683.661	18448.74
684.009	18440.6
684.357	18338.68
684.705	18255.75
685.053	18325.8
685.4	18329.19
685.748	18255.3
686.095	18321.28
686.443	18256.88
686.79	18188.41
687.138	18131.23
687.485	18189.54
687.832	18094.85
688.18	18084.23
688.527	18020.5
688.874	18039.48
689.221	17960.62
689.568	18002.42
689.915	17812.14
690.262	17961.75
690.609	17860.28
690.956	17789.32
691.303	17818.25
691.65	17666.39
691.997	17705.93
692.344	17563.79
692.69	17664.58
693.037	17577.8
693.383	17542.1
693.73	17452.15
694.077	17378.48
694.423	17423.23
694.769	17269.33
695.116	17277.24
695.462	17279.5
695.808	17312.95
696.155	17284.93
696.501	17173.97
696.847	17171.26
697.193	17030.92
697.539	17156.12
697.885	16991.83
698.231	16970.58
698.577	16884.71
698.923	16899.17
699.269	16825.28
699.614	16731.5
699.96	16694.66
700.306	16824.83
700.651	16625.74
700.997	16493.08
701.342	16603.81
701.688	16488.11
702.033	16487.66
702.379	16541.22
702.724	16419.86
703.069	16436.59
703.415	16310.26
703.76	16335.8
704.105	16304.84
704.45	16262.35
704.795	16183.49
705.14	16053.09
705.485	16166.76
705.83	16085.64
706.175	16083.83
706.52	16020.33
706.865	16018.75
707.209	15956.15
707.554	15891.29
707.899	15927.67
708.243	15836.83
708.588	15889.26
708.932	15751.86
709.277	15786.44
709.621	15682.71
709.966	15642.71
710.31	15720.67
710.654	15515.48
710.998	15627.12
711.342	15542.6
711.687	15468.25
712.031	15474.35
712.375	15419.21
712.719	15470.29
713.063	15433.45
713.407	15481.36
713.75	15408.82
714.094	15344.19
714.438	15269.61
714.782	15334.02
715.125	15128.37
715.469	15286.11
715.812	15234.81
716.156	15173.57
716.499	15119.56
716.843	15169.5
717.186	14979.45
717.53	15114.81
717.873	15094.48
718.216	15018.32
718.559	15052.9
718.902	14982.61
719.246	14979.68
719.589	14988.49
719.932	14889.06
720.275	14854.48
720.617	14901.49
720.96	14780.81
721.303	14858.78
721.646	14863.97
721.989	14754.6
722.331	14888.38
722.674	14808.38
723.016	14844.09
723.359	14871.21
723.701	14742.62
724.044	14591.89
724.386	14701.72
724.729	14738.33
725.071	14666.92
725.413	14650.87
725.755	14662.17
726.097	14682.51
726.439	14562.06
726.782	14531.78
727.124	14647.48
727.465	14605.68
727.807	14485.9
728.149	14435.06
728.491	14520.93
728.833	14520.48
729.175	14527.49
729.516	14429.86
729.858	14430.54
730.199	14457.43
730.541	14438
730.882	14380.14
731.224	14419.69
731.565	14364.78
731.906	14456.53
732.248	14462.18
732.589	14275.29
732.93	14351.9
733.271	14370.43
733.612	14366.81
733.953	14321.16
734.294	14285.01
734.635	14249.3
734.976	14287.27
735.317	14221.73
735.658	14207.95
735.999	14268.73
736.339	14240.71
736.68	14259.7
737.021	14247.49
737.361	14138.79
737.702	14288.4
738.042	14216.98
738.383	14240.26
738.723	14209.98
739.063	14187.16
739.404	14273.93
739.744	14136.54
740.084	14220.15
740.424	14208.62
740.764	14082.3
741.104	14080.72
741.444	14071.45
741.784	14049.76
742.124	14108.51
742.464	14042.53
742.804	14029.87
743.143	14024.22
743.483	13988.74
743.823	14032.58
744.162	13999.82
744.502	13948.07
744.841	13937.9
745.181	14016.99
745.52	13994.84
745.86	14042.3
746.199	13941.06
746.538	13996.88
746.877	13941.51
747.216	13953.72
747.556	13967.95
747.895	13949.2
748.234	13877.56
748.573	13883.66
748.911	13942.87
749.25	13914.62
749.589	13863.77
749.928	13811.12
750.267	13939.03
750.605	13886.82
750.944	13850.89
751.283	13843.21
751.621	13842.31
751.96	13788.52
752.298	13740.84
752.636	13773.61
752.975	13720.95
753.313	13655.19
753.651	13722.08
753.989	13726.83
754.327	13624.91
754.666	13554.4
755.004	13574.29
755.342	13768.18
755.679	13500.85
756.017	13513.5
756.355	13583.33
756.693	13506.5
