Data from tablewood_dark_bookshelf_FLMS001491_00050.txt Node
Date: Wed Feb 08 14:14:49 GMT 2017
User: dcchb
Spectrometer: FLMS00149
Trigger mode: 0
Integration Time (sec): 2.000000E-2
Scans to average: 10
Electric dark correction enabled: true
Nonlinearity correction enabled: false
Boxcar width: 0
XAxis mode: Wavelengths
Number of Pixels in Spectrum: 2048
>>>>>Begin Spectral Data<<<<<
341.393	-30.86
341.776	-30.86
342.16	-30.86
342.543	-52.33
342.927	-79.22
343.31	-74.7
343.693	-62.5
344.077	-73.57
344.46	-46.68
344.843	-52.56
345.226	-44.65
345.61	-53.01
345.993	-15.49
346.376	4.17
346.759	-10.52
347.142	21.79
347.525	49.82
347.908	52.75
348.291	77.84
348.674	98.85
349.057	128.46
349.44	131.85
349.823	150.83
350.206	157.61
350.588	159.42
350.971	196.25
351.354	212.75
351.737	220.88
352.119	224.73
352.502	237.38
352.884	248.91
353.267	275.57
353.65	280.54
354.032	288.23
354.414	292.29
354.797	290.94
355.179	301.79
355.562	311.05
355.944	311.28
356.326	313.08
356.709	316.7
357.091	324.61
357.473	310.15
357.855	340.43
358.238	324.38
358.62	320.99
359.002	333.42
359.384	320.09
359.766	322.12
360.148	336.14
360.53	306.31
360.912	322.35
361.294	329.81
361.676	314.67
362.057	353.08
362.439	333.42
362.821	313.99
363.203	330.71
363.584	312.18
363.966	306.53
364.348	314.44
364.729	294.55
365.111	312.86
365.493	335.91
365.874	325.51
366.256	291.16
366.637	308.34
367.019	312.18
367.4	306.08
367.781	308.79
368.163	305.63
368.544	276.48
368.925	301.11
369.306	310.6
369.688	332.97
370.069	288
370.45	289.58
370.831	315.8
371.212	296.59
371.593	278.51
371.974	295.91
372.355	294.33
372.736	294.55
373.117	289.13
373.498	327.55
373.879	281.67
374.26	311.5
374.641	292.29
375.021	307.66
375.402	312.41
375.783	319.41
376.163	326.19
376.544	333.2
376.925	323.71
377.305	303.59
377.686	301.79
378.066	333.42
378.447	335.23
378.827	330.94
379.208	313.08
379.588	320.77
379.968	333.2
380.349	328
380.729	320.77
381.109	310.6
381.489	335.68
381.87	322.35
382.25	346.76
382.63	339.98
383.01	318.51
383.39	327.77
383.77	338.4
384.15	348.79
384.53	346.08
384.91	347.89
385.29	333.65
385.67	364.61
386.049	358.96
386.429	357.15
386.809	343.37
387.189	359.86
387.568	360.99
387.948	332.52
388.328	382.24
388.707	341.56
389.087	366.87
389.466	374.55
389.846	353.76
390.225	365.29
390.605	359.64
390.984	354.44
391.363	366.64
391.743	379.07
392.122	374.33
392.501	395.34
392.881	363.03
393.26	369.13
393.639	383.37
394.018	377.72
394.397	400.09
394.776	368.68
395.155	388.56
395.534	387.66
395.913	374.78
396.292	382.24
396.671	400.09
397.05	394.89
397.429	381.33
397.808	388.56
398.186	403.03
398.565	394.21
398.944	412.52
399.323	393.76
399.701	402.12
400.08	416.13
400.458	416.59
400.837	405.06
401.215	427.21
401.594	416.81
401.972	413.65
402.351	439.86
402.729	414.1
403.107	433.53
403.486	417.04
403.864	426.3
404.242	435.34
404.62	442.8
404.999	452.97
405.377	446.64
405.755	444.61
406.133	441.22
406.511	469.47
406.889	437.6
407.267	466.75
407.645	481.44
408.023	474.21
408.401	463.14
408.779	449.35
409.156	468.34
409.534	466.98
409.912	464.27
410.29	474.44
410.667	488.9
411.045	497.94
411.422	494.78
411.8	485.96
412.178	497.03
412.555	513.76
412.933	528.22
413.31	514.66
413.687	520.99
414.065	514.66
414.442	517.37
414.819	516.7
415.197	542.46
415.574	521.67
415.951	538.39
416.328	534.1
416.705	535
417.082	558.5
417.46	543.14
417.837	533.42
418.214	582.46
418.591	570.03
418.967	583.13
419.344	579.97
419.721	557.6
420.098	562.34
420.475	575.22
420.852	571.16
421.228	589.46
421.605	596.92
421.982	602.34
422.358	593.3
422.735	606.41
423.111	609.8
423.488	607.09
423.864	620.2
424.241	634.88
424.617	610.25
424.994	648.67
425.37	628.33
425.746	625.39
426.123	628.78
426.499	668.78
426.875	684.83
427.251	654.77
427.627	662.23
428.003	672.17
428.379	680.98
428.756	679.4
429.132	718.05
429.507	715.79
429.883	687.76
430.259	708.55
430.635	717.37
431.011	734.77
431.387	744.03
431.763	735.45
432.138	737.71
432.514	752.17
432.89	765.5
433.265	779.06
433.641	770.7
434.016	781.1
434.392	799.4
434.767	812.73
435.143	805.05
435.518	815.9
435.894	843.01
436.269	822.9
436.644	817.48
437.02	840.08
437.395	858.83
437.77	858.16
438.145	875.1
438.52	857.7
438.895	888.21
439.271	873.97
439.646	892.73
440.021	896.57
440.395	918.49
440.77	897.02
441.145	905.39
441.52	904.03
441.895	944.03
442.27	932.96
442.645	927.76
443.019	947.19
443.394	927.31
443.769	979.96
444.143	985.61
444.518	938.83
444.892	937.93
445.267	993.97
445.641	970.02
446.016	978.83
446.39	1009.79
446.764	1027.87
447.139	998.49
447.513	981.32
447.887	1016.57
448.262	1001.2
448.636	1018.38
449.01	1029.22
449.384	1013.86
449.758	1058.83
450.132	1071.03
450.506	1072.39
450.88	1078.04
451.254	1066.51
451.628	1078.49
452.002	1097.92
452.376	1110.35
452.75	1132.27
453.123	1119.84
453.497	1107.41
453.871	1131.14
454.244	1146.28
454.618	1170.46
454.992	1197.58
455.365	1167.98
455.739	1196.68
456.112	1211.14
456.486	1238.71
456.859	1226.51
457.232	1246.39
457.606	1247.75
457.979	1265.15
458.352	1307.18
458.725	1306.28
459.099	1300.86
459.472	1315.09
459.845	1328.43
460.218	1361.64
460.591	1373.4
460.964	1374.3
461.337	1386.73
461.71	1422.43
462.083	1437.35
462.456	1446.84
462.829	1479.38
463.201	1485.48
463.574	1482.77
463.947	1496.78
464.32	1504.01
464.692	1553.05
465.065	1532.04
465.438	1556.44
465.81	1601.19
466.183	1596.89
466.555	1627.17
466.928	1649.77
467.3	1638.25
467.672	1671.47
468.045	1700.17
468.417	1706.72
468.789	1704.69
469.161	1741.52
469.534	1755.08
469.906	1794.85
470.278	1823.33
470.65	1837.56
471.022	1836.21
471.394	1900.16
471.766	1922.31
472.138	1935.87
472.51	1975.41
472.882	2011.35
473.253	2021.06
473.625	2026.94
473.997	2071.46
474.369	2078.69
474.74	2144.68
475.112	2165.92
475.484	2146.48
475.855	2237.1
476.227	2210.66
476.598	2320.04
476.97	2320.04
477.341	2361.62
477.713	2358.23
478.084	2374.73
478.455	2468.51
478.827	2473.71
479.198	2510.77
479.569	2557.55
479.94	2649.52
480.311	2644.55
480.682	2710.99
481.053	2731.55
481.424	2774.26
481.795	2833.24
482.166	2851.32
482.537	2926.12
482.908	2937.87
483.279	2933.13
483.65	3030.3
484.021	3086.57
484.391	3090.87
484.762	3124.76
485.133	3138.1
485.503	3221.94
485.874	3291.31
486.244	3305.1
486.615	3343.74
486.985	3394.81
487.356	3432.1
487.726	3453.79
488.097	3568.14
488.467	3601.13
488.837	3639.33
489.207	3664.64
489.578	3716.39
489.948	3722.03
490.318	3802.26
490.688	3800.45
491.058	3857.17
491.428	3908.02
491.798	3947.57
492.168	4025.08
492.538	4063.49
492.908	4101.91
493.278	4143.04
493.648	4150.72
494.017	4234.11
494.387	4240.44
494.757	4253.55
495.126	4332.87
495.496	4328.35
495.866	4378.74
496.235	4389.59
496.605	4458.51
496.974	4504.39
497.344	4518.4
497.713	4596.36
498.082	4615.8
498.452	4702.8
498.821	4693.99
499.19	4680.88
499.559	4769.01
499.928	4757.49
500.298	4781.89
500.667	4843.14
501.036	4785.51
501.405	4913.64
501.774	4952.06
502.143	4955.9
502.512	5035.45
502.88	5032.73
503.249	5066.63
503.618	5116.8
503.987	5112.96
504.356	5157.48
504.724	5141.43
505.093	5212.39
505.462	5248.1
505.83	5247.64
506.199	5307.08
506.567	5340.75
506.936	5342.56
507.304	5428.43
507.672	5461.65
508.041	5538.03
508.409	5556.56
508.777	5593.4
509.145	5607.41
509.514	5590.01
509.882	5670.68
510.25	5727.63
510.618	5687.18
510.986	5805.14
511.354	5851.02
511.722	5872.26
512.09	5941.64
512.458	5945.93
512.826	5980.51
513.193	6054.85
513.561	6096.66
513.929	6108.19
514.297	6157.68
514.664	6181.86
515.032	6196.77
515.4	6241.29
515.767	6272.48
516.135	6393.6
516.502	6347.95
516.869	6418.46
517.237	6496.65
517.604	6472.92
517.972	6556.99
518.339	6572.36
518.706	6582.3
519.073	6652.13
519.44	6721.96
519.808	6791.78
520.175	6784.33
520.542	6841.27
520.909	6893.02
521.276	6938.22
521.643	6951.78
522.009	7052.57
522.376	7119.91
522.743	7185.9
523.11	7246.69
523.477	7385.89
523.843	7357.65
524.21	7471.99
524.577	7455.04
524.943	7529.62
525.31	7591.54
525.676	7652.78
526.043	7726.45
526.409	7729.16
526.776	7793.57
527.142	7853
527.508	7960.34
527.874	7937.07
528.241	7987.69
528.607	8008.7
528.973	8066.1
529.339	8078.08
529.705	8223.16
530.071	8218.87
530.437	8238.75
530.803	8298.41
531.169	8365.53
531.535	8401.69
531.901	8474.23
532.267	8387.67
532.632	8551.06
532.998	8570.27
533.364	8595.13
533.73	8689.59
534.095	8730.72
534.461	8765.97
534.826	8788.57
535.192	8804.61
535.557	8908.79
535.923	8869.92
536.288	8959.19
536.653	8992.18
537.019	9010.03
537.384	8998.96
537.749	9076.47
538.114	9142.23
538.479	9135.68
538.845	9170.03
539.21	9120.76
539.575	9183.13
539.94	9226.3
540.305	9248.9
540.67	9305.16
541.034	9355.33
541.399	9380.87
541.764	9404.6
542.129	9487.98
542.494	9490.7
542.858	9507.42
543.223	9531.15
543.587	9600.98
543.952	9588.77
544.316	9655.21
544.681	9673.52
545.045	9705.38
545.41	9757.36
545.774	9762.55
546.138	9847.98
546.503	9811.82
546.867	9800.75
547.231	9935.66
547.595	9963.45
547.959	10003.45
548.324	9945.6
548.688	9976.56
549.052	10093.84
549.416	10065.6
549.779	10117.57
550.143	10192.37
550.507	10185.37
550.871	10218.59
551.235	10281.41
551.599	10362.54
551.962	10294.29
552.326	10302.65
552.689	10393.5
553.053	10399.15
553.417	10484.12
553.78	10678.01
554.143	10614.51
554.507	10616.32
554.87	10634.4
555.234	10739.48
555.597	10685.02
555.96	10741.51
556.323	10796.88
556.686	10844.33
557.05	10924.33
557.413	10935.4
557.776	11034.16
558.139	11065.34
558.502	11010.66
558.865	11143.31
559.228	11247.94
559.59	11200.48
559.953	11282.06
560.316	11407.03
560.679	11386.47
561.041	11470.76
561.404	11486.35
561.767	11513.92
562.129	11529.29
562.492	11672.56
562.854	11683.41
563.217	11697.42
563.579	11825.1
563.941	11863.06
564.304	11917.3
564.666	12014.7
565.028	12073
565.39	12113.23
565.753	12180.8
566.115	12175.37
566.477	12240.23
566.839	12329.72
567.201	12447
567.563	12484.52
567.925	12563.16
568.287	12543.72
568.648	12540.33
569.01	12667.79
569.372	12774.45
569.734	12698.75
570.095	12805.19
570.457	12909.82
570.819	12901.68
571.18	12862.81
571.542	13083.14
571.903	13001.79
572.265	12992.3
572.626	13108.91
572.987	13205.18
573.349	13240.88
573.71	13248.11
574.071	13258.51
574.432	13450.82
574.794	13479.52
575.155	13485.62
575.516	13412.18
575.877	13527.88
576.238	13599.06
576.599	13636.8
576.96	13681.55
577.32	13573.98
577.681	13696.01
578.042	13766.74
578.403	13897.59
578.763	13832.73
579.124	13932.39
579.485	13917.02
579.845	13969
580.206	13972.16
580.566	14061.42
580.927	14091.71
581.287	14143.68
581.648	14185.26
582.008	14248.09
582.368	14174.64
582.728	14330.34
583.089	14274.98
583.449	14319.72
583.809	14360.63
584.169	14432.04
584.529	14365.6
584.889	14544.58
585.249	14472.03
585.609	14393.17
585.969	14587.29
586.329	14518.36
586.688	14500.51
587.048	14524.01
587.408	14531.47
587.768	14552.94
588.127	14495.76
588.487	14505.93
588.846	14576.44
589.206	14564.24
589.565	14653.5
589.925	14750.22
590.284	14580.51
590.643	14766.04
591.003	14791.12
591.362	14787.28
591.721	14767.85
592.08	14800.16
592.44	14841.74
592.799	14895.75
593.158	14905.47
593.517	14854.62
593.876	14925.36
594.235	14925.36
594.593	14964.68
594.952	14998.35
595.311	14916.09
595.67	15058.91
596.029	15110.21
596.387	15025.69
596.746	15099.59
597.104	15058.23
597.463	15080.83
597.822	15183.88
598.18	15177.33
598.538	15195.86
598.897	15182.52
599.255	15149.53
599.613	15394.27
599.972	15340.49
600.33	15264.33
600.688	15303.88
601.046	15401.5
601.404	15410.77
601.762	15417.09
602.12	15502.29
602.478	15446.02
602.836	15488.05
603.194	15392.24
603.552	15460.48
603.91	15452.35
604.268	15474.95
604.625	15478.79
604.983	15593.14
605.341	15496.41
605.698	15596.52
606.056	15644.43
606.413	15547.71
606.771	15679.91
607.128	15700.93
607.485	15636.52
607.843	15574.83
608.2	15768.95
608.557	15831.77
608.914	15759.91
609.272	15868.38
609.629	15836.07
609.986	16016.17
610.343	15883.3
610.7	15886.01
611.057	15921.49
611.414	16013.46
611.771	15910.41
612.127	16117.87
612.484	16015.05
612.841	16111.31
613.198	16075.61
613.554	16029.06
613.911	16166.91
614.267	16126.68
614.624	16104.99
614.98	16168.94
615.337	16269.95
615.693	16235.6
616.05	16261.82
616.406	16398.09
616.762	16260.46
617.118	16269.28
617.475	16381.14
617.831	16301.82
618.187	16318.09
618.543	16447.58
618.899	16383.4
619.255	16499.78
619.611	16514.24
619.967	16536.16
620.323	16410.06
620.678	16479.21
621.034	16375.26
621.39	16485.77
621.746	16503.85
622.101	16585.65
622.457	16378.2
622.812	16398.31
623.168	16469.5
623.523	16551.75
623.879	16564.64
624.234	16451.19
624.589	16576.16
624.945	16495.03
625.3	16631.07
625.655	16578.65
626.01	16571.64
626.365	16583.39
626.72	16429.95
627.075	16516.5
627.43	16503.62
627.785	16524.64
628.14	16512.21
628.495	16578.19
628.85	16538.2
629.205	16468.82
629.559	16579.1
629.914	16546.1
630.269	16504.3
630.623	16478.76
630.978	16410.29
631.332	16510.17
631.687	16528.7
632.041	16452.1
632.396	16592.43
632.75	16388.59
633.104	16462.72
633.459	16383.4
633.813	16391.53
634.167	16364.87
634.521	16286.45
634.875	16436.05
635.229	16381.14
635.583	16227.02
635.937	16290.74
636.291	16290.97
636.645	16317.64
636.999	16194.7
637.352	16263.85
637.706	16120.35
638.06	16274.02
638.413	16229.95
638.767	16155.61
639.121	16184.31
639.474	16085.55
639.828	16102.73
640.181	16059.11
640.534	16142.73
640.888	16078.77
641.241	16026.8
641.594	16001.94
641.947	16080.13
642.301	15987.02
642.654	15907.03
643.007	15978.66
643.36	16029.06
643.713	15931.43
644.066	15997.42
644.419	16048.04
644.771	15902.05
645.124	15724.21
645.477	15715.84
645.83	15636.3
646.182	15528.05
646.535	15467.04
646.888	15470.43
647.24	15253.48
647.593	15440.37
647.945	15321.05
648.298	15260.71
648.65	15264.1
649.002	15268.4
649.355	15352.01
649.707	15342.75
650.059	15362.63
650.411	15710.65
650.763	15660.7
651.115	15768.95
651.467	15761.27
651.819	15745.67
652.171	15676.75
652.523	15735.5
652.875	15644.89
653.227	15641.04
653.578	15661.83
653.93	15651.89
654.282	15569.41
654.633	15552.91
654.985	15493.93
655.337	15570.54
655.688	15507.04
656.039	15624.32
656.391	15444.44
656.742	15526.47
657.094	15510.43
657.445	15587.26
657.796	15558.56
658.147	15516.53
658.498	15484.89
658.849	15598.11
659.2	15582.29
659.551	15482.86
659.902	15527.6
660.253	15526.7
660.604	15580.03
660.955	15444.89
661.306	15542.52
661.656	15524.21
662.007	15479.01
662.358	15553.81
662.708	15412.57
663.059	15521.5
663.409	15317.21
663.76	15565.34
664.11	15467.94
664.461	15446.7
664.811	15521.72
665.161	15524.89
665.511	15418.22
665.862	15511.56
666.212	15493.93
666.562	15498
666.912	15399.47
667.262	15451.44
667.612	15381.16
667.962	15438.11
668.312	15420.48
668.662	15473.82
669.011	15479.24
669.361	15485.34
669.711	15408.51
670.06	15406.93
670.41	15406.47
670.76	15354.5
671.109	15436.08
671.459	15385.23
671.808	15342.07
672.157	15467.71
672.507	15373.25
672.856	15384.78
673.205	15372.58
673.554	15419.35
673.904	15318.11
674.253	15389.52
674.602	15396.08
674.951	15110.89
675.3	15046.48
675.649	15305.01
675.998	15299.58
676.346	15300.71
676.695	15317.44
677.044	15223.65
677.393	15258.45
677.741	15303.88
678.09	15283.76
678.438	15228.17
678.787	15264.33
679.135	15232.01
679.484	15078.12
679.832	15188.17
680.181	15189.76
680.529	15132.81
680.877	15098.46
681.225	15089.65
681.573	15206.93
681.922	15093.49
682.27	14985.02
682.618	15084.9
682.966	15053.94
683.314	15055.07
683.661	14953.83
684.009	14923.1
684.357	14918.58
684.705	14869.09
685.053	14848.52
685.4	14786.38
685.748	14788.18
686.095	14747.51
686.443	14743.21
686.79	14679.94
687.138	14717.23
687.485	14734.17
687.832	14622.09
688.18	14686.94
688.527	14586.83
688.874	14581.86
689.221	14561.3
689.568	14492.15
689.915	14492.37
690.262	14469.55
690.609	14434.07
690.956	14374.64
691.303	14370.12
691.65	14285.37
691.997	14327.63
692.344	14305.71
692.69	14148.65
693.037	14259.61
693.383	14121.08
693.73	14124.02
694.077	14173.74
694.423	13979.39
694.769	14039.73
695.116	14020.75
695.462	14087.64
695.808	13960.64
696.155	14053.74
696.501	13905.95
696.847	13842.22
697.193	13709.12
697.539	13771.71
697.885	13690.81
698.231	13650.81
698.577	13664.82
698.923	13653.3
699.269	13663.24
699.614	13476.13
699.96	13482.23
700.306	13424.83
700.651	13462.34
700.997	13408.11
701.342	13400.88
701.688	13333.31
702.033	13288.79
702.379	13258.51
702.724	13228.68
703.069	13211.5
703.415	13072.52
703.76	13004.28
704.105	13088.79
704.45	13098.29
704.795	12971.06
705.14	12871.4
705.485	12988.91
705.83	12859.2
706.175	12906.88
706.52	12906.2
706.865	12814.23
707.209	12853.55
707.554	12766.32
707.899	12783.49
708.243	12698.52
708.588	12662.14
708.932	12657.62
709.277	12653.78
709.621	12710.5
709.966	12553.22
710.31	12634.79
710.654	12537.85
710.998	12532.2
711.342	12523.61
711.687	12458.08
712.031	12463.73
712.375	12374.91
712.719	12380.56
713.063	12406.33
713.407	12390.73
713.75	12302.15
714.094	12302.37
714.438	12372.2
714.782	12271.19
715.125	12211.76
715.469	12236.39
715.812	12185.77
716.156	12177.41
716.499	12153.9
716.843	12229.16
717.186	12119.78
717.53	12144.64
717.873	12181.25
718.216	12181.25
718.559	12122.27
718.902	11957.07
719.246	12016.96
719.589	11973.12
719.932	11921.82
720.275	11983.51
720.617	11899.67
720.96	11895.61
721.303	11888.15
721.646	11871.2
721.989	11808.83
722.331	11898.09
722.674	11863.74
723.016	11878.2
723.359	11893.35
723.701	11920.01
724.044	11836.62
724.386	11684.99
724.729	11886.79
725.071	11784.2
725.413	11692.67
725.755	11680.92
726.097	11680.7
726.439	11661.49
726.782	11564.99
727.124	11678.66
727.465	11623.97
727.807	11665.55
728.149	11608.83
728.491	11558.89
728.833	11612.67
729.175	11631.66
729.516	11511.43
729.858	11515.95
730.199	11568.61
730.541	11591.21
730.882	11508.04
731.224	11575.39
731.565	11410.65
731.906	11477.54
732.248	11573.13
732.589	11504.66
732.93	11407.03
733.271	11480.47
733.612	11511.43
733.953	11529.06
734.294	11464.66
734.635	11465.56
734.976	11479.35
735.317	11423.98
735.658	11383.75
735.999	11428.72
736.339	11424.66
736.68	11430.31
737.021	11379.46
737.361	11399.8
737.702	11378.78
738.042	11305.56
738.383	11329.52
738.723	11339.24
739.063	11287.03
739.404	11272.57
739.744	11264.66
740.084	11261.95
740.424	11373.13
740.764	11281.84
741.104	11377.65
741.444	11315.73
741.784	11254.27
742.124	11276.19
742.464	11275.06
742.804	11264.66
743.143	11217.21
743.483	11264.21
743.823	11164.55
744.162	11181.05
744.502	11198.22
744.841	11186.92
745.181	11223.98
745.52	11211.1
745.86	11164.55
746.199	11112.58
746.538	11123.2
746.877	11143.08
747.216	11158.9
747.556	11139.69
747.895	11112.12
748.234	11120.94
748.573	11108.28
748.911	11070.77
749.25	11091.11
749.589	11030.77
749.928	11088.85
750.267	11162.52
750.605	11068.28
750.944	11093.82
751.283	11002.75
751.621	11014.27
751.96	10987.61
752.298	11039.36
752.636	11059.92
752.975	10896.54
753.313	10889.3
753.651	10997.78
753.989	10885.69
754.327	10963.43
754.666	10872.13
755.004	10999.13
755.342	10953.03
755.679	10918
756.017	10804.33
756.355	10837.78
756.693	10735.41
757.031	10794.84
757.368	10717.33
757.706	10698.8
758.044	10646.82
758.381	10673.94
