Data from tablewood_dark_bookshelf_FLMS001491_00073.txt Node
Date: Wed Feb 08 14:15:36 GMT 2017
User: dcchb
Spectrometer: FLMS00149
Trigger mode: 0
Integration Time (sec): 2.000000E-2
Scans to average: 10
Electric dark correction enabled: true
Nonlinearity correction enabled: false
Boxcar width: 0
XAxis mode: Wavelengths
Number of Pixels in Spectrum: 2048
>>>>>Begin Spectral Data<<<<<
341.393	0.52
341.776	0.52
342.16	0.52
342.543	-44.67
342.927	-52.13
343.31	-65.69
343.693	-84.22
344.077	-66.59
344.46	-60.04
344.843	-64.33
345.226	-40.61
345.61	-28.4
345.993	-2.42
346.376	-2.64
346.759	6.17
347.142	22.67
347.525	57.47
347.908	39.17
348.291	83.68
348.674	82.1
349.057	123.68
349.44	122.55
349.823	144.93
350.206	180.18
350.588	172.95
350.971	196.22
351.354	228.99
351.737	228.31
352.119	238.48
352.502	257.69
352.884	279.61
353.267	277.58
353.65	298.59
354.032	316.45
354.414	297.92
354.797	309.67
355.179	309.89
355.562	327.97
355.944	321.87
356.326	341.3
356.709	321.87
357.091	364.58
357.473	341.76
357.855	336.33
358.238	331.81
358.62	336.33
359.002	323.45
359.384	329.33
359.766	334.98
360.148	342.43
360.53	337.91
360.912	350.12
361.294	344.24
361.676	337.91
362.057	317.58
362.439	342.43
362.821	333.62
363.203	325.71
363.584	304.02
363.966	332.49
364.348	333.62
364.729	317.58
365.111	333.4
365.493	318.93
365.874	322.77
366.256	332.72
366.637	302.66
367.019	328.65
367.4	326.62
367.781	313.51
368.163	329.1
368.544	309.67
368.925	312.38
369.306	345.15
369.688	325.49
370.069	340.85
370.45	337.69
370.831	311.93
371.212	317.12
371.593	307.41
371.974	320.97
372.355	330.68
372.736	339.72
373.117	344.92
373.498	297.01
373.879	336.56
374.26	314.86
374.641	327.52
375.021	308.31
375.402	331.36
375.783	337.91
376.163	358.48
376.544	330.91
376.925	355.54
377.305	346.5
377.686	349.21
378.066	365.71
378.447	362.09
378.827	341.08
379.208	330.46
379.588	365.94
379.968	361.64
380.349	362.55
380.729	360.74
381.109	374.52
381.489	365.71
381.87	364.13
382.25	362.55
382.63	373.62
383.01	368.65
383.39	379.95
383.77	360.51
384.15	383.34
384.53	384.69
384.91	379.72
385.29	392.38
385.67	376.33
386.049	396.67
386.429	380.4
386.809	405.71
387.189	391.92
387.568	406.84
387.948	411.13
388.328	416.1
388.707	404.13
389.087	406.61
389.466	389.44
389.846	427.63
390.225	414.3
390.605	433.28
390.984	410.68
391.363	406.84
391.743	417.91
392.122	423.11
392.501	406.61
392.881	420.17
393.26	446.84
393.639	426.73
394.018	427.86
394.397	460.4
394.776	455.88
395.155	467.85
395.534	465.37
395.913	436.9
396.292	470.57
396.671	459.49
397.05	455.65
397.429	460.17
397.808	472.37
398.186	477.35
398.565	472.83
398.944	482.77
399.323	462.21
399.701	486.61
400.08	495.42
400.458	494.29
400.837	503.33
401.215	518.02
401.594	496.55
401.972	502.88
402.351	495.88
402.729	504.01
403.107	509.66
403.486	509.21
403.864	521.64
404.242	547.85
404.62	521.19
404.999	509.89
405.377	525.03
405.755	523.45
406.133	519.6
406.511	526.61
406.889	546.5
407.267	533.84
407.645	532.71
408.023	556.21
408.401	565.48
408.779	560.51
409.156	578.13
409.534	577.23
409.912	599.38
410.29	585.82
410.667	588.53
411.045	586.95
411.422	599.38
411.8	633.05
412.178	619.26
412.555	632.14
412.933	643.9
413.31	640.05
413.687	637.57
414.065	649.09
414.442	628.98
414.819	649.77
415.197	655.42
415.574	677.34
415.951	682.76
416.328	679.6
416.705	673.95
417.082	674.18
417.46	709.43
417.837	694.74
418.214	674.86
418.591	700.17
418.967	738.13
419.344	735.19
419.721	707.4
420.098	732.48
420.475	715.76
420.852	708.53
421.228	735.87
421.605	745.36
421.982	746.27
422.358	732.03
422.735	760.5
423.111	774.29
423.488	795.98
423.864	772.93
424.241	792.37
424.617	820.61
424.994	790.78
425.37	802.76
425.746	800.5
426.123	810.44
426.499	813.38
426.875	838.24
427.251	856.55
427.627	864.91
428.003	880.05
428.379	888.86
428.756	895.87
429.132	916.43
429.507	904.68
429.883	910.1
430.259	910.56
430.635	910.56
431.011	936.77
431.387	966.37
431.763	958.46
432.138	967.95
432.514	983.55
432.89	969.31
433.265	995.07
433.641	1020.16
434.016	1018.57
434.392	1038.01
434.767	1031.23
435.143	1046.14
435.518	1053.6
435.894	1070.32
436.269	1061.96
436.644	1089.53
437.02	1094.51
437.395	1087.27
437.77	1125.92
438.145	1116.65
438.52	1116.43
438.895	1118.23
439.271	1156.65
439.646	1191.23
440.021	1172.47
440.395	1188.74
440.77	1182.41
441.145	1198.23
441.52	1204.11
441.895	1223.09
442.27	1188.74
442.645	1203.65
443.019	1232.81
443.394	1238
443.769	1234.61
444.143	1254.95
444.518	1204.11
444.892	1292.47
445.267	1305.12
445.641	1282.75
446.016	1286.59
446.39	1267.38
446.764	1295.18
447.139	1290.43
447.513	1297.44
447.887	1314.61
448.262	1339.24
448.636	1360.49
449.01	1355.74
449.384	1365.91
449.758	1381.28
450.132	1379.02
450.506	1375.4
450.88	1399.81
451.254	1397.77
451.628	1427.83
452.002	1444.33
452.376	1424.21
452.75	1457.21
453.123	1442.74
453.497	1466.25
453.871	1478
454.244	1546.24
454.618	1541.05
454.992	1591.22
455.365	1542.85
455.739	1591.67
456.112	1582.85
456.486	1592.8
456.859	1612.01
457.232	1659.69
457.606	1668.73
457.979	1674.6
458.352	1725.45
458.725	1729.74
459.099	1747.37
459.472	1742.17
459.845	1788.95
460.218	1804.99
460.591	1842.51
460.964	1839.12
461.337	1842.06
461.71	1845.45
462.083	1892.9
462.456	1920.02
462.829	1897.65
463.201	1947.82
463.574	1962.28
463.947	1985.56
464.32	2020.13
464.692	2063.07
465.065	2051.54
465.438	2063.75
465.81	2125.66
466.183	2138.55
466.555	2148.49
466.928	2199.79
467.3	2154.14
467.672	2215.61
468.045	2258.09
468.417	2280.01
468.789	2288.82
469.161	2293.8
469.534	2368.82
469.906	2371.31
470.278	2417.63
470.65	2449.05
471.022	2529.04
471.394	2518.2
471.766	2576.95
472.138	2562.49
472.51	2643.62
472.882	2663.05
473.253	2685.2
473.625	2737.4
473.997	2754.57
474.369	2753.22
474.74	2835.93
475.112	2871.41
475.484	2919.09
475.855	2972.42
476.227	2992.08
476.598	3054.68
476.97	3085.19
477.341	3158.41
477.713	3189.37
478.084	3234.11
478.455	3290.83
478.827	3318.63
479.198	3421.45
479.569	3400.43
479.94	3527.21
480.311	3569.69
480.682	3621.44
481.053	3680.65
481.424	3748.45
481.795	3766.98
482.166	3825.28
482.537	3881.78
482.908	3962.9
483.279	3995.67
483.65	4036.57
484.021	4152.28
484.391	4167.64
484.762	4208.77
485.133	4241.99
485.503	4273.86
485.874	4373.29
486.244	4395.66
486.615	4526.51
486.985	4545.49
487.356	4639.72
487.726	4708.42
488.097	4783
488.467	4788.65
488.837	4874.07
489.207	4890.11
489.578	5033.84
489.948	5036.32
490.318	5139.82
490.688	5142.53
491.058	5209.2
491.428	5233.38
491.798	5320.83
492.168	5409.65
492.538	5486.25
492.908	5467.05
493.278	5588.85
493.648	5571
494.017	5670.88
494.387	5695.29
494.757	5763.53
495.126	5791.56
495.496	5844.44
495.866	5905.23
496.235	5949.97
496.605	6030.87
496.974	6030.42
497.344	6139.57
497.713	6128.05
498.082	6193.35
498.452	6277.19
498.821	6264.09
499.19	6271.32
499.559	6326.68
499.928	6422.27
500.298	6410.07
500.667	6528.03
501.036	6551.54
501.405	6550.18
501.774	6585.89
502.143	6645.77
502.512	6681.25
502.88	6726.22
503.249	6763.73
503.618	6795.37
503.987	6803.73
504.356	6893.22
504.724	6947.01
505.093	6940
505.462	6993.11
505.83	7069.72
506.199	7128.24
506.567	7209.6
506.936	7224.74
507.304	7285.53
507.672	7299.09
508.041	7366.66
508.409	7428.58
508.777	7521.45
509.145	7579.08
509.514	7605.75
509.882	7612.53
510.25	7670.15
510.618	7721.45
510.986	7785.4
511.354	7850.26
511.722	7908.34
512.09	8016.81
512.458	7963.48
512.826	8064.27
513.193	8119.41
513.561	8094.32
513.929	8163.25
514.297	8258.61
514.664	8336.12
515.032	8412.96
515.4	8489.79
515.767	8430.58
516.135	8492.05
516.502	8533.41
516.869	8708.09
517.237	8736.56
517.604	8756
517.972	8835.77
518.339	8872.38
518.706	8917.35
519.073	8979.95
519.44	9101.53
519.808	9107.85
520.175	9129.77
520.542	9268.3
520.909	9299.26
521.276	9324.12
521.643	9469.43
522.009	9539.25
522.376	9541.06
522.743	9627.39
523.11	9755.52
523.477	9806.59
523.843	9875.52
524.21	10030.09
524.577	10102.63
524.943	10104.66
525.31	10184.66
525.676	10310.99
526.043	10301.95
526.409	10378.33
526.776	10506.46
527.142	10524.09
527.508	10620.81
527.874	10705.55
528.241	10772.44
528.607	10854.93
528.973	10889.05
529.339	10902.83
529.705	11040.23
530.071	11203.39
530.437	11202.49
530.803	11174.24
531.169	11327.91
531.535	11309.83
531.901	11434.35
532.267	11410.17
532.632	11566.77
532.998	11577.17
533.364	11669.82
533.73	11656.71
534.095	11794.79
534.461	11854.9
534.826	11939.42
535.192	11950.26
535.557	12051.05
535.923	12007.66
536.288	12088.57
536.653	12181.9
537.019	12045.4
537.384	12179.86
537.749	12292.63
538.114	12294.21
538.479	12285.85
538.845	12434.77
539.21	12448.78
539.575	12470.48
539.94	12498.5
540.305	12625.28
540.67	12610.59
541.034	12694.43
541.399	12726.74
541.764	12696.69
542.129	12836.12
542.494	12818.49
542.858	12980.75
543.223	12911.37
543.587	13063.23
543.952	13101.65
544.316	13106.17
544.681	13069.33
545.045	13171.93
545.41	13235.43
545.774	13351.58
546.138	13302.09
546.503	13312.49
546.867	13381.64
547.231	13529.21
547.595	13516.78
547.959	13593.84
548.324	13599.49
548.688	13643.55
549.052	13737.79
549.416	13788.86
549.779	13713.83
550.143	13823.21
550.507	13931
550.871	13983.66
551.235	13955.64
551.599	14097.1
551.962	14155.4
552.326	14171.9
552.689	14268.85
553.053	14241.73
553.417	14294.38
553.78	14491.22
554.143	14401.95
554.507	14548.16
554.87	14633.58
555.234	14750.64
555.597	14712.9
555.96	14740.25
556.323	14822.96
556.686	14885.78
557.05	14943.63
557.413	14997.19
557.776	15112.67
558.139	15155.83
558.502	15265.88
558.865	15320.35
559.228	15321.25
559.59	15416.84
559.953	15435.6
560.316	15587.23
560.679	15583.39
561.041	15769.6
561.404	15755.59
561.767	16048.46
562.129	15880.11
562.492	16161.68
562.854	16110.38
563.217	16102.02
563.579	16282.81
563.941	16390.6
564.304	16454.78
564.666	16489.35
565.028	16614.32
565.39	16649.35
565.753	16791.04
566.115	16826.97
566.477	16923.69
566.839	16919.17
567.201	17065.38
567.563	17100.64
567.925	17210.01
568.287	17294.76
568.648	17372.04
569.01	17448.2
569.372	17499.05
569.734	17536.33
570.095	17686.16
570.457	17686.16
570.819	17742.88
571.18	17854.97
571.542	17937.68
571.903	17991.01
572.265	18095.19
572.626	18134.28
572.987	18150.55
573.349	18265.58
573.71	18401.17
574.071	18466.25
574.432	18524.33
574.794	18556.19
575.155	18604.55
575.516	18570.66
575.877	18681.39
576.238	18783.98
576.599	18921.83
576.96	18977.2
577.32	18984.88
577.681	19087.25
578.042	18992.34
578.403	19110.08
578.763	19182.39
579.124	19326.79
579.485	19454.25
579.845	19460.35
580.206	19416.28
580.566	19331.99
580.927	19547.13
581.287	19643.4
581.648	19621.48
582.008	19715.48
582.368	19688.82
582.728	19816.05
583.089	19743.73
583.449	19851.53
583.809	19916.38
584.169	19948.02
584.529	19814.69
584.889	20054.46
585.249	19986.21
585.609	19896.95
585.969	19993.44
586.329	20014.46
586.688	20131.29
587.048	20123.84
587.408	20110.5
587.768	20044.74
588.127	20136.04
588.487	20134.46
588.846	20313.21
589.206	20258.75
589.565	20288.58
589.925	20376.26
590.284	20312.98
590.643	20411.96
591.003	20511.4
591.362	20616.93
591.721	20451.51
592.08	20477.27
592.44	20614.44
592.799	20515.46
593.158	20596.82
593.517	20754.78
593.876	20720.88
594.235	20706.19
594.593	20640.21
594.952	20750.49
595.311	20693.99
595.67	20699.41
596.029	20987.54
596.387	20998.39
596.746	20983.47
597.104	20937.15
597.463	20926.53
597.822	21053.75
598.18	20901.22
598.538	21073.41
598.897	21185.95
599.255	21007.65
599.613	21347.08
599.972	21187.99
600.33	21319.96
600.688	21206.97
601.046	21300.98
601.404	21425.27
601.762	21288.32
602.12	21561.99
602.478	21422.11
602.836	21519.28
603.194	21402.9
603.552	21424.59
603.91	21393.63
604.268	21489.45
604.625	21538.71
604.983	21612.38
605.341	21537.58
605.698	21669.33
606.056	21703.68
606.413	21672.72
606.771	21839.72
607.128	21886.73
607.485	21776.9
607.843	21813.96
608.2	21938.48
608.557	21914.52
608.914	21862.09
609.272	21994.97
609.629	22086.72
609.986	22160.62
610.343	21974.18
610.7	22282.87
611.057	22134.63
611.414	22183.22
611.771	22317.22
612.127	22358.58
612.484	22239.71
612.841	22308.18
613.198	22307.96
613.554	22346.15
613.911	22442.42
614.267	22432.48
614.624	22425.7
614.98	22479.48
615.337	22572.36
615.693	22503.43
616.05	22556.09
616.406	22693.49
616.762	22609.87
617.118	22573.94
617.475	22649.87
617.831	22696.65
618.187	22782.75
618.543	22702.3
618.899	22961.95
619.255	22896.87
619.611	22844.67
619.967	22861.16
620.323	22965.34
620.678	22892.12
621.034	22857.77
621.39	22862.97
621.746	22826.14
622.101	23107.94
622.457	22833.37
622.812	22889.41
623.168	22965.12
623.523	22932.8
623.879	23073.59
624.234	22862.75
624.589	23001.73
624.945	23006.25
625.3	23015.28
625.655	23028.17
626.01	22986.13
626.365	23076.53
626.72	23013.25
627.075	22943.42
627.43	23052.12
627.785	22972.12
628.14	23005.79
628.495	23108.16
628.85	22935.74
629.205	22980.03
629.559	23079.24
629.914	22901.84
630.269	22864.78
630.623	22907.94
630.978	22915.63
631.332	22942.29
631.687	22962.4
632.041	22873.37
632.396	22910.43
632.75	22795.4
633.104	22848.06
633.459	22851.67
633.813	22734.61
634.167	22635.63
634.521	22712.69
634.875	22739.59
635.229	22728.96
635.583	22575.75
635.937	22533.26
636.291	22669.76
636.645	22557.9
636.999	22522.42
637.352	22576.65
637.706	22517.44
638.06	22516.99
638.413	22469.08
638.767	22379.37
639.121	22422.76
639.474	22358.58
639.828	22306.15
640.181	22413.27
640.534	22344.57
640.888	22209.66
641.241	22223.67
641.594	22300.28
641.947	22332.59
642.301	22249.66
642.654	22246.27
643.007	22306.15
643.36	22146.83
643.713	22209.43
644.066	22230.45
644.419	22059.38
644.771	22033.84
645.124	21808.31
645.477	21826.62
645.83	21672.72
646.182	21517.24
646.535	21385.95
646.888	21433.86
647.24	21396.34
647.593	21607.64
647.945	21488.77
648.298	21311.6
648.65	21373.75
649.002	21220.98
649.355	21269.57
649.707	21291.26
650.059	21432.5
650.411	21654.87
650.763	21738.93
651.115	21919.27
651.467	21743
651.819	21858.25
652.171	21740.74
652.523	21742.1
652.875	21674.98
653.227	21577.36
653.578	21806.05
653.93	21735.09
654.282	21662.78
654.633	21537.36
654.985	21686.51
655.337	21596.11
655.688	21689.22
656.039	21669.33
656.391	21409
656.742	21510.24
657.094	21507.75
657.445	21705.49
657.796	21630.69
658.147	21607.86
658.498	21684.25
658.849	21620.29
659.2	21612.16
659.551	21509.56
659.902	21644.7
660.253	21515.89
660.604	21613.74
660.955	21481.77
661.306	21620.97
661.656	21582.78
662.007	21536.68
662.358	21497.58
662.708	21470.92
663.059	21494.42
663.409	21356.35
663.76	21472.95
664.11	21455.33
664.461	21467.53
664.811	21521.09
665.161	21526.28
665.511	21379.17
665.862	21559.05
666.212	21426.85
666.562	21426.85
666.912	21461.43
667.262	21360.64
667.612	21444.93
667.962	21514.99
668.312	21443.8
668.662	21592.05
669.011	21474.53
669.361	21454.65
669.711	21392.73
670.06	21430.92
670.41	21428.89
670.76	21338.04
671.109	21374.2
671.459	21383.24
671.808	21331.71
672.157	21343.24
672.507	21182.11
672.856	21305.73
673.205	21294.65
673.554	21289.91
673.904	21238.38
674.253	21380.07
674.602	21313.86
674.951	21005.85
675.3	20787.77
675.649	21229.12
675.998	21257.36
676.346	21262.56
676.695	21249.91
677.044	21115.9
677.393	21207.2
677.741	21132.85
678.09	21050.36
678.438	21226.18
678.787	21096.24
679.135	21072.96
679.484	20994.77
679.832	21059.18
680.181	20969.01
680.529	21056.01
680.877	21004.94
681.225	20916.36
681.573	20929.69
681.922	20829.81
682.27	20773.31
682.618	20918.62
682.966	20832.29
683.314	20898.28
683.661	20788.45
684.009	20802.91
684.357	20649.92
684.705	20654.89
685.053	20636.59
685.4	20629.13
685.748	20518.85
686.095	20516.59
686.443	20440.21
686.79	20444.73
687.138	20533.77
687.485	20479.98
687.832	20495.35
688.18	20410.61
688.527	20281.12
688.874	20230.73
689.221	20200.9
689.568	20048.13
689.915	20095.14
690.262	20114.12
690.609	20084.29
690.956	20121.35
691.303	19944.86
691.65	19858.08
691.997	19884.07
692.344	19849.72
692.69	19737.86
693.037	19717.52
693.383	19571.53
693.73	19749.83
694.077	19512.33
694.423	19605.43
694.769	19378.09
695.116	19460.35
695.462	19427.36
695.808	19298.77
696.155	19408.83
696.501	19214.71
696.847	19355.95
697.193	19085.9
697.539	19119.12
697.885	19093.81
698.231	18959.12
698.577	19050.42
698.923	18847.26
699.269	18860.37
699.614	18744.89
699.96	18717.54
700.306	18836.19
700.651	18661.05
700.997	18544.89
701.342	18619.47
701.688	18578.11
702.033	18543.76
702.379	18493.37
702.724	18382.41
703.069	18451.11
703.415	18305.8
703.76	18185.81
704.105	18162.98
704.45	18194.62
704.795	18092.48
705.14	18025.13
705.485	18040.73
705.83	17945.59
706.175	17992.37
706.52	17922.54
706.865	17821.75
707.209	17786.27
707.554	17800.73
707.899	17902.2
708.243	17741.75
708.588	17703.11
708.932	17602.09
709.277	17708.76
709.621	17672.6
709.966	17553.06
710.31	17562.55
710.654	17370.46
710.998	17386.28
711.342	17459.5
711.687	17379.27
712.031	17357.81
712.375	17287.53
712.719	17270.58
713.063	17311.93
713.407	17349.67
713.75	17209.79
714.094	17138.38
714.438	17018.83
714.782	17134.08
715.125	17005.95
715.469	16992.17
715.812	16916.01
716.156	16872.4
716.499	16927.54
716.843	17002.56
717.186	16838.27
717.53	16932.28
717.873	16809.8
718.216	16814.77
718.559	16783.81
718.902	16707.43
719.246	16634.44
719.589	16628.79
719.932	16653.87
720.275	16650.25
720.617	16641.67
720.96	16551.27
721.303	16652.97
721.646	16580.88
721.989	16537.04
722.331	16615.9
722.674	16540.65
723.016	16545.62
723.359	16552.63
723.701	16436.47
724.044	16282.58
724.386	16358.74
724.729	16383.59
725.071	16271.06
725.413	16310.38
725.755	16419.53
726.097	16178.4
726.439	16177.05
726.782	16135.69
727.124	16224.73
727.465	16092.53
727.807	16097.73
728.149	16107.9
728.491	16150.15
728.833	16132.98
729.175	15992.64
729.516	15985.86
729.858	16056.6
730.199	16017.73
730.541	15993.32
730.882	15980.22
731.224	16040.1
731.565	15869.48
731.906	15874
732.248	15964.85
732.589	15879.2
732.93	15866.32
733.271	15820.9
733.612	15907.45
733.953	15894.34
734.294	15726.66
734.635	15804.63
734.976	15842.82
735.317	15721.24
735.658	15708.81
735.999	15684.4
736.339	15756.49
736.68	15794.91
737.021	15718.75
737.361	15637.63
737.702	15740.9
738.042	15605.31
738.383	15662.94
738.723	15698.87
739.063	15620
739.404	15709.94
739.744	15509.49
740.084	15486.9
740.424	15636.27
740.764	15519.44
741.104	15571.41
741.444	15542.71
741.784	15467.46
742.124	15512.66
742.464	15423.85
742.804	15494.35
743.143	15402.6
743.483	15371.64
743.823	15249.39
744.162	15354.47
744.502	15353.79
744.841	15294.58
745.181	15402.83
745.52	15290.06
745.86	15255.26
746.199	15271.99
746.538	15299.78
746.877	15241.25
747.216	15265.66
747.556	15206.22
747.895	15181.14
748.234	15147.24
748.573	15142.72
748.911	15139.56
749.25	15131.88
749.589	15116.51
749.928	15097.53
750.267	15110.41
750.605	15060.24
750.944	15005.55
751.283	14968.72
751.621	15008.26
751.96	14978.43
752.298	14942.5
752.636	14929.4
752.975	14796.97
753.313	14825.9
753.651	14856.86
753.989	14738.89
754.327	14764.88
754.666	14772.56
755.004	14707.48
755.342	14689.4
755.679	14647.82
756.017	14598.78
