Data from tablewood_brown_FLMS001491_092.txt Node
Date: Tue Feb 07 11:11:17 GMT 2017
User: dcchb
Spectrometer: FLMS00149
Trigger mode: 0
Integration Time (sec): 2.000000E-2
Scans to average: 10
Electric dark correction enabled: true
Nonlinearity correction enabled: false
Boxcar width: 0
XAxis mode: Wavelengths
Number of Pixels in Spectrum: 2048
>>>>>Begin Spectral Data<<<<<
341.393	-5.03
341.776	-5.03
342.16	-5.03
342.543	-46.61
342.927	-76.89
343.31	-67.17
343.693	-55.87
344.077	-77.57
344.46	-69.66
344.843	-53.84
345.226	-45.71
345.61	-32.6
345.993	-14.75
346.376	18.02
346.759	-5.71
347.142	0.62
347.525	60.73
347.908	54.86
348.291	79.94
348.674	104.12
349.057	104.57
349.44	149.32
349.823	150
350.206	197.9
350.588	207.4
350.971	218.47
351.354	243.33
351.737	249.43
352.119	249.88
352.502	265.25
352.884	285.13
353.267	298.24
353.65	294.63
354.032	303.44
354.414	299.6
354.797	316.09
355.179	336.21
355.562	328.3
355.944	326.71
356.326	326.49
356.709	332.14
357.091	327.84
357.473	342.31
357.855	348.41
358.238	355.64
358.62	343.89
359.002	347.96
359.384	370.56
359.766	354.28
360.148	364.45
360.53	356.54
360.912	374.17
361.294	350.44
361.676	346.38
362.057	338.69
362.439	356.09
362.821	330.1
363.203	326.71
363.584	334.4
363.966	352.48
364.348	326.71
364.729	333.04
365.111	328.97
365.493	357.45
365.874	322.87
366.256	331.46
366.637	306.38
367.019	321.74
367.4	321.52
367.781	320.16
368.163	295.75
368.544	320.39
368.925	330.1
369.306	336.88
369.688	328.75
370.069	303.21
370.45	325.81
370.831	305.92
371.212	320.16
371.593	333.95
371.974	334.62
372.355	336.21
372.736	326.49
373.117	348.18
373.498	324.68
373.879	330.1
374.26	329.43
374.641	324.45
375.021	333.72
375.402	345.25
375.783	346.83
376.163	364.23
376.544	357.9
376.925	371.46
377.305	324.23
377.686	333.27
378.066	355.19
378.447	348.41
378.827	354.74
379.208	346.6
379.588	357.45
379.968	345.47
380.349	360.16
380.729	373.72
381.109	366.04
381.489	372.14
381.87	360.61
382.25	363.55
382.63	387.28
383.01	377.33
383.39	371.23
383.77	386.15
384.15	364.23
384.53	389.99
384.91	389.31
385.29	389.99
385.67	397.22
386.049	398.13
386.429	401.97
386.809	395.41
387.189	398.58
387.568	407.39
387.948	407.84
388.328	387.73
388.707	409.65
389.087	394.28
389.466	407.62
389.846	428.86
390.225	428.18
390.605	420.72
390.984	417.56
391.363	411.91
391.743	433.15
392.122	431.12
392.501	420.95
392.881	445.58
393.26	418.69
393.639	428.63
394.018	428.63
394.397	432.02
394.776	451.91
395.155	465.24
395.534	457.11
395.913	458.91
396.292	460.04
396.671	484.22
397.05	486.48
397.429	465.24
397.808	477.9
398.186	499.82
398.565	485.13
398.944	493.72
399.323	493.26
399.701	518.57
400.08	474.96
400.458	477.45
400.837	520.38
401.215	496.2
401.594	521.96
401.972	516.31
402.351	511.57
402.729	526.48
403.107	524.22
403.486	505.47
403.864	544.56
404.242	547.73
404.62	549.53
404.999	544.79
405.377	542.98
405.755	552.25
406.133	552.92
406.511	582.98
406.889	566.48
407.267	579.59
407.645	577.1
408.023	580.95
408.401	578.46
408.779	585.92
409.156	606.71
409.534	614.84
409.912	598.35
410.29	616.65
410.667	623.88
411.045	640.6
411.422	639.93
411.8	630.44
412.178	651
412.555	665.01
412.933	646.71
413.31	664.33
413.687	675.18
414.065	693.48
414.442	693.03
414.819	697.78
415.197	683.77
415.574	689.87
415.951	725.12
416.328	702.07
416.705	737.55
417.082	741.62
417.46	716.99
417.837	743.88
418.214	725.8
418.591	726.48
418.967	743.2
419.344	764.67
419.721	769.19
420.098	756.53
420.475	768.06
420.852	771.45
421.228	812.8
421.605	786.36
421.982	808.06
422.358	816.65
422.735	822.97
423.111	829.53
423.488	800.37
423.864	811
424.241	836.08
424.617	848.73
424.994	851.45
425.37	854.61
425.746	861.62
426.123	879.24
426.499	883.31
426.875	867.04
427.251	872.69
427.627	905.91
428.003	905.23
428.379	894.84
428.756	939.58
429.132	940.71
429.507	955.85
429.883	976.19
430.259	966.02
430.635	997.43
431.011	1012.57
431.387	1018.22
431.763	991.33
432.138	1017.77
432.514	1020.48
432.89	1027.49
433.265	1041.72
433.641	1071.33
434.016	1097.32
434.392	1099.12
434.767	1104.1
435.143	1115.62
435.518	1139.8
435.894	1135.51
436.269	1141.16
436.644	1188.39
437.02	1151.1
437.395	1188.16
437.77	1201.04
438.145	1198.33
438.52	1204.66
438.895	1254.83
439.271	1226.13
439.646	1254.15
440.021	1265.45
440.395	1225.67
440.77	1265.22
441.145	1257.99
441.52	1292.79
441.895	1300.25
442.27	1303.41
442.645	1327.14
443.019	1350.87
443.394	1331.89
443.769	1330.76
444.143	1323.3
444.518	1366.69
444.892	1352.22
445.267	1377.53
445.641	1387.7
446.016	1417.08
446.39	1416.4
446.764	1433.13
447.139	1417.53
447.513	1432.22
447.887	1410.53
448.262	1430.87
448.636	1435.16
449.01	1442.17
449.384	1480.13
449.758	1474.26
450.132	1490.98
450.506	1518.1
450.88	1537.76
451.254	1513.35
451.628	1544.99
452.002	1559
452.376	1557.64
452.75	1595.16
453.123	1589.51
453.497	1631.31
453.871	1644.19
454.244	1652.78
454.618	1696.4
454.992	1671.76
455.365	1704.98
455.739	1723.97
456.112	1745.66
456.486	1770.29
456.859	1765.32
457.232	1801.7
457.606	1789.95
457.979	1810.52
458.352	1855.49
458.725	1905.66
459.099	1895.49
459.472	1928.03
459.845	1928.03
460.218	1949.04
460.591	1973.9
460.964	1974.81
461.337	2045.09
461.71	2057.97
462.083	2075.82
462.456	2061.58
462.829	2106.78
463.201	2120.79
463.574	2151.3
463.947	2197.63
464.32	2265.65
464.692	2214.12
465.065	2253.44
465.438	2311.07
465.81	2314.01
466.183	2358.07
466.555	2400.11
466.928	2409.15
467.3	2447.56
467.672	2453.66
468.045	2522.36
468.417	2579.31
468.789	2591.97
469.161	2591.06
469.534	2700.44
469.906	2694.79
470.278	2716.71
470.65	2767.78
471.022	2815.91
471.394	2858.17
471.766	2920.09
472.138	2975.91
472.51	2987.89
472.882	3108.34
473.253	3082.35
473.625	3148.34
473.997	3235.34
474.369	3255
474.74	3332.06
475.112	3372.96
475.484	3490.25
475.855	3493.64
476.227	3556.01
476.598	3691.15
476.97	3698.6
477.341	3798.94
477.713	3850.46
478.084	3884.59
478.455	3998.26
478.827	4043.9
479.198	4192.6
479.569	4185.82
479.94	4338.13
480.311	4351.69
480.682	4491.8
481.053	4539.03
481.424	4647.5
481.795	4718.69
482.166	4826.71
482.537	4824.9
482.908	4988.74
483.279	5012.24
483.65	5077.32
484.021	5258.56
484.391	5324.32
484.762	5369.29
485.133	5436.64
485.503	5516.18
485.874	5619.23
486.244	5698.32
486.615	5785.78
486.985	5918.66
487.356	6013.8
487.726	6052.44
488.097	6196.16
488.467	6256.73
488.837	6340.79
489.207	6491.52
489.578	6547.12
489.948	6610.17
490.318	6720.67
490.688	6696.72
491.058	6812.87
491.428	6921.8
491.798	6999.99
492.168	7129.47
492.538	7192.07
492.908	7217.15
493.278	7382.12
493.648	7387.77
494.017	7474.32
494.387	7537.6
494.757	7671.15
495.126	7780.98
495.496	7760.87
495.866	7843.58
496.235	7948.89
496.605	7962.22
496.974	8074.99
497.344	8138.03
497.713	8160.18
498.082	8270.69
498.452	8341.19
498.821	8435.2
499.19	8394.3
499.559	8546.84
499.928	8620.06
500.298	8655.54
500.667	8741.18
501.036	8766.27
501.405	8849.65
501.774	8859.15
502.143	8920.16
502.512	8959.03
502.88	9076.99
503.249	9170.32
503.618	9260.04
503.987	9256.65
504.356	9319.47
504.724	9397.21
505.093	9336.42
505.462	9523.31
505.83	9575.06
506.199	9632.01
506.567	9789.97
506.936	9764.66
507.304	9880.81
507.672	9897.31
508.041	10002.62
508.409	10131.43
508.777	10168.04
509.145	10281.26
509.514	10263.63
509.882	10297.3
510.25	10455.26
510.618	10573.9
510.986	10548.14
511.354	10647.35
511.722	10826.1
512.09	10921.24
512.458	10859.54
512.826	11102.02
513.193	11124.17
513.561	11150.61
513.929	11203.26
514.297	11346.31
514.664	11430.83
515.032	11521.45
515.4	11629.47
515.767	11666.53
516.135	11775.45
516.502	11697.26
516.869	11994.88
517.237	12073.3
517.604	12072.39
517.972	12220.41
518.339	12337.92
518.706	12351.71
519.073	12460.86
519.44	12599.61
519.808	12671.02
520.175	12823.11
520.542	12892.26
520.909	12897.68
521.276	12955.31
521.643	13147.85
522.009	13306.49
522.376	13360.04
522.743	13443.88
523.11	13639.13
523.477	13721.62
523.843	13739.24
524.21	14001.16
524.577	14168.84
524.943	14146.46
525.31	14276.4
525.676	14437.76
526.043	14505.1
526.409	14651.31
526.776	14748.71
527.142	14849.95
527.508	14932.21
527.874	15056.72
528.241	15187.34
528.607	15225.76
528.973	15397.96
529.339	15312.99
529.705	15503.26
530.071	15656.48
530.437	15853.99
530.803	15810.38
531.169	15928.79
531.535	15963.59
531.901	16019.86
532.267	16155.22
532.632	16272.96
532.998	16353.64
533.364	16440.87
533.73	16501.88
534.095	16691.03
534.461	16567.64
534.826	16865.26
535.192	16840.4
535.557	17056.22
535.923	17034.98
536.288	17109.1
536.653	17159.27
537.019	17217.34
537.384	17140.51
537.749	17290.11
538.114	17223.67
538.479	17468.18
538.845	17496.88
539.21	17579.59
539.575	17739.59
539.94	17651.46
540.305	17802.19
540.67	17792.92
541.034	17860.26
541.399	17937.32
541.764	17990.88
542.129	18075.4
542.494	18170.77
542.858	18231.1
543.223	18230.88
543.587	18439.91
543.952	18398.56
544.316	18544.54
544.681	18475.62
545.045	18628.15
545.41	18661.15
545.774	18786.79
546.138	18854.36
546.503	18800.58
546.867	18917.41
547.231	19044.41
547.595	19196.27
547.959	19210.06
548.324	19175.03
548.688	19254.8
549.052	19238.08
549.416	19493.89
549.779	19484.85
550.143	19615.02
550.507	19716.94
550.871	19765.75
551.235	19776.37
551.599	19987.21
551.962	20190.6
552.326	20189.92
552.689	20299.75
553.053	20308.34
553.417	20443.47
553.78	20685.95
554.143	20605.5
554.507	20748.78
554.87	20913.97
555.234	21188.99
555.597	21063.8
555.96	21277.12
556.323	21382.21
556.686	21425.37
557.05	21598.25
557.413	21767.96
557.776	21820.61
558.139	21986.48
558.502	22169.3
558.865	22200.49
559.228	22429.86
559.59	22498.56
559.953	22619.69
560.316	22855.61
560.679	22851.77
561.041	23093.57
561.404	23325.21
561.767	23516.16
562.129	23515.26
562.492	23885.42
562.854	23959.54
563.217	23985.53
563.579	24151.85
563.941	24314.78
564.304	24531.73
564.666	24653.08
565.028	24922.68
565.39	25002.22
565.753	25184.82
566.115	25315.66
566.477	25462.55
566.839	25603.79
567.201	25875.65
567.563	25915.65
567.925	26307.95
568.287	26334.84
568.648	26464.33
569.01	26587.72
569.372	27022.74
569.734	26886.24
570.095	27270.86
570.457	27363.74
570.819	27510.86
571.18	27588.82
571.542	27929.15
571.903	28107.45
572.265	28161.01
572.626	28306.32
572.987	28485.75
573.349	28713.99
573.71	28885.06
574.071	29068.56
574.432	29141.78
574.794	29421.32
575.155	29538.83
575.516	29572.05
575.877	29838.48
576.238	29906.28
576.599	30070.79
576.96	30158.92
577.32	30336.55
577.681	30550.55
578.042	30557.78
578.403	30697.44
578.763	30992.8
579.124	31033.7
579.485	31268.95
579.845	31395.05
580.206	31445.67
580.566	31552.11
580.927	31564.09
581.287	31684.53
581.648	31571.99
582.008	31914.13
582.368	31868.48
582.728	32063.28
583.089	32061.93
583.449	32201.36
583.809	32212.66
584.169	32321.58
584.529	32390.05
584.889	32592.31
585.249	32567.9
585.609	32496.72
585.969	32648.58
586.329	32556.38
586.688	32795.01
587.048	32706.2
587.408	32616.04
587.768	32956.59
588.127	32844.28
588.487	32826.65
588.846	33009.02
589.206	32952.3
589.565	32976.93
589.925	33114.1
590.284	33046.53
590.643	33126.08
591.003	33403.13
591.362	33420.53
591.721	33322.01
592.08	33382.57
592.44	33571.94
592.799	33460.98
593.158	33460.08
593.517	33461.44
593.876	33639.74
594.235	33524.49
594.593	33546.41
594.952	33772.16
595.311	33611.04
595.67	33648.78
596.029	33924.93
596.387	33917.47
596.746	34023.23
597.104	33745.27
597.463	33687.19
597.822	33935.32
598.18	33769.45
598.538	33841.99
598.897	34058.71
599.255	33813.74
599.613	34130.57
599.972	33968.32
600.33	34096.45
600.688	34072.72
601.046	34126.05
601.404	34295.54
601.762	34100.74
602.12	34431.13
602.478	34413.73
602.836	34375.76
603.194	34231.36
603.552	34282.43
603.91	34253.73
604.268	34419.6
604.625	34225.03
604.983	34502.54
605.341	34291.92
605.698	34449.66
606.056	34634.06
606.413	34589.77
606.771	34751.8
607.128	34735.98
607.485	34561.75
607.843	34668.64
608.2	34819.82
608.557	34883.77
608.914	34711.57
609.272	34861.85
609.629	34933.49
609.986	35147.27
610.343	34895.75
610.7	35171.45
611.057	35153.6
611.414	35046.71
611.771	35049.19
612.127	35195.85
612.484	35210.54
612.841	35255.06
613.198	35234.72
613.554	35230.88
613.911	35434.72
614.267	35458.22
614.624	35409.63
614.98	35407.83
615.337	35770.53
615.693	35609.63
616.05	35590.87
616.406	35759
616.762	35609.63
617.118	35719.91
617.475	35719
617.831	35801.71
618.187	35877.19
618.543	35850.3
618.899	36108.15
619.255	35890.75
619.611	35799.23
619.967	35955.16
620.323	36053.68
620.678	35936.17
621.034	35953.57
621.39	35832
621.746	35867.02
622.101	36242.15
622.457	35970.52
622.812	36018.88
623.168	36124.42
623.523	36114.7
623.879	36098.66
624.234	35956.06
624.589	36155.6
624.945	36075.38
625.3	36120.58
625.655	36163.29
626.01	36177.75
626.365	36202.38
626.72	36061.59
627.075	36113.57
627.43	36061.14
627.785	35921.71
628.14	36236.28
628.495	36262.27
628.85	36069.96
629.205	35916.74
629.559	36068.83
629.914	35901.37
630.269	35946.57
630.623	35848.72
630.978	35857.98
631.332	35971.2
631.687	36047.81
632.041	35910.41
632.396	35967.36
632.75	35704.77
633.104	35799
633.459	35734.82
633.813	35608.05
634.167	35700.02
634.521	35637.65
634.875	35748.38
635.229	35671.32
635.583	35486.92
635.937	35397.43
636.291	35532.34
636.645	35505.68
636.999	35375.51
637.352	35533.25
637.706	35234.5
638.06	35328.51
638.413	35258.9
638.767	35174.39
639.121	35327.83
639.474	35048.06
639.828	35041.51
640.181	35203.09
640.534	35103.43
640.888	35021.85
641.241	34982.98
641.594	34982.75
641.947	35124.22
642.301	34845.35
642.654	35001.51
643.007	34880.38
643.36	34834.73
643.713	34877.22
644.066	34884.9
644.419	34698.69
644.771	34402.2
645.124	34169.21
645.477	34123.11
645.83	33962.67
646.182	33701.43
646.535	33568.1
646.888	33726.51
647.24	33666.4
647.593	33730.36
647.945	33640.41
648.298	33408.78
648.65	33389.8
649.002	33345.73
649.355	33642.22
649.707	33510.93
650.059	33734.65
650.411	34079.5
650.763	33982.33
651.115	34412.6
651.467	34354.97
651.819	34325.14
652.171	34242.43
652.523	34095.09
652.875	34140.51
653.227	34024.81
653.578	34349.77
653.93	34139.84
654.282	34027.3
654.633	33809.22
654.985	33981.42
655.337	34039.05
655.688	34060.06
656.039	34172.83
656.391	33952.5
656.742	33891.71
657.094	33914.53
657.445	33997.47
657.796	33998.15
658.147	33971.03
658.498	33921.54
658.849	33903.46
659.2	33838.15
659.551	33904.59
659.902	33931.71
660.253	34035.43
660.604	34076.34
660.955	33867.53
661.306	34005.83
661.656	33978.26
662.007	33848.09
662.358	33846.06
662.708	33911.82
663.059	33774.2
663.409	33599.74
663.76	33967.41
664.11	33741.88
664.461	33930.35
664.811	33852.16
665.161	33790.69
665.511	33743.69
665.862	33733.07
666.212	33857.81
666.562	33926.28
666.912	33756.57
667.262	33713.41
667.612	33822.78
667.962	33703.92
668.312	33748.89
668.662	33982.1
669.011	33780.75
669.361	33756.57
669.711	33660.3
670.06	33714.31
670.41	33575.78
670.76	33495.11
671.109	33703.69
671.459	33624.6
671.808	33510.47
672.157	33604.03
672.507	33479.52
672.856	33390.93
673.205	33424.38
673.554	33481.1
673.904	33336.02
674.253	33580.76
674.602	33395.9
674.951	33049.92
675.3	32739.2
675.649	33285.85
675.998	33328.78
676.346	33289.01
676.695	33324.94
677.044	33058.28
677.393	33178.51
677.741	33147.32
678.09	33005.86
678.438	33026.42
678.787	33004.73
679.135	32967.44
679.484	32836.37
679.832	32959.98
680.181	32843.15
680.529	32924.28
680.877	32817.16
681.225	32803.15
681.573	33025.52
681.922	32607.67
682.27	32574.45
682.618	32613.55
682.966	32416.94
683.314	32473.67
683.661	32408.36
684.009	32214.24
684.357	32255.82
684.705	32221.47
685.053	32198.42
685.4	32068.03
685.748	32012.89
686.095	31894.25
686.443	31865.32
686.79	31721.37
687.138	31746
687.485	31790.52
687.832	31569.51
688.18	31686.79
688.527	31355.73
688.874	31435.5
689.221	31274.38
689.568	31271.44
689.915	31188.95
690.262	31120.03
690.609	31080.03
690.956	31040.71
691.303	30998.68
691.65	30617.44
691.997	30678.23
692.344	30522.08
692.69	30588.74
693.037	30409.99
693.383	30219.26
693.73	30225.82
694.077	30204.35
694.423	29898.59
694.769	30114.18
695.116	29906.95
695.462	29936.56
695.808	29837.13
696.155	29868.76
696.501	29610.92
696.847	29607.75
697.193	29328.44
697.539	29367.31
697.885	29248.89
698.231	28990.37
698.577	29177.71
698.923	29049.58
699.269	28806.87
699.614	28733.88
699.96	28627.44
700.306	28749.02
700.651	28458.4
700.997	28544.96
701.342	28452.3
701.688	28342.93
702.033	28128.47
702.379	28213.66
702.724	28243.04
703.069	28092.09
703.415	27725.99
703.76	27904.75
704.105	27728.48
704.45	27666.11
704.795	27497.07
705.14	27541.14
705.485	27406.45
705.83	27323.29
706.175	27340.24
706.52	27267.7
706.865	27049.4
707.209	26963.08
707.554	26854.15
707.899	26945.9
708.243	26792.46
708.588	26806.47
708.932	26640.15
709.277	26580.94
709.621	26710.2
709.966	26436.08
710.31	26569.87
710.654	26252.36
710.998	26390.44
711.342	26226.15
711.687	26222.98
712.031	26010.11
712.375	25919.04
712.719	26002.42
713.063	25975.76
713.407	25951.35
713.75	25888.08
714.094	25853.95
714.438	25666.84
714.782	25815.31
715.125	25716.56
715.469	25725.14
715.812	25517.92
716.156	25463.68
716.499	25506.62
716.843	25564.24
717.186	25394.3
717.53	25444.25
717.873	25418.03
718.216	25423.68
718.559	25278.6
718.902	25116.57
719.246	25233.4
719.589	25163.12
719.932	25048.32
720.275	25141.66
720.617	24986.18
720.96	24944.82
721.303	25016.46
721.646	24916.8
721.989	24862.11
722.331	24905.28
722.674	24852.4
723.016	24883.13
723.359	24650.37
723.701	24841.78
724.044	24613.08
724.386	24571.95
724.729	24702.12
725.071	24659.41
725.413	24637.94
725.755	24537.38
726.097	24582.35
726.439	24514.33
726.782	24440.66
727.124	24648.79
727.465	24451.96
727.807	24495.8
728.149	24264.62
728.491	24371.05
728.833	24389.58
729.175	24341.9
729.516	24279.76
729.858	24256.25
730.199	24338.29
730.541	24263.26
730.882	24240.44
731.224	24370.38
731.565	24185.52
731.906	24239.76
732.248	24098.07
732.589	24127.67
732.93	24036.15
733.271	24060.78
733.612	24177.39
733.953	24148.01
734.294	24003.15
734.635	24049.71
734.976	24078.63
735.317	23948.47
735.658	23905.53
735.999	24100.78
736.339	23959.77
736.68	24049.25
737.021	23996.37
737.361	23910.95
737.702	23983.72
738.042	24054.9
738.383	23907.34
738.723	23984.62
739.063	23972.87
739.404	23915.25
739.744	23803.61
740.084	23905.08
740.424	23949.14
740.764	23883.16
741.104	23967.45
741.444	23814.01
741.784	23797.28
742.124	23846.1
742.464	23785.98
742.804	23809.71
743.143	23759.09
743.483	23785.76
743.823	23760
744.162	23729.26
744.502	23810.62
744.841	23637.06
745.181	23802.48
745.52	23797.74
745.86	23668.7
746.199	23719.32
746.538	23703.28
746.877	23742.6
747.216	23701.92
747.556	23687.23
747.895	23655.59
748.234	23487.01
748.573	23569.72
748.911	23614.46
749.25	23484.3
749.589	23479.55
749.928	23538.99
750.267	23580.34
750.605	23474.13
750.944	23440.68
751.283	23411.98
751.621	23474.81
751.96	23529.49
752.298	23338.31
752.636	23359.56
752.975	23331.31
753.313	23136.28
753.651	23342.38
753.989	23232.1
754.327	23272.1
754.666	23131.09
755.004	23236.39
755.342	23120.69
755.679	23222.38
