Data from tablewood_brown_FLMS001491_052.txt Node
Date: Tue Feb 07 11:10:41 GMT 2017
User: dcchb
Spectrometer: FLMS00149
Trigger mode: 0
Integration Time (sec): 2.000000E-2
Scans to average: 10
Electric dark correction enabled: true
Nonlinearity correction enabled: false
Boxcar width: 0
XAxis mode: Wavelengths
Number of Pixels in Spectrum: 2048
>>>>>Begin Spectral Data<<<<<
341.393	-24.15
341.776	-24.15
342.16	-24.15
342.543	-69.35
342.927	-60.99
343.31	-92.4
343.693	-70.93
344.077	-83.36
344.46	-59.41
344.843	-40.87
345.226	-23.25
345.61	-35.68
345.993	-13.53
346.376	12.01
346.759	13.59
347.142	9.75
347.525	46.13
347.908	68.95
348.291	76.41
348.674	94.49
349.057	98.1
349.44	113.02
349.823	135.62
350.206	158.67
350.588	189.63
350.971	223.3
351.354	225.56
351.737	250.42
352.119	264.65
352.502	270.98
352.884	292.45
353.267	297.65
353.65	302.39
354.032	300.36
354.414	320.25
354.797	325.9
355.179	320.47
355.562	333.35
355.944	344.2
356.326	329.74
356.709	333.35
357.091	357.98
357.473	364.99
357.855	345.33
358.238	350.75
358.62	339
359.002	339.68
359.384	350.75
359.766	329.51
360.148	354.6
360.53	369.51
360.912	338.32
361.294	329.06
361.676	341.71
362.057	336.06
362.439	354.6
362.821	349.85
363.203	337.19
363.584	350.08
363.966	315.95
364.348	338.32
364.729	332
365.111	335.84
365.493	348.27
365.874	341.26
366.256	332.9
366.637	328.16
367.019	331.54
367.4	340.13
367.781	345.78
368.163	314.14
368.544	324.09
368.925	350.08
369.306	351.43
369.688	333.35
370.069	335.61
370.45	329.96
370.831	331.54
371.212	324.54
371.593	332.45
371.974	336.29
372.355	360.24
372.736	327.93
373.117	346.69
373.498	343.07
373.879	333.13
374.26	348.72
374.641	340.13
375.021	342.39
375.402	346.91
375.783	364.76
376.163	344.43
376.544	342.84
376.925	348.72
377.305	334.71
377.686	353.24
378.066	353.24
378.447	358.89
378.827	377.19
379.208	369.28
379.588	362.73
379.968	366.35
380.349	351.88
380.729	364.76
381.109	373.8
381.489	395.5
381.87	366.57
382.25	374.93
382.63	385.33
383.01	383.52
383.39	374.48
383.77	395.95
384.15	380.81
384.53	397.53
384.91	421.26
385.29	392.56
385.67	395.27
386.049	405.89
386.429	395.95
386.809	391.2
387.189	399.57
387.568	428.72
387.948	414.25
388.328	406.8
388.707	423.75
389.087	423.29
389.466	432.79
389.846	419.68
390.225	448.83
390.605	445.89
390.984	449.06
391.363	444.08
391.743	454.25
392.122	455.84
392.501	458.77
392.881	455.16
393.26	451.99
393.639	449.73
394.018	447.93
394.397	464.2
394.776	495.16
395.155	482.73
395.534	474.14
395.913	446.34
396.292	498.55
396.671	481.82
397.05	494.03
397.429	491.77
397.808	498.32
398.186	483.63
398.565	482.5
398.944	508.04
399.323	533.35
399.701	505.55
400.08	522.73
400.458	531.09
400.837	529.05
401.215	554.59
401.594	547.13
401.972	540.13
402.351	549.62
402.729	547.36
403.107	555.72
403.486	553.23
403.864	554.14
404.242	551.88
404.62	583.97
404.999	583.97
405.377	569.73
405.755	594.81
406.133	599.11
406.511	609.73
406.889	592.33
407.267	603.63
407.645	637.75
408.023	645.89
408.401	626.68
408.779	620.12
409.156	638.66
409.534	642.05
409.912	627.58
410.29	671.42
410.667	663.06
411.045	666.9
411.422	667.81
411.8	668.03
412.178	691.54
412.555	690.41
412.933	709.16
413.31	724.53
413.687	721.59
414.065	704.64
414.442	724.75
414.819	732.44
415.197	756.39
415.574	757.07
415.951	755.71
416.328	757.75
416.705	755.26
417.082	773.34
417.46	775.6
417.837	802.27
418.214	808.37
418.591	796.62
418.967	830.97
419.344	805.88
419.721	809.5
420.098	824.87
420.475	858.08
420.852	837.97
421.228	858.31
421.605	843.4
421.982	847.92
422.358	874.58
422.735	876.62
423.111	902.6
423.488	873.9
423.864	892.43
424.241	903.28
424.617	915.71
424.994	903.51
425.37	910.74
425.746	948.03
426.123	939.21
426.499	958.42
426.875	937.18
427.251	955.71
427.627	992.77
428.003	1029.83
428.379	1018.53
428.756	1015.37
429.132	1003.84
429.507	1062.6
429.883	1045.2
430.259	1036.84
430.635	1074.35
431.011	1084.07
431.387	1124.97
431.763	1121.58
432.138	1133.11
432.514	1148.7
432.89	1162.71
433.265	1161.81
433.641	1178.08
434.016	1188.47
434.392	1218.53
434.767	1232.31
435.143	1216.27
435.518	1231.41
435.894	1244.29
436.269	1258.75
436.644	1291.75
437.02	1289.03
437.395	1303.27
437.77	1296.94
438.145	1307.56
438.52	1347.34
438.895	1366.32
439.271	1349.15
439.646	1380.78
440.021	1390.5
440.395	1419.43
440.77	1399.54
441.145	1425.53
441.52	1433.44
441.895	1430.05
442.27	1408.8
442.645	1438.86
443.019	1469.37
443.394	1469.14
443.769	1508.01
444.143	1498.52
444.518	1527.22
444.892	1514.34
445.267	1490.61
445.641	1533.32
446.016	1556.37
446.39	1550.72
446.764	1576.71
447.139	1558.63
447.513	1595.01
447.887	1594.11
448.262	1588.01
448.636	1613.32
449.01	1635.01
449.384	1660.32
449.758	1636.14
450.132	1676.59
450.506	1689.48
450.88	1731.06
451.254	1718.85
451.628	1703.26
452.002	1741.45
452.376	1766.99
452.75	1738.97
453.123	1801.56
453.497	1796.82
453.871	1821.68
454.244	1879.75
454.618	1865.74
454.992	1852.63
455.365	1897.38
455.739	1946.19
456.112	1974.89
456.486	1970.15
456.859	1959.52
457.232	2005.17
457.606	2027.09
457.979	2041.33
458.352	2079.07
458.725	2100.99
459.099	2108.45
459.472	2170.14
459.845	2203.13
460.218	2202
460.591	2224.38
460.964	2238.61
461.337	2286.52
461.71	2300.53
462.083	2310.48
462.456	2349.8
462.829	2384.82
463.201	2423.24
463.574	2437.48
463.947	2433.41
464.32	2547.98
464.692	2554.54
465.065	2533.52
465.438	2585.27
465.81	2616.46
466.183	2681.54
466.555	2713.4
466.928	2733.74
467.3	2723.8
467.672	2816.9
468.045	2882.66
468.417	2878.14
468.789	2874.98
469.161	2931.25
469.534	2999.72
469.906	3081.3
470.278	3062.55
470.65	3127.18
471.022	3226.84
471.394	3246.27
471.766	3330.56
472.138	3341.64
472.51	3417.34
472.882	3489.65
473.253	3550.9
473.625	3609.2
473.997	3655.07
474.369	3693.72
474.74	3747.95
475.112	3825.69
475.484	3895.75
475.855	3991.79
476.227	3986.59
476.598	4172.8
476.97	4227.94
477.341	4287.15
477.713	4376.86
478.084	4377.99
478.455	4545.22
478.827	4624.54
479.198	4721.71
479.569	4767.59
479.94	4936.85
480.311	4958.09
480.682	5057.3
481.053	5242.83
481.424	5264.97
481.795	5368.25
482.166	5422.26
482.537	5552.88
482.908	5654.57
483.279	5763.27
483.65	5898.63
484.021	5965.75
484.391	6023.37
484.762	6112.41
485.133	6170.04
485.503	6299.07
485.874	6468.78
486.244	6489.8
486.615	6626.29
486.985	6699.51
487.356	6843.92
487.726	6927.3
488.097	7069.67
488.467	7032.16
488.837	7254.53
489.207	7310.12
489.578	7482.77
489.948	7491.81
490.318	7660.39
490.688	7705.14
491.058	7792.59
491.428	7987.39
491.798	7966.37
492.168	8173.6
492.538	8204.33
492.908	8269.64
493.278	8423.31
493.648	8394.84
494.017	8529.75
494.387	8605.68
494.757	8750.53
495.126	8822.17
495.496	8853.81
495.866	8956.18
496.235	9073.69
496.605	9160.69
496.974	9197.98
497.344	9304.64
497.713	9296.06
498.082	9399.56
498.452	9510.74
498.821	9561.36
499.19	9543.51
499.559	9778.08
499.928	9848.36
500.298	9887.68
500.667	9996.15
501.036	9951.41
501.405	10159.99
501.774	10169.48
502.143	10260.32
502.512	10290.61
502.88	10399.3
503.249	10397.04
503.618	10484.27
503.987	10543.48
504.356	10648.11
504.724	10731.05
505.093	10769.46
505.462	10853.08
505.83	10929.68
506.199	10993.64
506.567	11109.34
506.936	11174.42
507.304	11351.37
507.672	11372.16
508.041	11498.93
508.409	11595.43
508.777	11644.24
509.145	11752.49
509.514	11755.43
509.882	11884.24
510.25	11931.24
510.618	12025.02
510.986	12074.51
511.354	12198.8
511.722	12377.33
512.09	12412.81
512.458	12431.11
512.826	12575.52
513.193	12698
513.561	12781.84
513.929	12987.94
514.297	13093.92
514.664	13148.61
515.032	13169.63
515.4	13277.65
515.767	13414.59
516.135	13534.59
516.502	13578.43
516.869	13678.76
517.237	13770.51
517.604	13825.65
517.972	13873.56
518.339	14062.26
518.706	14142.71
519.073	14243.27
519.44	14397.84
519.808	14545.41
520.175	14546.76
520.542	14779.75
520.909	14815.23
521.276	14966.41
521.643	15040.99
522.009	15185.84
522.376	15375.44
522.743	15353.97
523.11	15676.45
523.477	15794.64
523.843	15902.66
524.21	16036.44
524.577	16124.58
524.943	16293.16
525.31	16353.5
525.676	16455.64
526.043	16732.24
526.409	16693.6
526.776	16900.15
527.142	16941.5
527.508	17101.73
527.874	17249.74
528.241	17381.94
528.607	17445.45
528.973	17643.41
529.339	17677.08
529.705	17866.68
530.071	18003.17
530.437	18030.29
530.803	18157.52
531.169	18316.16
531.535	18329.72
531.901	18420.79
532.267	18420.56
532.632	18564.51
532.998	18669.82
533.364	18784.85
533.73	18829.59
534.095	18978.29
534.461	19123.37
534.826	19188.9
535.192	19199.98
535.557	19360.42
535.923	19406.75
536.288	19405.85
536.653	19580.76
537.019	19612.17
537.384	19751.83
537.749	19822.78
538.114	19901.43
538.479	19857.81
538.845	20071.14
539.21	20039.5
539.575	20155.66
539.94	20181.87
540.305	20374.18
540.67	20446.72
541.034	20445.14
541.399	20540.96
541.764	20596.32
542.129	20732.36
542.494	20716.32
542.858	20974.39
543.223	20966.93
543.587	21027.95
543.952	21010.1
544.316	21209.64
544.681	21169.42
545.045	21202.41
545.41	21449.63
545.774	21479.46
546.138	21429.07
546.503	21498.9
546.867	21660.25
547.231	21702.73
547.595	21801.49
547.959	21904.09
548.324	21891.66
548.688	21936.63
549.052	22133.01
549.416	22186.11
549.779	22323.51
550.143	22368.93
550.507	22630.85
550.871	22662.71
551.235	22584.29
551.599	22838.52
551.962	22850.05
552.326	23045.75
552.689	23207.1
553.053	23134.11
553.417	23320.55
553.78	23658.62
554.143	23492.07
554.507	23744.04
554.87	23860.64
555.234	24135.21
555.597	23974.77
555.96	24222.89
556.323	24345.15
556.686	24427.86
557.05	24571.36
557.413	24601.19
557.776	24769.55
558.139	25017.22
558.502	25179.93
558.865	25221.74
559.228	25671.44
559.59	25531.79
559.953	25715.74
560.316	26052.22
560.679	26043.41
561.041	26279.79
561.404	26420.58
561.767	26665.09
562.129	26678.65
562.492	26939.43
562.854	27073.67
563.217	27170.84
563.579	27415.58
563.941	27661.45
564.304	27800.65
564.666	27918.16
565.028	28029.57
565.39	28253.97
565.753	28465.72
566.115	28631.37
566.477	28792.72
566.839	28958.59
567.201	29191.8
567.563	29296.66
567.925	29592.47
568.287	29696.2
568.648	29845.57
569.01	30131.21
569.372	30292.57
569.734	30242.62
570.095	30559.9
570.457	30851.65
570.819	31020.68
571.18	31196.04
571.542	31481.46
571.903	31547
572.265	31688.01
572.626	31964.84
572.987	32045.06
573.349	32239.18
573.71	32436.01
574.071	32588.32
574.432	32771.6
574.794	32996.9
575.155	33223.11
575.516	33212.26
575.877	33317.34
576.238	33674.17
576.599	33838.46
576.96	33859.02
577.32	33852.02
577.681	34263.76
578.042	34267.83
578.403	34325.91
578.763	34535.39
579.124	34707.14
579.485	34892.44
579.845	35004.98
580.206	35132.89
580.566	35082.72
580.927	35252.89
581.287	35413.56
581.648	35393.22
582.008	35490.17
582.368	35740.11
582.728	35776.71
583.089	35668.92
583.449	35826.43
583.809	35857.16
584.169	36074.11
584.529	36066.65
584.889	36329.69
585.249	36154.78
585.609	36118.85
585.969	36369.47
586.329	36368.11
586.688	36566.3
587.048	36597.48
587.408	36409.24
587.768	36358.85
588.127	36537.37
588.487	36564.04
588.846	36788.89
589.206	36612.4
589.565	36777.82
589.925	36936.01
590.284	36749.57
590.643	36846.74
591.003	37062.78
591.362	37141.65
591.721	37054.42
592.08	37104.82
592.44	37061.88
592.799	37165.38
593.158	37201.99
593.517	37217.35
593.876	37223.91
594.235	37278.6
594.593	37267.75
594.952	37360.63
595.311	37168.32
595.67	37399.72
596.029	37635.2
596.387	37515.2
596.746	37653.5
597.104	37553.84
597.463	37520.85
597.822	37727.17
598.18	37564.01
598.538	37567.18
598.897	37737.12
599.255	37593.84
599.613	38047.16
599.972	37801.97
600.33	37973.49
600.688	37652.15
601.046	37901.4
601.404	38063.21
601.762	37952.25
602.12	38143.43
602.478	38259.59
602.836	38265.46
603.194	38028.86
603.552	38184.79
603.91	38092.36
604.268	38182.3
604.625	38061.17
604.983	38182.98
605.341	38159.25
605.698	38379.58
606.056	38312.02
606.413	38368.06
606.771	38637.2
607.128	38574.83
607.485	38493.03
607.843	38471.11
608.2	38688.28
608.557	38661.16
608.914	38711.33
609.272	38930.3
609.629	38754.72
609.986	38957.42
610.343	38787.93
610.7	39072.9
611.057	38986.35
611.414	38838.56
611.771	39017.76
612.127	39138.66
612.484	39082.62
612.841	39325.32
613.198	39054.37
613.554	39247.13
613.911	39427.01
614.267	39322.84
614.624	39313.34
614.98	39397.18
615.337	39526.9
615.693	39564.41
616.05	39481.93
616.406	39674.01
616.762	39385.89
617.118	39551.76
617.475	39606.67
617.831	39760.56
618.187	39645.99
618.543	39857.51
618.899	39881.01
619.255	39866.55
619.611	39859.32
619.967	40060.9
620.323	40116.04
620.678	39936.83
621.034	39884.86
621.39	39797.85
621.746	39720.57
622.101	40388.57
622.457	39997.85
622.812	40037.39
623.168	40070.16
623.523	40155.58
623.879	40318.29
624.234	40081.46
624.589	40161.23
624.945	40156.94
625.3	40159.42
625.655	40165.3
626.01	40147.45
626.365	40089.82
626.72	40104.06
627.075	40119.2
627.43	40064.06
627.785	39928.02
628.14	39982.71
628.495	40045.3
628.85	40179.54
629.205	40035.59
629.559	40029.48
629.914	39829.26
630.269	39927.79
630.623	39786.1
630.978	39754.69
631.332	40014.34
631.687	39888.92
632.041	39760.79
632.396	39907.45
632.75	39635.14
633.104	39630.85
633.459	39462.04
633.813	39520.8
634.167	39700.68
634.521	39647.57
634.875	39634.92
635.229	39496.39
635.583	39387.24
635.937	39360.8
636.291	39355.6
636.645	39354.25
636.999	39277.19
637.352	39205.33
637.706	39056.18
638.06	39159.9
638.413	39100.7
638.767	39162.84
639.121	39176.63
639.474	38867.93
639.828	38889.18
640.181	38870.19
640.534	38917.2
640.888	38780.25
641.241	38599.92
641.594	38672.91
641.947	38743.64
642.301	38631.1
642.654	38777.99
643.007	38665.23
643.36	38566.7
643.713	38486.93
644.066	38689.41
644.419	38460.94
644.771	38319.47
645.124	38137.1
645.477	37973.95
645.83	37723.56
646.182	37502.09
646.535	37339.61
646.888	37373.96
647.24	37245.15
647.593	37364.24
647.945	37355.43
648.298	37111.82
648.65	37060.3
649.002	37092.84
649.355	37212.38
649.707	37171.03
650.059	37392.49
650.411	37787.28
650.763	37902.99
651.115	38180.04
651.467	38069.08
651.819	37999.71
652.171	37960.16
652.523	37860.5
652.875	37939.37
653.227	37682.43
653.578	37956.32
653.93	37933.49
654.282	37793.61
654.633	37616.44
654.985	37712.71
655.337	37698.7
655.688	37716.55
656.039	37913.16
656.391	37625.48
656.742	37678.13
657.094	37616.44
657.445	37663.67
657.796	37544.8
658.147	37646.95
658.498	37592.94
658.849	37606.95
659.2	37600.62
659.551	37631.13
659.902	37527.86
660.253	37592.49
660.604	37582.99
660.955	37391.81
661.306	37636.1
661.656	37486.95
662.007	37441.76
662.358	37496.9
662.708	37582.99
663.059	37375.32
663.409	37224.13
663.76	37493.05
664.11	37458.03
664.461	37578.25
664.811	37479.04
665.161	37399.95
665.511	37450.79
665.862	37488.08
666.212	37622.77
666.562	37493.05
666.912	37453.73
667.262	37366.5
667.612	37417.8
667.962	37397.46
668.312	37427.97
668.662	37537.57
669.011	37418.93
669.361	37262.55
669.711	37317.24
670.06	37251.03
670.41	37102.56
670.76	37125.38
671.109	37366.05
671.459	37040.86
671.808	37012.84
672.157	37175.32
672.507	36974.88
672.856	36877.93
673.205	36936.01
673.554	37081.99
673.904	36995.21
674.253	37121.09
674.602	36931.03
674.951	36361.56
675.3	36346.42
675.649	36891.94
675.998	36847.87
676.346	36884.48
676.695	36874.76
677.044	36602
677.393	36748.67
677.741	36746.41
678.09	36649.46
678.438	36528.11
678.787	36620.31
679.135	36514.1
679.484	36344.84
679.832	36541.44
680.181	36283.82
680.529	36432.74
680.877	36334.21
681.225	36292.41
681.573	36440.43
681.922	36119.08
682.27	35967.44
682.618	36026.65
682.966	35830.5
683.314	36034.56
683.661	35938.97
684.009	35713.67
684.357	35868.01
684.705	35712.54
685.053	35687
685.4	35785.75
685.748	35478.42
686.095	35426.44
686.443	35336.95
686.79	35186.22
687.138	35175.37
687.485	35128.82
687.832	35099.44
688.18	34986.9
688.527	34716.63
688.874	34866
689.221	34741.26
689.568	34668.5
689.915	34537.43
690.262	34581.49
690.609	34468.05
690.956	34263.76
691.303	34233.25
691.65	34217.21
691.997	34165.68
692.344	33966.59
692.69	33940.38
693.037	33834.62
693.383	33644.79
693.73	33774.73
694.077	33470.33
694.423	33508.53
694.769	33275.31
695.116	33268.53
695.462	33296.33
695.808	33147.18
696.155	33177.01
696.501	32955.32
696.847	32784.48
697.193	32567.99
697.539	32807.75
697.885	32431.04
698.231	32321.66
698.577	32217.26
698.923	32233.08
699.269	32127.09
699.614	31895.23
699.96	31895.69
700.306	31853.43
700.651	31584.06
700.997	31622.25
701.342	31481.01
701.688	31376.38
702.033	31388.36
702.379	31259.77
702.724	31209.83
703.069	31329.15
703.415	30911.98
703.76	30919.67
704.105	30811.65
704.45	30799.9
704.795	30640.35
705.14	30525.55
705.485	30495.5
705.83	30327.37
706.175	30303.19
706.52	30227.93
706.865	30069.97
707.209	30096.64
707.554	29947.49
707.899	29986.81
708.243	29840.37
708.588	29893.93
708.932	29592.47
709.277	29594.5
709.621	29722.86
709.966	29474.73
710.31	29479.25
710.654	29223.67
710.998	29274.06
711.342	29335.75
711.687	29090.79
712.031	28989.1
712.375	28998.59
712.719	28937.57
713.063	28931.47
713.407	28980.28
713.75	28789.33
714.094	28730.12
714.438	28717.69
714.782	28710.69
715.125	28550.01
715.469	28699.39
715.812	28455.78
716.156	28365.16
716.499	28299.62
716.843	28364.03
717.186	28227.31
717.53	28347.53
717.873	28227.99
718.216	28320.87
718.559	28103.24
718.902	27942.12
719.246	28033.64
719.589	27943.93
719.932	27891.27
720.275	27919.29
720.617	27901.89
720.96	27896.02
721.303	27744.38
721.646	27754.55
721.989	27659.41
722.331	27732.18
722.674	27651.5
723.016	27806.98
723.359	27610.15
723.701	27677.49
724.044	27432.3
724.386	27408.12
724.729	27450.15
725.071	27430.72
725.413	27369.25
725.755	27502.58
726.097	27264.62
726.439	27171.52
726.782	27279.54
727.124	27274.57
727.465	27102.82
727.807	27062.82
728.149	27162.25
728.491	27002.93
728.833	27089.94
729.175	26981.47
729.516	26952.77
729.858	26968.81
730.199	27042.48
730.541	26979.88
730.882	26917.29
731.224	26906.67
731.565	26845.88
731.906	26923.16
732.248	26844.52
732.589	26851.53
732.93	26855.82
733.271	26772.21
733.612	26816.27
733.953	26890.85
734.294	26671.19
734.635	26633.9
734.976	26769.49
735.317	26642.72
735.658	26665.77
735.999	26656.95
736.339	26633
736.68	26622.15
737.021	26523.17
737.361	26534.02
737.702	26628.48
738.042	26587.8
738.383	26603.17
738.723	26593.91
739.063	26586.67
739.404	26558.43
739.744	26472.78
740.084	26489.5
740.424	26495.6
740.764	26424.64
741.104	26488.82
741.444	26460.12
741.784	26374.25
742.124	26479.11
742.464	26430.29
742.804	26372.67
743.143	26259.45
743.483	26280.02
743.823	26198.44
744.162	26323.63
744.502	26297.19
744.841	26191.88
745.181	26236.17
745.52	26247.93
745.86	26222.62
746.199	26191.2
746.538	26125.67
746.877	26210.86
747.216	26192.33
747.556	26119.57
747.895	26234.37
748.234	26135.16
748.573	25990.08
748.911	25946.24
749.25	26058.78
749.589	25957.09
749.928	26055.84
750.267	25966.58
750.605	25814.94
750.944	25959.8
751.283	25840.48
751.621	25897.2
751.96	25726.36
752.298	25865.79
752.636	25793.02
752.975	25708.28
753.313	25562.29
753.651	25631.67
753.989	25484.33
754.327	25463.31
754.666	25447.72
755.004	25532.69
