Data from tablewood_brown_FLMS001491_091.txt Node
Date: Tue Feb 07 11:11:17 GMT 2017
User: dcchb
Spectrometer: FLMS00149
Trigger mode: 0
Integration Time (sec): 2.000000E-2
Scans to average: 10
Electric dark correction enabled: true
Nonlinearity correction enabled: false
Boxcar width: 0
XAxis mode: Wavelengths
Number of Pixels in Spectrum: 2048
>>>>>Begin Spectral Data<<<<<
341.393	-18.9
341.776	-18.9
342.16	-18.9
342.543	-67.71
342.927	-68.16
343.31	-53.93
343.693	-81.5
344.077	-93.92
344.46	-44.66
344.843	-58.22
345.226	-32.23
345.61	-21.84
345.993	-13.47
346.376	3.25
346.759	13.64
347.142	13.64
347.525	37.37
347.908	72.17
348.291	60.2
348.674	86.41
349.057	113.08
349.44	118.5
349.823	133.87
350.206	177.93
350.588	207.08
350.971	209.12
351.354	240.98
351.737	259.51
352.119	236.46
352.502	248.44
352.884	270.36
353.267	298.83
353.65	292.51
354.032	310.59
354.414	298.16
354.797	323.24
355.179	315.56
355.562	310.81
355.944	339.96
356.326	326.86
356.709	345.61
357.091	350.81
357.473	357.59
357.855	331.15
358.238	341.54
358.62	327.76
359.002	334.31
359.384	367.98
359.766	338.61
360.148	334.31
360.53	343.58
360.912	358.95
361.294	343.8
361.676	340.19
362.057	334.09
362.439	300.87
362.821	330.02
363.203	333.86
363.584	307.65
363.966	363.24
364.348	323.92
364.729	327.99
365.111	328.89
365.493	323.01
365.874	319.4
366.256	319.85
366.637	339.51
367.019	326.18
367.4	349.23
367.781	325.95
368.163	317.59
368.544	331.15
368.925	322.56
369.306	346.97
369.688	342.9
370.069	329.12
370.45	327.53
370.831	336.57
371.212	327.76
371.593	339.96
371.974	319.85
372.355	316.91
372.736	345.61
373.117	335.67
373.498	327.08
373.879	348.78
374.26	331.15
374.641	332.96
375.021	343.13
375.402	338.38
375.783	336.12
376.163	345.61
376.544	338.38
376.925	347.42
377.305	323.69
377.686	337.48
378.066	350.13
378.447	342.22
378.827	365.05
379.208	370.47
379.588	353.75
379.968	361.66
380.349	364.14
380.729	354.65
381.109	356.23
381.489	382.22
381.87	358.49
382.25	355.1
382.63	356.46
383.01	373.63
383.39	393.29
383.77	374.09
384.15	382.67
384.53	376.57
384.91	381.77
385.29	380.41
385.67	396.46
386.049	382.22
386.429	384.48
386.809	384.93
387.189	385.84
387.568	395.33
387.948	424.03
388.328	390.13
388.707	427.87
389.087	407.98
389.466	404.37
389.846	399.85
390.225	426.29
390.605	427.19
390.984	422.45
391.363	428.1
391.743	427.64
392.122	429.23
392.501	432.39
392.881	450.02
393.26	459.96
393.639	436.01
394.018	451.82
394.397	431.03
394.776	459.51
395.155	433.97
395.534	457.25
395.913	481.65
396.292	470.58
396.671	480.52
397.05	480.75
397.429	497.7
397.808	468.32
398.186	485.72
398.565	480.07
398.944	481.43
399.323	492.05
399.701	490.24
400.08	489.79
400.458	498.83
400.837	511.26
401.215	501.31
401.594	499.28
401.972	525.49
402.351	513.29
402.729	541.77
403.107	510.13
403.486	531.6
403.864	555.32
404.242	543.12
404.62	550.8
404.999	541.99
405.377	534.53
405.755	565.27
406.133	562.1
406.511	548.09
406.889	549
407.267	571.14
407.645	571.6
408.023	583.57
408.401	616.11
408.779	591.03
409.156	629.22
409.534	598.94
409.912	618.6
410.29	617.02
410.667	631.03
411.045	637.58
411.422	614.98
411.8	642.33
412.178	656.11
412.555	669.67
412.933	655.43
413.31	659.95
413.687	659.73
414.065	691.82
414.442	695.66
414.819	716.22
415.197	692.27
415.574	705.38
415.951	665.6
416.328	726.39
416.705	722.33
417.082	739.27
417.46	748.31
417.837	752.83
418.214	737.01
418.591	741.53
418.967	765.04
419.344	748.31
419.721	777.92
420.098	771.82
420.475	770.46
420.852	782.21
421.228	796.67
421.605	801.42
421.982	791.7
422.358	792.83
422.735	810.68
423.111	831.02
423.488	819.72
423.864	833.06
424.241	835.09
424.617	833.51
424.994	847.52
425.37	864.02
425.746	840.29
426.123	863.79
426.499	857.24
426.875	883.45
427.251	894.75
427.627	892.04
428.003	906.73
428.379	939.04
428.756	905.6
429.132	934.3
429.507	939.04
429.883	954.64
430.259	960.74
430.635	990.34
431.011	989.44
431.387	1005.03
431.763	1024.69
432.138	1017.46
432.514	1030.79
432.89	1046.84
433.265	1054.29
433.641	1053.84
434.016	1070.57
434.392	1106.27
434.767	1119.83
435.143	1090.23
435.518	1095.65
435.894	1136.1
436.269	1124.12
436.644	1138.36
437.02	1181.75
437.395	1190.34
437.77	1164.57
438.145	1192.37
438.52	1195.08
438.895	1212.71
439.271	1228.3
439.646	1246.83
440.021	1270.33
440.395	1260.84
440.77	1271.69
441.145	1259.49
441.52	1278.24
441.895	1303.33
442.27	1316.21
442.645	1276.21
443.019	1316.89
443.394	1317.11
443.769	1341.52
444.143	1340.39
444.518	1363.44
444.892	1377.22
445.267	1367.51
445.641	1402.08
446.016	1383.78
446.39	1406.15
446.764	1428.3
447.139	1412.93
447.513	1436.88
447.887	1425.58
448.262	1426.94
448.636	1447.96
449.01	1476.43
449.384	1465.13
449.758	1472.59
450.132	1489.99
450.506	1506.03
450.88	1529.08
451.254	1528.41
451.628	1569.99
452.002	1551.23
452.376	1558.24
452.75	1574.73
453.123	1607.5
453.497	1626.48
453.871	1622.64
454.244	1656.09
454.618	1637.1
454.992	1695.63
455.365	1681.85
455.739	1751.23
456.112	1749.87
456.486	1774.28
456.859	1785.35
457.232	1802.52
457.606	1785.35
457.979	1832.8
458.352	1841.17
458.725	1857.21
459.099	1886.36
459.472	1909.87
459.845	1935.4
460.218	1946.02
460.591	1989.86
460.964	1957.1
461.337	2025.79
461.71	2051.33
462.083	2094.27
462.456	2069.63
462.829	2094.94
463.201	2159.12
463.574	2144.89
463.947	2181.72
464.32	2242.06
464.692	2229.18
465.065	2254.94
465.438	2295.62
465.81	2357.08
466.183	2382.62
466.555	2423.07
466.928	2454.94
467.3	2407.71
467.672	2463.07
468.045	2537.65
468.417	2543.07
468.789	2579.23
469.161	2595.5
469.534	2623.74
469.906	2707.58
470.278	2691.99
470.65	2767.7
471.022	2812.21
471.394	2890.86
471.766	2897.18
472.138	2968.37
472.51	3021.02
472.882	3080.68
473.253	3137.86
473.625	3166.1
473.997	3257.63
474.369	3242.49
474.74	3310.96
475.112	3372.65
475.484	3420.56
475.855	3535.36
476.227	3566.32
476.598	3647.45
476.97	3693.77
477.341	3799.08
477.713	3821.91
478.084	3881.79
478.455	4022.13
478.827	4033.88
479.198	4156.36
479.569	4169.69
479.94	4290.59
480.311	4388.67
480.682	4475.22
481.053	4587.76
481.424	4682.67
481.795	4703.46
482.166	4794.53
482.537	4832.05
482.908	4940.97
483.279	5051.7
483.65	5137.35
484.021	5219.38
484.391	5311.58
484.762	5333.96
485.133	5448.08
485.503	5534.63
485.874	5609.65
486.244	5646.26
486.615	5791.57
486.985	5925.58
487.356	6039.7
487.726	6027.95
488.097	6210.32
488.467	6219.81
488.837	6382.06
489.207	6409.41
489.578	6529.18
489.948	6581.38
490.318	6704.54
490.688	6672.45
491.058	6811.66
491.428	6890.98
491.798	7029.5
492.168	7114.25
492.538	7158.99
492.908	7287.8
493.278	7392.21
493.648	7389.72
494.017	7505.65
494.387	7597.63
494.757	7654.12
495.126	7724.4
495.496	7804.17
495.866	7895.7
496.235	7960.33
496.605	7946.54
496.974	8064.05
497.344	8212.3
497.713	8224.5
498.082	8245.07
498.452	8374.33
498.821	8399.64
499.19	8426.53
499.559	8565.74
499.928	8570.93
500.298	8636.69
500.667	8705.17
501.036	8739.29
501.405	8915.78
501.774	8907.87
502.143	8915.33
502.512	8988.77
502.88	9116.91
503.249	9131.37
503.618	9194.19
503.987	9196.68
504.356	9321.2
504.724	9380.86
505.093	9417.24
505.462	9485.49
505.83	9552.6
506.199	9640.06
506.567	9764.8
506.936	9739.94
507.304	9870.11
507.672	9944.23
508.041	9969.77
508.409	10154.17
508.777	10108.29
509.145	10272.81
509.514	10269.65
509.882	10409.3
510.25	10435.52
510.618	10576.08
510.986	10593.25
511.354	10736.75
511.722	10781.27
512.09	10907.37
512.458	10807.71
512.826	10980.36
513.193	11044.09
513.561	11053.35
513.929	11207.25
514.297	11425.1
514.664	11411.54
515.032	11547.35
515.4	11685.43
515.767	11762.26
516.135	11764.75
516.502	11717.29
516.869	11985.98
517.237	12033.67
517.604	12116.38
517.972	12242.25
518.339	12263.49
518.706	12384.17
519.073	12451.51
519.44	12599.08
519.808	12800.43
520.175	12711.84
520.542	12905.73
520.909	13010.36
521.276	13018.5
521.643	13223.24
522.009	13327.42
522.376	13393.4
522.743	13472.72
523.11	13690.12
523.477	13783
523.843	13806.5
524.21	13956.55
524.577	14125.36
524.943	14123.33
525.31	14338.01
525.676	14416.2
526.043	14616.88
526.409	14609.87
526.776	14791.56
527.142	14812.12
527.508	14956.98
527.874	15136.18
528.241	15198.56
528.607	15199.23
528.973	15276.97
529.339	15369.17
529.705	15550.86
530.071	15677.86
530.437	15766
530.803	15861.59
531.169	16034.01
531.535	15928.48
531.901	16155.59
532.267	16128.93
532.632	16222.48
532.998	16309.03
533.364	16452.31
533.73	16478.3
534.095	16617.27
534.461	16668.12
534.826	16727.78
535.192	16852.3
535.557	16967.1
535.923	17046.87
536.288	17152.4
536.653	17267.2
537.019	17129.13
537.384	17205.06
537.749	17317.37
538.114	17340.42
538.479	17372.51
538.845	17537.7
539.21	17616.57
539.575	17603.24
539.94	17713.97
540.305	17835.77
540.67	17765.49
541.034	17888.43
541.399	17904.7
541.764	18031.02
542.129	18104.69
542.494	18221.07
542.858	18291.81
543.223	18287.74
543.587	18346.72
543.952	18438.7
544.316	18522.76
544.681	18384.46
545.045	18695.41
545.41	18662.19
545.774	18804.79
546.138	18820.83
546.503	18811.79
546.867	18840.72
547.231	19077.32
547.595	19162.52
547.959	19101.73
548.324	19190.31
548.688	19359.8
549.052	19377.88
549.416	19415.62
549.779	19478.89
550.143	19498.33
550.507	19750.75
550.871	19807.25
551.235	19884.08
551.599	20099.22
551.962	20069.84
552.326	20195.49
552.689	20349.83
553.053	20357.29
553.417	20480.9
553.78	20709.82
554.143	20603.38
554.507	20740.56
554.87	20959.99
555.234	21166.99
555.597	21100.77
555.96	21356.81
556.323	21254.89
556.686	21352.29
557.05	21602.45
557.413	21754.09
557.776	21826.4
558.139	21977.36
558.502	22058.71
558.865	22142.78
559.228	22402.66
559.59	22562.88
559.953	22679.94
560.316	22847.62
560.679	22974.85
561.041	23171.23
561.404	23310.66
561.767	23562.4
562.129	23509.98
562.492	23782.06
562.854	23834.03
563.217	23900.25
563.579	24074.71
563.941	24301.14
564.304	24520.57
564.666	24704.97
565.028	24829.71
565.39	24877.62
565.753	25199.2
566.115	25352.64
566.477	25405.74
566.839	25586.08
567.201	25965.73
567.563	25986.29
567.925	26205.05
568.287	26333.86
568.648	26466.73
569.01	26621.08
569.372	26896.1
569.734	26880.51
570.095	27241.4
570.457	27308.97
570.819	27566.14
571.18	27560.94
571.542	28037.77
571.903	27990.76
572.265	28157.99
572.626	28377.19
572.987	28587.36
573.349	28685.21
573.71	28902.38
574.071	29008.36
574.432	29187.57
574.794	29375.36
575.155	29471.85
575.516	29461.91
575.877	29741.68
576.238	29949.13
576.599	30119.29
576.96	30198.61
577.32	30288.78
577.681	30442.67
578.042	30631.6
578.403	30746.85
578.763	30946.39
579.124	31095.54
579.485	31119.27
579.845	31318.58
580.206	31350.45
580.566	31370.79
580.927	31415.08
581.287	31639.48
581.648	31692.13
582.008	31937.78
582.368	31788.63
582.728	32072.91
583.089	32048.06
583.449	32085.34
583.809	32305.68
584.169	32451.43
584.529	32315.62
584.889	32676.51
585.249	32468.84
585.609	32400.59
585.969	32582.96
586.329	32704.76
586.688	32797.41
587.048	32603.07
587.408	32766
587.768	32904.08
588.127	32851.42
588.487	32769.39
588.846	33047.8
589.206	32932.1
589.565	33045.77
589.925	33104.3
590.284	33027.24
590.643	33161.7
591.003	33370.28
591.362	33382.71
591.721	33352.65
592.08	33387.23
592.44	33409.83
592.799	33403.05
593.158	33421.58
593.517	33526.66
593.876	33653.66
594.235	33490.96
594.593	33589.03
594.952	33620.9
595.311	33703.15
595.67	33616.6
596.029	33876.26
596.387	33836.48
596.746	33900.89
597.104	33825.18
597.463	33847.33
597.822	34059.98
598.18	33876.71
598.538	33823.83
598.897	33932.75
599.255	33659.31
599.613	34163.25
599.972	34146.98
600.33	34125.06
600.688	34044.84
601.046	34161.67
601.404	34328.22
601.762	34299.75
602.12	34299.75
602.478	34342.46
602.836	34310.14
603.194	34106.76
603.552	34271.05
603.91	34063.14
604.268	34428.33
604.625	34309.92
604.983	34397.6
605.341	34412.51
605.698	34461.78
606.056	34615.45
606.413	34505.62
606.771	34574.54
607.128	34665.61
607.485	34638.95
607.843	34554.88
608.2	34759.85
608.557	34919.17
608.914	34722.79
609.272	34804.59
609.629	35104.92
609.986	35025.6
610.343	34956
610.7	35287.52
611.057	35057.02
611.414	34969.33
611.771	35053.17
612.127	35215.43
612.484	35185.37
612.841	35335.43
613.198	35210.68
613.554	35225.6
613.911	35431.7
614.267	35407.74
614.624	35430.57
614.98	35527.06
615.337	35707.85
615.693	35626.72
616.05	35534.07
616.406	35760.73
616.762	35719.37
617.118	35810.44
617.475	35818.58
617.831	35798.69
618.187	35739.03
618.543	35743.1
618.899	36090.44
619.255	35996.43
619.611	35843.66
619.967	36024.45
620.323	36006.6
620.678	35892.02
621.034	35920.95
621.39	35962.3
621.746	35861.06
622.101	36333.37
622.457	35990.55
622.812	36067.16
623.168	36127.27
623.523	36190.55
623.879	36287.49
624.234	35978.57
624.589	36115.52
624.945	36146.03
625.3	36140.38
625.655	36231.9
626.01	36215.4
626.365	36119.59
626.72	36126.14
627.075	36128.4
627.43	36111.68
627.785	36018.35
628.14	36058.35
628.495	36115.97
628.85	35979.03
629.205	36050.89
629.559	36202.52
629.914	35931.34
630.269	36067.84
630.623	35864.23
630.978	35762.53
631.332	36036.2
631.687	35968.86
632.041	35764.34
632.396	35979.93
632.75	35639.15
633.104	35709.65
633.459	35694.97
633.813	35615.87
634.167	35706.94
634.521	35631.92
634.875	35828.3
635.229	35465.82
635.583	35377.23
635.937	35497.23
636.291	35354.64
636.645	35451.13
636.999	35420.17
637.352	35388.98
637.706	35214.53
638.06	35322.55
638.413	35268.31
638.767	35039.62
639.121	35208.88
639.474	35000.75
639.828	35095.43
640.181	35095.21
640.534	35218.14
640.888	35107.64
641.241	34962.78
641.594	34951.03
641.947	35116.22
642.301	34943.35
642.654	34944.02
643.007	34926.17
643.36	34923.46
643.713	34760.3
644.066	34818.83
644.419	34697.48
644.771	34469.69
645.124	34172.07
645.477	34143.82
645.83	33956.93
646.182	33742.25
646.535	33607.56
646.888	33779.08
647.24	33645.98
647.593	33761
647.945	33769.14
648.298	33469.26
648.65	33486.89
649.002	33417.74
649.355	33462.03
649.707	33459.77
650.059	33638.75
650.411	34024.95
650.763	34099.08
651.115	34513.75
651.467	34352.63
651.819	34228.34
652.171	34163.03
652.523	34030.6
652.875	34084.84
653.227	34040.09
653.578	34348.56
653.93	34154.44
654.282	34009.59
654.633	34063.82
654.985	34073.54
655.337	34047.1
655.688	34076.25
656.039	34120.54
656.391	33826.54
656.742	33943.6
657.094	33964.16
657.445	34027.89
657.796	33942.02
658.147	33852.75
658.498	33910.15
658.849	34031.96
659.2	33874.67
659.551	33799.65
659.902	34059.98
660.253	33795.81
660.604	33939.53
660.955	33917.61
661.306	33907.44
661.656	33854.34
662.007	33840.1
662.358	33809.14
662.708	33784.73
663.059	33826.77
663.409	33566.66
663.76	33934.79
664.11	33926.2
664.461	33800.78
664.811	33806.88
665.161	33765.52
665.511	33677.39
665.862	33658.86
666.212	33900.21
666.562	33780.21
666.912	33638.52
667.262	33661.12
667.612	33787.44
667.962	33808.91
668.312	33775.92
668.662	33913.54
669.011	33880.1
669.361	33775.02
669.711	33715.36
670.06	33582.48
670.41	33483.27
670.76	33479.43
671.109	33777.73
671.459	33589.48
671.808	33429.49
672.157	33619.77
672.507	33352.2
672.856	33374.57
673.205	33494.12
673.554	33550.39
673.904	33420.45
674.253	33571.63
674.602	33495.48
674.951	32937.3
675.3	32776.85
675.649	33245.54
675.998	33236.5
676.346	33253.22
676.695	33281.02
677.044	33064.3
677.393	33219.1
677.741	33136.84
678.09	33154.02
678.438	32975.26
678.787	33088.71
679.135	33071.08
679.484	32866.57
679.832	32949.73
680.181	32739.79
680.529	32882.38
680.877	32812.1
681.225	32735.95
681.573	32829.96
681.922	32677.64
682.27	32481.04
682.618	32573.47
682.966	32518.55
683.314	32544.09
683.661	32333.92
684.009	32248.5
684.357	32222.06
684.705	32141.84
685.053	32141.16
685.4	32088.51
685.748	31930.54
686.095	32032.69
686.443	31681.06
686.79	31750.66
687.138	31794.95
687.485	31674.73
687.832	31519.93
688.18	31585.02
688.527	31512.48
688.874	31328.07
689.221	31302.99
689.568	31242.65
689.915	31126.27
690.262	31197.91
690.609	31155.65
690.956	31058.25
691.303	30950.46
691.65	30780.74
691.997	30759.05
692.344	30619.17
692.69	30545.27
693.037	30546.17
693.383	30232.96
693.73	30356.57
694.077	30089.69
694.423	30044.27
694.769	29933.53
695.116	30004.95
695.462	29868.23
695.808	29804.05
696.155	29864.84
696.501	29637.27
696.847	29638.85
697.193	29370.39
697.539	29406.32
697.885	29213.33
698.231	29080.45
698.577	29148.24
698.923	29127
699.269	28918.65
699.614	28785.54
699.96	28732.21
700.306	28756.62
700.651	28500.35
700.997	28410.19
701.342	28356.85
701.688	28405.89
702.033	28223.98
702.379	28212.9
702.724	28123.19
703.069	28005.68
703.415	27674.39
703.76	27793.03
704.105	27707.6
704.45	27716.87
704.795	27510.1
705.14	27468.97
705.485	27284.34
705.83	27312.81
706.175	27357.33
706.52	27254.74
706.865	27135.42
707.209	27036.66
707.554	27028.53
707.899	27030.79
708.243	26898.13
708.588	26806.16
708.932	26597.35
709.277	26611.14
709.621	26627.86
709.966	26364.14
710.31	26605.49
710.654	26287.53
710.998	26307.64
711.342	26328.43
711.687	26101.09
712.031	26108.1
712.375	25905.62
712.719	25969.8
713.063	25950.81
713.407	25909.01
713.75	25930.48
714.094	25766.64
714.438	25766.64
714.782	25762.12
715.125	25616.59
715.469	25693.42
715.812	25574.1
716.156	25577.94
716.499	25413.43
716.843	25457.72
717.186	25409.13
717.53	25398.06
717.873	25514.89
718.216	25424.28
718.559	25189.7
718.902	25080.78
719.246	25197.16
719.589	25220.66
719.932	24912.88
720.275	24997.85
720.617	24936.15
720.96	24969.82
721.303	24937.96
721.646	25031.74
721.989	24730.96
722.331	24826.1
722.674	24936.15
723.016	24877.85
723.359	24760.34
723.701	24895.25
724.044	24707.23
724.386	24653.9
724.729	24765.08
725.071	24555.15
725.413	24631.75
725.755	24657.97
726.097	24490.06
726.439	24428.82
726.782	24397.18
727.124	24572.09
727.465	24406.22
727.807	24485.54
728.149	24279.67
728.491	24356.28
728.833	24339.78
729.175	24291.88
729.516	24339.33
729.858	24347.02
730.199	24342.5
730.541	24251.88
730.882	24164.87
731.224	24332.55
731.565	24105.67
731.906	24251.2
732.248	24304.76
732.589	24033.8
732.93	24091.88
733.271	24056.18
733.612	24070.64
733.953	24185.44
734.294	24020.47
734.635	23972.79
734.976	24139.79
735.317	24022.96
735.658	24012.79
735.999	24023.41
736.339	24027.48
736.68	23986.57
737.021	23981.83
737.361	23775.5
737.702	24115.83
738.042	23963.3
738.383	23889.85
738.723	23972.11
739.063	23896.86
739.404	23912.45
739.744	24012.56
740.084	23794.49
740.424	23848.95
740.764	23751.1
741.104	23939.79
741.444	23799.01
741.784	23790.42
742.124	23876.07
742.464	23756.52
742.804	23836.29
743.143	23776.63
743.483	23878.33
743.823	23740.7
744.162	23755.62
744.502	23790.42
744.841	23687.15
745.181	23797.65
745.52	23672
745.86	23626.36
746.199	23744.77
746.538	23776.86
746.877	23704.09
747.216	23679.46
747.556	23665.45
747.895	23755.39
748.234	23545.68
748.573	23467.49
748.911	23619.8
749.25	23621.38
749.589	23485.34
749.928	23544.1
750.267	23527.6
750.605	23528.73
750.944	23513.14
751.283	23438.11
751.621	23457.1
751.96	23388.4
752.298	23369.41
752.636	23253.03
752.975	23287.38
753.313	23263.65
753.651	23371.45
753.989	23238.12
754.327	23245.8
754.666	23105.92
755.004	23166.03
755.342	23166.03
755.679	23131.45
