Data from tablewood_brown_FLMS001491_071.txt Node
Date: Tue Feb 07 11:10:59 GMT 2017
User: dcchb
Spectrometer: FLMS00149
Trigger mode: 0
Integration Time (sec): 2.000000E-2
Scans to average: 10
Electric dark correction enabled: true
Nonlinearity correction enabled: false
Boxcar width: 0
XAxis mode: Wavelengths
Number of Pixels in Spectrum: 2048
>>>>>Begin Spectral Data<<<<<
341.393	-7.85
341.776	-7.85
342.16	-7.85
342.543	-26.84
342.927	-53.28
343.31	-66.38
343.693	-57.57
344.077	-77.68
344.46	-65.25
344.843	-62.54
345.226	-50.11
345.61	-34.07
345.993	-26.38
346.376	-4.46
346.759	-8.53
347.142	39.83
347.525	38.7
347.908	69.89
348.291	77.34
348.674	112.6
349.057	114.63
349.44	129.32
349.823	160.5
350.206	173.84
350.588	191.69
350.971	197.34
351.354	251.58
351.737	231.91
352.119	250.67
352.502	288.64
352.884	289.77
353.267	288.64
353.65	322.99
354.032	293.61
354.414	315.75
354.797	309.43
355.179	319.6
355.562	317.79
355.944	342.65
356.326	341.74
356.709	344.23
357.091	356.21
357.473	354.62
357.855	334.28
358.238	342.87
358.62	348.3
359.002	374.06
359.384	336.32
359.766	360.5
360.148	327.96
360.53	346.04
360.912	346.49
361.294	344.68
361.676	360.5
362.057	336.09
362.439	347.62
362.821	316.66
363.203	330.22
363.584	340.84
363.966	326.38
364.348	330.9
364.729	324.34
365.111	320.5
365.493	343.32
365.874	351.69
366.256	348.75
366.637	320.95
367.019	342.87
367.4	334.74
367.781	325.47
368.163	320.73
368.544	322.99
368.925	325.02
369.306	347.39
369.688	346.04
370.069	347.39
370.45	321.63
370.831	330.9
371.212	321.63
371.593	327.51
371.974	326.6
372.355	305.13
372.736	325.02
373.117	341.74
373.498	310.78
373.879	325.47
374.26	340.39
374.641	340.84
375.021	338.58
375.402	333.61
375.783	351.46
376.163	350.56
376.544	343.78
376.925	356.43
377.305	331.12
377.686	353.27
378.066	339.26
378.447	348.07
378.827	355.08
379.208	363.44
379.588	353.27
379.968	337.45
380.349	346.26
380.729	355.3
381.109	369.76
381.489	379.26
381.87	362.53
382.25	363.66
382.63	360.95
383.01	361.63
383.39	374.51
383.77	351.91
384.15	367.96
384.53	376.09
384.91	373.83
385.29	388.52
385.67	368.63
386.049	382.19
386.429	378.58
386.809	378.8
387.189	389.88
387.568	392.36
387.948	396.43
388.328	409.76
388.707	388.52
389.087	398.69
389.466	393.27
389.846	402.08
390.225	408.86
390.605	400.5
390.984	420.38
391.363	421.06
391.743	426.49
392.122	406.15
392.501	435.07
392.881	460.16
393.26	441.17
393.639	440.27
394.018	455.19
394.397	441.17
394.776	464
395.155	448.86
395.534	446.82
395.913	469.65
396.292	454.06
396.671	468.52
397.05	466.94
397.429	459.48
397.808	466.48
398.186	461.29
398.565	473.72
398.944	468.07
399.323	485.47
399.701	459.93
400.08	484.11
400.458	494.05
400.837	509.2
401.215	482.76
401.594	514.39
401.972	499.93
402.351	500.61
402.729	504.68
403.107	518.46
403.486	504.68
403.864	509.42
404.242	518.01
404.62	518.46
404.999	504.22
405.377	538.57
405.755	525.47
406.133	541.96
406.511	543.77
406.889	541.06
407.267	563.21
407.645	562.3
408.023	564.56
408.401	571.79
408.779	581.06
409.156	571.11
409.534	563.43
409.912	589.65
410.29	608.4
410.667	593.49
411.045	601.62
411.422	630.32
411.8	604.56
412.178	619.25
412.555	641.62
412.933	650.43
413.31	629.19
413.687	659.02
414.065	653.15
414.442	664.45
414.819	675.29
415.197	680.72
415.574	665.58
415.951	652.47
416.328	676.42
416.705	689.53
417.082	696.08
417.46	703.31
417.837	701.51
418.214	701.73
418.591	688.4
418.967	731.34
419.344	729.08
419.721	752.58
420.098	727.72
420.475	736.99
420.852	726.59
421.228	744.44
421.605	754.61
421.982	769.3
422.358	761.39
422.735	772.69
423.111	782.18
423.488	769.08
423.864	786.48
424.241	803.65
424.617	795.52
424.994	789.87
425.37	825.35
425.746	819.47
426.123	844.78
426.499	813.14
426.875	833.71
427.251	845.01
427.627	852.92
428.003	876.19
428.379	888.85
428.756	875.51
429.132	897.66
429.507	907.38
429.883	904.67
430.259	938.79
430.635	924.78
431.011	949.86
431.387	962.29
431.763	958.9
432.138	974.49
432.514	963.65
432.89	981.73
433.265	996.64
433.641	989.18
434.016	1024.89
434.392	1048.16
434.767	1043.42
435.143	1036.41
435.518	1052.68
435.894	1056.98
436.269	1070.54
436.644	1098.11
437.02	1120.25
437.395	1108.28
437.77	1107.15
438.145	1139.01
438.52	1141.95
438.895	1183.75
439.271	1159.57
439.646	1193.02
440.021	1199.12
440.395	1193.7
440.77	1175.39
441.145	1194.15
441.52	1212.91
441.895	1227.59
442.27	1214.94
442.645	1277.99
443.019	1280.7
443.394	1258.78
443.769	1245.45
444.143	1254.94
444.518	1278.21
444.892	1277.31
445.267	1279.34
445.641	1313.47
446.016	1317.31
446.39	1322.96
446.764	1344.2
447.139	1341.94
447.513	1365.9
447.887	1349.85
448.262	1379.68
448.636	1374.48
449.01	1365.67
449.384	1428.04
449.758	1387.14
450.132	1425.1
450.506	1437.53
450.88	1447.93
451.254	1421.04
451.628	1459.68
452.002	1440.24
452.376	1480.47
452.75	1466.46
453.123	1507.36
453.497	1506.68
453.871	1537.87
454.244	1570.64
454.618	1560.24
454.992	1595.27
455.365	1560.69
455.739	1636.85
456.112	1648.83
456.486	1644.76
456.859	1622.84
457.232	1669.39
457.606	1724.53
457.979	1723.18
458.352	1739.67
458.725	1749.84
459.099	1769.05
459.472	1801.37
459.845	1838.88
460.218	1844.3
460.591	1866.22
460.964	1861.48
461.337	1875.71
461.71	1919.33
462.083	1953.23
462.456	1971.76
462.829	1996.39
463.201	1994.35
463.574	2011.53
463.947	2058.76
464.32	2125.2
464.692	2108.7
465.065	2120.9
465.438	2193.9
465.81	2184.41
466.183	2211.3
466.555	2254.01
466.928	2260.56
467.3	2268.02
467.672	2342.14
468.045	2406.55
468.417	2378.75
468.789	2419.43
469.161	2469.37
469.534	2517.5
469.906	2583.49
470.278	2586.88
470.65	2608.35
471.022	2647.67
471.394	2698.06
471.766	2758.18
472.138	2796.14
472.51	2870.04
472.882	2891.96
473.253	2884.05
473.625	2954.33
473.997	3049.92
474.369	3052.86
474.74	3142.8
475.112	3180.54
475.484	3250.14
475.855	3332.17
476.227	3314.55
476.598	3422.11
476.97	3496.24
477.341	3594.31
477.713	3645.84
478.084	3654.42
478.455	3767.87
478.827	3808.09
479.198	3962.66
479.569	3962.21
479.94	4095.77
480.311	4140.51
480.682	4241.75
481.053	4321.98
481.424	4427.06
481.795	4461.41
482.166	4553.16
482.537	4553.16
482.908	4700.27
483.279	4812.81
483.65	4880.38
484.021	4982.3
484.391	5011.45
484.762	5072.47
485.133	5109.75
485.503	5206.02
485.874	5412.12
486.244	5399.91
486.615	5522.4
486.985	5581.6
487.356	5691.88
487.726	5735.27
488.097	5891.88
488.467	5911.31
488.837	6047.36
489.207	6107.01
489.578	6253.68
489.948	6259.1
490.318	6335.71
490.688	6363.96
491.058	6511.52
491.428	6593.78
491.798	6662.25
492.168	6756.26
492.538	6817.5
492.908	6892.3
493.278	6921.23
493.648	7000.55
494.017	7093.66
494.387	7160.32
494.757	7277.83
495.126	7341.11
495.496	7430.14
495.866	7407.55
496.235	7496.81
496.605	7606.18
496.974	7646.41
497.344	7685.05
497.713	7764.37
498.082	7859.28
498.452	7916.46
498.821	7987.42
499.19	7941.99
499.559	8100.86
499.928	8184.02
500.298	8173.4
500.667	8301.08
501.036	8304.24
501.405	8389.67
501.774	8423.56
502.143	8505.14
502.512	8537.91
502.88	8619.04
503.249	8648.42
503.618	8750.79
503.987	8790.56
504.356	8835.98
504.724	8830.56
505.093	8911.01
505.462	9028.07
505.83	9015.19
506.199	9151.23
506.567	9300.38
506.936	9264.45
507.304	9385.35
507.672	9463.99
508.041	9514.16
508.409	9589.18
508.777	9629.86
509.145	9783.98
509.514	9744.43
509.882	9882.51
510.25	9952.34
510.618	9945.78
510.986	9994.37
511.354	10125.21
511.722	10280.69
512.09	10352.78
512.458	10306
512.826	10453.11
513.193	10508.71
513.561	10594.81
513.929	10711.64
514.297	10851.75
514.664	10863.05
515.032	10887.91
515.4	11039.54
515.767	11007
516.135	11248.12
516.502	11125.41
516.869	11279.08
517.237	11444.5
517.604	11434.78
517.972	11579.64
518.339	11646.76
518.706	11709.58
519.073	11766.53
519.44	11878.16
519.808	12000.87
520.175	12025.28
520.542	12224.14
520.909	12338.72
521.276	12425.72
521.643	12435.66
522.009	12595.66
522.376	12577.58
522.743	12778.48
523.11	12954.97
523.477	13087.17
523.843	13118.81
524.21	13220.73
524.577	13339.14
524.943	13470.21
525.31	13448.29
525.676	13601.05
526.043	13700.26
526.409	13765.12
526.776	13956.98
527.142	13906.13
527.508	14040.59
527.874	14241.49
528.241	14263.64
528.607	14394.71
528.973	14541.14
529.339	14575.72
529.705	14743.4
530.071	14800.57
530.437	14839.21
530.803	14928.93
531.169	15062.49
531.535	15050.51
531.901	15091.41
532.267	15249.6
532.632	15373.66
532.998	15389.03
533.364	15513.77
533.73	15634.45
534.095	15710.15
534.461	15641
534.826	15801.22
535.192	15822.47
535.557	15874.89
535.923	15922.35
536.288	16056.36
536.653	16177.71
537.019	16118.28
537.384	16275.33
537.749	16367.99
538.114	16247.54
538.479	16383.13
538.845	16585.38
539.21	16523.92
539.575	16513.52
539.94	16722.78
540.305	16673.74
540.67	16670.58
541.034	16831.7
541.399	16936.56
541.764	16873.06
542.129	17001.64
542.494	16983.11
542.858	17249.55
543.223	17120.51
543.587	17294.52
543.952	17338.13
544.316	17466.26
544.681	17346.27
545.045	17462.65
545.41	17594.17
545.774	17609.31
546.138	17613.83
546.503	17794.39
546.867	17787.39
547.231	17873.03
547.595	17925.46
547.959	17982.18
548.324	18016.31
548.688	18174.95
549.052	18228.5
549.416	18250.88
549.779	18356.86
550.143	18376.3
550.507	18580.13
550.871	18539
551.235	18618.1
551.599	18724.31
551.962	18874.36
552.326	18830.52
552.689	18997.07
553.053	18973.57
553.417	19155.94
553.78	19344.86
554.143	19408.36
554.507	19431.64
554.87	19633.21
555.234	19872.53
555.597	19706.88
555.96	19949.59
556.323	19987.55
556.686	20103.26
557.05	20232.52
557.413	20387.99
557.776	20384.61
558.139	20638.84
558.502	20668.44
558.865	20808.32
559.228	21023.91
559.59	21101.65
559.953	21219.61
560.316	21527.4
560.679	21478.81
561.041	21673.61
561.404	21805.36
561.767	21991.34
562.129	21980.72
562.492	22241.05
562.854	22329.19
563.217	22309.75
563.579	22624.32
563.941	22857.08
564.304	22966.68
564.666	23203.29
565.028	23228.6
565.39	23347.01
565.753	23570.06
566.115	23697.29
566.477	23951.52
566.839	23922.14
567.201	24183.6
567.563	24191.51
567.925	24631.5
568.287	24637.83
568.648	24829.23
569.01	25027.2
569.372	25332.95
569.734	25216.79
570.095	25489.1
570.457	25651.59
570.819	25829.43
571.18	25907.85
571.542	26124.79
571.903	26327.73
572.265	26530.43
572.626	26596.19
572.987	26697.43
573.349	26923.19
573.71	27086.8
574.071	27211.77
574.432	27163.18
574.794	27554.81
575.155	27669.61
575.516	27673.23
575.877	27903.5
576.238	28073.22
576.599	28196.15
576.96	28200.9
577.32	28379.65
577.681	28565.18
578.042	28762.46
578.403	28821.67
578.763	28953.42
579.124	28966.07
579.485	29262.79
579.845	29356.12
580.206	29333.07
580.566	29448.1
580.927	29670.01
581.287	29695.77
581.648	29662.1
582.008	29843.11
582.368	29875.2
582.728	29884.02
583.089	30042.88
583.449	30142.09
583.809	30245.14
584.169	30267.06
584.529	30236.78
584.889	30552.7
585.249	30521.51
585.609	30416.88
585.969	30669.08
586.329	30587.05
586.688	30765.12
587.048	30722.86
587.408	30668.4
587.768	30780.94
588.127	30733.94
588.487	30710.44
588.846	31112.46
589.206	30777.1
589.565	30955.63
589.925	30974.38
590.284	31113.14
590.643	31073.36
591.003	31125.79
591.362	31270.65
591.721	31186.36
592.08	31109.52
592.44	31329.85
592.799	31322.62
593.158	31130.31
593.517	31262.96
593.876	31433.81
594.235	31330.98
594.593	31385.45
594.952	31495.05
595.311	31462.96
595.67	31481.94
596.029	31698.66
596.387	31687.13
596.746	31567.59
597.104	31505.22
597.463	31648.49
597.822	31870.4
598.18	31571.66
598.538	31656.63
598.897	31792.44
599.255	31573.01
599.613	31939.78
599.972	31760.35
600.33	31900.46
600.688	31883.51
601.046	32018.42
601.404	32007.58
601.762	32140
602.12	32129.16
602.478	32028.37
602.836	32101.81
603.194	31980.91
603.552	31984.75
603.91	32118.99
604.268	32193.33
604.625	32000.57
604.983	32282.37
605.341	32042.15
605.698	32274.69
606.056	32341.13
606.413	32344.74
606.771	32433.55
607.128	32431.52
607.485	32325.99
607.843	32377.28
608.2	32604.4
608.557	32522.59
608.914	32354.69
609.272	32756.94
609.629	32686.2
609.986	32899.3
610.343	32718.52
610.7	32915.8
611.057	32916.03
611.414	32852.07
611.771	32934.11
612.127	32956.25
612.484	32919.64
612.841	33082.12
613.198	33010.26
613.554	33066.76
613.911	33125.29
614.267	33069.02
614.624	33110.15
614.98	33167.32
615.337	33313.08
615.693	33319.41
616.05	33186.08
616.406	33458.39
616.762	33289.35
617.118	33379.97
617.475	33353.53
617.831	33588.55
618.187	33472.4
618.543	33622
618.899	33720.53
619.255	33492.96
619.611	33470.81
619.967	33633.75
620.323	33719.85
620.678	33674.65
621.034	33627.19
621.39	33659.28
621.746	33702.67
622.101	33921.2
622.457	33722.33
622.812	33776.57
623.168	33776.57
623.523	33674.43
623.879	33879.84
624.234	33706.74
624.589	33814.76
624.945	33762.11
625.3	33838.49
625.655	33763.46
626.01	33779.06
626.365	33872.39
626.72	33732.28
627.075	33629.45
627.43	33715.78
627.785	33619.29
628.14	33843.01
628.495	33809.11
628.85	33713.52
629.205	33646.86
629.559	33824.03
629.914	33498.38
630.269	33588.78
630.623	33511.04
630.978	33524.82
631.332	33705.16
631.687	33707.19
632.041	33535.9
632.396	33482.57
632.75	33426.07
633.104	33533.19
633.459	33378.16
633.813	33262.91
634.167	33359.86
634.521	33241.89
634.875	33385.17
635.229	33356.47
635.583	33090.03
635.937	33242.12
636.291	33121.45
636.645	33182.46
636.999	33095.91
637.352	33105.85
637.706	32943.6
638.06	33100.2
638.413	32979.53
638.767	32821.79
639.121	33002.13
639.474	32860.89
639.828	32749.93
640.181	32635.58
640.534	32812.53
640.888	32695.47
641.241	32534.57
641.594	32645.75
641.947	32746.31
642.301	32490.5
642.654	32512.65
643.007	32607.56
643.36	32614.11
643.713	32468.36
644.066	32556.71
644.419	32285.76
644.771	32245.54
645.124	31940.91
645.477	32068.82
645.83	31711.31
646.182	31698.66
646.535	31494.82
646.888	31528.04
647.24	31410.76
647.593	31449.4
647.945	31487.82
648.298	31260.93
648.65	31137.32
649.002	31187.49
649.355	31303.41
649.707	31241.72
650.059	31422.96
650.411	31778.2
650.763	31789.73
651.115	32186.33
651.467	31928.93
651.819	31967.58
652.171	31901.59
652.523	31853
652.875	31870.86
653.227	31780.24
653.578	32083.96
653.93	31771.2
654.282	31797.41
654.633	31660.69
654.985	31824.08
655.337	31747.47
655.688	31826.34
656.039	32008.25
656.391	31611.88
656.742	31710.86
657.094	31903.62
657.445	31911.31
657.796	31828.6
658.147	31790.41
658.498	31846.45
658.849	31818.2
659.2	31750.18
659.551	31679.22
659.902	31779.79
660.253	31647.36
660.604	31667.7
660.955	31565.78
661.306	31695.72
661.656	31532.33
662.007	31609.85
662.358	31797.19
662.708	31566.46
663.059	31574.37
663.409	31532.33
663.76	31789.05
664.11	31816.85
664.461	31810.29
664.811	31740.69
665.161	31657.53
665.511	31573.46
665.862	31696.4
666.212	31569.4
666.562	31702.05
666.912	31547.02
667.262	31510.87
667.612	31422.73
667.962	31639.9
668.312	31588.38
668.662	31720.8
669.011	31565.1
669.361	31631.77
669.711	31594.71
670.06	31568.94
670.41	31485.33
670.76	31269.74
671.109	31497.76
671.459	31356.07
671.808	31264.32
672.157	31419.12
672.507	31189.52
672.856	31134.61
673.205	31312
673.554	31307.93
673.904	31224.32
674.253	31297.76
674.602	31195.62
674.951	30719.25
675.3	30795.4
675.649	31010.31
675.998	31089.41
676.346	31006.25
676.695	31119.69
677.044	30848.28
677.393	30984.78
677.741	31098.9
678.09	30916.98
678.438	30813.48
678.787	30853.48
679.135	30958.11
679.484	30721.28
679.832	30827.49
680.181	30491.91
680.529	30599.25
680.877	30656.65
681.225	30611.91
681.573	30707.5
681.922	30351.8
682.27	30269.09
682.618	30368.52
682.966	30112.71
683.314	30359.26
683.661	30336.21
684.009	30022.32
684.357	29973.73
684.705	29934.18
685.053	30049.44
685.4	29938.03
685.748	29754.53
686.095	29784.81
686.443	29706.62
686.79	29658.26
687.138	29635.66
687.485	29658.94
687.832	29524.25
688.18	29507.3
688.527	29404.71
688.874	29265.73
689.221	29317.7
689.568	29200.64
689.915	29092.62
690.262	29136.69
690.609	28983.48
690.956	28924.04
691.303	28885.62
691.65	28702.35
691.997	28654.44
692.344	28575.58
692.69	28394.56
693.037	28483.6
693.383	28313.44
693.73	28401.57
694.077	28145.08
694.423	28187.56
694.769	28066.44
695.116	27955.03
695.462	27909.38
695.808	27761.81
696.155	27819.44
696.501	27582.38
696.847	27496.28
697.193	27445.21
697.539	27501.93
697.885	27204.31
698.231	27263.07
698.577	27234.37
698.923	27054.71
699.269	26960.48
699.614	26800.26
699.96	26746.25
700.306	26752.57
700.651	26582.18
700.997	26419.93
701.342	26384.45
701.688	26432.13
702.033	26206.83
702.379	26211.8
702.724	26200.95
703.069	26222.64
703.415	25861.75
703.76	25943.56
704.105	25917.57
704.45	25817.68
704.795	25667.4
705.14	25603.23
705.485	25509.22
705.83	25436.9
706.175	25514.19
706.52	25315.32
706.865	25166.4
707.209	25109.45
707.554	25164.14
707.899	25167.53
708.243	24934.99
708.588	24995.78
708.932	24828.78
709.277	24803.7
709.621	24836.01
709.966	24672.18
710.31	24671.95
710.654	24508.56
710.998	24527.77
711.342	24475.35
711.687	24431.73
712.031	24359.64
712.375	24266.31
712.719	24304.5
713.063	24280.1
713.407	24243.71
713.75	24079.2
714.094	24059.31
714.438	23997.17
714.782	24040.55
715.125	23850.73
715.469	23994
715.812	23784.52
716.156	23787.45
716.499	23777.51
716.843	23702.94
717.186	23637.4
717.53	23758.98
717.873	23811.41
718.216	23680.79
718.559	23487.8
718.902	23381.36
719.246	23398.54
719.589	23298.65
719.932	23294.36
720.275	23349.95
720.617	23319.44
720.96	23243.51
721.303	23341.36
721.646	23345.88
721.989	23147.02
722.331	23222.04
722.674	23195.83
723.016	23149.96
723.359	23037.64
723.701	23109.28
724.044	22939.34
724.386	22855.05
724.729	23067.25
725.071	22939.79
725.413	22951.54
725.755	22948.83
726.097	22845.78
726.439	22869.51
726.782	22832.9
727.124	22943.18
727.465	22745.67
727.807	22827.93
728.149	22901.83
728.491	22780.47
728.833	22776.63
729.175	22622.29
729.516	22582.51
729.858	22657.77
730.199	22709.29
730.541	22640.37
730.882	22670.87
731.224	22669.29
731.565	22477.88
731.906	22595.39
732.248	22516.75
732.589	22566.92
732.93	22464.55
733.271	22489.63
733.612	22500.48
733.953	22623.19
734.294	22452.35
734.635	22436.53
734.976	22498.67
735.317	22520.37
735.658	22466.36
735.999	22459.35
736.339	22432.91
736.68	22491.67
737.021	22406.92
737.361	22218.91
737.702	22422.97
738.042	22370.32
738.383	22368.51
738.723	22477.66
739.063	22352.46
739.404	22395.63
739.744	22418
740.084	22272.69
740.424	22360.6
740.764	22402.86
741.104	22368.06
741.444	22307.94
741.784	22128.74
742.124	22252.58
742.464	22304.55
742.804	22232.24
743.143	22266.36
743.483	22260.49
743.823	22159.47
744.162	22310.66
744.502	22255.06
744.841	22019.36
745.181	22256.42
745.52	22219.36
745.86	22215.29
746.199	22101.4
746.538	22125.58
746.877	22222.07
747.216	22155.18
747.556	22050.1
747.895	22139.59
748.234	22026.14
748.573	21962.19
748.911	21969.65
749.25	22054.62
749.589	21884.23
749.928	21987.73
750.267	21984.79
750.605	21905.02
750.944	21855.75
751.283	21847.84
751.621	21855.53
751.96	21729.88
752.298	21818.01
752.636	21893.94
752.975	21793.16
753.313	21720.62
753.651	21771.91
753.989	21678.58
754.327	21701.86
754.666	21595.19
755.004	21652.14
755.342	21632.03
755.679	21604.46
