Data from tablewood_dark_bookshelf_FLMS001491_00065.txt Node
Date: Wed Feb 08 14:15:23 GMT 2017
User: dcchb
Spectrometer: FLMS00149
Trigger mode: 0
Integration Time (sec): 2.000000E-2
Scans to average: 10
Electric dark correction enabled: true
Nonlinearity correction enabled: false
Boxcar width: 0
XAxis mode: Wavelengths
Number of Pixels in Spectrum: 2048
>>>>>Begin Spectral Data<<<<<
341.393	-11.53
341.776	-11.53
342.16	-11.53
342.543	-40.22
342.927	-54.69
343.31	-72.77
343.693	-74.57
344.077	-60.34
344.46	-67.34
344.843	-54.69
345.226	-47.91
345.61	-20.56
345.993	-14.46
346.376	-2.94
346.759	6.55
347.142	30.96
347.525	38.64
347.908	61.47
348.291	77.96
348.674	89.26
349.057	110.73
349.44	108.02
349.823	128.13
350.206	169.49
350.588	186.89
350.971	201.58
351.354	222.59
351.737	227.34
352.119	249.26
352.502	262.59
352.884	270.05
353.267	256.94
353.65	278.41
354.032	272.99
354.414	308.92
354.797	300.56
355.179	320.22
355.562	311.86
355.944	320.67
356.326	303.72
356.709	344.17
357.091	320.22
357.473	328.35
357.855	308.69
358.238	329.71
358.62	312.99
359.002	316.83
359.384	342.14
359.766	315.02
360.148	340.78
360.53	339.88
360.912	312.76
361.294	319.99
361.676	339.65
362.057	320.22
362.439	320.44
362.821	315.7
363.203	315.7
363.584	315.47
363.966	333.1
364.348	307.34
364.729	323.16
365.111	305.08
365.493	305.75
365.874	316.83
366.256	302.82
366.637	308.92
367.019	311.63
367.4	318.41
367.781	319.54
368.163	302.36
368.544	307.11
368.925	322.03
369.306	306.21
369.688	310.73
370.069	301.01
370.45	299.65
370.831	327
371.212	298.07
371.593	327
371.974	319.31
372.355	305.53
372.736	309.14
373.117	308.92
373.498	315.7
373.879	312.31
374.26	317.51
374.641	320.22
375.021	300.33
375.402	315.02
375.783	329.93
376.163	334.91
376.544	349.82
376.925	329.26
377.305	351.18
377.686	326.77
378.066	326.09
378.447	318.64
378.827	367.45
379.208	328.35
379.588	335.36
379.968	330.84
380.349	338.75
380.729	338.52
381.109	326.32
381.489	333.32
381.87	335.81
382.25	338.75
382.63	341.91
383.01	351.86
383.39	345.3
383.77	338.97
384.15	346.66
384.53	355.7
384.91	346.43
385.29	364.74
385.67	353.66
386.049	342.36
386.429	378.97
386.809	358.18
387.189	370.84
387.568	368.13
387.948	359.09
388.328	362.25
388.707	364.06
389.087	359.99
389.466	390.27
389.846	370.84
390.225	369.03
390.605	377.84
390.984	366.77
391.363	403.61
391.743	389.59
392.122	375.13
392.501	389.59
392.881	396.15
393.26	400.89
393.639	383.49
394.018	397.73
394.397	377.17
394.776	382.81
395.155	392.08
395.534	426.88
395.913	382.14
396.292	401.57
396.671	405.64
397.05	425.07
397.429	409.71
397.808	432.76
398.186	421.91
398.565	407.9
398.944	442.02
399.323	409.71
399.701	448.8
400.08	438.18
400.458	426.66
400.837	435.47
401.215	442.47
401.594	443.6
401.972	437.05
402.351	449.25
402.729	452.87
403.107	446.09
403.486	449.71
403.864	444.96
404.242	440.67
404.62	461.23
404.999	449.03
405.377	468.46
405.755	484.28
406.133	481.12
406.511	469.82
406.889	485.18
407.267	479.99
407.645	494.68
408.023	488.57
408.401	484.51
408.779	498.97
409.156	501.23
409.534	487.67
409.912	532.42
410.29	500.33
410.667	524.51
411.045	530.16
411.422	538.52
411.8	536.26
412.178	526.54
412.555	546.2
412.933	550.04
413.31	552.08
413.687	543.26
414.065	577.39
414.442	549.36
414.819	560.21
415.197	577.39
415.574	588.91
415.951	575.58
416.328	580.32
416.705	584.62
417.082	602.02
417.46	596.82
417.837	601.79
418.214	602.7
418.591	603.6
418.967	583.49
419.344	603.6
419.721	639.53
420.098	608.57
420.475	621.23
420.852	632.98
421.228	629.59
421.605	637.72
421.982	633.66
422.358	630.49
422.735	656.03
423.111	653.09
423.488	654.67
423.864	664.39
424.241	691.73
424.617	684.28
424.994	692.86
425.37	676.59
425.746	699.64
426.123	700.32
426.499	703.26
426.875	694.45
427.251	712.75
427.627	728.34
428.003	723.14
428.379	736.25
428.756	742.81
429.132	759.3
429.507	774.22
429.883	769.7
430.259	768.79
430.635	780.77
431.011	778.28
431.387	810.15
431.763	792.75
432.138	807.66
432.514	849.7
432.89	832.97
433.265	841.33
433.641	844.72
434.016	847.21
434.392	889.02
434.767	862.12
435.143	855.57
435.518	873.2
435.894	881.78
436.269	885.85
436.644	913.2
437.02	915.46
437.395	902.8
437.77	941.67
438.145	959.07
438.52	934.89
438.895	958.17
439.271	976.02
439.646	962.23
440.021	972.63
440.395	986.41
440.77	950.94
441.145	982.8
441.52	985.28
441.895	993.19
442.27	1025.51
442.645	1020.99
443.019	998.84
443.394	1019.18
443.769	1022.12
444.143	1029.13
444.518	1016.7
444.892	1066.64
445.267	1064.83
445.641	1079.29
446.016	1067.32
446.39	1083.36
446.764	1067.32
447.139	1074.77
447.513	1071.61
447.887	1102.8
448.262	1078.16
448.636	1100.31
449.01	1126.07
449.384	1108.67
449.758	1155.68
450.132	1148.9
450.506	1163.36
450.88	1168.56
451.254	1155.22
451.628	1183.02
452.002	1177.37
452.376	1208.33
452.75	1173.75
453.123	1228.89
453.497	1198.84
453.871	1223.47
454.244	1253.3
454.618	1271.15
454.992	1311.6
455.365	1274.54
455.739	1316.8
456.112	1327.42
456.486	1336.91
456.859	1357.7
457.232	1363.58
457.606	1383.01
457.979	1383.92
458.352	1420.08
458.725	1415.33
459.099	1442.22
459.472	1465.95
459.845	1473.86
460.218	1469.34
460.591	1497.36
460.964	1505.95
461.337	1549.56
461.71	1578.94
462.083	1574.42
462.456	1597.92
462.829	1580.3
463.201	1582.11
463.574	1613.29
463.947	1653.06
464.32	1677.02
464.692	1671.59
465.065	1721.54
465.438	1715.89
465.81	1726.73
466.183	1781.42
466.555	1785.94
466.928	1790.24
467.3	1780.52
467.672	1813.74
468.045	1901.87
468.417	1884.92
468.789	1876.11
469.161	1899.84
469.534	1936.22
469.906	1984.58
470.278	1979.16
470.65	2003.34
471.022	2042.21
471.394	2097.35
471.766	2077.46
472.138	2094.18
472.51	2155.2
472.882	2193.61
473.253	2187.97
473.625	2261.41
473.997	2261.41
474.369	2330.79
474.74	2349.54
475.112	2355.64
475.484	2388.86
475.855	2462.76
476.227	2470.67
476.598	2484.68
476.97	2535.3
477.341	2555.41
477.713	2625.02
478.084	2643.77
478.455	2680.61
478.827	2721.74
479.198	2800.38
479.569	2803.99
479.94	2902.3
480.311	2890.55
480.682	2917.21
481.053	3002.63
481.424	3048.51
481.795	3084.89
482.166	3117.43
482.537	3155.85
482.908	3211.44
483.279	3264.09
483.65	3308.84
484.021	3333.7
484.391	3441.27
484.762	3426.12
485.133	3428.16
485.503	3495.05
485.874	3596.74
486.244	3626.35
486.615	3715.38
486.985	3708.6
487.356	3790.63
487.726	3875.38
488.097	3934.81
488.467	3886.9
488.837	4035.15
489.207	4055.71
489.578	4088.93
489.948	4137.97
490.318	4211.64
490.688	4187.91
491.058	4248.25
491.428	4317.17
491.798	4370.51
492.168	4401.69
492.538	4466.55
492.908	4516.94
493.278	4553.78
493.648	4544.29
494.017	4598.75
494.387	4664.28
494.757	4734.34
495.126	4764.17
495.496	4812.98
495.866	4814.11
496.235	4897.05
496.605	4908.57
496.974	4968
497.344	5011.85
497.713	5023.37
498.082	5047.55
498.452	5136.36
498.821	5127.77
499.19	5121.9
499.559	5177.72
499.928	5261.56
500.298	5297.94
500.667	5325.06
501.036	5283.7
501.405	5366.19
501.774	5425.17
502.143	5431.95
502.512	5437.15
502.88	5499.52
503.249	5558.05
503.618	5582
503.987	5615.67
504.356	5654.31
504.724	5740.87
505.093	5651.83
505.462	5755.1
505.83	5805.72
506.199	5875.33
506.567	5938.37
506.936	5920.07
507.304	5995.32
507.672	5987.64
508.041	6060.63
508.409	6048.65
508.777	6104.92
509.145	6187.18
509.514	6195.77
509.882	6217.69
510.25	6287.52
510.618	6350.79
510.986	6376.78
511.354	6433.5
511.722	6457.23
512.09	6551.92
512.458	6537.46
512.826	6567.06
513.193	6683.89
513.561	6701.52
513.929	6731.57
514.297	6780.84
514.664	6840.5
515.032	6882.76
515.4	6872.59
515.767	6915.3
516.135	7021.51
516.502	6978.57
516.869	7075.07
517.237	7107.38
517.604	7101.73
517.972	7216.53
518.339	7300.37
518.706	7314.38
519.073	7365.46
519.44	7431.44
519.808	7493.59
520.175	7497.2
520.542	7568.39
520.909	7568.39
521.276	7608.16
521.643	7754.6
522.009	7850.42
522.376	7860.13
522.743	7905.78
523.11	7984.87
523.477	8071.43
523.843	8103.74
524.21	8207.02
524.577	8334.7
524.943	8322.04
525.31	8312.78
525.676	8420.57
526.043	8460.12
526.409	8474.13
526.776	8632.09
527.142	8604.52
527.508	8645.42
527.874	8779.43
528.241	8797.06
528.607	8834.8
528.973	8930.39
529.339	8955.7
529.705	9041.34
530.071	9113.21
530.437	9217.84
530.803	9288.34
531.169	9287.89
531.535	9216.03
531.901	9318.4
532.267	9386.42
532.632	9486.3
532.998	9430.03
533.364	9544.83
533.73	9553.87
534.095	9644.04
534.461	9646.53
534.826	9717.94
535.192	9739.4
535.557	9856.24
535.923	9811.95
536.288	9904.15
536.653	9994.09
537.019	9912.73
537.384	10004.48
537.749	10052.39
538.114	10110.47
538.479	10056.91
538.845	10223.46
539.21	10218.49
539.575	10192.5
539.94	10319.28
540.305	10289.22
540.67	10336.23
541.034	10369.22
541.399	10399.27
541.764	10488.76
542.129	10482.44
542.494	10495.77
542.858	10639.04
543.223	10632.71
543.587	10712.26
543.952	10619.16
544.316	10717.46
544.681	10663.9
545.045	10823.9
545.41	10816.66
545.774	10915.65
546.138	10893.27
546.503	11019.15
546.867	10962.42
547.231	11008.75
547.595	11109.09
547.959	11089.2
548.324	11166.26
548.688	11173.27
549.052	11206.48
549.416	11225.02
549.779	11263.88
550.143	11277.44
550.507	11379.14
550.871	11365.58
551.235	11401.28
551.599	11573.71
551.962	11537.1
552.326	11580.26
552.689	11664.1
553.053	11630.65
553.417	11616.87
553.78	11872.46
554.143	11771.44
554.507	11844.43
554.87	11804.44
555.234	12067.93
555.597	11940.7
555.96	12021.83
556.323	12027.25
556.686	12072.22
557.05	12145.67
557.413	12219.11
557.776	12314.25
558.139	12488.94
558.502	12457.3
558.865	12456.85
559.228	12555.38
559.59	12606.67
559.953	12535.72
560.316	12704.98
560.679	12783.17
561.041	12870.85
561.404	12856.84
561.767	12919.21
562.129	12961.92
562.492	13116.94
562.854	13082.59
563.217	13104.97
563.579	13198.97
563.941	13272.19
564.304	13325.53
564.666	13478.29
565.028	13473.77
565.39	13534.11
565.753	13588.8
566.115	13636.7
566.477	13734.55
566.839	13776.36
567.201	13870.6
567.563	13962.57
567.925	13948.56
568.287	14045.51
568.648	14074.21
569.01	14186.29
569.372	14120.98
569.734	14316.23
570.095	14401.43
570.457	14441.2
570.819	14479.17
571.18	14467.42
571.542	14602.1
571.903	14689.78
572.265	14640.74
572.626	14782.66
572.987	14728.43
573.349	14914.41
573.71	15026.5
574.071	14993.96
574.432	15138.13
574.794	15231.92
575.155	15249.32
575.516	15174.29
575.877	15249.99
576.238	15322.76
576.599	15366.6
576.96	15419.93
577.32	15394.17
577.681	15464.45
578.042	15649.53
578.403	15558.01
578.763	15558.91
579.124	15749.87
579.485	15767.5
579.845	15927.04
580.206	15801.62
580.566	15793.48
580.927	15916.42
581.287	15951.67
581.648	15990.09
582.008	16018.11
582.368	15987.15
582.728	16056.98
583.089	16142.63
583.449	16153.02
583.809	16122.74
584.169	16184.89
584.529	16204.77
584.889	16271.89
585.249	16252.91
585.609	16272.57
585.969	16333.36
586.329	16393.24
586.688	16342.4
587.048	16346.01
587.408	16428.95
587.768	16422.17
588.127	16385.56
588.487	16409.96
588.846	16540.58
589.206	16486.57
589.565	16499.68
589.925	16649.73
590.284	16513.46
590.643	16668.71
591.003	16670.3
591.362	16700.35
591.721	16645.89
592.08	16777.86
592.44	16786.45
592.799	16773.12
593.158	16908.93
593.517	16793.91
593.876	16866.22
594.235	16865.09
594.593	16890.86
594.952	17044.3
595.311	16961.14
595.67	16950.06
596.029	17103.28
596.387	17092.21
596.746	17076.39
597.104	17084.75
597.463	17125.88
597.822	17203.62
598.18	17134.01
598.538	17213.78
598.897	17313.44
599.255	17167.91
599.613	17407.9
599.972	17311.41
600.33	17489.26
600.688	17351.86
601.046	17383.72
601.404	17542.14
601.762	17487.22
602.12	17544.62
602.478	17474.79
602.836	17561.35
603.194	17406.55
603.552	17616.03
603.91	17506.43
604.268	17558.18
604.625	17542.59
604.983	17644.96
605.341	17548.47
605.698	17765.86
606.056	17737.16
606.413	17834.56
606.771	17841.11
607.128	17953.65
607.485	17760.89
607.843	17774
608.2	17969.02
608.557	18088.34
608.914	17987.1
609.272	18006.53
609.629	18075
609.986	18046.31
610.343	17952.3
610.7	18225.74
611.057	18127.43
611.414	18231.84
611.771	18198.39
612.127	18259.86
612.484	18224.61
612.841	18270.71
613.198	18235
613.554	18314.32
613.911	18406.07
614.267	18359.07
614.624	18370.59
614.98	18370.82
615.337	18516.35
615.693	18505.28
616.05	18429.12
616.406	18632.73
616.762	18502.56
617.118	18563.35
617.475	18589.34
617.831	18622.56
618.187	18572.84
618.543	18723.12
618.899	18691.49
619.255	18637.25
619.611	18712.28
619.967	18793.4
620.323	18811.93
620.678	18803.35
621.034	18704.82
621.39	18693.29
621.746	18718.15
622.101	18847.87
622.457	18667.98
622.812	18671.37
623.168	18819.17
623.523	18876.57
623.879	18910.92
624.234	18718.6
624.589	18822.33
624.945	18823.69
625.3	18906.4
625.655	18807.19
626.01	18888.77
626.365	18927.64
626.72	18886.28
627.075	18849.67
627.43	18870.24
627.785	18839.73
628.14	18788.21
628.495	18841.99
628.85	18860.75
629.205	18750.69
629.559	18932.38
629.914	18767.42
630.269	18784.36
630.623	18773.74
630.978	18810.35
631.332	18896.68
631.687	18924.02
632.041	18773.74
632.396	18758.15
632.75	18752.28
633.104	18732.16
633.459	18684.25
633.813	18617.14
634.167	18637.93
634.521	18683.12
634.875	18700.53
635.229	18733.29
635.583	18577.82
635.937	18513.64
636.291	18529.68
636.645	18606.97
636.999	18500.98
637.352	18552.05
637.706	18484.94
638.06	18550.92
638.413	18557.03
638.767	18396.13
639.121	18452.4
639.474	18319.07
639.828	18293.53
640.181	18423.02
640.534	18449.01
640.888	18261.89
641.241	18200.65
641.594	18383.02
641.947	18413.08
642.301	18315.45
642.654	18193.87
643.007	18282.23
643.36	18263.7
643.713	18156.36
644.066	18234.1
644.419	18155
644.771	18101.44
645.124	17997.72
645.477	17883.6
645.83	17759.99
646.182	17714.56
646.535	17609.03
646.888	17626.88
647.24	17495.59
647.593	17611.51
647.945	17627.79
648.298	17403.38
648.65	17426.66
649.002	17326.32
649.355	17536.49
649.707	17502.82
650.059	17619.2
650.411	17807.89
650.763	17828.23
651.115	18002.24
651.467	17833.43
651.819	17844.05
652.171	17931.28
652.523	17884.28
652.875	17903.48
653.227	17826.42
653.578	17967.44
653.93	17877.5
654.282	17779.42
654.633	17743.26
654.985	17788.01
655.337	17788.46
655.688	17864.16
656.039	17859.19
656.391	17675.24
656.742	17740.78
657.094	17726.54
657.445	17744.62
657.796	17757.95
658.147	17745.07
658.498	17621.91
658.849	17799.76
659.2	17676.82
659.551	17597.96
659.902	17786.42
660.253	17734.22
660.604	17814.67
660.955	17706.43
661.306	17822.13
661.656	17727.9
662.007	17680.21
662.358	17647.22
662.708	17691.51
663.059	17643.15
663.409	17602.7
663.76	17698.07
664.11	17696.26
664.461	17750.27
664.811	17687.22
665.161	17668.69
665.511	17617.84
665.862	17666.2
666.212	17722.02
666.562	17718.86
666.912	17710.04
667.262	17644.06
667.612	17729.7
667.962	17655.81
668.312	17585.53
668.662	17715.01
669.011	17660.55
669.361	17618.75
669.711	17693.77
670.06	17646.77
670.41	17619.88
670.76	17574.45
671.109	17695.35
671.459	17527.67
671.808	17618.07
672.157	17666.88
672.507	17592.53
672.856	17495.36
673.205	17492.65
673.554	17629.82
673.904	17560.44
674.253	17636.15
674.602	17619.65
674.951	17380.33
675.3	17288.81
675.649	17431.18
675.998	17508.24
676.346	17450.84
676.695	17506.88
677.044	17423.27
677.393	17441.58
677.741	17504.62
678.09	17484.74
678.438	17403.61
678.787	17528.58
679.135	17516.6
679.484	17313.44
679.832	17396.38
680.181	17350.96
680.529	17348.7
680.877	17370.39
681.225	17322.48
681.573	17514.34
681.922	17317.96
682.27	17243.39
682.618	17216.72
682.966	17175.59
683.314	17223.28
683.661	17155.03
684.009	17102.38
684.357	17110.51
684.705	17195.25
685.053	17056.73
685.4	16911.42
685.748	16951.19
686.095	16938.09
686.443	16876.17
686.79	16796.39
687.138	16913
687.485	16931.53
687.832	16786
688.18	16833.68
688.527	16703.29
688.874	16759.11
689.221	16702.84
689.568	16639.79
689.915	16667.81
690.262	16598.43
690.609	16586.46
690.956	16559.56
691.303	16545.55
691.65	16393.47
691.997	16442.96
692.344	16367.71
692.69	16315.73
693.037	16272.57
693.383	16245.22
693.73	16324.54
694.077	16210.42
694.423	16282.51
694.769	16131.55
695.116	16051.56
695.462	16096.07
695.808	15936.76
696.155	16002.97
696.501	15829.19
696.847	15912.35
697.193	15767.27
697.539	15855.63
697.885	15658.57
698.231	15663.54
698.577	15592.81
698.923	15726.82
699.269	15585.35
699.614	15508.52
699.96	15483.43
700.306	15483.66
700.651	15363.44
700.997	15409.99
701.342	15352.82
701.688	15360.95
702.033	15191.01
702.379	15216.1
702.724	15239.37
703.069	15277.79
703.415	15095.87
703.76	15074.86
704.105	15122.31
704.45	15095.42
704.795	14931.13
705.14	14975.88
705.485	14794.64
705.83	14935.2
706.175	14893.17
706.52	14776.79
706.865	14850.46
707.209	14768.43
707.554	14635.55
707.899	14693.17
708.243	14642.55
708.588	14702.89
708.932	14633.74
709.277	14509.45
709.621	14586.28
709.966	14467.87
710.31	14533.18
710.654	14439.62
710.998	14420.19
711.342	14420.19
711.687	14381.32
712.031	14335.22
712.375	14303.58
712.719	14288.66
713.063	14311.49
713.407	14310.81
713.75	14202.34
714.094	14172.28
714.438	14234.65
714.782	14163.92
715.125	14053.42
715.469	14108.78
715.812	14033.53
716.156	13938.84
716.499	13967.09
716.843	13976.13
717.186	13945.17
717.53	13969.58
717.873	13978.84
718.216	13932.29
718.559	13970.71
718.902	13853.87
719.246	13873.31
719.589	13871.5
719.932	13755.34
720.275	13852.07
720.617	13812.97
720.96	13748.57
721.303	13787.89
721.646	13749.47
721.989	13708.11
722.331	13766.19
722.674	13716.02
723.016	13692.75
723.359	13658.4
723.701	13739.75
724.044	13591.96
724.386	13521.68
724.729	13628.34
725.071	13545.41
725.413	13586.31
725.755	13535.46
726.097	13536.37
726.439	13408.91
726.782	13513.77
727.124	13498.85
727.465	13396.03
727.807	13466.54
728.149	13424.28
728.491	13397.84
728.833	13454.34
729.175	13308.58
729.516	13378.63
729.858	13339.54
730.199	13311.51
730.541	13356.26
730.882	13244.4
731.224	13271.52
731.565	13241.46
731.906	13234.45
732.248	13223.16
732.589	13223.38
732.93	13184.96
733.271	13150.84
733.612	13181.8
733.953	13165.76
734.294	13209.82
734.635	13134.34
734.976	13105.64
735.317	13184.29
735.658	13090.05
735.999	13102.25
736.339	13139.32
736.68	13144.74
737.021	13083.5
737.361	13061.13
737.702	13082.59
738.042	13099.32
738.383	13042.37
738.723	13125.08
739.063	13038.53
739.404	13029.49
739.744	13037.62
740.084	12983.39
740.424	13083.05
740.764	13005.99
741.104	13009.6
741.444	12963.73
741.784	12866.55
742.124	12986.1
742.464	12926.44
742.804	12896.84
743.143	12891.64
743.483	12874.24
743.823	12754.92
744.162	12845.09
744.502	12825.43
744.841	12847.8
745.181	12932.99
745.52	12788.14
745.86	12797.4
746.199	12796.73
746.538	12782.04
746.877	12693
747.216	12875.14
747.556	12774.13
747.895	12782.49
748.234	12656.16
748.573	12612.32
748.911	12698.2
749.25	12651.42
749.589	12649.84
749.928	12695.71
750.267	12643.96
750.605	12660.23
750.944	12612.1
751.283	12577.07
751.621	12634.47
751.96	12561.25
752.298	12497.3
752.636	12547.01
752.975	12529.84
753.313	12497.3
753.651	12481.48
753.989	12472.44
754.327	12401.71
754.666	12427.7
755.004	12441.25
755.342	12418.88
755.679	12462.95
756.017	12309.96
756.355	12372.56
756.693	12297.53
757.031	12290.07
757.368	12183.18
