Data from tablewood_dark_bookshelf_FLMS001491_00071.txt Node
Date: Wed Feb 08 14:15:35 GMT 2017
User: dcchb
Spectrometer: FLMS00149
Trigger mode: 0
Integration Time (sec): 2.000000E-2
Scans to average: 10
Electric dark correction enabled: true
Nonlinearity correction enabled: false
Boxcar width: 0
XAxis mode: Wavelengths
Number of Pixels in Spectrum: 2048
>>>>>Begin Spectral Data<<<<<
341.393	-18.78
341.776	-18.78
342.16	-18.78
342.543	-43.64
342.927	-70.31
343.31	-89.97
343.693	-60.59
344.077	-64.66
344.46	-38.22
344.843	-56.52
345.226	-42.51
345.61	-19.46
345.993	-27.37
346.376	-16.07
346.759	0.42
347.142	9.69
347.525	46.52
347.908	55.79
348.291	72.96
348.674	113.42
349.057	116.58
349.44	120.19
349.823	131.95
350.206	152.96
350.588	185.73
350.971	205.16
351.354	215.11
351.737	243.58
352.119	244.71
352.502	261.89
352.884	270.02
353.267	267.08
353.65	264.37
354.032	297.59
354.414	289.46
354.797	310.7
355.179	342.56
355.562	324.03
355.944	309.79
356.326	326.52
356.709	321.77
357.091	346.18
357.473	349.57
357.855	351.37
358.238	328.1
358.62	335.1
359.002	353.86
359.384	338.49
359.766	343.69
360.148	355.22
360.53	348.21
360.912	350.92
361.294	340.08
361.676	333.75
362.057	344.14
362.439	336.69
362.821	324.71
363.203	339.17
363.584	332.39
363.966	332.84
364.348	337.14
364.729	310.25
365.111	319.06
365.493	316.57
365.874	329.91
366.256	317.93
366.637	339.85
367.019	316.35
367.4	334.65
367.781	321.77
368.163	319.96
368.544	318.61
368.925	339.62
369.306	318.61
369.688	325.16
370.069	332.62
370.45	324.48
370.831	316.57
371.212	353.41
371.593	334.43
371.974	320.19
372.355	331.26
372.736	322
373.117	326.74
373.498	326.52
373.879	317.93
374.26	325.16
374.641	327.42
375.021	308.44
375.402	320.87
375.783	339.85
376.163	331.71
376.544	364.71
376.925	340.53
377.305	339.62
377.686	368.32
378.066	356.35
378.447	353.18
378.827	335.78
379.208	349.79
379.588	346.18
379.968	361.09
380.349	351.6
380.729	347.08
381.109	377.14
381.489	366.29
381.87	341.43
382.25	375.56
382.63	378.94
383.01	371.04
383.39	362.45
383.77	374.43
384.15	373.07
384.53	392.05
384.91	368.32
385.29	397.02
385.67	383.46
386.049	386.4
386.429	402.67
386.809	416.68
387.189	380.53
387.568	366.29
387.948	392.96
388.328	380.98
388.707	398.15
389.087	406.29
389.466	415.1
389.846	415.55
390.225	421.88
390.605	428.66
390.984	432.95
391.363	437.7
391.743	421.66
392.122	444.25
392.501	418.72
392.881	420.98
393.26	440.86
393.639	432.05
394.018	429.34
394.397	460.52
394.776	435.44
395.155	443.12
395.534	462.33
395.913	438.15
396.292	457.13
396.671	469.11
397.05	480.64
397.429	459.39
397.808	474.76
398.186	462.56
398.565	462.56
398.944	461.43
399.323	463.91
399.701	479.06
400.08	475.21
400.458	480.86
400.837	485.38
401.215	501.88
401.594	485.61
401.972	502.78
402.351	471.15
402.729	493.29
403.107	497.36
403.486	520.41
403.864	498.04
404.242	518.38
404.62	545.49
404.999	515.21
405.377	548.21
405.755	534.65
406.133	513.18
406.511	552.27
406.889	567.19
407.267	549.34
407.645	560.41
408.023	573.74
408.401	565.15
408.779	580.97
409.156	560.41
409.534	578.94
409.912	577.36
410.29	590.01
410.667	624.14
411.045	592.05
411.422	609.22
411.8	616.9
412.178	606.28
412.555	625.27
412.933	635.21
413.31	628.66
413.687	647.64
414.065	638.6
414.442	643.34
414.819	686.96
415.197	666.62
415.574	657.13
415.951	652.16
416.328	690.35
416.705	659.39
417.082	680.41
417.46	680.86
417.837	692.61
418.214	719.5
418.591	703
418.967	700.97
419.344	727.86
419.721	724.25
420.098	711.37
420.475	735.09
420.852	729.67
421.228	729.67
421.605	746.39
421.982	744.58
422.358	750.91
422.735	771.7
423.111	767.41
423.488	779.16
423.864	778.03
424.241	772.38
424.617	794.75
424.994	783.23
425.37	813.74
425.746	774.19
426.123	837.24
426.499	820.52
426.875	827.52
427.251	822.32
427.627	869.78
428.003	842.44
428.379	885.37
428.756	884.92
429.132	875.43
429.507	891.93
429.883	881.76
430.259	920.63
430.635	935.54
431.011	957.23
431.387	932.6
431.763	963.79
432.138	947.74
432.514	987.06
432.89	987.74
433.265	982.77
433.641	1010.79
434.016	999.04
434.392	1046.05
434.767	1039.49
435.143	1039.04
435.518	1044.92
435.894	1072.49
436.269	1061.64
436.644	1081.75
437.02	1085.82
437.395	1114.97
437.77	1115.65
438.145	1116.33
438.52	1119.04
438.895	1143.22
439.271	1171.92
439.646	1172.6
440.021	1177.12
440.395	1175.99
440.77	1154.97
441.145	1174.63
441.52	1197
441.895	1188.42
442.27	1251.01
442.645	1207.62
443.019	1223.67
443.394	1205.59
443.769	1251.69
444.143	1223.44
444.518	1271.8
444.892	1258.47
445.267	1286.49
445.641	1287.62
446.016	1274.06
446.39	1274.29
446.764	1312.48
447.139	1305.7
447.513	1314.29
447.887	1323.1
448.262	1329.65
448.636	1321.52
449.01	1335.53
449.384	1357.9
449.758	1389.99
450.132	1368.52
450.506	1384.34
450.88	1411.23
451.254	1404.68
451.628	1405.36
452.002	1430.67
452.376	1448.75
452.75	1478.58
453.123	1435.87
453.497	1502.53
453.871	1494.17
454.244	1552.7
454.618	1536.65
454.992	1548.41
455.365	1535.3
455.739	1581.17
456.112	1611.91
456.486	1627.05
456.859	1639.25
457.232	1666.59
457.606	1632.7
457.979	1694.62
458.352	1671.79
458.725	1726.25
459.099	1734.16
459.472	1771.68
459.845	1803.09
460.218	1803.77
460.591	1820.26
460.964	1820.49
461.337	1888.96
461.71	1870.21
462.083	1907.94
462.456	1903.88
462.829	1916.53
463.201	1945.23
463.574	1997.43
463.947	1985.68
464.32	2013.25
464.692	2056.87
465.065	2035.85
465.438	2068.17
465.81	2107.26
466.183	2128.5
466.555	2191.33
466.928	2206.92
467.3	2150.2
467.672	2187.94
468.045	2262.51
468.417	2264.77
468.789	2282.62
469.161	2291.66
469.534	2355.84
469.906	2382.96
470.278	2412.34
470.65	2440.59
471.022	2503.18
471.394	2525.33
471.766	2502.5
472.138	2539.11
472.51	2625.21
472.882	2626.57
473.253	2683.74
473.625	2702.95
473.997	2776.17
474.369	2770.52
474.74	2806.9
475.112	2886
475.484	2907.01
475.855	2960.57
476.227	2991.53
476.598	3036.05
476.97	3076.28
477.341	3155.37
477.713	3168.02
478.084	3239.66
478.455	3277.63
478.827	3361.47
479.198	3429.03
479.569	3427.68
479.94	3505.42
480.311	3483.5
480.682	3594.45
481.053	3676.03
481.424	3746.77
481.795	3774.79
482.166	3831.28
482.537	3876.03
482.908	3948.34
483.279	3955.12
483.65	4040.09
484.021	4127.32
484.391	4189.01
484.762	4218.84
485.133	4209.13
485.503	4292.51
485.874	4399.86
486.244	4413.19
486.615	4500.87
486.985	4597.36
487.356	4661.09
487.726	4671.49
488.097	4801.88
488.467	4772.5
488.837	4836.91
489.207	4924.36
489.578	5020.18
489.948	5063.79
490.318	5074.41
490.688	5146.05
491.058	5235.99
491.428	5295.2
491.798	5357.57
492.168	5393.28
492.538	5461.75
492.908	5487.51
493.278	5543.33
493.648	5563.67
494.017	5627.17
494.387	5713.04
494.757	5750.78
495.126	5821.74
495.496	5825.58
495.866	5897.9
496.235	5928.18
496.605	6019.02
496.974	6028.74
497.344	6106.48
497.713	6091.56
498.082	6188.74
498.452	6241.16
498.821	6265.34
499.19	6316.19
499.559	6361.16
499.928	6402.52
500.298	6510.08
500.667	6533.36
501.036	6530.65
501.405	6582.4
501.774	6571.32
502.143	6656.52
502.512	6643.19
502.88	6762.73
503.249	6704.65
503.618	6812
503.987	6858.32
504.356	6899.45
504.724	6876.18
505.093	6955.04
505.462	7000.69
505.83	7064.87
506.199	7079.56
506.567	7204.3
506.936	7279.55
507.304	7347.58
507.672	7345.54
508.041	7398.42
508.409	7427.57
508.777	7487.23
509.145	7551.64
509.514	7560
509.882	7648.58
510.25	7715.25
510.618	7785.3
510.986	7811.07
511.354	7839.99
511.722	7945.75
512.09	7985.98
512.458	8029.59
512.826	8087.44
513.193	8067.56
513.561	8059.42
513.929	8223.71
514.297	8321.33
514.664	8375.12
515.032	8394.78
515.4	8414.67
515.767	8478.17
516.135	8548.9
516.502	8523.14
516.869	8573.53
517.237	8728.78
517.604	8710.25
517.972	8843.58
518.339	8869.8
518.706	8988.89
519.073	9011.94
519.44	9077.7
519.808	9088.55
520.175	9182.56
520.542	9264.13
520.909	9270.01
521.276	9415.54
521.643	9451.02
522.009	9536.67
522.376	9650.57
522.743	9637.46
523.11	9754.52
523.477	9840.39
523.843	9884.46
524.21	10011.01
524.577	10041.74
524.943	10138.01
525.31	10204.45
525.676	10283.09
526.043	10394.95
526.409	10385.69
526.776	10596.53
527.142	10585.23
527.508	10599.92
527.874	10669.3
528.241	10802.63
528.607	10850.53
528.973	10965.33
529.339	10947.25
529.705	11007.82
530.071	11060.47
530.437	11181.15
530.803	11205.78
531.169	11299.11
531.535	11290.07
531.901	11324.65
532.267	11471.08
532.632	11483.74
532.998	11526.9
533.364	11608.71
533.73	11722.6
534.095	11812.77
534.461	11884.41
534.826	11922.6
535.192	11936.83
535.557	11983.84
535.923	12026.77
536.288	12068.81
536.653	12088.02
537.019	12141.57
537.384	12236.03
537.749	12293.89
538.114	12276.03
538.479	12328.46
538.845	12374.34
539.21	12478.74
539.575	12487.33
539.94	12517.61
540.305	12650.71
540.67	12682.35
541.034	12737.94
541.399	12746.08
541.764	12726.64
542.129	12840.09
542.494	12813.19
542.858	12944.94
543.223	12987.88
543.587	13013.41
543.952	13031.72
544.316	13108.33
544.681	13108.1
545.045	13264.26
545.41	13233.52
545.774	13293.86
546.138	13364.37
546.503	13420.86
546.867	13436
547.231	13557.81
547.595	13527.07
547.959	13639.84
548.324	13622.89
548.688	13685.26
549.052	13727.75
549.416	13840.51
549.779	13748.31
550.143	13814.75
550.507	13945.14
550.871	13987.4
551.235	13946.27
551.599	14096.78
551.962	14139.26
552.326	14137.68
552.689	14230.33
553.053	14313.95
553.417	14291.57
553.78	14498.12
554.143	14466.71
554.507	14488.86
554.87	14645.24
555.234	14840.26
555.597	14683.88
555.96	14819.02
556.323	14813.59
556.686	14841.62
557.05	14964.78
557.413	14990.99
557.776	15126.58
558.139	15155.05
558.502	15240.02
558.865	15219.01
559.228	15372.22
559.59	15354.82
559.953	15451.77
560.316	15654.48
560.679	15673.46
561.041	15715.94
561.404	15836.62
561.767	15940.12
562.129	15855.37
562.492	16189.6
562.854	16102.37
563.217	16044.52
563.579	16158.87
563.941	16285.42
564.304	16409.94
564.666	16561.8
565.028	16578.29
565.39	16696.71
565.753	16682.7
566.115	16833.88
566.477	16985.29
566.839	16983.71
567.201	17070.03
567.563	17201.33
567.925	17288.1
568.287	17319.97
568.648	17392.51
569.01	17426.63
569.372	17580.98
569.734	17551.15
570.095	17734.87
570.457	17756.79
570.819	17807.41
571.18	17819.84
571.542	17965.15
571.903	17891.48
572.265	18023.23
572.626	18080.63
572.987	18282.88
573.349	18358.59
573.71	18311.13
574.071	18441.75
574.432	18548.86
574.794	18646.71
575.155	18664.57
575.516	18587.51
575.877	18762.19
576.238	18738.91
576.599	18813.94
576.96	18892.81
577.32	19000.83
577.681	19035.4
578.042	19155.63
578.403	19182.29
578.763	19188.62
579.124	19351.78
579.485	19326.92
579.845	19399.24
580.206	19408.73
580.566	19417.99
580.927	19460.7
581.287	19603.98
581.648	19534.37
582.008	19713.13
582.368	19663.64
582.728	19741.6
583.089	19745.44
583.449	19830.18
583.809	19865.44
584.169	19913.8
584.529	19910.41
584.889	20075.83
585.249	19948.6
585.609	19913.57
585.969	20134.81
586.329	19974.36
586.688	20023.4
587.048	20087.58
587.408	20189.72
587.768	20143.62
588.127	20103.85
588.487	20048.48
588.846	20313.56
589.206	20210.97
589.565	20224.3
589.925	20364.86
590.284	20267.91
590.643	20337.74
591.003	20397.85
591.362	20495.48
591.721	20498.42
592.08	20535.7
592.44	20573.67
592.799	20636.49
593.158	20620.45
593.517	20590.16
593.876	20774.34
594.235	20662.03
594.593	20769.6
594.952	20715.59
595.311	20773.89
595.67	20758.75
596.029	20981.11
596.387	20997.61
596.746	21002.81
597.104	20862.7
597.463	20912.87
597.822	21046.42
598.18	20972.53
598.538	21156.48
598.897	21299.3
599.255	21098.85
599.613	21382.69
599.972	21294.33
600.33	21341.33
600.688	21277.83
601.046	21275.57
601.404	21400.76
601.762	21357.15
602.12	21446.19
602.478	21401.44
602.836	21509.91
603.194	21417.49
603.552	21545.17
603.91	21327.09
604.268	21550.14
604.625	21422.69
604.983	21630.59
605.341	21507.43
605.698	21634.88
606.056	21672.62
606.413	21800.08
606.771	21770.02
607.128	21793.52
607.485	21754.2
607.843	21739.06
608.2	21886.18
608.557	22013.4
608.914	22001.88
609.272	22013.18
609.629	22040.75
609.986	22209.33
610.343	22059.28
610.7	22293.17
611.057	22234.64
611.414	22243.91
611.771	22241.42
612.127	22370.23
612.484	22277.35
612.841	22358.93
613.198	22298.82
613.554	22348.54
613.911	22490.23
614.267	22392.38
614.624	22459.49
614.98	22536.55
615.337	22663.56
615.693	22593.5
616.05	22536.33
616.406	22608.87
616.762	22572.26
617.118	22665.59
617.475	22641.41
617.831	22694.97
618.187	22717.57
618.543	22795.53
618.899	22885.25
619.255	22856.09
619.611	22756.21
619.967	22900.16
620.323	22973.38
620.678	22935.87
621.034	22785.81
621.39	22909.88
621.746	22886.38
622.101	23065.13
622.457	22975.41
622.812	22895.87
623.168	23042.08
623.523	23045.02
623.879	23139.93
624.234	22892.48
624.589	22981.51
624.945	23033.49
625.3	23058.35
625.655	22960.05
626.01	23024.9
626.365	23040.27
626.72	23054.73
627.075	22924.79
627.43	23056.54
627.785	22940.39
628.14	23012.47
628.495	23045.02
628.85	22886.15
629.205	22991.68
629.559	23000.27
629.914	23077.33
630.269	23034.39
630.623	22983.32
630.978	22788.98
631.332	23010.89
631.687	23077.33
632.041	22887.51
632.396	22957.79
632.75	22758.02
633.104	22951.23
633.459	22718.7
633.813	22744.23
634.167	22812.93
634.521	22758.47
634.875	22716.44
635.229	22665.14
635.583	22630.34
635.937	22552.15
636.291	22723.22
636.645	22604.58
636.999	22490.23
637.352	22671.92
637.706	22512.37
638.06	22571.81
638.413	22503.56
638.767	22453.17
639.121	22485.26
639.474	22351.47
639.828	22321.19
640.181	22471.02
640.534	22416.33
640.888	22386.73
641.241	22268.76
641.594	22235.09
641.947	22350.12
642.301	22224.92
642.654	22284.81
643.007	22302.66
643.36	22187.64
643.713	22075.55
644.066	22217.01
644.419	22120.52
644.771	21967.76
645.124	21737.93
645.477	21796.91
645.83	21596.92
646.182	21442.35
646.535	21418.62
646.888	21448.67
647.24	21387.21
647.593	21448.45
647.945	21481.21
648.298	21433.31
648.65	21229.24
649.002	21244.84
649.355	21368.45
649.707	21261.33
650.059	21388.34
650.411	21654.54
650.763	21670.81
651.115	21917.36
651.467	21813.18
651.819	21795.78
652.171	21723.47
652.523	21715.33
652.875	21667.2
653.227	21620.65
653.578	21844.6
653.93	21761.66
654.282	21624.71
654.633	21530.25
654.985	21685.73
655.337	21674.88
655.688	21646.86
656.039	21701.1
656.391	21534.32
656.742	21615.67
657.094	21589.69
657.445	21710.59
657.796	21667.88
658.147	21504.49
658.498	21705.62
658.849	21734.77
659.2	21594.88
659.551	21435.57
659.902	21589.91
660.253	21604.15
660.604	21557.6
660.955	21599.63
661.306	21559.18
661.656	21503.59
662.007	21493.19
662.358	21582.46
662.708	21518.05
663.059	21514.89
663.409	21380.2
663.76	21599.86
664.11	21485.96
664.461	21499.52
664.811	21460.88
665.161	21588.56
665.511	21479.86
665.862	21479.41
666.212	21536.58
666.562	21571.83
666.912	21404.15
667.262	21528.67
667.612	21429.24
667.962	21498.84
668.312	21407.32
668.662	21562.12
669.011	21476.24
669.361	21356.92
669.711	21404.83
670.06	21405.74
670.41	21335
670.76	21470.59
671.109	21357.83
671.459	21381.56
671.808	21381.56
672.157	21334.55
672.507	21255.68
672.856	21238.74
673.205	21328
673.554	21409.13
673.904	21316.47
674.253	21348.79
674.602	21288.68
674.951	21059.98
675.3	20797.84
675.649	21349.69
675.998	21319.41
676.346	21206.65
676.695	21268.11
677.044	21181.11
677.393	21258.62
677.741	21259.07
678.09	21107.89
678.438	21120.55
678.787	21123.94
679.135	21144.73
679.484	21000.1
679.832	21002.58
680.181	20993.09
680.529	21051.62
680.877	20986.31
681.225	20956.48
681.573	21123.94
681.922	20860.44
682.27	20913.09
682.618	20928.01
682.966	20886.65
683.314	20807.56
683.661	20969.82
684.009	20701.12
684.357	20684.4
684.705	20601.46
685.053	20628.13
685.4	20549.04
685.748	20570.73
686.095	20579.09
686.443	20555.36
686.79	20475.14
687.138	20526.21
687.485	20455.25
687.832	20519.43
688.18	20297.74
688.527	20189.27
688.874	20343.39
689.221	20229.95
689.568	20101.36
689.915	20184.75
690.262	20195.37
690.609	20114.25
690.956	20042.16
691.303	19960.35
691.65	19926.91
691.997	19762.84
692.344	19754.03
692.69	19718.55
693.037	19771.88
693.383	19669.06
693.73	19662.96
694.077	19520.81
694.423	19581.6
694.769	19568.27
695.116	19389.07
695.462	19466.13
695.808	19409.86
696.155	19440.14
696.501	19270.65
696.847	19174.16
697.193	19109.3
697.539	19199.92
697.885	19085.8
698.231	18943.88
698.577	18945.69
698.923	19032.69
699.269	18815.07
699.614	18789.99
699.96	18729.2
700.306	18717.22
700.651	18717.67
700.997	18573.04
701.342	18652.14
701.688	18532.59
702.033	18471.58
702.379	18505.02
702.724	18558.81
703.069	18446.72
703.415	18230.23
703.76	18269.32
704.105	18272.71
704.45	18103.22
704.795	18072.26
705.14	17960.86
705.485	18037.69
705.83	17947.52
706.175	18028.2
706.52	17861.87
706.865	17942.55
707.209	17839.73
707.554	17794.53
707.899	17816.68
708.243	17703.46
708.588	17752.05
708.932	17638.38
709.277	17646.74
709.621	17652.16
709.966	17539.17
710.31	17510.47
710.654	17375.33
710.998	17452.62
711.342	17525.61
711.687	17405.62
712.031	17384.37
712.375	17306.18
712.719	17353.64
713.063	17299.86
713.407	17324.26
713.75	17255.11
714.094	17136.7
714.438	17065.29
714.782	17201.78
715.125	16925.63
715.469	17038.85
715.812	16930.83
716.156	16847.44
716.499	16928.11
716.843	16968.34
717.186	16853.77
717.53	16889.7
717.873	16876.59
718.216	16907.78
718.559	16863.03
718.902	16755.92
719.246	16744.39
719.589	16670.72
719.932	16608.57
720.275	16572.19
720.617	16618.74
720.96	16569.48
721.303	16649.48
721.646	16563.15
721.989	16460.56
722.331	16504.85
722.674	16410.84
723.016	16449.03
723.359	16511.85
723.701	16473.66
724.044	16418.98
724.386	16324.06
724.729	16428.47
725.071	16342.59
725.413	16318.19
725.755	16323.38
726.097	16224.18
726.439	16159.55
726.782	16228.47
727.124	16163.39
727.465	16151.86
727.807	16116.16
728.149	16169.94
728.491	16052.21
728.833	16089.94
729.175	16032.54
729.516	15995.48
729.858	16056.5
730.199	16012.21
730.541	15940.57
730.882	15991.64
731.224	16075.93
731.565	15927.01
731.906	15933.79
732.248	15861.7
732.589	15889.72
732.93	15871.64
733.271	15889.95
733.612	15882.49
733.953	15916.39
734.294	15790.74
734.635	15778.77
734.976	15868.48
735.317	15741.25
735.658	15682.5
735.999	15744.42
736.339	15758.2
736.68	15699.45
737.021	15694.7
737.361	15600.01
737.702	15726.11
738.042	15740.8
738.383	15683.4
738.723	15712.55
739.063	15612.22
739.404	15657.41
739.744	15586
740.084	15559.56
740.424	15521.15
740.764	15512.11
741.104	15599.11
741.444	15529.51
741.784	15382.39
742.124	15502.61
742.464	15374.93
742.804	15409.06
743.143	15405.22
743.483	15445.22
743.823	15404.54
744.162	15372.45
744.502	15270.53
744.841	15310.76
745.181	15284.99
745.52	15315.73
745.86	15341.72
746.199	15297.2
746.538	15207.48
746.877	15312.79
747.216	15381.71
747.556	15222.85
747.895	15288.38
748.234	15209.29
748.573	15148.27
748.911	15175.39
749.25	15122.29
749.589	15090.87
749.928	15209.97
750.267	15161.16
750.605	15154.6
750.944	15068.73
751.283	15061.27
751.621	15076.41
751.96	14935.85
752.298	14978.33
752.636	14883.87
752.975	14823.54
753.313	14771.79
753.651	14923.42
753.989	14760.49
754.327	14785.12
754.666	14694.73
755.004	14743.09
755.342	14735.86
755.679	14705.35
