Data from tablewood_dark_bookshelf_FLMS001491_00024.txt Node
Date: Wed Feb 08 14:14:05 GMT 2017
User: dcchb
Spectrometer: FLMS00149
Trigger mode: 0
Integration Time (sec): 2.000000E-2
Scans to average: 10
Electric dark correction enabled: true
Nonlinearity correction enabled: false
Boxcar width: 0
XAxis mode: Wavelengths
Number of Pixels in Spectrum: 2048
>>>>>Begin Spectral Data<<<<<
341.393	-9.39
341.776	-9.39
342.16	-9.39
342.543	-47.81
342.927	-58.2
343.31	-65.21
343.693	-69.73
344.077	-53.69
344.46	-58.2
344.843	-49.62
345.226	-54.81
345.61	-39.9
345.993	-6.23
346.376	14.79
346.759	8.69
347.142	33.77
347.525	27.89
347.908	52.3
348.291	71.74
348.674	95.01
349.057	93.2
349.44	121.23
349.823	147.67
350.206	162.13
350.588	179.08
350.971	184.5
351.354	224.27
351.737	236.48
352.119	249.81
352.502	259.98
352.884	257.49
353.267	266.53
353.65	284.16
354.032	281
354.414	282.58
354.797	304.72
355.179	306.31
355.562	336.14
355.944	314.21
356.326	322.12
356.709	316.02
357.091	304.5
357.473	323.03
357.855	330.71
358.238	333.88
358.62	331.16
359.002	325.06
359.384	357.83
359.766	365.51
360.148	333.2
360.53	349.69
360.912	327.77
361.294	318.51
361.676	335.01
362.057	338.85
362.439	332.75
362.821	323.93
363.203	324.38
363.584	326.42
363.966	310.37
364.348	314.21
364.729	324.16
365.111	322.58
365.493	332.97
365.874	308.34
366.256	331.16
366.637	314.67
367.019	300.2
367.4	324.84
367.781	306.08
368.163	304.72
368.544	315.57
368.925	318.28
369.306	322.58
369.688	304.5
370.069	313.54
370.45	305.85
370.831	300.43
371.212	323.48
371.593	325.06
371.974	314.21
372.355	322.35
372.736	317.6
373.117	304.72
373.498	316.93
373.879	319.86
374.26	315.12
374.641	314.67
375.021	318.96
375.402	325.51
375.783	316.93
376.163	328.68
376.544	335.91
376.925	332.52
377.305	342.24
377.686	322.58
378.066	327.1
378.447	343.82
378.827	309.7
379.208	325.06
379.588	314.21
379.968	310.37
380.349	333.88
380.729	345.63
381.109	347.89
381.489	341.33
381.87	330.94
382.25	322.8
382.63	321.9
383.01	351.73
383.39	348.56
383.77	373.42
384.15	355.34
384.53	346.53
384.91	358.51
385.29	359.19
385.67	354.44
386.049	367.32
386.429	368.9
386.809	382.24
387.189	363.71
387.568	349.69
387.948	365.51
388.328	377.72
388.707	377.72
389.087	362.35
389.466	381.56
389.846	385.4
390.225	361.9
390.605	372.74
390.984	398.73
391.363	392.4
391.743	368
392.122	382.91
392.501	400.09
392.881	406.19
393.26	394.66
393.639	395.79
394.018	393.99
394.397	398.96
394.776	390.82
395.155	413.87
395.534	402.35
395.913	409.81
396.292	396.92
396.671	395.57
397.05	413.2
397.429	423.59
397.808	410.26
398.186	412.74
398.565	420.88
398.944	420.2
399.323	408
399.701	423.36
400.08	400.31
400.458	411.39
400.837	434.89
401.215	421.1
401.594	438.05
401.972	421.1
402.351	436.7
402.729	440.54
403.107	442.57
403.486	434.44
403.864	444.61
404.242	454.78
404.62	422.46
404.999	460.2
405.377	455
405.755	460.65
406.133	444.15
406.511	470.59
406.889	477.37
407.267	447.09
407.645	478.5
408.023	454.55
408.401	493.65
408.779	471.72
409.156	483.48
409.534	467.88
409.912	482.8
410.29	486.64
410.667	509.24
411.045	490.26
411.422	489.35
411.8	520.76
412.178	510.82
412.555	518.96
412.933	521.89
413.31	516.02
413.687	530.48
414.065	507.43
414.442	536.81
414.819	549.46
415.197	545.62
415.574	552.63
415.951	568.9
416.328	562.57
416.705	566.41
417.082	570.48
417.46	562.8
417.837	545.17
418.214	572.06
418.591	569.12
418.967	544.49
419.344	585.62
419.721	589.01
420.098	564.38
420.475	572.97
420.852	595.11
421.228	596.02
421.605	608.22
421.982	604.6
422.358	597.15
422.735	609.8
423.111	614.77
423.488	600.54
423.864	626.52
424.241	619.74
424.617	646.18
424.994	638.05
425.37	643.47
425.746	643.02
426.123	668.1
426.499	668.33
426.875	692.51
427.251	667.43
427.627	671.72
428.003	687.54
428.379	692.51
428.756	664.94
429.132	694.09
429.507	700.65
429.883	707.42
430.259	735.45
430.635	705.39
431.011	711.72
431.387	757.82
431.763	740.19
432.138	766.18
432.514	746.75
432.89	761.66
433.265	785.84
433.641	779.06
434.016	753.98
434.392	788.1
434.767	829
435.143	798.95
435.518	767.76
435.894	797.14
436.269	829.91
436.644	807.54
437.02	817.7
437.395	838.72
437.77	844.82
438.145	863.8
438.52	858.61
438.895	847.76
439.271	883.47
439.646	888.44
440.021	878.27
440.395	877.59
440.77	873.52
441.145	902.9
441.52	906.97
441.895	887.08
442.27	916.23
442.645	909.45
443.019	897.02
443.394	916.01
443.769	934.76
444.143	952.62
444.518	964.82
444.892	948.32
445.267	943.58
445.641	967.98
446.016	947.19
446.39	971.37
446.764	946.51
447.139	1001.43
447.513	981.54
447.887	975.89
448.262	993.29
448.636	1006.17
449.01	995.78
449.384	1001.43
449.758	1004.82
450.132	1015.67
450.506	1030.35
450.88	1010.47
451.254	1014.76
451.628	1038.94
452.002	1036.91
452.376	1058.6
452.75	1060.86
453.123	1062.67
453.497	1109.22
453.871	1068.55
454.244	1112.61
454.618	1105.38
454.992	1131.59
455.365	1132.27
455.739	1173.63
456.112	1180.18
456.486	1182.44
456.859	1171.82
457.232	1190.12
457.606	1196.45
457.979	1207.3
458.352	1215.89
458.725	1248.43
459.099	1271.7
459.472	1270.12
459.845	1281.87
460.218	1334.53
460.591	1304.47
460.964	1290.69
461.337	1346.05
461.71	1348.31
462.083	1360.52
462.456	1367.52
462.829	1376.11
463.201	1406.84
463.574	1371.14
463.947	1406.62
464.32	1432.15
464.692	1431.02
465.065	1466.73
465.438	1483.9
465.81	1500.17
466.183	1503.56
466.555	1539.04
466.928	1546.27
467.3	1523.45
467.672	1582.88
468.045	1639.38
468.417	1618.14
468.789	1642.09
469.161	1662.2
469.534	1690.22
469.906	1696.33
470.278	1716.44
470.65	1729.09
471.022	1720.51
471.394	1800.05
471.766	1760.5
472.138	1822.2
472.51	1850.45
472.882	1862.42
473.253	1874.85
473.625	1916.21
473.997	1979.26
474.369	1952.36
474.74	1984.23
475.112	2013.61
475.484	2059.71
475.855	2076.43
476.227	2116.65
476.598	2116.88
476.97	2178.12
477.341	2163.88
477.713	2226.71
478.084	2228.29
478.455	2302.41
478.827	2301.51
479.198	2346.48
479.569	2391
479.94	2449.53
480.311	2467.83
480.682	2503.31
481.053	2512.35
481.424	2590.09
481.795	2619.47
482.166	2637.09
482.537	2662.4
482.908	2732
483.279	2718.67
483.65	2776.75
484.021	2840.25
484.391	2875.5
484.762	2882.51
485.133	2904.88
485.503	2955.73
485.874	3013.35
486.244	3059.45
486.615	3130.19
486.985	3136.06
487.356	3169.51
487.726	3226.68
488.097	3252.67
488.467	3282.5
488.837	3309.16
489.207	3361.37
489.578	3375.6
489.948	3454.47
490.318	3468.48
490.688	3478.43
491.058	3517.75
491.428	3591.64
491.798	3601.81
492.168	3695.59
492.538	3696.72
492.908	3732.88
493.278	3798.42
493.648	3797.29
494.017	3839.77
494.387	3840
494.757	3890.62
495.126	3936.94
495.496	3958.19
495.866	3976.72
496.235	4011.29
496.605	4016.72
496.974	4093.78
497.344	4119.09
497.713	4132.87
498.082	4181.01
498.452	4248.12
498.821	4266.88
499.19	4217.39
499.559	4287.22
499.928	4349.82
500.298	4343.26
500.667	4390.27
501.036	4407.21
501.405	4465.74
501.774	4470.72
502.143	4496.03
502.512	4512.07
502.88	4510.04
503.249	4558.17
503.618	4583.26
503.987	4612.18
504.356	4639.75
504.724	4711.61
505.093	4689.69
505.462	4742.8
505.83	4772.85
506.199	4746.64
506.567	4877.03
506.936	4846.75
507.304	4921.33
507.672	4926.75
508.041	5003.58
508.409	5002.68
508.777	5052.17
509.145	5064.37
509.514	5076.58
509.882	5071.6
510.25	5126.07
510.618	5103.47
510.986	5202.67
511.354	5285.16
511.722	5248.55
512.09	5359.51
512.458	5291.94
512.826	5380.3
513.193	5410.35
513.561	5394.76
513.929	5487.64
514.297	5532.61
514.664	5541.2
515.032	5598.37
515.4	5640.4
515.767	5656
516.135	5718.82
516.502	5691.7
516.869	5782.32
517.237	5808.08
517.604	5832.04
517.972	5868.87
518.339	5970.34
518.706	5912.94
519.073	6003.1
519.44	5974.63
519.808	6084.46
520.175	6120.62
520.542	6175.3
520.909	6203.1
521.276	6237.9
521.643	6293.49
522.009	6302.98
522.376	6347.73
522.743	6425.69
523.11	6450.1
523.477	6500.94
523.843	6538.23
524.21	6596.76
524.577	6702.07
524.943	6646.93
525.31	6721.5
525.676	6786.59
526.043	6799.24
526.409	6898.9
526.776	6985.68
527.142	7062.06
527.508	7023.42
527.874	7114.26
528.241	7136.63
528.607	7144.77
528.973	7180.25
529.339	7206.92
529.705	7341.6
530.071	7349.06
530.437	7395.16
530.803	7420.24
531.169	7461.82
531.535	7470.64
531.901	7482.39
532.267	7539.11
532.632	7592.22
532.998	7625.44
533.364	7747.69
533.73	7732.32
534.095	7763.96
534.461	7844.19
534.826	7875.37
535.192	7899.78
535.557	7972.09
535.923	7944.97
536.288	7984.07
536.653	8034.92
537.019	8002.15
537.384	8038.98
537.749	8134.35
538.114	8112.2
538.479	8165.99
538.845	8175.25
539.21	8198.98
539.575	8205.53
539.94	8270.84
540.305	8328.02
540.67	8280.56
541.034	8330.5
541.399	8414.57
541.764	8421.12
542.129	8461.12
542.494	8429.03
542.858	8544.28
543.223	8494.56
543.587	8582.92
543.952	8568.01
544.316	8622.02
544.681	8646.65
545.045	8630.61
545.41	8786.53
545.774	8783.6
546.138	8774.33
546.503	8848.68
546.867	8807.32
547.231	8875.35
547.595	8898.62
547.959	8936.59
548.324	8952.41
548.688	8942.69
549.052	9037.15
549.416	9058.17
549.779	9088.22
550.143	9095
550.507	9165.06
550.871	9173.87
551.235	9140.65
551.599	9285.05
551.962	9318.5
552.326	9328.67
552.689	9371.6
553.053	9347.42
553.417	9386.52
553.78	9590.36
554.143	9494.09
554.507	9558.04
554.87	9573.41
555.234	9624.03
555.597	9601.43
555.96	9744.48
556.323	9733.85
556.686	9735.21
557.05	9860.4
557.413	9902.21
557.776	9965.94
558.139	9924.81
558.502	9994.64
558.865	10058.82
559.228	10086.16
559.59	10127.06
559.953	10193.28
560.316	10268.3
560.679	10240.96
561.041	10351.01
561.404	10454.51
561.767	10440.5
562.129	10499.94
562.492	10498.58
562.854	10563.66
563.217	10555.08
563.579	10671.46
563.941	10644.11
564.304	10683.66
564.666	10923.65
565.028	10909.42
565.39	10931.11
565.753	10986.7
566.115	11010.2
566.477	11040.49
566.839	11167.49
567.201	11255.4
567.563	11230.99
567.925	11274.6
568.287	11300.59
568.648	11328.61
569.01	11402.74
569.372	11541.49
569.734	11382.17
570.095	11609.06
570.457	11680.92
570.819	11722.05
571.18	11713.69
571.542	11801.14
571.903	11878.66
572.265	11880.69
572.626	11989.39
572.987	11967.69
573.349	12048.37
573.71	12067.35
574.071	12084.3
574.432	12248.82
574.794	12322.94
575.155	12382.37
575.516	12237.74
575.877	12389.38
576.238	12426.44
576.599	12481.58
576.96	12430.28
577.32	12500.56
577.681	12514.8
578.042	12607.45
578.403	12618.3
578.763	12631.18
579.124	12731.74
579.485	12809.25
579.845	12859.65
580.206	12839.31
580.566	12841.57
580.927	12896.03
581.287	12941.68
581.648	12890.83
582.008	13065.97
582.368	13002.92
582.728	13030.49
583.089	13076.14
583.449	13100.55
583.809	13089.92
584.169	13157.04
584.529	13129.47
584.889	13303.93
585.249	13189.36
585.609	13174.67
585.969	13445.62
586.329	13225.29
586.688	13310.71
587.048	13385.06
587.408	13315.23
587.768	13417.37
588.127	13343.02
588.487	13413.76
588.846	13540.31
589.206	13437.71
589.565	13500.76
589.925	13577.14
590.284	13500.08
590.643	13622.79
591.003	13681.77
591.362	13700.53
591.721	13758.16
592.08	13682.9
592.44	13755.67
592.799	13754.99
593.158	13704.37
593.517	13763.8
593.876	13791.6
594.235	13858.04
594.593	13777.36
594.952	13851.49
595.311	13853.29
595.67	13827.98
596.029	13899.39
596.387	13934.65
596.746	14021.43
597.104	14021.65
597.463	13999.05
597.822	14112.95
598.18	14073.4
598.538	14026.4
598.897	14110.24
599.255	14001.76
599.613	14253.51
599.972	14193.4
600.33	14258.71
600.688	14147.52
601.046	14155.43
601.404	14345.03
601.762	14208.09
602.12	14257.35
602.478	14362.21
602.836	14356.11
603.194	14368.76
603.552	14355.43
603.91	14301.64
604.268	14490.57
604.625	14359.5
604.983	14439.27
605.341	14416.22
605.698	14467.29
606.056	14506.16
606.413	14530.11
606.771	14537.57
607.128	14636.78
607.485	14517.01
607.843	14518.14
608.2	14641.3
608.557	14703.22
608.914	14618.47
609.272	14772.59
609.629	14724.23
609.986	14846.04
610.343	14810.1
610.7	14949.54
611.057	14777.34
611.414	14813.27
611.771	14902.53
612.127	14926.03
612.484	14969.65
612.841	15008.29
613.198	14926.49
613.554	15017.33
613.911	15088.97
614.267	15056.43
614.624	14984.34
614.98	15015.75
615.337	15165.35
615.693	15192.92
616.05	15104.33
616.406	15211.45
616.762	15225.91
617.118	15232.92
617.475	15162.86
617.831	15268.17
618.187	15234.95
618.543	15194.95
618.899	15354.72
619.255	15308.17
619.611	15309.53
619.967	15359.7
620.323	15410.77
620.678	15321.28
621.034	15333.48
621.39	15296.65
621.746	15346.36
622.101	15509.97
622.457	15397.21
622.812	15403.99
623.168	15381.39
623.523	15418.68
623.879	15537.32
624.234	15436.08
624.589	15354.27
624.945	15404.21
625.3	15481.5
625.655	15547.49
626.01	15439.47
626.365	15537.32
626.72	15415.06
627.075	15502.52
627.43	15481.05
627.785	15486.7
628.14	15528.28
628.495	15601.04
628.85	15456.87
629.205	15459.35
629.559	15530.31
629.914	15427.72
630.269	15474.72
630.623	15400.15
630.978	15407.83
631.332	15439.01
631.687	15485.79
632.041	15453.25
632.396	15459.35
632.75	15359.47
633.104	15383.88
633.459	15269.53
633.813	15375.97
634.167	15281.73
634.521	15270.66
634.875	15303.88
635.229	15251
635.583	15217.55
635.937	15289.19
636.291	15186.37
636.645	15223.2
636.999	15174.16
637.352	15169.64
637.706	15128.06
638.06	15183.88
638.413	15119.25
638.767	15138.68
639.121	15124.67
639.474	15091
639.828	15124.9
640.181	15036.09
640.534	15169.19
640.888	15072.02
641.241	14964.68
641.594	15025.47
641.947	15071.79
642.301	14995.64
642.654	14996.99
643.007	14971
643.36	14980.72
643.713	14953.6
644.066	15110.21
644.419	14945.47
644.771	14842.87
645.124	14644.69
645.477	14718.13
645.83	14586.16
646.182	14546.38
646.535	14505.25
646.888	14511.36
647.24	14499.38
647.593	14564.01
647.945	14557.91
648.298	14474.75
648.65	14422.77
649.002	14373.51
649.355	14530.34
649.707	14453.28
650.059	14492.6
650.411	14642.88
650.763	14670
651.115	14892.36
651.467	14761.74
651.819	14691.69
652.171	14635.65
652.523	14666.83
652.875	14747.28
653.227	14637.45
653.578	14732.37
653.93	14698.24
654.282	14622.99
654.633	14652.59
654.985	14704.35
655.337	14686.72
655.688	14659.6
656.039	14678.36
656.391	14591.13
656.742	14612.14
657.094	14702.54
657.445	14680.16
657.796	14636.32
658.147	14612.14
658.498	14652.59
658.849	14602.88
659.2	14639.26
659.551	14532.15
659.902	14645.14
660.253	14740.95
660.604	14652.37
660.955	14638.81
661.306	14719.71
661.656	14587.96
662.007	14553.39
662.358	14568.53
662.708	14624.12
663.059	14594.07
663.409	14529.66
663.76	14662.09
664.11	14684.68
664.461	14582.31
664.811	14611.92
665.161	14531.69
665.511	14614.63
665.862	14564.24
666.212	14649.21
666.562	14663.67
666.912	14573.28
667.262	14532.82
667.612	14542.77
667.962	14664.12
668.312	14591.35
668.662	14694.85
669.011	14646.49
669.361	14653.05
669.711	14527.17
670.06	14606.04
670.41	14555.2
670.76	14547.51
671.109	14571.92
671.459	14498.7
671.808	14500.73
672.157	14601.52
672.507	14454.86
672.856	14545.93
673.205	14520.17
673.554	14648.53
673.904	14524.46
674.253	14590.68
674.602	14536.21
674.951	14359.27
675.3	14285.15
675.649	14525.37
675.998	14469.1
676.346	14483.56
676.695	14594.07
677.044	14438.82
677.393	14481.07
677.741	14460.06
678.09	14432.49
678.438	14432.71
678.787	14459.15
679.135	14484.69
679.484	14301.87
679.832	14352.94
680.181	14341.87
680.529	14430
680.877	14356.78
681.225	14267.97
681.573	14329.44
681.922	14354.98
682.27	14251.25
682.618	14236.79
682.966	14222.55
683.314	14247.41
683.661	14110.01
684.009	14188.65
684.357	14112.72
684.705	14080.63
685.053	14129.22
685.4	14082.67
685.748	13996.57
686.095	13987.08
686.443	13990.24
686.79	13961.99
687.138	13920.41
687.485	13994.76
687.832	13908.43
688.18	13891.03
688.527	13846.74
688.874	13921.31
689.221	13808.32
689.568	13840.19
689.915	13800.87
690.262	13740.75
690.609	13721.77
690.956	13702.56
691.303	13722.9
691.65	13551.83
691.997	13652.17
692.344	13597.48
692.69	13557.93
693.037	13572.4
693.383	13427.54
693.73	13425.96
694.077	13412.4
694.423	13444.04
694.769	13325.62
695.116	13374.21
695.462	13336.92
695.808	13263.03
696.155	13274.55
696.501	13223.93
696.847	13245.85
697.193	13023.71
697.539	13156.59
697.885	13152.97
698.231	13039.76
698.577	13003.82
698.923	13003.37
699.269	12967.89
699.614	12972.64
699.96	12816.26
700.306	12883.6
700.651	12812.19
700.997	12682.25
701.342	12762.25
701.688	12688.13
702.033	12635.02
702.379	12728.35
702.724	12594.8
703.069	12669.6
703.415	12544.63
703.76	12559.99
704.105	12461.69
704.45	12533.55
704.795	12434.12
705.14	12397.51
705.485	12430.28
705.83	12415.82
706.175	12373.11
706.52	12281.36
706.865	12273.22
707.209	12195.03
707.554	12239.33
707.899	12247.69
708.243	12171.53
708.588	12158.65
708.932	12124.3
709.277	12081.36
709.621	12160.01
709.966	12027.35
710.31	12038.88
710.654	11988.26
710.998	12024.87
711.342	11906.23
711.687	11896.28
712.031	11891.99
712.375	11884.76
712.719	11904.42
713.063	11907.81
713.407	11931.76
713.75	11828.04
714.094	11880.69
714.438	11804.76
714.782	11735.84
715.125	11730.86
715.469	11825.55
715.812	11757.08
716.156	11670.53
716.499	11678.44
716.843	11693.58
717.186	11606.12
717.53	11614.03
717.873	11694.71
718.216	11578.55
718.559	11628.49
718.902	11512.34
719.246	11598.21
719.589	11499.91
719.932	11487.48
720.275	11492.23
720.617	11461.94
720.96	11484.54
721.303	11484.99
721.646	11476.86
721.989	11395.96
722.331	11450.19
722.674	11433.24
723.016	11475.05
723.359	11369.29
723.701	11385.79
724.044	11381.72
724.386	11327.48
724.729	11290.88
725.071	11351.89
725.413	11313.02
725.755	11277.99
726.097	11259.92
726.439	11120.48
726.782	11172.01
727.124	11335.17
727.465	11210.65
727.807	11259.69
728.149	11203.87
728.491	11165.68
728.833	11189.41
729.175	11139.69
729.516	11197.09
729.858	11090.43
730.199	11182.86
730.541	11167.71
730.882	11170.43
731.224	11144.21
731.565	11096.53
731.906	11109.19
732.248	11124.33
732.589	11070.09
732.93	11071.9
733.271	11001.62
733.612	11016.08
733.953	11025.8
734.294	11029.64
734.635	11011.11
734.976	11012.01
735.317	11007.27
735.658	10983.54
735.999	11015.63
736.339	10953.26
736.68	10996.87
737.021	10969.98
737.361	10985.12
737.702	10983.09
738.042	10935.86
738.383	10988.28
738.723	11001.62
739.063	10885.46
739.404	10984.44
739.744	10953.94
740.084	10913.94
740.424	10890.89
740.764	10903.99
741.104	10958.23
741.444	10896.08
741.784	10898.8
742.124	10909.64
742.464	10870.55
742.804	10873.26
743.143	10788.97
743.483	10841.4
743.823	10780.15
744.162	10815.86
744.502	10877.55
744.841	10851.56
745.181	10838.46
745.52	10824.9
745.86	10816.09
746.199	10770.44
746.538	10745.35
746.877	10803.66
747.216	10825.8
747.556	10730.66
747.895	10796.65
748.234	10746.26
748.573	10685.47
748.911	10727.27
749.25	10737.67
749.589	10633.72
749.928	10735.41
750.267	10714.17
750.605	10673.72
750.944	10666.71
751.283	10656.99
751.621	10701.51
751.96	10673.72
752.298	10613.61
752.636	10642.53
752.975	10550.1
753.313	10557.34
753.651	10582.19
753.989	10556.66
754.327	10532.93
754.666	10446.6
755.004	10499.48
755.342	10446.6
755.679	10487.51
756.017	10442.76
756.355	10433.04
756.693	10382.65
757.031	10386.04
757.368	10372.26
757.706	10369.09
758.044	10354.4
758.381	10318.47
758.719	10360.28
759.056	10293.84
759.394	10315.53
