Data from tablewood_dark_bookshelf_FLMS001491_00034.txt Node
Date: Wed Feb 08 14:14:25 GMT 2017
User: dcchb
Spectrometer: FLMS00149
Trigger mode: 0
Integration Time (sec): 2.000000E-2
Scans to average: 10
Electric dark correction enabled: true
Nonlinearity correction enabled: false
Boxcar width: 0
XAxis mode: Wavelengths
Number of Pixels in Spectrum: 2048
>>>>>Begin Spectral Data<<<<<
341.393	-18.71
341.776	-18.71
342.16	-18.71
342.543	-55.32
342.927	-66.4
343.31	-57.13
343.693	-76.34
344.077	-36.57
344.46	-50.13
344.843	-39.73
345.226	-33.4
345.61	-41.99
345.993	1.17
346.376	-21.88
346.759	15.64
347.142	-7.87
347.525	33.04
347.908	43.43
348.291	71.68
348.674	96.09
349.057	103.99
349.44	122.98
349.823	130.43
350.206	155.52
350.588	192.58
350.971	202.07
351.354	225.57
351.737	232.8
352.119	259.7
352.502	249.53
352.884	271.9
353.267	282.97
353.65	273.03
354.032	309.64
354.414	307.6
354.797	296.31
355.179	326.59
355.562	325.46
355.944	307.6
356.326	336.53
356.709	306.02
357.091	334.72
357.473	350.77
357.855	317.55
358.238	344.44
358.62	304.22
359.002	339.02
359.384	331.56
359.766	328.17
360.148	344.44
360.53	312.12
360.912	322.29
361.294	339.69
361.676	292.24
362.057	327.27
362.439	333.37
362.821	326.59
363.203	328.4
363.584	308.51
363.966	322.52
364.348	322.75
364.729	305.12
365.111	328.17
365.493	317.77
365.874	309.41
366.256	336.08
366.637	322.52
367.019	337.66
367.4	323.42
367.781	317.55
368.163	321.39
368.544	310.54
368.925	332.24
369.306	320.49
369.688	322.07
370.069	324.1
370.45	302.86
370.831	329.07
371.212	307.83
371.593	319.81
371.974	317.77
372.355	324.1
372.736	319.81
373.117	330.2
373.498	309.86
373.879	317.77
374.26	336.98
374.641	319.81
375.021	318.9
375.402	323.42
375.783	337.66
376.163	330.43
376.544	317.77
376.925	328.4
377.305	319.36
377.686	338.11
378.066	311.22
378.447	334.5
378.827	332.24
379.208	346.93
379.588	355.74
379.968	330.2
380.349	343.08
380.729	335.85
381.109	337.21
381.489	352.8
381.87	358.68
382.25	349.19
382.63	351.22
383.01	370.2
383.39	320.26
383.77	360.26
384.15	346.02
384.53	352.35
384.91	364.55
385.29	367.26
385.67	372.24
386.049	348.06
386.429	355.29
386.809	363.65
387.189	370.2
387.568	364.78
387.948	356.19
388.328	374.04
388.707	378.11
389.087	369.3
389.466	394.38
389.846	368.17
390.225	371.78
390.605	387.15
390.984	383.99
391.363	410.2
391.743	392.35
392.122	390.99
392.501	400.71
392.881	419.01
393.26	410.65
393.639	395.96
394.018	388.28
394.397	406.59
394.776	428.28
395.155	428.51
395.534	400.48
395.913	407.72
396.292	407.49
396.671	412.91
397.05	419.24
397.429	419.47
397.808	437.09
398.186	426.7
398.565	416.08
398.944	414.04
399.323	453.36
399.701	435.29
400.08	426.02
400.458	430.99
400.837	438
401.215	457.88
401.594	445.45
401.972	426.02
402.351	454.72
402.729	460.6
403.107	464.89
403.486	475.96
403.864	451.78
404.242	490.65
404.62	479.8
404.999	465.34
405.377	485.23
405.755	466.24
406.133	498.33
406.511	473.48
406.889	483.42
407.267	495.4
407.645	490.88
408.023	493.36
408.401	523.19
408.779	497.88
409.156	505.34
409.534	513.25
409.912	505.34
410.29	523.19
410.667	516.19
411.045	510.99
411.422	519.8
411.8	531.1
412.178	567.03
412.555	533.36
412.933	526.81
413.31	558.67
413.687	562.29
414.065	553.25
414.442	568.16
414.819	565.45
415.197	565.9
415.574	571.55
415.951	583.76
416.328	588.5
416.705	619.46
417.082	609.97
417.46	595.51
417.837	596.18
418.214	571.1
418.591	595.51
418.967	629.86
419.344	610.42
419.721	611.33
420.098	592.12
420.475	612
420.852	606.13
421.228	627.6
421.605	634.83
421.982	651.32
422.358	659.23
422.735	667.14
423.111	652.68
423.488	626.92
423.864	664.66
424.241	663.3
424.617	661.27
424.994	671.21
425.37	677.09
425.746	681.83
426.123	675.5
426.499	679.35
426.875	702.85
427.251	731.1
427.627	717.76
428.003	713.7
428.379	726.12
428.756	707.59
429.132	734.71
429.507	761.83
429.883	753.69
430.259	766.12
430.635	754.37
431.011	762.73
431.387	787.37
431.763	803.41
432.138	780.81
432.514	834.14
432.89	802.28
433.265	821.04
433.641	800.7
434.016	840.02
434.392	843.64
434.767	841.6
435.143	850.87
435.518	820.36
435.894	843.41
436.269	882.73
436.644	882.28
437.02	917.31
437.395	911.43
437.77	913.01
438.145	921.6
438.52	924.99
438.895	939
439.271	920.7
439.646	931.09
440.021	931.77
440.395	931.54
440.77	948.94
441.145	937.64
441.52	970.86
441.895	964.99
442.27	971.54
442.645	974.48
443.019	994.59
443.394	1000.24
443.769	978.32
444.143	972.22
444.518	994.14
444.892	981.26
445.267	1014.03
445.641	1004.08
446.016	1011.09
446.39	1040.69
446.764	1034.59
447.139	1016.29
447.513	1066.23
447.887	1025.33
448.262	1056.74
448.636	1053.57
449.01	1068.71
449.384	1100.58
449.758	1083.86
450.132	1123.4
450.506	1084.31
450.88	1104.19
451.254	1097.19
451.628	1117.98
452.002	1113.46
452.376	1140.58
452.75	1158.66
453.123	1158.66
453.497	1175.38
453.871	1158.88
454.244	1182.38
454.618	1199.56
454.992	1211.08
455.365	1196.62
455.739	1237.75
456.112	1231.42
456.486	1239.56
456.859	1285.43
457.232	1295.83
457.606	1270.97
457.979	1291.76
458.352	1336.05
458.725	1317.52
459.099	1316.17
459.472	1337.41
459.845	1357.97
460.218	1364.3
460.591	1398.42
460.964	1422.83
461.337	1393.9
461.71	1446.78
462.083	1456.95
462.456	1463.28
462.829	1459.21
463.201	1500.79
463.574	1519.78
463.947	1485.88
464.32	1550.74
464.692	1545.31
465.065	1541.92
465.438	1556.84
465.81	1598.42
466.183	1613.56
466.555	1635.25
466.928	1652.88
467.3	1626.67
467.672	1675.93
468.045	1716.38
468.417	1715.93
468.789	1731.97
469.161	1734.91
469.534	1762.03
469.906	1794.8
470.278	1822.14
470.65	1827.11
471.022	1870.5
471.394	1868.92
471.766	1885.64
472.138	1941.69
472.51	1954.57
472.882	1966.77
473.253	2015.81
473.625	2049.48
473.997	2039.99
474.369	2089.7
474.74	2091.51
475.112	2152.08
475.484	2161.34
475.855	2195.69
476.227	2215.35
476.598	2278.63
476.97	2302.35
477.341	2326.31
477.713	2389.13
478.084	2366.99
478.455	2425.74
478.827	2444.27
479.198	2528.56
479.569	2536.25
479.94	2579.64
480.311	2566.53
480.682	2645.17
481.053	2672.29
481.424	2726.75
481.795	2761.1
482.166	2797.71
482.537	2839.52
482.908	2874.09
483.279	2923.36
483.65	2989.57
484.021	3004.03
484.391	3053.97
484.762	3020.3
485.133	3107.76
485.503	3129.23
485.874	3193.4
486.244	3204.03
486.615	3272.72
486.985	3330.12
487.356	3374.19
487.726	3352.04
488.097	3464.13
488.467	3488.31
488.837	3563.34
489.207	3557.91
489.578	3589.78
489.948	3641.75
490.318	3694.63
490.688	3710.91
491.058	3731.92
491.428	3815.99
491.798	3847.62
492.168	3913.39
492.538	3910
492.908	3920.84
493.278	4020.95
493.648	4010.11
494.017	4097.56
494.387	4085.81
494.757	4137.56
495.126	4142.08
495.496	4159.26
495.866	4248.29
496.235	4212.14
496.605	4275.41
496.974	4310.66
497.344	4342.75
497.713	4345.01
498.082	4404.22
498.452	4460.26
498.821	4487.61
499.19	4501.39
499.559	4534.39
499.928	4568.28
500.298	4631.11
500.667	4646.7
501.036	4631.78
501.405	4703.65
501.774	4699.35
502.143	4724.89
502.512	4774.83
502.88	4827.94
503.249	4839.46
503.618	4861.16
503.987	4894.38
504.356	4854.15
504.724	4972.12
505.093	4978.44
505.462	5030.42
505.83	5005.56
506.199	5102.28
506.567	5175.95
506.936	5100.25
507.304	5189.51
507.672	5191.32
508.041	5213.69
508.409	5203.97
508.777	5275.16
509.145	5342.5
509.514	5364.65
509.882	5444.64
510.25	5436.74
510.618	5439.22
510.986	5490.75
511.354	5530.07
511.722	5529.84
512.09	5646.45
512.458	5656.62
512.826	5647.13
513.193	5713.34
513.561	5735.48
513.929	5785.2
514.297	5859.78
514.664	5914.01
515.032	5887.57
515.4	5944.74
515.767	6009.38
516.135	6024.74
516.502	6023.84
516.869	6102.25
517.237	6133.67
517.604	6113.1
517.972	6197.85
518.339	6241.91
518.706	6229.48
519.073	6309.03
519.44	6309.26
519.808	6392.87
520.175	6359.88
520.542	6538.18
520.909	6532.53
521.276	6583.82
521.643	6618.4
522.009	6655.46
522.376	6774.1
522.743	6809.35
523.11	6875.57
523.477	6873.99
523.843	6944.49
524.21	7004.83
524.577	7089.12
524.943	7107.43
525.31	7113.53
525.676	7204.6
526.043	7286.86
526.409	7320.75
526.776	7388.1
527.142	7398.72
527.508	7418.6
527.874	7504.7
528.241	7584.7
528.607	7559.84
528.973	7631.03
529.339	7652.95
529.705	7776.34
530.071	7844.36
530.437	7791.48
530.803	7868.08
531.169	7921.19
531.535	7964.13
531.901	8004.8
532.267	8013.84
532.632	8069.43
532.998	8137
533.364	8113.95
533.73	8206.61
534.095	8273.27
534.461	8334.06
534.826	8308.52
535.192	8389.2
535.557	8418.13
535.923	8419.71
536.288	8448.86
536.653	8540.16
537.019	8463.32
537.384	8564.34
537.749	8556.65
538.114	8596.88
538.479	8595.3
538.845	8751.9
539.21	8679.59
539.575	8826.48
539.94	8758.46
540.305	8854.95
540.67	8852.24
541.034	8858.34
541.399	8893.59
541.764	8970.43
542.129	8968.62
542.494	9057.43
542.858	9044.55
543.223	9058.56
543.587	9163.64
543.952	9141.5
544.316	9150.08
544.681	9203.42
545.045	9244.77
545.41	9271.89
545.774	9299.91
546.138	9355.95
546.503	9386.69
546.867	9434.82
547.231	9479.12
547.595	9523.18
547.959	9536.74
548.324	9523.86
548.688	9569.06
549.052	9595.27
549.416	9627.13
549.779	9649.73
550.143	9676.17
550.507	9795.27
550.871	9811.31
551.235	9816.28
551.599	9896.28
551.962	9941.7
552.326	9940.8
552.689	10029.16
553.053	10077.74
553.417	10080
553.78	10195.25
554.143	10113.67
554.507	10229.83
554.87	10268.02
555.234	10389.6
555.597	10257.85
555.96	10339.88
556.323	10351.41
556.686	10389.15
557.05	10491.29
557.413	10562.7
557.776	10516.15
558.139	10699.87
558.502	10682.7
558.865	10728.57
559.228	10833.2
559.59	10909.36
559.953	10900.32
560.316	10965.4
560.679	10998.17
561.041	11112.97
561.404	11118.39
561.767	11250.14
562.129	11178.73
562.492	11322.91
562.854	11360.2
563.217	11393.87
563.579	11448.78
563.941	11536.46
564.304	11575.11
564.666	11617.14
565.028	11655.33
565.39	11719.28
565.753	11752.5
566.115	11826.85
566.477	11947.52
566.839	11972.61
567.201	12058.93
567.563	12083.11
567.925	12178.71
568.287	12210.12
568.648	12217.8
569.01	12344.8
569.372	12413.05
569.734	12415.31
570.095	12484.91
570.457	12578.92
570.819	12593.38
571.18	12630.22
571.542	12773.72
571.903	12753.61
572.265	12899.59
572.626	12946.82
572.987	12877.9
573.349	12968.29
573.71	13104.56
574.071	13128.51
574.432	13180.26
574.794	13318.56
575.155	13289.41
575.516	13210.54
575.877	13372.35
576.238	13432.68
576.599	13448.73
576.96	13590.42
577.32	13525.11
577.681	13562.17
578.042	13676.52
578.403	13696.86
578.763	13695.5
579.124	13796.06
579.485	13876.74
579.845	13933.91
580.206	13887.13
580.566	13935.5
580.927	13992.44
581.287	14075.6
581.648	13961.71
582.008	14094.81
582.368	14077.86
582.728	14187.92
583.089	14117.64
583.449	14185.88
583.809	14236.5
584.169	14248.26
584.529	14291.64
584.889	14464.52
585.249	14274.24
585.609	14386.1
585.969	14436.95
586.329	14445.31
586.688	14544.29
587.048	14582.48
587.408	14390.62
587.768	14531.41
588.127	14573.9
588.487	14565.99
588.846	14740.22
589.206	14680.33
589.565	14633.33
589.925	14703.61
590.284	14714.23
590.643	14738.41
591.003	14823.38
591.362	14814.57
591.721	14749.26
592.08	14805.98
592.44	14917.62
592.799	14963.49
593.158	14930.95
593.517	15001.23
593.876	14990.83
594.235	14973.43
594.593	15096.59
594.952	15064.05
595.311	15055.01
595.67	15128.46
596.029	15225.4
596.387	15215.46
596.746	15228.12
597.104	15248.23
597.463	15242.13
597.822	15262.92
598.18	15219.53
598.538	15283.03
598.897	15399.86
599.255	15268.34
599.613	15573.87
599.972	15509.92
600.33	15485.28
600.688	15464.95
601.046	15514.44
601.404	15501.1
601.762	15513.98
602.12	15624.49
602.478	15621.78
602.836	15734.32
603.194	15550.59
603.552	15705.62
603.91	15602.8
604.268	15691.38
604.625	15697.93
604.983	15802.79
605.341	15667.88
605.698	15816.12
606.056	15840.76
606.413	15846.63
606.771	15916.46
607.128	15874.43
607.485	15887.76
607.843	15908.1
608.2	16093.63
608.557	16068.32
608.914	16068.32
609.272	16089.11
609.629	16047.3
609.986	16198.26
610.343	16094.08
610.7	16252.95
611.057	16213.18
611.414	16260.63
611.771	16240.52
612.127	16278.71
612.484	16265.83
612.841	16299.5
613.198	16282.1
613.554	16320.29
613.911	16437.12
614.267	16397.13
614.624	16434.41
614.98	16356.9
615.337	16556.9
615.693	16530.91
616.05	16480.96
616.406	16661.98
616.762	16599.61
617.118	16611.13
617.475	16548.99
617.831	16712.15
618.187	16630.57
618.543	16712.37
618.899	16745.82
619.255	16657.01
619.611	16647.97
619.967	16739.94
620.323	16788.98
620.678	16722.54
621.034	16757.34
621.39	16699.04
621.746	16714.41
622.101	16934.51
622.457	16859.94
622.812	16823.33
623.168	16809.32
623.523	16855.42
623.879	16905.59
624.234	16798.02
624.589	16894.06
624.945	16838.02
625.3	16935.19
625.655	16896.32
626.01	16918.47
626.365	16918.69
626.72	16931.8
627.075	16838.24
627.43	16825.14
627.785	16845.7
628.14	16885.47
628.495	16913.04
628.85	16880.73
629.205	16905.81
629.559	16883.67
629.914	16788.75
630.269	16850.67
630.623	16789.66
630.978	16754.86
631.332	16842.54
631.687	16841.63
632.041	16807.28
632.396	16861.29
632.75	16749.66
633.104	16808.87
633.459	16730.9
633.813	16732.71
634.167	16780.39
634.521	16807.96
634.875	16705.37
635.229	16751.24
635.583	16593.73
635.937	16600.06
636.291	16653.84
636.645	16736.1
636.999	16636.89
637.352	16646.38
637.706	16473.96
638.06	16550.12
638.413	16610.23
638.767	16457.91
639.121	16583.56
639.474	16421.31
639.828	16465.6
640.181	16510.12
640.534	16442.77
640.888	16417.46
641.241	16300.86
641.594	16490.23
641.947	16410.46
642.301	16391.7
642.654	16412.49
643.007	16376.33
643.36	16313.29
643.713	16390.12
644.066	16354.64
644.419	16283.46
644.771	16218.6
645.124	15987.64
645.477	15983.8
645.83	15825.61
646.182	15864.94
646.535	15822.68
646.888	15858.61
647.24	15761.44
647.593	15930.47
647.945	15872.85
648.298	15790.14
648.65	15812.28
649.002	15811.6
649.355	15748.78
649.707	15747.65
650.059	15788.1
650.411	15939.96
650.763	16014.31
651.115	16161.2
651.467	16106.06
651.819	16101.77
652.171	16094.99
652.523	16061.77
652.875	16070.13
653.227	15968.44
653.578	16079.39
653.93	16045.04
654.282	15990.36
654.633	15902.45
654.985	16002.33
655.337	16034.2
655.688	15977.7
656.039	16007.53
656.391	15940.64
656.742	16024.25
657.094	15917.14
657.445	16082.33
657.796	15942.22
658.147	15933.18
658.498	15960.3
658.849	15997.14
659.2	15942
659.551	15930.24
659.902	16043.69
660.253	15878.95
660.604	15959.85
660.955	15906.97
661.306	16014.54
661.656	15955.56
662.007	15976.35
662.358	15949.68
662.708	15929.79
663.059	15891.15
663.409	15802.34
663.76	15927.08
664.11	15915.1
664.461	15929.12
664.811	15941.32
665.161	15948.32
665.511	15885.05
665.862	15912.62
666.212	16017.7
666.562	15914.88
666.912	15946.06
667.262	15916.23
667.612	15944.48
667.962	15914.88
668.312	15890.47
668.662	15948.78
669.011	15916.01
669.361	15845.73
669.711	15920.75
670.06	15918.49
670.41	15868.55
670.76	15892.73
671.109	15913.75
671.459	15869
671.808	15876.69
672.157	15901.77
672.507	15808.21
672.856	15826.29
673.205	15789.68
673.554	15906.29
673.904	15918.04
674.253	15921.43
674.602	15797.14
674.951	15561.44
675.3	15559.18
675.649	15837.37
675.998	15836.91
676.346	15805.05
676.695	15843.92
677.044	15618.16
677.393	15834.2
677.741	15819.51
678.09	15726.86
678.438	15643.02
678.787	15735
679.135	15793.53
679.484	15692.96
679.832	15710.59
680.181	15637.82
680.529	15697.03
680.877	15582.91
681.225	15707.2
681.573	15745.17
681.922	15613.42
682.27	15563.7
682.618	15642.57
682.966	15499.52
683.314	15528.67
683.661	15506.75
684.009	15554.89
684.357	15513.53
684.705	15449.58
685.053	15402.35
685.4	15376.36
685.748	15339.98
686.095	15413.87
686.443	15354.21
686.79	15282.58
687.138	15251.84
687.485	15225.4
687.832	15237.38
688.18	15299.53
688.527	15199.87
688.874	15170.49
689.221	15142.92
689.568	15101.34
689.915	15077.84
690.262	15109.25
690.609	15044.17
690.956	14924.17
691.303	14976.15
691.65	14892.98
691.997	14890.72
692.344	14754.23
692.69	14816.6
693.037	14821.12
693.383	14717.17
693.73	14850.95
694.077	14659.54
694.423	14679.43
694.769	14658.87
695.116	14535.71
695.462	14672.65
695.808	14616.38
696.155	14587
696.501	14395.14
696.847	14470.85
697.193	14405.54
697.539	14344.07
697.885	14347.46
698.231	14216.39
698.577	14308.37
698.923	14264.75
699.269	14241.25
699.614	14100.01
699.96	14154.7
700.306	14065.66
700.651	14062.05
700.997	13980.24
701.342	13975.27
701.688	13936.17
702.033	13871.99
702.379	13940.01
702.724	13791.77
703.069	13836.51
703.415	13704.54
703.76	13746.35
704.105	13798.1
704.45	13763.3
704.795	13546.13
705.14	13632.23
705.485	13597.42
705.83	13593.58
706.175	13508.84
706.52	13545.9
706.865	13470.87
707.209	13507.94
707.554	13429.97
707.899	13489.63
708.243	13290.54
708.588	13288.73
708.932	13292.8
709.277	13176.42
709.621	13263.65
709.966	13190.2
710.31	13276.76
710.654	13089.19
710.998	13150.43
711.342	13185.91
711.687	13140.04
712.031	13019.36
712.375	13027.5
712.719	13042.86
713.063	13019.81
713.407	13059.13
713.75	13001.28
714.094	12947.5
714.438	12868.63
714.782	12958.35
715.125	12894.39
715.469	12911.57
715.812	12874.28
716.156	12766.94
716.499	12880.38
716.843	12836.09
717.186	12697.79
717.53	12752.7
717.873	12819.14
718.216	12809.2
718.559	12727.84
718.902	12712.02
719.246	12664.79
719.589	12611.24
719.932	12634.51
720.275	12620.28
720.617	12588.19
720.96	12619.37
721.303	12657.79
721.646	12567.85
721.989	12584.8
722.331	12593.61
722.674	12474.52
723.016	12515.42
723.359	12528.53
723.701	12481.07
724.044	12433.61
724.386	12314.07
724.729	12457.12
725.071	12432.48
725.413	12484.91
725.755	12411.69
726.097	12339.15
726.439	12280.4
726.782	12330.79
727.124	12305.71
727.465	12431.13
727.807	12349.32
728.149	12293.05
728.491	12289.21
728.833	12213.96
729.175	12239.72
729.516	12297.35
729.858	12251.92
730.199	12281.98
730.541	12237.23
730.882	12287.63
731.224	12238.59
731.565	12201.76
731.906	12183.9
732.248	12272.71
732.589	12161.76
732.93	12151.14
733.271	12128.31
733.612	12258.03
733.953	12206.95
734.294	12209.44
734.635	12039.95
734.976	12112.49
735.317	12070.23
735.658	12092.38
735.999	11996.56
736.339	12069.1
736.68	12039.5
737.021	12097.35
737.361	12058.03
737.702	12099.84
738.042	12155.65
738.383	12040.86
738.723	12107.75
739.063	11952.95
739.404	12080.4
739.744	11996.79
740.084	11994.98
740.424	11947.98
740.764	11973.29
741.104	12024.13
741.444	11985.49
741.784	11930.8
742.124	11907.3
742.464	11907.98
742.804	11963.57
743.143	11877.24
743.483	11933.97
743.823	11820.07
744.162	11783.69
744.502	11859.17
744.841	11839.96
745.181	11858.94
745.52	11736.23
745.86	11911.14
746.199	11830.92
746.538	11805.61
746.877	11854.42
747.216	11834.99
747.556	11803.12
747.895	11837.92
748.234	11810.35
748.573	11770.35
748.911	11763.8
749.25	11798.15
749.589	11614.43
749.928	11724.25
750.267	11664.14
750.605	11702.11
750.944	11731.03
751.283	11680.87
751.621	11696.01
751.96	11566.52
752.298	11661.66
752.636	11707.53
752.975	11653.52
753.313	11590.02
753.651	11625.95
753.989	11570.13
754.327	11542.11
754.666	11451.04
755.004	11593.64
755.342	11486.07
755.679	11537.59
756.017	11406.52
756.355	11413.53
756.693	11386.41
757.031	11452.85
757.368	11326.52
757.706	11336.47
758.044	11271.61
758.381	11345.28
758.719	11294.66
