Data from tablewood_dark_bookshelf_FLMS001491_00069.txt Node
Date: Wed Feb 08 14:15:24 GMT 2017
User: dcchb
Spectrometer: FLMS00149
Trigger mode: 0
Integration Time (sec): 2.000000E-2
Scans to average: 10
Electric dark correction enabled: true
Nonlinearity correction enabled: false
Boxcar width: 0
XAxis mode: Wavelengths
Number of Pixels in Spectrum: 2048
>>>>>Begin Spectral Data<<<<<
341.393	-18.06
341.776	-18.06
342.16	-18.06
342.543	-62.81
342.927	-64.39
343.31	-61.45
343.693	-75.24
344.077	-69.14
344.46	-59.87
344.843	-36.37
345.226	-57.39
345.61	-19.65
345.993	-32.75
346.376	7.02
346.759	26.68
347.142	30.07
347.525	39.34
347.908	33.23
348.291	65.32
348.674	98.77
349.057	111.42
349.44	136.28
349.823	150.52
350.206	157.98
350.588	182.83
350.971	194.59
351.354	207.69
351.737	232.78
352.119	235.94
352.502	263.06
352.884	251.76
353.267	266.9
353.65	285.88
354.032	267.8
354.414	305.77
354.797	315.03
355.179	310.06
355.562	303.06
355.944	298.76
356.326	314.58
356.709	336.5
357.091	326.33
357.473	327.46
357.855	321.14
358.238	326.79
358.62	326.56
359.002	315.71
359.384	324.53
359.766	328.82
360.148	331.76
360.53	329.5
360.912	345.77
361.294	348.25
361.676	334.92
362.057	305.99
362.439	320.91
362.821	328.82
363.203	321.81
363.584	323.17
363.966	313.9
364.348	325.66
364.729	316.16
365.111	326.56
365.493	322.49
365.874	311.42
366.256	299.89
366.637	310.29
367.019	313
367.4	300.35
367.781	301.25
368.163	316.16
368.544	304.64
368.925	312.1
369.306	287.92
369.688	290.18
370.069	317.07
370.45	306.22
370.831	290.63
371.212	307.8
371.593	326.56
371.974	321.14
372.355	330.63
372.736	325.88
373.117	299.22
373.498	309.84
373.879	326.11
374.26	300.57
374.641	294.47
375.021	303.96
375.402	303.28
375.783	329.27
376.163	334.69
376.544	322.49
376.925	335.37
377.305	339.21
377.686	308.25
378.066	331.53
378.447	331.98
378.827	328.59
379.208	339.21
379.588	324.98
379.968	345.09
380.349	341.25
380.729	320.01
381.109	322.72
381.489	342.15
381.87	319.78
382.25	330.4
382.63	358.65
383.01	353.68
383.39	350.97
383.77	352.77
384.15	345.09
384.53	357.29
384.91	362.94
385.29	343.51
385.67	349.16
386.049	381.47
386.429	357.97
386.809	376.28
387.189	355.49
387.568	376.28
387.948	361.13
388.328	344.86
388.707	387.8
389.087	364.07
389.466	377.41
389.846	374.02
390.225	383.28
390.605	369.95
390.984	378.76
391.363	389.38
391.743	385.54
392.122	393.9
392.501	382.6
392.881	378.54
393.26	397.74
393.639	389.61
394.018	402.04
394.397	408.36
394.776	409.27
395.155	398.87
395.534	409.49
395.913	403.62
396.292	395.94
396.671	419.44
397.05	427.12
397.429	442.94
397.808	424.18
398.186	421.7
398.565	409.04
398.944	436.61
399.323	439.32
399.701	433
400.08	437.52
400.458	423.96
400.837	456.27
401.215	441.13
401.594	447.01
401.972	428.48
402.351	451.75
402.729	459.66
403.107	459.21
403.486	456.73
403.864	448.36
404.242	465.99
404.62	459.21
404.999	455.82
405.377	478.87
405.755	464.41
406.133	483.17
406.511	492.88
406.889	471.19
407.267	473.22
407.645	515.03
408.023	474.35
408.401	492.88
408.779	502.37
409.156	481.36
409.534	497.85
409.912	511.87
410.29	521.58
410.667	509.83
411.045	511.41
411.422	541.24
411.8	535.37
412.178	550.28
412.555	537.63
412.933	551.41
413.31	570.39
413.687	587.57
414.065	557.74
414.442	549.6
414.819	545.31
415.197	554.8
415.574	592.31
415.951	564.29
416.328	567
416.705	581.24
417.082	596.38
417.46	609.72
417.837	617.17
418.214	590.06
418.591	610.85
418.967	618.3
419.344	613.56
419.721	605.2
420.098	604.74
420.475	625.76
420.852	633.9
421.228	623.27
421.605	606.1
421.982	634.12
422.358	639.77
422.735	661.01
423.111	653.1
423.488	653.56
423.864	692.43
424.241	668.7
424.617	704.85
424.994	691.07
425.37	694.91
425.746	701.01
426.123	687.91
426.499	712.54
426.875	688.81
427.251	720
427.627	706.21
428.003	750.28
428.379	730.62
428.756	755.02
429.132	756.6
429.507	729.71
429.883	752.99
430.259	776.49
430.635	807.68
431.011	783.72
431.387	799.32
431.763	805.87
432.138	796.83
432.514	811.29
432.89	810.84
433.265	814.68
433.641	839.09
434.016	870.95
434.392	839.99
434.767	882.02
435.143	852.65
435.518	877.05
435.894	884.28
436.269	902.82
436.644	894.91
437.02	905.98
437.395	913.21
437.77	929.03
438.145	917.5
438.52	942.14
438.895	949.59
439.271	976.94
439.646	960.89
440.021	999.54
440.395	986.43
440.77	954.57
441.145	985.52
441.52	988.01
441.895	1007.9
442.27	1022.13
442.645	998.18
443.019	1017.16
443.394	1001.12
443.769	1020.33
444.143	1027.56
444.518	1054.68
444.892	1044.96
445.267	1055.58
445.641	1060.1
446.016	1054
446.39	1083.38
446.764	1060.55
447.139	1060.78
447.513	1063.49
447.887	1092.87
448.262	1082.92
448.636	1105.75
449.01	1118.4
449.384	1134.22
449.758	1127.67
450.132	1138.74
450.506	1131.06
450.88	1143.49
451.254	1151.62
451.628	1153.88
452.002	1169.93
452.376	1194.78
452.75	1199.98
453.123	1201.34
453.497	1241.34
453.871	1243.15
454.244	1234.11
454.618	1263.26
454.992	1276.14
455.365	1282.47
455.739	1288.79
456.112	1327.44
456.486	1344.39
456.859	1345.06
457.232	1371.73
457.606	1361.79
457.979	1402.46
458.352	1390.94
458.725	1400.43
459.099	1449.69
459.472	1474.78
459.845	1474.78
460.218	1467.09
460.591	1488.34
460.964	1512.06
461.337	1513.19
461.71	1550.93
462.083	1559.3
462.456	1590.48
462.829	1575.11
463.201	1633.19
463.574	1616.92
463.947	1624.38
464.32	1653.76
464.692	1666.64
465.065	1670.03
465.438	1692.85
465.81	1727.43
466.183	1771.49
466.555	1783.02
466.928	1802.9
467.3	1788.44
467.672	1848.55
468.045	1891.04
468.417	1898.72
468.789	1879.06
469.161	1896.01
469.534	1932.39
469.906	1959.74
470.278	1984.14
470.65	1994.31
471.022	2030.7
471.394	2088.09
471.766	2084.48
472.138	2099.62
472.51	2149.56
472.882	2149.34
473.253	2218.03
473.625	2246.28
473.997	2257.13
474.369	2271.14
474.74	2322.21
475.112	2330.12
475.484	2372.38
475.855	2433.17
476.227	2477.92
476.598	2505.03
476.97	2524.69
477.341	2560.17
477.713	2598.82
478.084	2636.33
478.455	2675.42
478.827	2682.66
479.198	2778.92
479.569	2781.18
479.94	2852.37
480.311	2901.18
480.682	2946.6
481.053	2974.85
481.424	3041.06
481.795	3090.33
482.166	3120.38
482.537	3159.71
482.908	3203.32
483.279	3252.81
483.65	3308.63
484.021	3360.38
484.391	3426.14
484.762	3437.21
485.133	3458.45
485.503	3532.8
485.874	3599.02
486.244	3656.64
486.615	3687.83
486.985	3770.31
487.356	3786.58
487.726	3810.31
488.097	3913.13
488.467	3880.14
488.837	3965.79
489.207	4025.9
489.578	4082.62
489.948	4146.57
490.318	4207.59
490.688	4189.28
491.058	4199.45
491.428	4326.45
491.798	4372.33
492.168	4451.42
492.538	4453.68
492.908	4470.86
493.278	4585.43
493.648	4586.79
494.017	4595.83
494.387	4655.26
494.757	4710.62
495.126	4754.92
495.496	4766.44
495.866	4761.24
496.235	4856.16
496.605	4920.34
496.974	4959.21
497.344	4997.85
497.713	4979.09
498.082	5068.58
498.452	5114.23
498.821	5151.74
499.19	5144.96
499.559	5179.76
499.928	5261.57
500.298	5255.02
500.667	5393.77
501.036	5301.8
501.405	5391.51
501.774	5390.61
502.143	5438.97
502.512	5457.05
502.88	5505.18
503.249	5533.65
503.618	5547.66
503.987	5597.83
504.356	5636.25
504.724	5637.83
505.093	5714.89
505.462	5758.05
505.83	5850.48
506.199	5845.96
506.567	5892.74
506.936	5907.88
507.304	5994.66
507.672	6000.99
508.041	6005.96
508.409	6069.46
508.777	6190.13
509.145	6202.56
509.514	6173.19
509.882	6240.08
510.25	6317.59
510.618	6348.1
510.986	6322.56
511.354	6449.56
511.722	6483.01
512.09	6479.17
512.458	6530.69
512.826	6581.54
513.193	6594.42
513.561	6680.97
513.929	6709.44
514.297	6739.5
514.664	6813.17
515.032	6844.35
515.4	6912.6
515.767	6944.92
516.135	6992.6
516.502	6980.62
516.869	7076.89
517.237	7093.84
517.604	7120.73
517.972	7165.48
518.339	7245.93
518.706	7299.94
519.073	7339.03
519.44	7352.82
519.808	7488.63
520.175	7426.71
520.542	7601.17
520.909	7620.38
521.276	7599.59
521.643	7724.56
522.009	7786.25
522.376	7897.89
522.743	7912.12
523.11	8019.24
523.477	8081.84
523.843	8118.22
524.21	8110.76
524.577	8254.26
524.943	8294.71
525.31	8359.34
525.676	8424.43
526.043	8458.32
526.409	8538.09
526.776	8528.15
527.142	8581.71
527.508	8638.88
527.874	8751.42
528.241	8784.19
528.607	8835.49
528.973	8880.23
529.339	8965.2
529.705	9044.52
530.071	9085.65
530.437	9147.12
530.803	9196.83
531.169	9287
531.535	9278.19
531.901	9240.68
532.267	9360.22
532.632	9461.01
532.998	9470.5
533.364	9537.62
533.73	9539.2
534.095	9573.32
534.461	9693.32
534.826	9731.28
535.192	9664.17
535.557	9880.21
535.923	9819.64
536.288	9885.63
536.653	9939.41
537.019	9839.53
537.384	9995.68
537.749	10026.42
538.114	10099.64
538.479	10124.49
538.845	10210.59
539.21	10155.68
539.575	10167.66
539.94	10272.51
540.305	10294.66
540.67	10334.66
541.034	10311.61
541.399	10396.12
541.764	10412.17
542.129	10418.72
542.494	10532.17
542.858	10536.01
543.223	10551.83
543.587	10702.56
543.952	10643.8
544.316	10642.22
544.681	10697.36
545.045	10820.29
545.41	10753.63
545.774	10850.35
546.138	10937.58
546.503	10949.1
546.867	10940.74
547.231	10965.83
547.595	11020.74
547.959	11103.23
548.324	11055.99
548.688	11116.56
549.052	11123.79
549.416	11180.29
549.779	11243.56
550.143	11245.59
550.507	11322.43
550.871	11334.18
551.235	11365.14
551.599	11539.82
551.962	11451.92
552.326	11626.6
552.689	11634.51
553.053	11625.02
553.417	11638.13
553.78	11752.93
554.143	11780.95
554.507	11770.55
554.87	11870.21
555.234	11974.39
555.597	11931
555.96	12058.91
556.323	12094.61
556.686	12154.5
557.05	12167.83
557.413	12239.92
557.776	12331.67
558.139	12370.76
558.502	12340.93
558.865	12434.04
559.228	12485.56
559.59	12614.6
559.953	12643.3
560.316	12702.5
560.679	12782.05
561.041	12730.75
561.404	12929.39
561.767	12890.75
562.129	12889.39
562.492	13095.49
562.854	13121.03
563.217	13083.74
563.579	13156.5
563.941	13321.25
564.304	13388.81
564.666	13475.82
565.028	13433.11
565.39	13508.36
565.753	13534.35
566.115	13681.24
566.477	13654.8
566.839	13784.51
567.201	13832.19
567.563	13822.02
567.925	14025.18
568.287	14056.37
568.648	14055.24
569.01	14194.9
569.372	14335.68
569.734	14203.48
570.095	14347.89
570.457	14419.52
570.819	14399.64
571.18	14532.29
571.542	14501.55
571.903	14640.31
572.265	14748.33
572.626	14795.56
572.987	14744.94
573.349	14941.09
573.71	14979.96
574.071	14922.79
574.432	14981.09
574.794	15162.55
575.155	15057.02
575.516	15093.18
575.877	15224.92
576.238	15276.22
576.599	15266.28
576.96	15248.43
577.32	15344.47
577.681	15460.17
578.042	15513.73
578.403	15529.55
578.763	15653.61
579.124	15651.81
579.485	15768.64
579.845	15864.91
580.206	15807.73
580.566	15850.9
580.927	15876.66
581.287	15972.48
581.648	15862.42
582.008	15992.81
582.368	16033.94
582.728	16053.6
583.089	16030.55
583.449	15996.2
583.809	16076.65
584.169	16073.94
584.529	16170.21
584.889	16349.64
585.249	16165.24
585.609	16190.55
585.969	16430.09
586.329	16290.21
586.688	16261.51
587.048	16301.51
587.408	16328.4
587.768	16473.25
588.127	16450.43
588.487	16426.93
588.846	16659.24
589.206	16503.53
589.565	16444.78
589.925	16600.93
590.284	16674.6
590.643	16582.4
591.003	16620.14
591.362	16719.12
591.721	16708.5
592.08	16734.72
592.44	16808.39
592.799	16725.68
593.158	16776.3
593.517	16809.74
593.876	16745.11
594.235	16879.57
594.593	16808.84
594.952	16968.16
595.311	16950.08
595.67	17037.31
596.029	17104.65
596.387	17133.35
596.746	16999.79
597.104	17041.83
597.463	17036.85
597.822	17183.52
598.18	17105.55
598.538	17061.26
598.897	17236.62
599.255	17191.88
599.613	17432.1
599.972	17350.97
600.33	17388.94
600.688	17320.46
601.046	17413.12
601.404	17444.3
601.762	17426.22
602.12	17548.03
602.478	17517.97
602.836	17452.66
603.194	17453.34
603.552	17496.96
603.91	17431.65
604.268	17604.07
604.625	17580.79
604.983	17648.14
605.341	17572.89
605.698	17764.52
606.056	17791.86
606.413	17794.12
606.771	17802.94
607.128	17827.12
607.485	17720.23
607.843	17756.61
608.2	17959.99
608.557	17927.45
608.914	17911.86
609.272	17957.96
609.629	18031.4
609.986	18127
610.343	17958.19
610.7	18116.15
611.057	18169.48
611.414	18165.41
611.771	18024.85
612.127	18221.46
612.484	18163.15
612.841	18347.33
613.198	18286.31
613.554	18219.65
613.911	18317.5
614.267	18257.16
614.624	18406.08
614.98	18482.01
615.337	18492.64
615.693	18420.77
616.05	18438.63
616.406	18539.64
616.762	18519.75
617.118	18500.32
617.475	18359.98
617.831	18522.24
618.187	18588
618.543	18710.93
618.899	18708.45
619.255	18684.27
619.611	18739.18
619.967	18736.92
620.323	18791.61
620.678	18724.04
621.034	18654.44
621.39	18631.16
621.746	18562.46
622.101	18826.19
622.457	18718.62
622.812	18736.92
623.168	18807.88
623.523	18706.41
623.879	18880.65
624.234	18731.95
624.589	18811.95
624.945	18847.88
625.3	18759.29
625.655	18865.96
626.01	18744.61
626.365	18894.43
626.72	18852.63
627.075	18835.45
627.43	18852.85
627.785	18862.57
628.14	18806.3
628.495	18777.37
628.85	18674.33
629.205	18673.65
629.559	18965.39
629.914	18734.21
630.269	18772.85
630.623	18806.53
630.978	18699.18
631.332	18776.24
631.687	18795.68
632.041	18740.99
632.396	18710.03
632.75	18715
633.104	18758.84
633.459	18622.8
633.813	18645.4
634.167	18582.8
634.521	18660.77
634.875	18675.91
635.229	18594.1
635.583	18582.8
635.937	18586.19
636.291	18509.58
636.645	18505.74
636.999	18448.79
637.352	18512.3
637.706	18359.31
638.06	18522.01
638.413	18388.23
638.767	18473.2
639.121	18450.6
639.474	18348.68
639.828	18368.34
640.181	18374.67
640.534	18375.12
640.888	18311.85
641.241	18234.79
641.594	18315.69
641.947	18281.57
642.301	18341.9
642.654	18142.36
643.007	18206.77
643.36	18186.2
643.713	18165.41
644.066	18170.16
644.419	18160.89
644.771	18035.02
645.124	17956.83
645.477	17882.71
645.83	17703.73
646.182	17626.67
646.535	17688.36
646.888	17677.52
647.24	17510.06
647.593	17568.59
647.945	17519.78
648.298	17496.5
648.65	17370.63
649.002	17383.06
649.355	17484.75
649.707	17496.73
650.059	17558.65
650.411	17758.64
650.763	17688.14
651.115	18032.99
651.467	17830.73
651.819	17897.17
652.171	17814.01
652.523	17772.65
652.875	17872.76
653.227	17755.03
653.578	17896.27
653.93	17818.75
654.282	17749.83
654.633	17753.45
654.985	17732.66
655.337	17774.24
655.688	17782.82
656.039	17818.53
656.391	17663.05
656.742	17692.66
657.094	17682.49
657.445	17797.29
657.796	17729.27
658.147	17741.24
658.498	17675.03
658.849	17811.07
659.2	17721.58
659.551	17639.78
659.902	17736.5
660.253	17702.6
660.604	17727.23
660.955	17650.62
661.306	17700.34
661.656	17676.84
662.007	17703.5
662.358	17697.85
662.708	17682.26
663.059	17650.4
663.409	17486.33
663.76	17653.11
664.11	17657.63
664.461	17622.15
664.811	17771.98
665.161	17644.07
665.511	17519.78
665.862	17620.12
666.212	17695.82
666.562	17723.62
666.912	17666.89
667.262	17724.97
667.612	17660.34
667.962	17650.85
668.312	17625.77
668.662	17759.32
669.011	17568.59
669.361	17606.78
669.711	17557.74
670.06	17519.1
670.41	17581.7
670.76	17602.26
671.109	17610.17
671.459	17615.37
671.808	17548.25
672.157	17598.2
672.507	17474.58
672.856	17508.48
673.205	17449.95
673.554	17682.04
673.904	17620.79
674.253	17660.34
674.602	17567.91
674.951	17242.5
675.3	17216.96
675.649	17505.09
675.998	17411.99
676.346	17386.45
676.695	17560.91
677.044	17375.15
677.393	17434.81
677.741	17543.96
678.09	17467.13
678.438	17342.38
678.787	17532.21
679.135	17470.74
679.484	17347.35
679.832	17311.65
680.181	17365.89
680.529	17408.14
680.877	17305.1
681.225	17304.64
681.573	17410.18
681.922	17243.4
682.27	17199.56
682.618	17207.92
682.966	17101.71
683.314	17230.97
683.661	17145.55
684.009	16973.81
684.357	17072.56
684.705	17013.8
685.053	17119.79
685.4	17079.79
685.748	16856.07
686.095	16882.73
686.443	16860.36
686.79	16875.28
687.138	16904.65
687.485	16882.51
687.832	16777.65
688.18	16778.33
688.527	16660.82
688.874	16743.98
689.221	16597.54
689.568	16620.59
689.915	16614.72
690.262	16621.05
690.609	16535.17
690.956	16461.05
691.303	16518.68
691.65	16367.27
691.997	16447.04
692.344	16260.38
692.69	16333.37
693.037	16325.23
693.383	16240.27
693.73	16235.97
694.077	16178.12
694.423	16140.15
694.769	16086.37
695.116	16002.98
695.462	15977.67
695.808	15959.82
696.155	15909.2
696.501	15860.39
696.847	15835.3
697.193	15795.98
697.539	15824.91
697.885	15737.23
698.231	15643.22
698.577	15623.33
698.923	15573.39
699.269	15614.52
699.614	15436.67
699.96	15507.4
700.306	15377.01
700.651	15423.79
700.997	15324.81
701.342	15255.21
701.688	15342.89
702.033	15257.92
702.379	15267.64
702.724	15188.77
703.069	15217.24
703.415	15069.67
703.76	14980.41
704.105	14968.21
704.45	15025.61
704.795	15026.51
705.14	14901.32
705.485	14930.02
705.83	14810.7
706.175	14804.82
706.52	14800.98
706.865	14801.43
707.209	14644.83
707.554	14653.41
707.899	14766.63
708.243	14658.16
708.588	14622.23
708.932	14522.57
709.277	14542.23
709.621	14458.17
709.966	14424.95
710.31	14459.07
710.654	14333.42
710.998	14408.45
711.342	14417.49
711.687	14367.32
712.031	14322.8
712.375	14221.34
712.719	14331.16
713.063	14254.1
713.407	14298.4
713.75	14170.04
714.094	14247.32
714.438	14160.09
714.782	14126.42
715.125	14044.39
715.469	14098.85
715.812	14038.52
716.156	13926.65
716.499	13987.67
716.843	13939.53
717.186	13885.07
717.53	13944.28
717.873	13972.3
718.216	13900.89
718.559	13911.96
718.902	13751.74
719.246	13809.14
719.589	13728.92
719.932	13697.96
720.275	13753.55
720.617	13637.4
720.96	13702.7
721.303	13686.43
721.646	13733.66
721.989	13654.57
722.331	13708.13
722.674	13669.49
723.016	13678.75
723.359	13632.2
723.701	13563.95
724.044	13537.51
724.386	13461.58
724.729	13617.96
725.071	13502.71
725.413	13497.96
725.755	13513.56
726.097	13454.58
726.439	13410.06
726.782	13499.55
727.124	13453.9
727.465	13378.42
727.807	13414.12
728.149	13342.49
728.491	13338.87
728.833	13343.39
729.175	13307.01
729.516	13286.44
729.858	13353.56
730.199	13349.49
730.541	13306.78
730.882	13263.62
731.224	13238.99
731.565	13236.28
731.906	13200.12
732.248	13292.77
732.589	13144.75
732.93	13173.45
733.271	13126.67
733.612	13171.19
733.953	13188.37
734.294	13121.25
734.635	13171.19
734.976	13203.51
735.317	13066.56
735.658	13140.46
735.999	13058.65
736.339	13123.74
736.68	13185.66
737.021	13072.44
737.361	13025.66
737.702	13147.01
738.042	13037.19
738.383	12999.22
738.723	13051.42
739.063	13003.29
739.404	13037.86
739.744	13015.04
740.084	12981.82
740.424	12946.79
740.764	12956.96
741.104	12950.63
741.444	12931.43
741.784	12895.72
742.124	12925.1
742.464	12867.02
742.804	12874.48
743.143	12838.32
743.483	12903.18
743.823	12793.35
744.162	12767.81
744.502	12804.65
744.841	12758.32
745.181	12831.32
745.52	12714.03
745.86	12797.42
746.199	12787.47
746.538	12779.57
746.877	12855.72
747.216	12815.04
747.556	12749.51
747.895	12733.24
748.234	12613.02
748.573	12622.28
748.911	12716.74
749.25	12591.77
749.589	12651.43
749.928	12624.77
750.267	12672
750.605	12603.3
750.944	12658.44
751.283	12586.8
751.621	12598.33
751.96	12482.62
752.298	12539.35
752.636	12536.63
752.975	12433.13
753.313	12434.94
753.651	12518.33
753.989	12463.19
754.327	12428.84
754.666	12454.6
755.004	12381.16
755.342	12366.02
755.679	12366.02
756.017	12310.2
756.355	12265.45
756.693	12300.93
757.031	12242.86
757.368	12128.96
