Data from tablewood_dark_bookshelf_FLMS001491_00042.txt Node
Date: Wed Feb 08 14:14:48 GMT 2017
User: dcchb
Spectrometer: FLMS00149
Trigger mode: 0
Integration Time (sec): 2.000000E-2
Scans to average: 10
Electric dark correction enabled: true
Nonlinearity correction enabled: false
Boxcar width: 0
XAxis mode: Wavelengths
Number of Pixels in Spectrum: 2048
>>>>>Begin Spectral Data<<<<<
341.393	-6.93
341.776	-6.93
342.16	-6.93
342.543	-65.46
342.927	-58.01
343.31	-67.05
343.693	-55.97
344.077	-78.12
344.46	-53.49
344.843	-62.3
345.226	-38.12
345.61	-35.86
345.993	-15.97
346.376	-9.87
346.759	6.62
347.142	9.11
347.525	53.63
347.908	58.6
348.291	85.04
348.674	90.01
349.057	113.74
349.44	118.94
349.823	143.34
350.206	154.42
350.588	192.16
350.971	210.01
351.354	215.88
351.737	230.8
352.119	234.19
352.502	256.56
352.884	246.39
353.267	259.5
353.65	261.53
354.032	279.84
354.414	275.54
354.797	314.86
355.179	305.15
355.562	319.38
355.944	315.32
356.326	299.72
356.709	305.6
357.091	289.1
357.473	315.54
357.855	314.19
358.238	325.49
358.62	322.32
359.002	313.73
359.384	310.8
359.766	337.24
360.148	325.71
360.53	306.28
360.912	343.56
361.294	315.77
361.676	327.75
362.057	320.51
362.439	320.06
362.821	315.77
363.203	313.28
363.584	310.12
363.966	304.7
364.348	322.32
364.729	287.07
365.111	310.34
365.493	303.79
365.874	288.88
366.256	309.67
366.637	299.95
367.019	306.5
367.4	298.37
367.781	306.73
368.163	305.15
368.544	289.1
368.925	295.2
369.306	294.75
369.688	291.59
370.069	306.28
370.45	313.28
370.831	299.05
371.212	286.39
371.593	293.85
371.974	288.42
372.355	300.4
372.736	308.31
373.117	301.98
373.498	308.09
373.879	305.6
374.26	296.11
374.641	290.01
375.021	293.62
375.402	299.27
375.783	314.19
376.163	332.27
376.544	338.14
376.925	325.71
377.305	327.07
377.686	318.25
378.066	321.19
378.447	315.32
378.827	338.14
379.208	317.12
379.588	330.01
379.968	324.58
380.349	310.34
380.729	343.11
381.109	329.1
381.489	334.07
381.87	348.54
382.25	329.55
382.63	351.25
383.01	342.21
383.39	357.35
383.77	342.21
384.15	332.04
384.53	344.24
384.91	337.69
385.29	347.86
385.67	340.17
386.049	361.19
386.429	348.54
386.809	360.29
387.189	344.02
387.568	349.89
387.948	379.04
388.328	359.38
388.707	356.67
389.087	362.55
389.466	370.68
389.846	352.38
390.225	363.9
390.605	353.96
390.984	380.63
391.363	377.46
391.743	364.13
392.122	389.21
392.501	377.69
392.881	387.86
393.26	372.49
393.639	378.37
394.018	379.72
394.397	392.83
394.776	385.37
395.155	388.08
395.534	398.25
395.913	374.75
396.292	382.66
396.671	399.16
397.05	408.2
397.429	401.19
397.808	410.91
398.186	391.25
398.565	400.51
398.944	410.91
399.323	407.07
399.701	422.66
400.08	422.88
400.458	412.26
400.837	407.52
401.215	411.59
401.594	410
401.972	408.42
402.351	425.82
402.729	415.88
403.107	428.76
403.486	403
403.864	419.49
404.242	435.99
404.62	433.51
404.999	412.26
405.377	449.78
405.755	446.16
406.133	433.96
406.511	456.78
406.889	454.97
407.267	442.54
407.645	461.53
408.023	466.5
408.401	463.11
408.779	478.93
409.156	483.9
409.534	473.28
409.912	475.54
410.29	503.56
410.667	491.13
411.045	473.28
411.422	487.29
411.8	515.54
412.178	502.66
412.555	490.45
412.933	499.72
413.31	532.49
413.687	530
414.065	524.8
414.442	535.2
414.819	526.38
415.197	531.36
415.574	523.45
415.951	525.03
416.328	565.25
416.705	539.04
417.082	556.21
417.46	547.63
417.837	558.47
418.214	569.32
418.591	587.85
418.967	559.38
419.344	574.97
419.721	584.01
420.098	572.71
420.475	588.08
420.852	589.89
421.228	585.82
421.605	582.2
421.982	604.57
422.358	614.07
422.735	596.21
423.111	642.77
423.488	630.79
423.864	592.15
424.241	610.68
424.617	631.47
424.994	645.7
425.37	643.22
425.746	658.58
426.123	628.75
426.499	669.88
426.875	665.36
427.251	663.1
427.627	686.38
428.003	656.1
428.379	684.57
428.756	680.73
429.132	669.43
429.507	692.03
429.883	715.08
430.259	737
430.635	736.1
431.011	707.4
431.387	723.44
431.763	775.64
432.138	746.72
432.514	768.41
432.89	778.58
433.265	776.32
433.641	788.75
434.016	768.86
434.392	795.76
434.767	804.57
435.143	817.68
435.518	824
435.894	815.19
436.269	823.78
436.644	853.61
437.02	865.81
437.395	838.24
437.77	845.47
438.145	870.56
438.52	877.56
438.895	890.22
439.271	852.03
439.646	890.44
440.021	906.49
440.395	892.7
440.77	891.12
441.145	907.84
441.52	918.24
441.895	918.92
442.27	933.61
442.645	949.2
443.019	949.2
443.394	925.7
443.769	964.34
444.143	948.07
444.518	966.6
444.892	979.25
445.267	983.1
445.641	968.63
446.016	994.39
446.39	974.73
446.764	990.33
447.139	997.11
447.513	1006.15
447.887	1000.5
448.262	1008.86
448.636	1055.41
449.01	1046.6
449.384	1054.51
449.758	1060.16
450.132	1043.43
450.506	1055.41
450.88	1071.45
451.254	1063.09
451.628	1081.85
452.002	1113.04
452.376	1073.71
452.75	1114.84
453.123	1141.74
453.497	1130.21
453.871	1143.77
454.244	1144.22
454.618	1179.47
454.992	1191.45
455.365	1200.94
455.739	1194.84
456.112	1202.98
456.486	1230.32
456.859	1249.76
457.232	1277.33
457.606	1246.59
457.979	1275.74
458.352	1280.04
458.725	1313.03
459.099	1318
459.472	1338.11
459.845	1376.08
460.218	1336.08
460.591	1365.23
460.964	1372.24
461.337	1381.05
461.71	1435.51
462.083	1442.29
462.456	1442.07
462.829	1472.57
463.201	1485.46
463.574	1475.06
463.947	1507.83
464.32	1542.4
464.692	1567.49
465.065	1529.75
465.438	1578.11
465.81	1576.53
466.183	1612.91
466.555	1637.99
466.928	1644.77
467.3	1638.67
467.672	1674.83
468.045	1697.43
468.417	1704.88
468.789	1733.81
469.161	1758.89
469.534	1769.29
469.906	1843.86
470.278	1803.41
470.65	1834.15
471.022	1861.72
471.394	1893.58
471.766	1914.6
472.138	1921.38
472.51	1986.46
472.882	2002.5
473.253	2007.02
473.625	2042.95
473.997	2094.03
474.369	2096.74
474.74	2123.18
475.112	2136.51
475.484	2181.71
475.855	2225.77
476.227	2227.58
476.598	2284.08
476.97	2308.03
477.341	2365.21
477.713	2360.91
478.084	2437.75
478.455	2474.36
478.827	2468.48
479.198	2508.71
479.569	2550.74
479.94	2595.71
480.311	2652.2
480.682	2698.53
481.053	2750.96
481.424	2768.59
481.795	2845.65
482.166	2852.2
482.537	2912.31
482.908	2948.92
483.279	2965.42
483.65	3035.92
484.021	3092.87
484.391	3057.84
484.762	3145.98
485.133	3190.04
485.503	3206.99
485.874	3286.31
486.244	3329.25
486.615	3371.51
486.985	3446.76
487.356	3486.08
487.726	3477.49
488.097	3564.5
488.467	3514.78
488.837	3613.53
489.207	3703.25
489.578	3708.67
489.948	3752.06
490.318	3794.32
490.688	3834.55
491.058	3907.99
491.428	3922.91
491.798	3983.92
492.168	4043.58
492.538	4101.88
492.908	4112.73
493.278	4150.47
493.648	4191.6
494.017	4271.37
494.387	4245.83
494.757	4278.38
495.126	4380.97
495.496	4330.8
495.866	4402.44
496.235	4406.96
496.605	4469.78
496.974	4504.36
497.344	4493.51
497.713	4569.44
498.082	4588.65
498.452	4641.08
498.821	4675.88
499.19	4709.55
499.559	4792.94
499.928	4800.17
500.298	4785.93
500.667	4835.65
501.036	4850.56
501.405	4905.93
501.774	4892.37
502.143	5001.97
502.512	4973.5
502.88	5067.06
503.249	5083.55
503.618	5123.55
503.987	5110.22
504.356	5138.24
504.724	5177.11
505.093	5229.99
505.462	5222.76
505.83	5286.94
506.199	5302.3
506.567	5383.21
506.936	5390.89
507.304	5465.92
507.672	5427.72
508.041	5523.99
508.409	5550.21
508.777	5586.14
509.145	5631.33
509.514	5632.69
509.882	5688.73
510.25	5751.33
510.618	5758.34
510.986	5793.59
511.354	5813.48
511.722	5858.9
512.09	5904.32
512.458	5899.58
512.826	6015.96
513.193	6055.05
513.561	6057.76
513.929	6075.39
514.297	6163.98
514.664	6200.13
515.032	6238.1
515.4	6255.27
515.767	6277.19
516.135	6359.45
516.502	6315.61
516.869	6414.59
517.237	6504.98
517.604	6517.64
517.972	6561.71
518.339	6587.69
518.706	6654.81
519.073	6671.08
519.44	6713.34
519.808	6783.4
520.175	6817.07
520.542	6896.84
520.909	6933.45
521.276	6964.18
521.643	7013.22
522.009	7058.64
522.376	7099.09
522.743	7175.48
523.11	7278.52
523.477	7326.43
523.843	7377.73
524.21	7469.93
524.577	7496.6
524.943	7580.44
525.31	7558.29
525.676	7669.47
526.043	7723.48
526.409	7765.29
526.776	7895.23
527.142	7806.42
527.508	7913.99
527.874	7973.42
528.241	8001.22
528.607	8021.55
528.973	8179.29
529.339	8106.75
529.705	8214.32
530.071	8239.85
530.437	8269.91
530.803	8307.65
531.169	8394.2
531.535	8424.26
531.901	8455.67
532.267	8497.7
532.632	8559.62
532.998	8581.77
533.364	8613.86
533.73	8642.33
534.095	8698.37
534.461	8733.85
534.826	8830.35
535.192	8868.76
535.557	8899.27
535.923	8884.81
536.288	8972.49
536.653	8993.28
537.019	8986.28
537.384	9042.32
537.749	9064.01
538.114	9114.41
538.479	9112.15
538.845	9138.14
539.21	9190.11
539.575	9235.76
539.94	9279.15
540.305	9318.24
540.67	9362.31
541.034	9311.92
541.399	9399.15
541.764	9415.87
542.129	9449.31
542.494	9553.94
542.858	9457
543.223	9579.93
543.587	9576.77
543.952	9642.53
544.316	9633.94
544.681	9654.51
545.045	9718.46
545.41	9752.36
545.774	9803.43
546.138	9775.41
546.503	9855.86
546.867	9871.9
547.231	9955.29
547.595	9953.48
547.959	9997.55
548.324	9991.45
548.688	9982.18
549.052	10118.9
549.416	10162.06
549.779	10146.02
550.143	10159.35
550.507	10247.26
550.871	10289.52
551.235	10322.06
551.599	10369.29
551.962	10362.96
552.326	10451.1
552.689	10453.13
553.053	10398.89
553.417	10520.92
553.78	10632.79
554.143	10529.06
554.507	10580.13
554.87	10714.59
555.234	10770.41
555.597	10787.13
555.96	10753.69
556.323	10830.07
556.686	10818.09
557.05	10941.93
557.413	10974.02
557.776	10910.74
558.139	11096.95
558.502	11099.67
558.865	11170.17
559.228	11150.06
559.59	11219.66
559.953	11274.58
560.316	11395.7
560.679	11388.47
561.041	11481.58
561.404	11524.97
561.767	11596.38
562.129	11607.9
562.492	11710.5
562.854	11710.05
563.217	11796.37
563.579	11826.65
563.941	11860.32
564.304	12013.31
564.666	12058.28
565.028	12083.14
565.39	12116.59
565.753	12164.72
566.115	12203.14
566.477	12249.69
566.839	12323.81
567.201	12403.59
567.563	12459.18
567.925	12472.96
568.287	12514.32
568.648	12498.95
569.01	12701.21
569.372	12745.05
569.734	12687.65
570.095	12826.17
570.457	12913.86
570.819	12973.51
571.18	12957.02
571.542	13063.68
571.903	13010.58
572.265	13043.8
572.626	13062.55
572.987	13180.29
573.349	13177.35
573.71	13340.06
574.071	13327.4
574.432	13444.46
574.794	13521.07
575.155	13434.52
575.516	13485.59
575.877	13572.14
576.238	13578.92
576.599	13690.11
576.96	13653.5
577.32	13721.07
577.681	13784.79
578.042	13858.46
578.403	13876.54
578.763	13935.3
579.124	13894.17
579.485	13993.15
579.845	14031.34
580.206	13978.46
580.566	14149.98
580.927	14149.98
581.287	14146.37
581.648	14149.76
582.008	14222.75
582.368	14232.01
582.728	14323.08
583.089	14291.22
583.449	14315.63
583.809	14363.99
584.169	14345.68
584.529	14466.81
584.889	14504.1
585.249	14384.1
585.609	14428.39
585.969	14504.77
586.329	14507.71
586.688	14537.09
587.048	14555.17
587.408	14611.66
587.768	14564.89
588.127	14585.22
588.487	14576.41
588.846	14677.88
589.206	14590.2
589.565	14633.58
589.925	14689.85
590.284	14739.8
590.643	14724.88
591.003	14726.69
591.362	14802.39
591.721	14784.09
592.08	14802.17
592.44	14865.44
592.799	14906.8
593.158	14856.63
593.517	14878.32
593.876	14922.39
594.235	14850.53
594.593	15033.57
594.952	15000.13
595.311	14925.33
595.67	15029.51
596.029	15119
596.387	15113.8
596.746	15159.45
597.104	15065.44
597.463	15112.22
597.822	15213.46
598.18	15175.26
598.538	15045.1
598.897	15196.73
599.255	15141.59
599.613	15420.23
599.972	15260.23
600.33	15360.34
600.688	15367.58
601.046	15335.94
601.404	15436.27
601.762	15366.22
602.12	15393.79
602.478	15531.64
602.836	15500.68
603.194	15419.55
603.552	15517.4
603.91	15399.44
604.268	15558.08
604.625	15564.63
604.983	15576.38
605.341	15498.65
605.698	15577.74
606.056	15624.97
606.413	15643.73
606.771	15758.3
607.128	15712.88
607.485	15715.36
607.843	15724.63
608.2	15838.3
608.557	15811.86
608.914	15793.33
609.272	15941.8
609.629	15913.32
609.986	15946.32
610.343	15921.01
610.7	16041.46
611.057	16017.73
611.414	16031.06
611.771	16023.15
612.127	16146.31
612.484	16087.11
612.841	16078.07
613.198	16168.01
613.554	16126.2
613.911	16169.81
614.267	16284.39
614.624	16187.89
614.98	16229.02
615.337	16279.19
615.693	16250.72
616.05	16255.24
616.406	16297.72
616.762	16287.1
617.118	16202.58
617.475	16340.66
617.831	16313.99
618.187	16421.33
618.543	16445.97
618.899	16435.8
619.255	16385.4
619.611	16311.28
619.967	16477.6
620.323	16530.71
620.678	16409.36
621.034	16401.9
621.39	16469.02
621.746	16413.2
622.101	16536.36
622.457	16513.76
622.812	16537.49
623.168	16615.45
623.523	16566.87
623.879	16542.01
624.234	16454.78
624.589	16487.09
624.945	16565.74
625.3	16524.38
625.655	16602.35
626.01	16568.67
626.365	16620.65
626.72	16572.06
627.075	16488.9
627.43	16541.1
627.785	16429.24
628.14	16620.88
628.495	16606.19
628.85	16657.49
629.205	16569.8
629.559	16588.79
629.914	16478.06
630.269	16522.57
630.623	16464.27
630.978	16408.23
631.332	16457.72
631.687	16578.62
632.041	16458.17
632.396	16438.73
632.75	16322.13
633.104	16437.6
633.459	16392.41
633.813	16384.05
634.167	16379.3
634.521	16335.91
634.875	16390.37
635.229	16326.87
635.583	16229.25
635.937	16277.61
636.291	16250.49
636.645	16264.5
636.999	16225.18
637.352	16304.5
637.706	16102.25
638.06	16277.38
638.413	16147.22
638.767	16218.18
639.121	16204.62
639.474	15977.96
639.828	16036.49
640.181	16095.01
640.534	16134.11
640.888	16090.27
641.241	16086.2
641.594	16022.7
641.947	16029.48
642.301	15999.2
642.654	15966.66
643.007	16063.38
643.36	16003.72
643.713	15981.8
644.066	15901.57
644.419	15954
644.771	15905.64
645.124	15770.73
645.477	15792.2
645.83	15621.58
646.182	15638.08
646.535	15441.25
646.888	15336.62
647.24	15349.95
647.593	15425.2
647.945	15344.07
648.298	15370.29
648.65	15286
649.002	15215.26
649.355	15340.91
649.707	15404.19
650.059	15436.27
650.411	15567.12
650.763	15662.48
651.115	15804.85
651.467	15709.26
651.819	15742.03
652.171	15743.39
652.523	15679.88
652.875	15637.4
653.227	15605.99
653.578	15698.87
653.93	15744.97
654.282	15640.56
654.633	15574.12
654.985	15582.26
655.337	15607.12
655.688	15561.47
656.039	15616.38
656.391	15483.51
656.742	15542.71
657.094	15534.58
657.445	15561.02
657.796	15575.71
658.147	15533
658.498	15542.03
658.849	15638.3
659.2	15452.55
659.551	15488.02
659.902	15549.94
660.253	15501.58
660.604	15496.39
660.955	15470.4
661.306	15559.89
661.656	15549.94
662.007	15584.97
662.358	15534.58
662.708	15607.34
663.059	15467.69
663.409	15514.69
663.76	15574.12
664.11	15498.65
664.461	15535.71
664.811	15534.58
665.161	15491.87
665.511	15500.23
665.862	15527.57
666.212	15532.32
666.562	15490.51
666.912	15446.9
667.262	15510.4
667.612	15496.39
667.962	15465.65
668.312	15439.89
668.662	15450.96
669.011	15480.34
669.361	15576.38
669.711	15464.75
670.06	15507.01
670.41	15458.65
670.76	15474.24
671.109	15454.58
671.459	15480.57
671.808	15386.11
672.157	15467.46
672.507	15384.3
672.856	15315.83
673.205	15386.11
673.554	15387.01
673.904	15328.71
674.253	15380.23
674.602	15394.69
674.951	15180.91
675.3	14997.64
675.649	15351.76
675.998	15331.64
676.346	15356.28
676.695	15405.99
677.044	15296.84
677.393	15274.47
677.741	15312.21
678.09	15250.07
678.438	15220.46
678.787	15195.6
679.135	15294.81
679.484	15135.94
679.832	15164.64
680.181	15090.3
680.529	15180.91
680.877	15037.42
681.225	15127.81
681.573	15241.03
681.922	15091.2
682.27	15033.8
682.618	15136.85
682.966	15029.51
683.314	15064.08
683.661	15010.07
684.009	14942.73
684.357	14878.32
684.705	14870.64
685.053	14881.04
685.4	14836.06
685.748	14810.3
686.095	14830.19
686.443	14719.68
686.79	14664.09
687.138	14645.11
687.485	14705.9
687.832	14679.68
688.18	14730.3
688.527	14596.52
688.874	14570.53
689.221	14530.76
689.568	14550.2
689.915	14556.07
690.262	14554.49
690.609	14484.44
690.956	14437.66
691.303	14426.13
691.65	14285.34
691.997	14346.81
692.344	14299.58
692.69	14208.28
693.037	14252.13
693.383	14180.71
693.73	14208.74
694.077	14072.69
694.423	14058.23
694.769	14098.46
695.116	14059.59
695.462	13978.23
695.808	13964.22
696.155	14030.44
696.501	13843.55
696.847	13886.03
697.193	13762.65
697.539	13832.48
697.885	13668.64
698.231	13637.45
698.577	13619.6
698.923	13733.04
699.269	13618.02
699.614	13610.56
699.96	13564.91
700.306	13530.79
700.651	13494.63
700.997	13399.04
701.342	13313.62
701.688	13470.45
702.033	13252.15
702.379	13234.07
702.724	13243.56
703.069	13245.37
703.415	13119.73
703.76	13092.38
704.105	13064.59
704.45	13055.55
704.795	12947.75
705.14	12955.89
705.485	12945.72
705.83	12909.56
706.175	12976.45
706.52	12860.07
706.865	12800.64
707.209	12835.44
707.554	12797.47
707.899	12872.05
708.243	12801.77
708.588	12759.06
708.932	12679.74
709.277	12633.64
709.621	12657.82
709.966	12653.75
710.31	12593.64
710.654	12486.97
710.998	12559.29
711.342	12512.51
711.687	12464.38
712.031	12404.26
712.375	12395.22
712.719	12480.87
713.063	12370.37
713.407	12386.41
713.75	12304.15
714.094	12282.01
714.438	12249.24
714.782	12279.52
715.125	12246.3
715.469	12193.65
715.812	12180.32
716.156	12120.43
716.499	12144.61
716.843	12175.57
717.186	12137.15
717.53	12113.42
717.873	12211.05
718.216	12130.83
718.559	12139.86
718.902	12013.54
719.246	12012.41
719.589	11901.23
719.932	11949.36
720.275	11937.16
720.617	11938.29
720.96	11912.3
721.303	11945.97
721.646	11974.67
721.989	11815.58
722.331	11871.17
722.674	11864.62
723.016	11843.83
723.359	11876.14
723.701	11884.73
724.044	11803.38
724.386	11718.41
724.729	11824.39
725.071	11786.43
725.413	11751.85
725.755	11782.36
726.097	11719.31
726.439	11651.74
726.782	11654.91
727.124	11717.28
727.465	11625.53
727.807	11649.26
728.149	11638.63
728.491	11610.61
728.833	11547.11
729.175	11569.71
729.516	11547.79
729.858	11554.8
730.199	11552.08
730.541	11599.54
730.882	11564.51
731.224	11569.71
731.565	11434.57
731.906	11481.8
732.248	11520.45
732.589	11459.88
732.93	11482.25
733.271	11459.66
733.612	11477.96
733.953	11504.17
734.294	11478.19
734.635	11361.81
734.976	11472.76
735.317	11388.92
735.658	11456.04
735.999	11438.87
736.339	11368.36
736.68	11425.98
737.021	11414.01
737.361	11350.73
737.702	11414.01
738.042	11369.94
738.383	11304.41
738.723	11363.84
739.063	11341.69
739.404	11340.79
739.744	11308.7
740.084	11255.82
740.424	11388.7
740.764	11305.31
741.104	11391.86
741.444	11341.92
741.784	11240.9
742.124	11333.56
742.464	11292.2
742.804	11294.91
743.143	11263.28
743.483	11310.06
743.823	11213.11
744.162	11219.44
744.502	11256.72
744.841	11184.86
745.181	11222.6
745.52	11214.47
745.86	11229.38
746.199	11219.66
746.538	11129.04
746.877	11232.09
747.216	11241.36
747.556	11117.97
747.895	11135.6
748.234	11110.06
748.573	11093.11
748.911	11141.25
749.25	11150.29
749.589	11090.85
749.928	11119.33
750.267	11076.62
750.605	11106.9
750.944	11035.49
751.283	11087.24
751.621	11054.24
751.96	10975.15
752.298	11009.27
752.636	11041.14
752.975	10950.07
753.313	10873.68
753.651	10952.78
753.989	10900.12
754.327	10941.25
754.666	10852.67
755.004	10868.71
755.342	10903.96
755.679	10796.4
756.017	10878.88
756.355	10904.87
756.693	10735.61
757.031	10736.06
757.368	10801.82
757.706	10697.64
758.044	10743.97
758.381	10703.29
