Data from tablewood_brown_FLMS001491_066.txt Node
Date: Tue Feb 07 11:10:50 GMT 2017
User: dcchb
Spectrometer: FLMS00149
Trigger mode: 0
Integration Time (sec): 2.000000E-2
Scans to average: 10
Electric dark correction enabled: true
Nonlinearity correction enabled: false
Boxcar width: 0
XAxis mode: Wavelengths
Number of Pixels in Spectrum: 2048
>>>>>Begin Spectral Data<<<<<
341.393	-11.89
341.776	-11.89
342.16	-11.89
342.543	-63.19
342.927	-43.53
343.31	-65.22
343.693	-50.54
344.077	-59.8
344.46	-57.77
344.843	-41.95
345.226	-29.52
345.61	-35.85
345.993	-18.45
346.376	-9.86
346.759	2.34
347.142	23.36
347.525	43.02
347.908	62
348.291	49.12
348.674	84.83
349.057	104.26
349.44	110.59
349.823	148.33
350.206	146.07
350.588	192.4
350.971	210.47
351.354	220.87
351.737	240.98
352.119	274.43
352.502	281.21
352.884	278.72
353.267	304.71
353.65	297.03
354.032	290.02
354.414	313.3
354.797	323.92
355.179	330.25
355.562	330.7
355.944	323.69
356.326	339.51
356.709	339.96
357.091	334.77
357.473	359.17
357.855	342.22
358.238	351.49
358.62	348.78
359.002	338.61
359.384	342.9
359.766	337.93
360.148	341.54
360.53	338.83
360.912	356.01
361.294	338.83
361.676	340.41
362.057	330.02
362.439	349
362.821	321.43
363.203	355.1
363.584	326.4
363.966	351.94
364.348	343.35
364.729	333.41
365.111	327.08
365.493	323.92
365.874	322.11
366.256	343.13
366.637	336.35
367.019	342.67
367.4	327.31
367.781	335.9
368.163	322.34
368.544	319.85
368.925	312.84
369.306	325.95
369.688	300.64
370.069	327.53
370.45	323.92
370.831	328.44
371.212	332.73
371.593	313.52
371.974	316.91
372.355	345.61
372.736	344.93
373.117	337.03
373.498	339.96
373.879	347.19
374.26	323.69
374.641	340.64
375.021	338.38
375.402	334.31
375.783	337.7
376.163	347.65
376.544	357.59
376.925	356.01
377.305	318.27
377.686	348.55
378.066	370.02
378.447	345.16
378.827	349.23
379.208	378.15
379.588	361.88
379.968	349.91
380.349	341.54
380.729	361.88
381.109	375.44
381.489	343.8
381.87	364.59
382.25	367.08
382.63	355.56
383.01	359.62
383.39	351.04
383.77	345.61
384.15	384.03
384.53	395.33
384.91	401.2
385.29	375.89
385.67	396.91
386.049	378.38
386.429	397.81
386.809	390.81
387.189	375.89
387.568	402.79
387.948	380.19
388.328	401.66
388.707	399.17
389.087	400.53
389.466	407.08
389.846	399.62
390.225	424.03
390.605	402.56
390.984	416.34
391.363	425.38
391.743	409.79
392.122	426.29
392.501	432.62
392.881	423.12
393.26	430.36
393.639	434.42
394.018	436.91
394.397	440.53
394.776	437.81
395.155	426.51
395.534	451.37
395.913	465.61
396.292	459.96
396.671	468.77
397.05	456.57
397.429	452.5
397.808	487.3
398.186	485.95
398.565	466.06
398.944	471.03
399.323	485.5
399.701	466.06
400.08	471.94
400.458	500.86
400.837	505.38
401.215	508.32
401.594	502.67
401.972	509.9
402.351	504.7
402.729	504.25
403.107	492.5
403.486	504.93
403.864	523.46
404.242	526.4
404.62	537.02
404.999	539.05
405.377	550.13
405.755	545.83
406.133	540.18
406.511	566.85
406.889	553.29
407.267	549.67
407.645	562.33
408.023	587.19
408.401	588.54
408.779	588.54
409.156	591.71
409.534	591.93
409.912	610.24
410.29	599.84
410.667	614.76
411.045	599.62
411.422	628.09
411.8	612.72
412.178	642.1
412.555	640.07
412.933	631.48
413.31	669.22
413.687	647.07
414.065	624.93
414.442	657.02
414.819	676.68
415.197	667.41
415.574	695.21
415.951	683.46
416.328	678.94
416.705	697.47
417.082	708.31
417.46	678.03
417.837	695.43
418.214	729.11
418.591	705.6
418.967	733.85
419.344	733.4
419.721	732.49
420.098	748.31
420.475	730.46
420.852	749.67
421.228	735.21
421.605	753.06
421.982	734.75
422.358	772.27
422.735	753.51
423.111	768.65
423.488	747.18
423.864	778.14
424.241	792.38
424.617	817.92
424.994	794.64
425.37	833.96
425.746	808.2
426.123	815.66
426.499	813.17
426.875	830.35
427.251	826.28
427.627	861.31
428.003	858.59
428.379	844.81
428.756	884.81
429.132	884.58
429.507	874.19
429.883	890.46
430.259	899.04
430.635	911.7
431.011	935.65
431.387	925.71
431.763	920.96
432.138	973.39
432.514	967.97
432.89	974.3
433.265	1005.93
433.641	1002.09
434.016	1007.29
434.392	1052.94
434.767	1064.46
435.143	1059.94
435.518	1044.35
435.894	1062.43
436.269	1067.4
436.644	1085.25
437.02	1117.34
437.395	1102.65
437.77	1116.44
438.145	1121.19
438.52	1126.83
438.895	1132.71
439.271	1170.22
439.646	1160.28
440.021	1192.6
440.395	1179.49
440.77	1184.46
441.145	1177.45
441.52	1198.25
441.895	1226.49
442.27	1245.25
442.645	1221.3
443.019	1235.31
443.394	1257.23
443.769	1265.59
444.143	1247.28
444.518	1269.43
444.892	1298.36
445.267	1292.93
445.641	1339.26
446.016	1318.02
446.39	1358.92
446.764	1343.1
447.139	1316.66
447.513	1337.68
447.887	1347.85
448.262	1341.29
448.636	1341.29
449.01	1355.76
449.384	1384.68
449.758	1384.23
450.132	1402.53
450.506	1412.48
450.88	1408.41
451.254	1430.78
451.628	1420.84
452.002	1451.35
452.376	1478.69
452.75	1426.49
453.123	1474.62
453.497	1529.99
453.871	1525.24
454.244	1531.57
454.618	1542.19
454.992	1540.16
455.365	1579.25
455.739	1578.35
456.112	1603.43
456.486	1624.22
456.859	1659.25
457.232	1682.53
457.606	1692.24
457.979	1711.23
458.352	1711
458.725	1773.37
459.099	1726.82
459.472	1786.48
459.845	1813.14
460.218	1802.52
460.591	1831.45
460.964	1819.47
461.337	1858.34
461.71	1879.58
462.083	1936.08
462.456	1940.82
462.829	1981.5
463.201	1980.6
463.574	1999.81
463.947	2041.61
464.32	2099.46
464.692	2087.04
465.065	2111.22
465.438	2138.33
465.81	2134.94
466.183	2200.7
466.555	2232.34
466.928	2246.58
467.3	2260.59
467.672	2327.26
468.045	2367.03
468.417	2351.89
468.789	2406.58
469.161	2425.33
469.534	2454.03
469.906	2511.88
470.278	2560.02
470.65	2545.33
471.022	2635.72
471.394	2689.51
471.766	2749.17
472.138	2768.83
472.51	2789.62
472.882	2832.1
473.253	2890.86
473.625	2967.24
473.997	2997.97
474.369	3031.42
474.74	3045.43
475.112	3149.83
475.484	3242.26
475.855	3294.91
476.227	3317.29
476.598	3397.06
476.97	3460.56
477.341	3565.19
477.713	3613.55
478.084	3581.46
478.455	3808.35
478.827	3773.09
479.198	3924.95
479.569	3883.15
479.94	4047.89
480.311	4063.93
480.682	4192.29
481.053	4278.16
481.424	4363.36
481.795	4416.24
482.166	4501.21
482.537	4564.48
482.908	4692.84
483.279	4738.49
483.65	4833.63
484.021	4926.06
484.391	4994.98
484.762	5048.77
485.133	5077.69
485.503	5202.43
485.874	5355.88
486.244	5371.47
486.615	5510
486.985	5540.28
487.356	5677.22
487.726	5697.79
488.097	5866.15
488.467	5833.38
488.837	5966.03
489.207	6045.8
489.578	6129.42
489.948	6214.84
490.318	6332.35
490.688	6318.11
491.058	6465.9
491.428	6489.86
491.798	6569.18
492.168	6741.6
492.538	6783.41
492.908	6884.88
493.278	6956.96
493.648	6960.35
494.017	7063.63
494.387	7053.91
494.757	7200.57
495.126	7297.52
495.496	7293.23
495.866	7333.45
496.235	7406.9
496.605	7591.52
496.974	7566.21
497.344	7690.05
497.713	7729.15
498.082	7758.75
498.452	7899.54
498.821	7883.04
499.19	7994.22
499.559	7991.97
499.928	8066.09
500.298	8191.96
500.667	8241.9
501.036	8214.33
501.405	8419.07
501.774	8449.81
502.143	8435.34
502.512	8434.44
502.88	8583.59
503.249	8607.99
503.618	8647.77
503.987	8768.67
504.356	8838.72
504.724	8829.23
505.093	8914.2
505.462	8965.5
505.83	9015.67
506.199	9162.78
506.567	9224.93
506.936	9167.53
507.304	9371.14
507.672	9421.08
508.041	9420.4
508.409	9530.91
508.777	9607.52
509.145	9705.59
509.514	9768.64
509.882	9892.71
510.25	9843.44
510.618	9990.33
510.986	10059.03
511.354	10084.34
511.722	10212.25
512.09	10312.36
512.458	10292.02
512.826	10454.27
513.193	10496.08
513.561	10504.89
513.929	10667.6
514.297	10801.16
514.664	10850.42
515.032	10914.15
515.4	11011.77
515.767	11047.03
516.135	11203.18
516.502	11147.59
516.869	11333.8
517.237	11342.16
517.604	11354.36
517.972	11557.75
518.339	11662.15
518.706	11713.45
519.073	11780.11
519.44	11891.75
519.808	12039.09
520.175	11986.44
520.542	12206.09
520.909	12283.83
521.276	12359.31
521.643	12443.15
522.009	12554.78
522.376	12617.15
522.743	12727.21
523.11	12955
523.477	13092.62
523.843	13099.4
524.21	13293.52
524.577	13371.26
524.943	13491.48
525.31	13538.49
525.676	13651.93
526.043	13735.54
526.409	13774.19
526.776	14012.6
527.142	14083.78
527.508	14213.04
527.874	14289.2
528.241	14350.22
528.607	14486.71
528.973	14636.31
529.339	14585.46
529.705	14751.56
530.071	14868.17
530.437	15030.88
530.803	15089.63
531.169	15194.94
531.535	15066.81
531.901	15222.96
532.267	15277.88
532.632	15391.54
532.998	15494.59
533.364	15613.23
533.73	15600.58
534.095	15728.48
534.461	15849.39
534.826	15956.73
535.192	15992.66
535.557	16043.05
535.923	16127.57
536.288	16083.96
536.653	16262.03
537.019	16167.34
537.384	16351.52
537.749	16471.06
538.114	16388.81
538.479	16458.64
538.845	16706.54
539.21	16646.88
539.575	16767.78
539.94	16722.36
540.305	16761
540.67	16807.55
541.034	16973.65
541.399	17030.15
541.764	17101.78
542.129	17271.72
542.494	17238.28
542.858	17254.77
543.223	17336.8
543.587	17428.1
543.952	17333.87
544.316	17486.18
544.681	17526.63
545.045	17636.68
545.41	17636.23
545.774	17702.44
546.138	17884.81
546.503	17820.63
546.867	17940.86
547.231	18080.51
547.595	18155.09
547.959	18046.62
548.324	18191.92
548.688	18259.04
549.052	18344.91
549.416	18369.55
549.779	18405.02
550.143	18517.79
550.507	18625.81
550.871	18800.27
551.235	18747.16
551.599	18986.25
551.962	18975.86
552.326	19087.72
552.689	19236.64
553.053	19289.52
553.417	19348.28
553.78	19717.08
554.143	19579.68
554.507	19744.2
554.87	19834.37
555.234	20094.92
555.597	19960.69
555.96	20219.67
556.323	20252.43
556.686	20319.55
557.05	20465.08
557.413	20619.2
557.776	20595.25
558.139	20909.14
558.502	20980.32
558.865	21112.98
559.228	21337.15
559.59	21433.42
559.953	21568.11
560.316	21783.24
560.679	21858.49
561.041	22037.47
561.404	22184.59
561.767	22383.68
562.129	22450.12
562.492	22628.64
562.854	22758.58
563.217	22808.07
563.579	22943.21
563.941	23085.81
564.304	23263.88
564.666	23503.65
565.028	23739.57
565.39	23733.02
565.753	23916.29
566.115	24090.07
566.477	24291.88
566.839	24577.29
567.201	24696.84
567.563	24746.78
567.925	24999.2
568.287	25098.63
568.648	25253.88
569.01	25430.15
569.372	25696.13
569.734	25581.33
570.095	26022.45
570.457	26005.95
570.819	26421.76
571.18	26304.93
571.542	26687.29
571.903	26811.58
572.265	27012.93
572.626	27160.95
572.987	27218.58
573.349	27349.42
573.71	27592.58
574.071	27700.83
574.432	27872.12
574.794	28144.2
575.155	28225.56
575.516	28242.73
575.877	28484.53
576.238	28696.28
576.599	28877.52
576.96	28927.46
577.32	29033.9
577.681	29331.97
578.042	29445.41
578.403	29498.29
578.763	29576.48
579.124	29776.48
579.485	29983.7
579.845	30081.78
580.206	29890.15
580.566	30141.67
580.927	30291.04
581.287	30471.83
581.648	30531.71
582.008	30726.96
582.368	30710.92
582.728	30680.63
583.089	30804.25
583.449	30828.2
583.809	30956.11
584.169	31062.54
584.529	30950.01
584.889	31280.17
585.249	31183.45
585.609	31213.05
585.969	31540.5
586.329	31434.51
586.688	31463.21
587.048	31439.94
587.408	31419.82
587.768	31503.89
588.127	31466.15
588.487	31630.67
588.846	31839.7
589.206	31761.51
589.565	31770.1
589.925	31829.08
590.284	31775.52
590.643	32076.76
591.003	32081.95
591.362	32009.41
591.721	31986.36
592.08	32074.5
592.44	32093.48
592.799	32227.03
593.158	32105.68
593.517	32143.42
593.876	32182.29
594.235	32178.9
594.593	32403.98
594.952	32411.66
595.311	32220.03
595.67	32376.63
596.029	32541.6
596.387	32462.28
596.746	32584.54
597.104	32542.73
597.463	32514.71
597.822	32756.96
598.18	32512.22
598.538	32580.7
598.897	32701.82
599.255	32542.28
599.613	32953.79
599.972	32785.89
600.33	32770.3
600.688	32762.39
601.046	32960.12
601.404	32982.49
601.762	32833.12
602.12	33074.92
602.478	32978.43
602.836	32977.97
603.194	32864.76
603.552	33050.74
603.91	32938.2
604.268	33039.22
604.625	33036.05
604.983	33129.38
605.341	32877.41
605.698	33128.48
606.056	33161.47
606.413	33115.15
606.771	33353.78
607.128	33342.71
607.485	33206.67
607.843	33213.22
608.2	33385.65
608.557	33647.79
608.914	33375.25
609.272	33644.17
609.629	33548.36
609.986	33701.8
610.343	33469.49
610.7	33869.25
611.057	33734.34
611.414	33814.34
611.771	33754.23
612.127	33933.2
612.484	33928.01
612.841	34042.58
613.198	34017.72
613.554	33956.93
613.911	34132.52
614.267	34065.18
614.624	34174.78
614.98	34256.81
615.337	34351.95
615.693	34189.92
616.05	34382.01
616.406	34563.24
616.762	34386.3
617.118	34300.2
617.475	34296.13
617.831	34473.53
618.187	34492.51
618.543	34450.25
618.899	34584.49
619.255	34561.44
619.611	34459.07
619.967	34626.52
620.323	34587.88
620.678	34573.19
621.034	34590.36
621.39	34600.76
621.746	34599.4
622.101	35071.25
622.457	34731.83
622.812	34746.29
623.168	34848.21
623.523	34869.9
623.879	34811.82
624.234	34691.38
624.589	34713.07
624.945	34841.2
625.3	34890.92
625.655	34810.92
626.01	34791.71
626.365	34857.93
626.72	34828.77
627.075	34984.25
627.43	34753.3
627.785	34760.75
628.14	34872.16
628.495	34822.45
628.85	34861.99
629.205	34806.18
629.559	34923.91
629.914	34710.58
630.269	34705.16
630.623	34680.75
630.978	34578.84
631.332	34727.99
631.687	34782.9
632.041	34556.01
632.396	34510.36
632.75	34523.47
633.104	34572.96
633.459	34464.49
633.813	34403.02
634.167	34350.37
634.521	34269.69
634.875	34278.96
635.229	34342.46
635.583	34239.41
635.937	34189.02
636.291	34146.08
636.645	34170.94
636.999	34143.37
637.352	34253.87
637.706	33967.55
638.06	34101.11
638.413	33971.17
638.767	33937.05
639.121	33984.05
639.474	33921.45
639.828	33773.89
640.181	33893.66
640.534	33786.77
640.888	33722.36
641.241	33649.6
641.594	33775.24
641.947	33657.73
642.301	33664.28
642.654	33711.51
643.007	33731.4
643.36	33684.62
643.713	33478.98
644.066	33690.27
644.419	33352.2
644.771	33247.57
645.124	33049.84
645.477	32946.56
645.83	32660.69
646.182	32636.29
646.535	32446.01
646.888	32599
647.24	32294.83
647.593	32650.98
647.945	32615.72
648.298	32320.14
648.65	32337.31
649.002	32236.07
649.355	32521.04
649.707	32432.68
650.059	32411.21
650.411	32730.07
650.763	32904.08
651.115	33242.15
651.467	33027.69
651.819	33171.64
652.171	33081.47
652.523	32900.91
652.875	32975.49
653.227	32951.76
653.578	33149.72
653.93	32931.65
654.282	32763.74
654.633	32870.41
654.985	32819.79
655.337	32969.39
655.688	32914.02
656.039	32900.46
656.391	32749.05
656.742	32755.83
657.094	32830.63
657.445	32835.38
657.796	32824.76
658.147	32843.74
658.498	32896.85
658.849	32906.56
659.2	32836.06
659.551	32701.15
659.902	32833.35
660.253	32733.91
660.604	32833.57
660.955	32709.73
661.306	32815.27
661.656	32740.01
662.007	32735.04
662.358	32782.95
662.708	32712.22
663.059	32788.38
663.409	32596.97
663.76	32843.74
664.11	32742.95
664.461	32818.2
664.811	32674.25
665.161	32700.24
665.511	32662.95
665.862	32737.3
666.212	32804.65
666.562	32745.44
666.912	32696.17
667.262	32654.59
667.612	32653.69
667.962	32674.03
668.312	32649.62
668.662	32695.5
669.011	32563.75
669.361	32675.84
669.711	32574.14
670.06	32512
670.41	32626.35
670.76	32477.42
671.109	32643.97
671.459	32461.6
671.808	32429.29
672.157	32489.85
672.507	32338.67
672.856	32251.21
673.205	32341.61
673.554	32414.37
673.904	32252.34
674.253	32379.57
674.602	32272.68
674.951	31822.07
675.3	31698.23
675.649	32186.81
675.998	32089.18
676.346	32108.85
676.695	32203.08
677.044	31903.43
677.393	31930.77
677.741	32162.63
678.09	32125.12
678.438	32064.78
678.787	32040.37
679.135	32039.69
679.484	31825.01
679.832	31961.28
680.181	31851.45
680.529	31918.34
680.877	31711.34
681.225	31662.76
681.573	31853.48
681.922	31540.5
682.27	31516.77
682.618	31489.88
682.966	31451.24
683.314	31475.42
683.661	31519.26
684.009	31311.13
684.357	31204.69
684.705	31152.71
685.053	31198.81
685.4	31148.42
685.748	30986.16
686.095	30868.2
686.443	30950.46
686.79	30782.1
687.138	30879.5
687.485	30836.34
687.832	30614.2
688.18	30670.69
688.527	30513.18
688.874	30367.87
689.221	30414.43
689.568	30243.81
689.915	30256.92
690.262	30272.51
690.609	30159.52
690.956	30051.95
691.303	29965.85
691.65	29844.72
691.997	29725.4
692.344	29573.09
692.69	29555.69
693.037	29609.48
693.383	29339.2
693.73	29403.38
694.077	29228.24
694.423	29414.68
694.769	29103.95
695.116	29029.15
695.462	28973.56
695.808	28783.06
696.155	29136.95
696.501	28655.15
696.847	28597.3
697.193	28460.81
697.539	28627.35
697.885	28341.49
698.231	28226.91
698.577	28290.19
698.923	28202.96
699.269	28004.09
699.614	27929.07
699.96	27917.99
700.306	27868.05
700.651	27685.91
700.997	27624.44
701.342	27635.52
701.688	27564.78
702.033	27464.22
702.379	27457.22
702.724	27221.29
703.069	27364.34
703.415	26984.23
703.76	27070.79
704.105	27002.09
704.45	26876.67
704.795	26719.83
705.14	26567.75
705.485	26638.03
705.83	26550.57
706.175	26466.73
706.52	26322.33
706.865	26289.11
707.209	26165.72
707.554	26199.4
707.899	26245.72
708.243	25950.59
708.588	25986.07
708.932	25956.24
709.277	25860.65
709.621	25957.14
709.966	25633.08
710.31	25693.87
710.654	25533.88
710.998	25636.25
711.342	25522.13
711.687	25550.83
712.031	25327.78
712.375	25278.29
712.719	25380.21
713.063	25259.08
713.407	25378.17
713.75	24988.13
714.094	25170.72
714.438	24942.03
714.782	25052.99
715.125	24854.12
715.469	24917.4
715.812	24757.85
716.156	24675.14
716.499	24671.75
716.843	24696.84
717.186	24585.65
717.53	24738.87
717.873	24659.32
718.216	24631.08
718.559	24483.51
718.902	24463.17
719.246	24487.35
719.589	24393.79
719.932	24402.83
720.275	24363.06
720.617	24407.13
720.96	24246.68
721.303	24262.72
721.646	24361.7
721.989	24158.09
722.331	24235.61
722.674	24062.05
723.016	24174.59
723.359	24041.03
723.701	24153.12
724.044	23975.73
724.386	23902.28
724.729	24040.13
725.071	24004.65
725.413	23982.73
725.755	23974.37
726.097	23867.03
726.439	23731.89
726.782	23758.56
727.124	24006.91
727.465	23789.52
727.807	23810.08
728.149	23759.69
728.491	23771.89
728.833	23727.37
729.175	23662.97
729.516	23665.45
729.858	23594.49
730.199	23771.21
730.541	23733.47
730.882	23691.89
731.224	23665.23
731.565	23551.56
731.906	23641.05
732.248	23632.91
732.589	23509.52
732.93	23566.92
733.271	23544.55
733.612	23491.67
733.953	23600.37
734.294	23421.62
734.635	23447.83
734.976	23507.04
735.317	23370.32
735.658	23394.27
735.999	23410.54
736.339	23416.87
736.68	23478.79
737.021	23332.58
737.361	23401.5
737.702	23378.23
738.042	23392.69
738.383	23271.56
738.723	23417.1
739.063	23247.16
739.404	23369.19
739.744	23239.02
740.084	23254.61
740.424	23263.65
740.764	23209.64
741.104	23393.14
741.444	23254.61
741.784	23335.97
742.124	23292.58
742.464	23238.12
742.804	23159.02
743.143	23206.03
743.483	23202.41
743.823	23033.15
744.162	23159.7
744.502	23199.7
744.841	23003.32
745.181	23132.81
745.52	22982.08
745.86	23115.64
746.199	23016.43
746.538	23058.01
746.877	23081.96
747.216	23120.38
747.556	23023.89
747.895	23035.19
748.234	23041.74
748.573	23046.94
748.911	23089.65
749.25	22956.09
749.589	23009.42
749.928	23018.01
750.267	23014.85
750.605	23022.08
750.944	22913.38
751.283	22838.58
751.621	22843.1
751.96	22753.84
752.298	22805.36
752.636	22848.07
752.975	22795.64
753.313	22688.53
753.651	22702.54
753.989	22549.1
754.327	22573.28
754.666	22497.12
755.004	22453.51
755.342	22607.17
