Data from tablewood_brown_FLMS001491_077.txt Node
Date: Tue Feb 07 11:11:00 GMT 2017
User: dcchb
Spectrometer: FLMS00149
Trigger mode: 0
Integration Time (sec): 2.000000E-2
Scans to average: 10
Electric dark correction enabled: true
Nonlinearity correction enabled: false
Boxcar width: 0
XAxis mode: Wavelengths
Number of Pixels in Spectrum: 2048
>>>>>Begin Spectral Data<<<<<
341.393	6.62
341.776	6.62
342.16	6.62
342.543	-68.18
342.927	-63.66
343.31	-60.27
343.693	-61.4
344.077	-63.66
344.46	-74.96
344.843	-67.5
345.226	-53.71
345.61	-43.54
345.993	-1.51
346.376	-0.61
346.759	-1.74
347.142	19.51
347.525	38.49
347.908	79.16
348.291	70.8
348.674	93.85
349.057	127.07
349.44	123.23
349.823	130.24
350.206	157.81
350.588	186.05
350.971	208.43
351.354	234.64
351.737	250.91
352.119	252.95
352.502	243
352.884	264.92
353.267	283
353.65	293.17
354.032	276.67
354.414	300.85
354.797	321.42
355.179	320.06
355.562	332.27
355.944	312.83
356.326	335.66
356.709	320.51
357.091	333.17
357.473	315.77
357.855	341.53
358.238	345.37
358.62	348.76
359.002	345.15
359.384	346.5
359.766	341.08
360.148	328.2
360.53	325.49
360.912	349.44
361.294	351.47
361.676	344.47
362.057	341.53
362.439	341.53
362.821	333.17
363.203	346.73
363.584	337.46
363.966	307.86
364.348	326.62
364.729	330.91
365.111	321.19
365.493	340.63
365.874	318.48
366.256	315.54
366.637	328.42
367.019	339.27
367.4	321.64
367.781	301.53
368.163	338.82
368.544	332.27
368.925	327.29
369.306	309.67
369.688	326.39
370.069	329.78
370.45	324.58
370.831	324.81
371.212	327.07
371.593	335.43
371.974	318.48
372.355	329.78
372.736	318.25
373.117	329.1
373.498	320.97
373.879	311.7
374.26	330.01
374.641	316.9
375.021	311.7
375.402	336.56
375.783	350.34
376.163	341.76
376.544	346.95
376.925	330.46
377.305	328.88
377.686	322.32
378.066	348.76
378.447	339.95
378.827	357.35
379.208	334.53
379.588	350.12
379.968	355.54
380.349	335.66
380.729	369.1
381.109	384.47
381.489	359.38
381.87	338.14
382.25	365.26
382.63	366.39
383.01	353.73
383.39	351.02
383.77	376.11
384.15	383.56
384.53	372.49
384.91	360.51
385.29	394.41
385.67	366.61
386.049	372.04
386.429	377.91
386.809	387.86
387.189	375.2
387.568	378.82
387.948	360.74
388.328	375.43
388.707	401.42
389.087	384.02
389.466	403
389.846	400.51
390.225	398.7
390.605	414.52
390.984	420.4
391.363	405.94
391.743	427.63
392.122	451.13
392.501	418.36
392.881	415.88
393.26	450.68
393.639	426.95
394.018	438.7
394.397	455.65
394.776	434.41
395.155	429.21
395.534	453.62
395.913	442.77
396.292	459.49
396.671	460.17
397.05	454.97
397.429	471.92
397.808	464.92
398.186	465.82
398.565	470.11
398.944	441.64
399.323	459.04
399.701	490.68
400.08	490.68
400.458	492.04
400.837	490.45
401.215	498.36
401.594	486.16
401.972	499.72
402.351	508.53
402.729	506.95
403.107	509.89
403.486	501.07
403.864	505.82
404.242	493.62
404.62	520.96
404.999	527.97
405.377	528.19
405.755	519.38
406.133	546.04
406.511	544.92
406.889	560.73
407.267	550.56
407.645	548.53
408.023	574.07
408.401	563.67
408.779	575.2
409.156	590.34
409.534	582.88
409.912	591.92
410.29	579.04
410.667	599.38
411.045	606.38
411.422	616.1
411.8	624.69
412.178	634.18
412.555	614.07
412.933	624.46
413.31	633.95
413.687	648.64
414.065	627.4
414.442	649.32
414.819	640.73
415.197	662.2
415.574	639.83
415.951	682.76
416.328	674.86
416.705	664.23
417.082	655.65
417.46	675.53
417.837	676.66
418.214	707.62
418.591	690
418.967	717.79
419.344	694.06
419.721	716.21
420.098	729.32
420.475	716.44
420.852	744.91
421.228	741.75
421.605	746.27
421.982	749.43
422.358	772.93
422.735	764.12
423.111	754.85
423.488	797.56
423.864	780.84
424.241	780.39
424.617	778.13
424.994	797.56
425.37	802.08
425.746	818.13
426.123	809.99
426.499	844.12
426.875	840.95
427.251	836.88
427.627	859.03
428.003	849.09
428.379	866.94
428.756	890.89
429.132	875.08
429.507	894.51
429.883	903.78
430.259	923.21
430.635	926.83
431.011	933.38
431.387	944
431.763	958.69
432.138	943.55
432.514	977.22
432.89	962.98
433.265	987.39
433.641	1007.28
434.016	1037.33
434.392	1017.44
434.767	1037.11
435.143	1035.98
435.518	1042.76
435.894	1065.58
436.269	1069.65
436.644	1087.5
437.02	1114.17
437.395	1121.4
437.77	1132.02
438.145	1114.62
438.52	1125.46
438.895	1169.31
439.271	1153.49
439.646	1169.08
440.021	1176.99
440.395	1185.58
440.77	1195.52
441.145	1196.42
441.52	1236.87
441.895	1220.83
442.27	1251.56
442.645	1262.41
443.019	1235.07
443.394	1258.57
443.769	1262.18
444.143	1267.16
444.518	1288.62
444.892	1279.36
445.267	1285.01
445.641	1306.7
446.016	1286.36
446.39	1324.1
446.764	1312.8
447.139	1341.05
447.513	1327.72
447.887	1346.48
448.262	1334.05
448.636	1340.37
449.01	1386.7
449.384	1374.72
449.758	1375.4
450.132	1428.51
450.506	1401.39
450.88	1437.32
451.254	1440.03
451.628	1451.78
452.002	1467.6
452.376	1472.8
452.75	1474.83
453.123	1493.59
453.497	1524.1
453.871	1523.87
454.244	1529.52
454.618	1564.78
454.992	1600.03
455.365	1607.03
455.739	1634.15
456.112	1623.08
456.486	1636.19
456.859	1685.68
457.232	1673.02
457.606	1693.81
457.979	1707.6
458.352	1756.41
458.725	1739.01
459.099	1766.13
459.472	1794.83
459.845	1841.83
460.218	1842.96
460.591	1835.95
460.964	1861.04
461.337	1909.17
461.71	1930.42
462.083	1928.16
462.456	1938.55
462.829	1975.84
463.201	2032.56
463.574	2027.59
463.947	2043.41
464.32	2102.84
464.692	2113.91
465.065	2119.11
465.438	2164.08
465.81	2205.66
466.183	2238.2
466.555	2275.72
466.928	2294.47
467.3	2262.16
467.672	2334.25
468.045	2361.14
468.417	2384.87
468.789	2403.4
469.161	2433.45
469.534	2505.32
469.906	2525.88
470.278	2564.52
470.65	2625.31
471.022	2677.97
471.394	2697.63
471.766	2729.72
472.138	2775.59
472.51	2862.82
472.882	2866.66
473.253	2900.79
473.625	2963.61
473.997	3047.45
474.369	3040.44
474.74	3111.18
475.112	3220.78
475.484	3244.51
475.855	3316.14
476.227	3364.5
476.598	3464.84
476.97	3480.43
477.341	3572.63
477.713	3656.92
478.084	3668.45
478.455	3776.92
478.827	3768.56
479.198	3949.35
479.569	3947.99
479.94	4068.89
480.311	4111.83
480.682	4217.36
481.053	4342.78
481.424	4395.21
481.795	4461.2
482.166	4559.72
482.537	4606.73
482.908	4693.73
483.279	4766.05
483.65	4902.54
484.021	4965.82
484.391	5055.08
484.762	5080.61
485.133	5174.62
485.503	5216.2
485.874	5348.4
486.244	5422.07
486.615	5539.59
486.985	5607.83
487.356	5704.33
487.726	5751.33
488.097	5860.71
488.467	5921.72
488.837	6083.75
489.207	6101.38
489.578	6224.31
489.948	6285.1
490.318	6311.09
490.688	6415.04
491.058	6422.5
491.428	6571.65
491.798	6642.61
492.168	6758.09
492.538	6820.68
492.908	6918.53
493.278	6993.56
493.648	6963.05
494.017	7068.36
494.387	7130.28
494.757	7242.82
495.126	7332.99
495.496	7379.76
495.866	7389.25
496.235	7466.09
496.605	7593.77
496.974	7649.14
497.344	7758.51
497.713	7773.43
498.082	7839.86
498.452	7972.06
498.821	7975.68
499.19	7956.25
499.559	8111.04
499.928	8139.97
500.298	8182.91
500.667	8336.8
501.036	8276.46
501.405	8363.47
501.774	8376.12
502.143	8539.06
502.512	8484.82
502.88	8631.03
503.249	8638.49
503.618	8692.05
503.987	8768.43
504.356	8816.11
504.724	8859.5
505.093	8854.3
505.462	9030.57
505.83	9016.33
506.199	9159.38
506.567	9324.12
506.936	9291.13
507.304	9406.38
507.672	9499.48
508.041	9568.18
508.409	9592.59
508.777	9649.99
509.145	9723.88
509.514	9746.26
509.882	9852.24
510.25	9956.19
510.618	10005.68
510.986	10030.32
511.354	10161.84
511.722	10297.2
512.09	10321.38
512.458	10402.28
512.826	10422.4
513.193	10558.21
513.561	10651.09
513.929	10720.92
514.297	10750.75
514.664	10887.47
515.032	10898.99
515.4	11051.98
515.767	11002.04
516.135	11212.21
516.502	11134.92
516.869	11256.5
517.237	11381.01
517.604	11413.78
517.972	11544.17
518.339	11634.34
518.706	11769.03
519.073	11754.11
519.44	11872.07
519.808	11965.18
520.175	11979.64
520.542	12235.46
520.909	12318.16
521.276	12346.64
521.643	12458.5
522.009	12526.29
522.376	12709.57
522.743	12736.68
523.11	12884.03
523.477	13086.73
523.843	13031.59
524.21	13288.99
524.577	13331.25
524.943	13374.41
525.31	13464.58
525.676	13708.41
526.043	13789.99
526.409	13809.43
526.776	13955.18
527.142	14086.48
527.508	14206.02
527.874	14255.29
528.241	14332.58
528.607	14429.75
528.973	14476.3
529.339	14573.92
529.705	14796.97
530.071	14746.35
530.437	14882.62
530.803	14963.74
531.169	15064.99
531.535	15017.53
531.901	15143.63
532.267	15187.24
532.632	15377.07
532.998	15476.73
533.364	15508.82
533.73	15633.11
534.095	15690.51
534.461	15770.28
534.826	15779.77
535.192	15922.59
535.557	16072.42
535.923	15996.26
536.288	16074.68
536.653	16248
537.019	16056.37
537.384	16314.44
537.749	16284.84
538.114	16343.6
538.479	16473.54
538.845	16450.49
539.21	16433.31
539.575	16623.81
539.94	16593.76
540.305	16720.99
540.67	16857.93
541.034	16959.85
541.399	16975.9
541.764	16913.07
542.129	16979.74
542.494	17028.32
542.858	17079.4
543.223	17237.13
543.587	17412.04
543.952	17334.98
544.316	17338.82
544.681	17413.85
545.045	17494.53
545.41	17574.3
545.774	17631.7
546.138	17682.32
546.503	17780.17
546.867	17791.69
547.231	17958.02
547.595	17942.2
547.959	18064.91
548.324	18013.16
548.688	18082.08
549.052	18278.69
549.416	18238.46
549.779	18232.59
550.143	18492.01
550.507	18559.81
550.871	18582.86
551.235	18688.39
551.599	18808.39
551.962	18865.11
552.326	18902.4
552.689	19037.08
553.053	19031.66
553.417	19063.3
553.78	19450.63
554.143	19384.87
554.507	19553.91
554.87	19615.15
555.234	19791.87
555.597	19793.45
555.96	19818.31
556.323	19979.88
556.686	20108.47
557.05	20127.68
557.413	20370.16
557.776	20435.01
558.139	20635.23
558.502	20634.33
558.865	20781.22
559.228	20949.12
559.59	21127.42
559.953	21144.83
560.316	21431.37
560.679	21487.64
561.041	21680.4
561.404	21765.15
561.767	21982.54
562.129	22032.49
562.492	22245.36
562.854	22236.1
563.217	22453.72
563.579	22517.67
563.941	22911.56
564.304	22927.6
564.666	23249.85
565.028	23259.57
565.39	23422.73
565.753	23690.3
566.115	23697.3
566.477	23753.12
566.839	23989.27
567.201	24122.83
567.563	24229.26
567.925	24480.78
568.287	24607.56
568.648	24837.61
569.01	25015.23
569.372	25286.19
569.734	25234.89
570.095	25472.17
570.457	25638.27
570.819	25779.51
571.18	25894.31
571.542	26146.28
571.903	26232.6
572.265	26535.42
572.626	26544.68
572.987	26725.92
573.349	26872.58
573.71	27069.19
574.071	27165.91
574.432	27286.81
574.794	27450.2
575.155	27648.61
575.516	27623.3
575.877	27928.38
576.238	27991.65
576.599	28169.5
576.96	28252.44
577.32	28379.44
577.681	28597.51
578.042	28748.92
578.403	28756.6
578.763	28868.69
579.124	29045.41
579.485	29152.07
579.845	29418.96
580.206	29423.48
580.566	29393.2
580.927	29582.12
581.287	29830.47
581.648	29651.27
582.008	30001.54
582.368	29909.79
582.728	30041.54
583.089	30006.29
583.449	30067.53
583.809	30169.45
584.169	30167.19
584.529	30321.53
584.889	30643.56
585.249	30431.13
585.609	30477.69
585.969	30667.29
586.329	30596.78
586.688	30652.6
587.048	30601.53
587.408	30593.84
587.768	30608.98
588.127	30868.41
588.487	30761.75
588.846	31101.85
589.206	30802.88
589.565	31006.04
589.925	30988.86
590.284	30984.11
590.643	31135.07
591.003	31134.62
591.362	31279.02
591.721	31195.86
592.08	31291.68
592.44	31239.7
592.799	31263.2
593.158	31308.85
593.517	31277.44
593.876	31413.03
594.235	31237.22
594.593	31418.23
594.952	31481.73
595.311	31259.36
595.67	31503.42
596.029	31623.19
596.387	31646.7
596.746	31771.89
597.104	31546.59
597.463	31653.93
597.822	31735.51
598.18	31692.57
598.538	31669.75
598.897	31874.49
599.255	31506.59
599.613	31963.07
599.972	31770.99
600.33	32000.36
600.688	31857.09
601.046	31930.3
601.404	32080.58
601.762	31968.04
602.12	32158.77
602.478	32087.36
602.836	32223.63
603.194	31965.56
603.552	32020.02
603.91	32049.62
604.268	32290.52
604.625	31977.76
604.983	32282.61
605.341	32060.92
605.698	32290.75
606.056	32332.55
606.413	32269.73
606.771	32513.57
607.128	32476.96
607.485	32300.01
607.843	32312.67
608.2	32503.62
608.557	32609.38
608.914	32509.5
609.272	32711.53
609.629	32710.62
609.986	32862.48
610.343	32750.17
610.7	32983.16
611.057	32815.93
611.414	32764.63
611.771	32787.23
612.127	32987.45
612.484	32857.51
612.841	33025.19
613.198	33009.15
613.554	32960.56
613.911	33150.39
614.267	33092.31
614.624	33219.31
614.98	33402.13
615.337	33402.81
615.693	33265.64
616.05	33245.52
616.406	33470.38
616.762	33353.32
617.118	33297.05
617.475	33355.8
617.831	33353.09
618.187	33612.29
618.543	33526.65
618.899	33575.91
619.255	33526.65
619.611	33592.41
619.967	33611.84
620.323	33698.17
620.678	33588.34
621.034	33406.42
621.39	33492.75
621.746	33594.89
622.101	33966.41
622.457	33680.54
622.812	33706.98
623.168	33763.02
623.523	33744.72
623.879	33764.15
624.234	33704.95
624.589	33843.02
624.945	33880.08
625.3	33832.4
625.655	33898.39
626.01	33780.88
626.365	33724.16
626.72	33847.99
627.075	33852.29
627.43	33951.27
627.785	33653.42
628.14	33761.89
628.495	33796.02
628.85	33716.7
629.205	33621.33
629.559	33837.82
629.914	33562.8
630.269	33544.5
630.623	33554.67
630.978	33481
631.332	33645.51
631.687	33704.95
632.041	33465.86
632.396	33459.98
632.75	33365.52
633.104	33540.21
633.459	33396.71
633.813	33358.29
634.167	33370.49
634.521	33219.08
634.875	33235.58
635.229	33263.38
635.583	33229.03
635.937	33180.44
636.291	33171.63
636.645	33302.92
636.999	32961.24
637.352	33142.25
637.706	32973.67
638.06	33036.72
638.413	32923.5
638.767	32915.59
639.121	33091.18
639.474	32742.26
639.828	32782.03
640.181	32865.2
640.534	32767.8
640.888	32831.75
641.241	32476.73
641.594	32546.33
641.947	32639.21
642.301	32641.7
642.654	32633.34
643.007	32667.46
643.36	32698.19
643.713	32410.74
644.066	32629.95
644.419	32396.51
644.771	32209.17
645.124	32031.09
645.477	32029.96
645.83	31749.52
646.182	31690.31
646.535	31526.02
646.888	31539.13
647.24	31285.8
647.593	31546.81
647.945	31362.18
648.298	31120.16
648.65	31173.26
649.002	31106.6
649.355	31315.63
649.707	31146.14
650.059	31523.54
650.411	31799.91
650.763	31816.18
651.115	32054.14
651.467	31921.49
651.819	32040.13
652.171	31922.85
652.523	31766.24
652.875	32003.52
653.227	31655.96
653.578	32010.3
653.93	31911.77
654.282	31693.02
654.633	31695.51
654.985	31862.96
655.337	31767.6
655.688	31918.33
656.039	31788.16
656.391	31645.34
656.742	31778.67
657.094	31809.4
657.445	31877.88
657.796	31954.94
658.147	31765.11
658.498	31701.38
658.849	31779.35
659.2	31756.3
659.551	31590.65
659.902	31737.99
660.253	31649.86
660.604	31760.82
660.955	31494.84
661.306	31691.21
661.656	31610.76
662.007	31660.93
662.358	31723.08
662.708	31611.22
663.059	31543.42
663.409	31602.63
663.76	31834.71
664.11	31690.08
664.461	31729.63
664.811	31642.4
665.161	31645.79
665.511	31447.61
665.862	31566.47
666.212	31680.59
666.562	31623.65
666.912	31524.67
667.262	31579.58
667.612	31582.97
667.962	31634.49
668.312	31565.79
668.662	31788.39
669.011	31614.61
669.361	31658.67
669.711	31555.4
670.06	31539.13
670.41	31530.32
670.76	31345.01
671.109	31461.39
671.459	31471.33
671.808	31330.32
672.157	31338.68
672.507	31055.07
672.856	31189.08
673.205	31167.39
673.554	31232.92
673.904	31125.81
674.253	31363.77
674.602	31057.79
674.951	30805.59
675.3	30678.81
675.649	31234.73
675.998	30994.51
676.346	31069.99
676.695	31053.94
677.044	30876.09
677.393	31018.46
677.741	31008.29
678.09	30847.4
678.438	30754.52
678.787	30810.79
679.135	30856.66
679.484	30814.18
679.832	30859.82
680.181	30678.36
680.529	30672.26
680.877	30697.34
681.225	30437.69
681.573	30699.6
681.922	30446.28
682.27	30293.06
682.618	30363.57
682.966	30219.39
683.314	30445.82
683.661	30256.22
684.009	30084.25
684.357	29957.48
684.705	29899.62
685.053	29975.55
685.4	30015.78
685.748	29776.46
686.095	29775.78
686.443	29776.24
686.79	29586.19
687.138	29703.02
687.485	29719.97
687.832	29550.48
688.18	29550.71
688.527	29376.02
688.874	29368.79
689.221	29279.75
689.568	29132.86
689.915	29184.16
690.262	29023.94
690.609	29094.22
690.956	28875.47
691.303	28747.34
691.65	28743.04
691.997	28651.97
692.344	28466.89
692.69	28505.99
693.037	28447.01
693.383	28313.9
693.73	28293.79
694.077	28102.16
694.423	28150.52
694.769	27904.65
695.116	28004.31
695.462	27927.7
695.808	27805.22
696.155	27833.24
696.501	27588.72
696.847	27532.91
697.193	27377.2
697.539	27550.98
697.885	27190.99
698.231	27177.21
698.577	27040.49
698.923	27160.71
699.269	26993.94
699.614	26797.11
699.96	26756.43
700.306	26757.79
700.651	26633.95
700.997	26569.77
701.342	26474.4
701.688	26413.61
702.033	26256.1
702.379	26313.73
702.724	26253.84
703.069	26250
703.415	25832.39
703.76	25973.62
704.105	25910.12
704.45	25813.63
704.795	25769.11
705.14	25635.1
705.485	25572.73
705.83	25384.71
706.175	25467.88
706.52	25308.56
706.865	25059.3
707.209	25154.21
707.554	25061.11
707.899	25175.91
708.243	24931.62
708.588	24902.69
708.932	24836.71
709.277	24810.72
709.621	24822.69
709.966	24763.26
710.31	24661.57
710.654	24536.83
710.998	24583.15
711.342	24555.13
711.687	24471.97
712.031	24274.23
712.375	24259.77
712.719	24251.64
713.063	24309.71
713.407	24271.52
713.75	24109.04
714.094	24050.51
714.438	24025.88
714.782	23968.03
715.125	23977.75
715.469	23945.43
715.812	23858.43
716.156	23791.54
716.499	23756.73
716.843	23696.17
717.186	23540.92
717.53	23847.13
717.873	23665.66
718.216	23655.95
718.559	23601.71
718.902	23357.2
719.246	23362.62
719.589	23430.87
719.932	23361.72
720.275	23324.2
720.617	23332.79
720.96	23204.21
721.303	23298.44
721.646	23282.17
721.989	23118.11
722.331	23240.82
722.674	23221.83
723.016	23169.86
723.359	23061.16
723.701	23167.15
724.044	22990.2
724.386	22824.1
724.729	23058.9
725.071	22825.91
725.413	22906.59
725.755	22908.39
726.097	22779.36
726.439	22743.43
726.782	22794.73
727.124	22918.11
727.465	22768.51
727.807	22839.02
728.149	22711.11
728.491	22639.02
728.833	22862.52
729.175	22640.61
729.516	22620.94
729.858	22599.7
730.199	22761.05
730.541	22581.62
730.882	22712.24
731.224	22717.89
731.565	22599.25
731.906	22654.39
732.248	22644.45
732.589	22540.04
732.93	22531
733.271	22508.18
733.612	22489.65
733.953	22585.01
734.294	22506.6
734.635	22622.98
734.976	22522.42
735.317	22422.31
735.658	22353.61
735.999	22463.66
736.339	22467.5
736.68	22567.39
737.021	22476.54
737.361	22384.11
737.702	22474.51
738.042	22455.3
738.383	22373.49
738.723	22424.34
739.063	22227.51
739.404	22331.91
739.744	22374.62
740.084	22297.56
740.424	22409.65
740.764	22325.81
741.104	22311.35
741.444	22260.28
741.784	22233.61
742.124	22326.49
742.464	22344.34
742.804	22321.29
743.143	22228.86
743.483	22270.45
743.823	22263.67
744.162	22149.77
744.502	22173.5
744.841	22135.08
745.181	22171.24
745.52	22088.3
745.86	22167.17
746.199	22128.98
746.538	22128.53
746.877	22131.24
747.216	22214.4
747.556	22051.24
747.895	22166.04
748.234	22080.62
748.573	22058.7
748.911	22038.36
749.25	22092.82
749.589	21962.88
749.928	22048.08
750.267	21986.61
750.605	21937.8
750.944	21986.84
751.283	21843.11
751.621	21982.54
751.96	21771.7
752.298	21856.22
752.636	21888.76
752.975	21779.38
753.313	21716.79
753.651	21934.41
753.989	21650.35
754.327	21701.65
754.666	21521.54
755.004	21675.21
755.342	21760.63
755.679	21630.01
756.017	21416.91
