Data from tablewood_brown_FLMS001491_044.txt Node
Date: Tue Feb 07 11:10:30 GMT 2017
User: dcchb
Spectrometer: FLMS00149
Trigger mode: 0
Integration Time (sec): 2.000000E-2
Scans to average: 10
Electric dark correction enabled: true
Nonlinearity correction enabled: false
Boxcar width: 0
XAxis mode: Wavelengths
Number of Pixels in Spectrum: 2048
>>>>>Begin Spectral Data<<<<<
341.393	-12.26
341.776	-12.26
342.16	-12.26
342.543	-56.1
342.927	-53.39
343.31	-38.47
343.693	-86.16
344.077	-62.43
344.46	-65.37
344.843	-62.2
345.226	-63.11
345.61	-24.69
345.993	-28.3
346.376	-15.65
346.759	4.69
347.142	37.68
347.525	59.6
347.908	58.47
348.291	85.82
348.674	82.43
349.057	117.68
349.44	130.79
349.823	151.13
350.206	168.75
350.588	197.68
350.971	224.34
351.354	219.6
351.737	235.19
352.119	258.47
352.502	272.7
352.884	275.19
353.267	278.58
353.65	308.18
354.032	302.08
354.414	298.92
354.797	316.09
355.179	345.02
355.562	319.26
355.944	325.81
356.326	328.3
356.709	335.75
357.091	344.34
357.473	339.14
357.855	327.62
358.238	325.58
358.62	344.57
359.002	345.92
359.384	346.83
359.766	349.31
360.148	340.5
360.53	335.3
360.912	339.37
361.294	335.75
361.676	344.34
362.057	351.57
362.439	362.42
362.821	329.65
363.203	332.14
363.584	347.28
363.966	344.12
364.348	338.47
364.729	335.98
365.111	332.14
365.493	325.58
365.874	332.36
366.256	338.24
366.637	330.78
367.019	332.36
367.4	333.49
367.781	345.02
368.163	333.49
368.544	319.71
368.925	327.17
369.306	312.03
369.688	324.91
370.069	316.55
370.45	318.81
370.831	333.27
371.212	319.03
371.593	335.53
371.974	329.88
372.355	335.53
372.736	326.94
373.117	346.83
373.498	335.75
373.879	333.95
374.26	311.12
374.641	328.52
375.021	330.33
375.402	347.28
375.783	333.49
376.163	330.78
376.544	333.04
376.925	348.86
377.305	328.52
377.686	385.92
378.066	324.91
378.447	360.61
378.827	363.55
379.208	348.86
379.588	352.02
379.968	376.66
380.349	360.61
380.729	363.32
381.109	376.66
381.489	359.26
381.87	370.56
382.25	373.72
382.63	379.82
383.01	380.72
383.39	363.1
383.77	374.4
384.15	392.93
384.53	367.62
384.91	369.65
385.29	402.42
385.67	375.75
386.049	383.44
386.429	387.96
386.809	392.93
387.189	395.87
387.568	380.27
387.948	395.19
388.328	402.42
388.707	406.94
389.087	402.87
389.466	395.19
389.846	401.97
390.225	406.03
390.605	397.22
390.984	418.01
391.363	418.01
391.743	398.58
392.122	420.5
392.501	420.5
392.881	421.4
393.26	417.11
393.639	432.7
394.018	449.42
394.397	438.35
394.776	437.22
395.155	417.79
395.534	446.94
395.913	454.39
396.292	446.71
396.671	450.1
397.05	456.65
397.429	461.17
397.808	486.48
398.186	481.06
398.565	474.73
398.944	484.45
399.323	491.23
399.701	478.12
400.08	475.64
400.458	483.55
400.837	474.06
401.215	512.92
401.594	489.87
401.972	495.52
402.351	513.6
402.729	506.82
403.107	513.15
403.486	510.89
403.864	506.37
404.242	502.3
404.62	490.1
404.999	541.17
405.377	509.08
405.755	522.19
406.133	521.51
406.511	525.81
406.889	550.66
407.267	553.6
407.645	539.59
408.023	545.01
408.401	563.54
408.779	568.29
409.156	587.27
409.534	584.79
409.912	586.82
410.29	612.36
410.667	614.62
411.045	583.43
411.422	599.93
411.8	609.87
412.178	619.36
412.555	616.65
412.933	630.21
413.31	621.62
413.687	622.07
414.065	635.63
414.442	615.07
414.819	640.6
415.197	651.45
415.574	656.42
415.951	666.59
416.328	647.16
416.705	672.24
417.082	671.56
417.46	685.58
417.837	680.83
418.214	694.39
418.591	703.2
418.967	695.29
419.344	699.13
419.721	702.75
420.098	732.13
420.475	740.26
420.852	727.83
421.228	731.9
421.605	735.97
421.982	748.17
422.358	748.62
422.735	740.26
423.111	762.18
423.488	750.43
423.864	759.7
424.241	775.97
424.617	784.56
424.994	783.43
425.37	760.38
425.746	780.71
426.123	822.75
426.499	807.61
426.875	799.24
427.251	816.87
427.627	825.68
428.003	835.85
428.379	857.77
428.756	854.38
429.132	857.77
429.507	871.33
429.883	889.41
430.259	888.73
430.635	889.19
431.011	893.03
431.387	916.76
431.763	918.11
432.138	940.71
432.514	936.42
432.89	954.49
433.265	938.68
433.641	975.74
434.016	975.74
434.392	1008.05
434.767	978
435.143	1006.24
435.518	1017.09
435.894	1016.64
436.269	1039.69
436.644	1020.48
437.02	1047.15
437.395	1037.2
437.77	1085.79
438.145	1078.79
438.52	1089.63
438.895	1088.28
439.271	1106.58
439.646	1129.63
440.021	1127.82
440.395	1128.95
440.77	1135.73
441.145	1142.51
441.52	1170.08
441.895	1158.11
442.27	1164.88
442.645	1193.58
443.019	1177.09
443.394	1197.2
443.769	1192
444.143	1197.65
444.518	1221.38
444.892	1218.89
445.267	1216.18
445.641	1254.15
446.016	1251.44
446.39	1257.54
446.764	1279.68
447.139	1238.78
447.513	1283.07
447.887	1262.74
448.262	1300.25
448.636	1315.16
449.01	1286.69
449.384	1330.98
449.758	1314.49
450.132	1323.3
450.506	1357.65
450.88	1342.06
451.254	1360.13
451.628	1362.62
452.002	1363.52
452.376	1397.42
452.75	1395.61
453.123	1410.98
453.497	1425.22
453.871	1433.13
454.244	1461.83
454.618	1483.75
454.992	1504.54
455.365	1488.94
455.739	1522.62
456.112	1532.11
456.486	1550.86
456.859	1599.22
457.232	1583.4
457.606	1570.3
457.979	1611.65
458.352	1662.05
458.725	1642.61
459.099	1672.89
459.472	1674.93
459.845	1721.71
460.218	1711.08
460.591	1705.21
460.964	1734.36
461.337	1784.98
461.71	1823.62
462.083	1802.16
462.456	1849.84
462.829	1853.45
463.201	1876.28
463.574	1868.59
463.947	1897.97
464.32	1916.5
464.692	1984.75
465.065	1946.56
465.438	2044.64
465.81	2077.85
466.183	2051.87
466.555	2089.61
466.928	2098.65
467.3	2129.15
467.672	2147.68
468.045	2212.09
468.417	2223.16
468.789	2249.15
469.161	2294.8
469.534	2275.59
469.906	2381.58
470.278	2388.36
470.65	2437.39
471.022	2483.72
471.394	2537.5
471.766	2554.9
472.138	2566.2
472.51	2638.74
472.882	2694.34
473.253	2681.91
473.625	2737.95
473.997	2819.53
474.369	2847.55
474.74	2877.61
475.112	2952.41
475.484	2988.57
475.855	3065.17
476.227	3130.48
476.598	3184.27
476.97	3165.51
477.341	3321.66
477.713	3375.9
478.084	3417.03
478.455	3461.77
478.827	3521.88
479.198	3662.45
479.569	3697.7
479.94	3784.93
480.311	3793.74
480.682	3878.49
481.053	3999.39
481.424	4101.3
481.795	4162.09
482.166	4217.46
482.537	4246.16
482.908	4346.72
483.279	4378.81
483.65	4469.66
484.021	4588.98
484.391	4658.13
484.762	4719.14
485.133	4790.1
485.503	4875.97
485.874	4953.71
486.244	5034.84
486.615	5150.77
486.985	5170.2
487.356	5283.65
487.726	5355.96
488.097	5414.72
488.467	5485.9
488.837	5573.36
489.207	5676.18
489.578	5748.04
489.948	5757.98
490.318	5824.88
490.688	5924.31
491.058	6019.67
491.428	6072.78
491.798	6117.3
492.168	6210.63
492.538	6254.92
492.908	6360.68
493.278	6461.02
493.648	6467.8
494.017	6523.39
494.387	6642.03
494.757	6668.47
495.126	6711.41
495.496	6835.92
495.866	6857.39
496.235	6918.41
496.605	6995.01
496.974	7017.39
497.344	7088.12
497.713	7086.99
498.082	7247.66
498.452	7327.89
498.821	7311.16
499.19	7325.17
499.559	7432.06
499.928	7449.47
500.298	7569.01
500.667	7618.5
501.036	7661.21
501.405	7670.48
501.774	7781.66
502.143	7778.04
502.512	7877.7
502.88	7900.53
503.249	7966.06
503.618	8058.71
503.987	8011.71
504.356	8156.34
504.724	8190.24
505.093	8175.77
505.462	8307.52
505.83	8333.74
506.199	8411.02
506.567	8541.64
506.936	8560.4
507.304	8644.24
507.672	8764.01
508.041	8749.77
508.409	8801.97
508.777	8902.31
509.145	8922.65
509.514	8969.65
509.882	9071.12
510.25	9063.66
510.618	9276.54
510.986	9234.73
511.354	9388.4
511.722	9440.6
512.09	9513.59
512.458	9528.51
512.826	9624.32
513.193	9670.42
513.561	9742.96
513.929	9852.34
514.297	9912.45
514.664	10062.73
515.032	10004.2
515.4	10142.28
515.767	10229.51
516.135	10250.3
516.502	10222.27
516.869	10464.08
517.237	10525.77
517.604	10524.19
517.972	10654.13
518.339	10769.15
518.706	10734.8
519.073	10848.25
519.44	11001.24
519.808	11118.07
520.175	11124.85
520.542	11302.92
520.909	11351.51
521.276	11349.48
521.643	11491.62
522.009	11600.09
522.376	11684.16
522.743	11689.58
523.11	11985.84
523.477	12060.64
523.843	12058.16
524.21	12282.56
524.577	12374.08
524.943	12385.38
525.31	12488.2
525.676	12571.59
526.043	12653.62
526.409	12773.39
526.776	12934.07
527.142	12964.12
527.508	13026.95
527.874	13142.87
528.241	13195.75
528.607	13212.7
528.973	13414.73
529.339	13382.87
529.705	13548.51
530.071	13697.44
530.437	13686.36
530.803	13872.8
531.169	13936.3
531.535	13838.45
531.901	14005.9
532.267	14041.61
532.632	14209.29
532.998	14300.81
533.364	14360.02
533.73	14451.31
534.095	14504.42
534.461	14608.6
534.826	14617.64
535.192	14646.56
535.557	14771.31
535.923	14774.02
536.288	14809.95
536.653	14964.3
537.019	14834.81
537.384	14999.1
537.749	15102.6
538.114	15170.17
538.479	15179.66
538.845	15284.51
539.21	15240.22
539.575	15396.15
539.94	15478.41
540.305	15559.53
540.67	15508.69
541.034	15598.18
541.399	15703.94
541.764	15761.34
542.129	15796.14
542.494	15828.91
542.858	15895.34
543.223	15992.74
543.587	16080.65
543.952	16031.84
544.316	16042.46
544.681	16137.15
545.045	16263.02
545.41	16282
545.774	16302.11
546.138	16423.69
546.503	16427.53
546.867	16362.45
547.231	16604.93
547.595	16646.96
547.959	16665.04
548.324	16830.24
548.688	16799.73
549.052	16863.91
549.416	17017.35
549.779	17006.73
550.143	17210.56
550.507	17337.34
550.871	17333.73
551.235	17318.13
551.599	17549.09
551.962	17630.44
552.326	17644
552.689	17779.59
553.053	17699.82
553.417	17854.16
553.78	18151.1
554.143	18129.18
554.507	18173.7
554.87	18303.64
555.234	18518.55
555.597	18416.18
555.96	18617.76
556.323	18723.07
556.686	18819.11
557.05	18989.95
557.413	19032.44
557.776	19112.89
558.139	19361.92
558.502	19356.5
558.865	19388.36
559.228	19653.89
559.59	19739.54
559.953	19863.83
560.316	20031.73
560.679	20109.47
561.041	20293.2
561.404	20421.33
561.767	20612.51
562.129	20634.66
562.492	20850.24
562.854	20887.98
563.217	20964.36
563.579	21190.8
563.941	21294.98
564.304	21486.38
564.666	21774.74
565.028	21776.09
565.39	21980.83
565.753	22167.27
566.115	22241.39
566.477	22426.25
566.839	22509.63
567.201	22819.46
567.563	22863.98
567.925	23119.11
568.287	23228.94
568.648	23300.57
569.01	23499.66
569.372	23782.14
569.734	23799.77
570.095	23920.67
570.457	24109.37
570.819	24319.3
571.18	24396.14
571.542	24634.78
571.903	24622.57
572.265	24799.97
572.626	25044.48
572.987	25154.54
573.349	25317.92
573.71	25533.28
574.071	25639.04
574.432	25805.37
574.794	26086.94
575.155	26262.98
575.516	26256.88
575.877	26498.68
576.238	26548.17
576.599	26709.52
576.96	26726.7
577.32	26935.51
577.681	27054.15
578.042	27248.49
578.403	27201.26
578.763	27239
579.124	27423.18
579.485	27612.78
579.845	27820.45
580.206	27657.07
580.566	27888.48
580.927	27971.86
581.287	28183.84
581.648	28137.51
582.008	28392.19
582.368	28310.61
582.728	28574.79
583.089	28626.54
583.449	28633.09
583.809	28722.13
584.169	28784.05
584.529	28732.3
584.889	29072.17
585.249	28921.44
585.609	28807.77
585.969	29128.22
586.329	29124.38
586.688	29179.06
587.048	29142.23
587.408	29227.65
587.768	29169.35
588.127	29230.36
588.487	29255.45
588.846	29588.54
589.206	29274.2
589.565	29372.5
589.925	29523.01
590.284	29560.75
590.643	29696.79
591.003	29569.79
591.362	29788.99
591.721	29734.53
592.08	29789.89
592.44	29879.84
592.799	29836
593.158	29772.49
593.517	29701.54
593.876	29818.59
594.235	29818.59
594.593	29792.61
594.952	30000.28
595.311	29795.32
595.67	30001.41
596.029	30135.87
596.387	30044.35
596.746	30280.28
597.104	30252.48
597.463	30238.92
597.822	30181.52
598.18	30214.06
598.538	30174.52
598.897	30256.32
599.255	30055.88
599.613	30415.87
599.972	30349.65
600.33	30524.56
600.688	30309.66
601.046	30534.28
601.404	30546.48
601.762	30467.84
602.12	30615.41
602.478	30730.43
602.836	30705.8
603.194	30582.64
603.552	30579.7
603.91	30428.3
604.268	30574.73
604.625	30439.6
604.983	30617.67
605.341	30606.14
605.698	30734.05
606.056	30928.17
606.413	30959.13
606.771	30886.81
607.128	30877.1
607.485	30790.77
607.843	30873.26
608.2	31096.75
608.557	31161.38
608.914	31099.24
609.272	31235.73
609.629	31137.88
609.986	31291.78
610.343	31193.93
610.7	31418.78
611.057	31299.01
611.414	31351.89
611.771	31347.59
612.127	31511.43
612.484	31482.28
612.841	31609.73
613.198	31451.77
613.554	31571.54
613.911	31706
614.267	31625.1
614.624	31662.61
614.98	31683.86
615.337	31919.1
615.693	31754.81
616.05	31758.88
616.406	31881.37
616.762	31790.52
617.118	31742.39
617.475	31866.45
617.831	31910.29
618.187	31935.37
618.543	32086.33
618.899	32236.16
619.255	32135.6
619.611	32101.7
619.967	32224.86
620.323	32277.06
620.678	32132.66
621.034	32109.61
621.39	32013.11
621.746	32037.29
622.101	32394.12
622.457	32118.42
622.812	32062.6
623.168	32164.97
623.523	32298.08
623.879	32406.1
624.234	32177.18
624.589	32383.5
624.945	32320
625.3	32460.33
625.655	32302.6
626.01	32402.03
626.365	32405.87
626.72	32325.2
627.075	32307.12
627.43	32219.44
627.785	32148.02
628.14	32250.62
628.495	32316.83
628.85	32310.28
629.205	32185.09
629.559	32368.58
629.914	32084.98
630.269	32316.16
630.623	32180.11
630.978	32157.52
631.332	32197.97
631.687	32238.42
632.041	32018.31
632.396	32119.55
632.75	31871.2
633.104	31916.84
633.459	31858.31
633.813	31762.27
634.167	31923.17
634.521	31906.22
634.875	31983.06
635.229	31861.7
635.583	31739.45
635.937	31760.69
636.291	31741.48
636.645	31757.98
636.999	31694.7
637.352	31725.66
637.706	31491.54
638.06	31552.79
638.413	31622.39
638.767	31501.04
639.121	31464.43
639.474	31350.31
639.828	31335.84
640.181	31370.87
640.534	31303.98
640.888	31299.46
641.241	31194.38
641.594	31277.54
641.947	31247.26
642.301	31328.61
642.654	31279.57
643.007	31240.03
643.36	31148.28
643.713	31212
644.066	31240.48
644.419	31013.14
644.771	30734.73
645.124	30545.36
645.477	30523.43
645.83	30313.04
646.182	30164.57
646.535	30121.41
646.888	30142.43
647.24	30045.48
647.593	30212.93
647.945	30115.54
648.298	30084.12
648.65	29911.93
649.002	29978.82
649.355	29973.39
649.707	30032.6
650.059	30064.01
650.411	30497.22
650.763	30550.33
651.115	30810.21
651.467	30556.43
651.819	30635.75
652.171	30544.45
652.523	30454.96
652.875	30519.14
653.227	30514.85
653.578	30589.2
653.93	30673.04
654.282	30452.02
654.633	30425.81
654.985	30507.16
655.337	30502.19
655.688	30544.23
656.039	30607.5
656.391	30341.97
656.742	30386.94
657.094	30367.73
657.445	30619.48
657.796	30514.85
658.147	30369.99
658.498	30439.82
658.849	30420.61
659.2	30357.34
659.551	30313.95
659.902	30635.3
660.253	30461.06
660.604	30331.58
660.955	30241.86
661.306	30410.22
661.656	30409.99
662.007	30389.88
662.358	30433.04
662.708	30318.92
663.059	30454.51
663.409	30227.62
663.76	30469.42
664.11	30507.16
664.461	30256.55
664.811	30386.49
665.161	30331.58
665.511	30155.31
665.862	30398.47
666.212	30401.4
666.562	30473.72
666.912	30373.61
667.262	30409.54
667.612	30266.49
667.962	30412.25
668.312	30336.1
668.662	30380.16
669.011	30266.72
669.361	30373.38
669.711	30253.61
670.06	30183.56
670.41	30152.37
670.76	30069.44
671.109	30182.65
671.459	30109.66
671.808	30093.16
672.157	30218.58
672.507	29889.78
672.856	30036.67
673.205	29965.94
673.554	30154.18
673.904	29735.21
674.253	30135.65
674.602	29965.48
674.951	29470.58
675.3	29480.3
675.649	29916.9
675.998	29878.03
676.346	29823.34
676.695	29940.17
677.044	29664.25
677.393	29794.19
677.741	29804.58
678.09	29846.16
678.438	29600.97
678.787	29720.52
679.135	29744.25
679.484	29558.94
679.832	29613.63
680.181	29457.7
680.529	29561.43
680.877	29372.05
681.225	29411.83
681.573	29460.19
681.922	29294.09
682.27	29234.43
682.618	29260.19
682.966	29139.29
683.314	29262
683.661	29015.23
684.009	29023.14
684.357	28928.45
684.705	28887.09
685.053	28887.77
685.4	28893.87
685.748	28666.31
686.095	28679.42
686.443	28568.01
686.79	28437.16
687.138	28564.39
687.485	28570.49
687.832	28402.59
688.18	28447.56
688.527	28278.97
688.874	28393.77
689.221	28196.04
689.568	28061.58
689.915	27953.56
690.262	28016.83
690.609	27885.76
690.956	27860.23
691.303	27814.13
691.65	27710.18
691.997	27545.21
692.344	27419.34
692.69	27435.61
693.037	27408.94
693.383	27240.81
693.73	27234.26
694.077	27101.83
694.423	27105.45
694.769	26940.7
695.116	26918.56
695.462	26825.45
695.808	26726.02
696.155	26753.82
696.501	26518.12
696.847	26565.12
697.193	26285.13
697.539	26502.52
697.885	26160.16
698.231	26165.36
698.577	26095.53
698.923	26064.79
699.269	25928.75
699.614	25889.21
699.96	25746.16
700.306	25692.83
700.651	25575.32
700.997	25502.32
701.342	25434.75
701.688	25384.59
702.033	25335.77
702.379	25351.14
702.724	25112.5
703.069	25225.49
703.415	24873.64
703.76	24854.88
704.105	24989.34
704.45	24825.73
704.795	24683.81
705.14	24532.63
705.485	24586.64
705.83	24503.48
706.175	24438.62
706.52	24490.82
706.865	24278.63
707.209	24230.27
707.554	24277.5
707.899	24283.82
708.243	23986.66
708.588	24015.13
708.932	23817.4
709.277	23903.27
709.621	23872.76
709.966	23813.78
710.31	23845.42
710.654	23641.58
710.998	23542.83
711.342	23563.84
711.687	23482.26
712.031	23445.43
712.375	23374.24
712.719	23410.4
713.063	23353.68
713.407	23437.29
713.75	23277.75
714.094	23263.74
714.438	23245.89
714.782	23177.41
715.125	22995.27
715.469	23075.04
715.812	23093.35
716.156	22881.15
716.499	22938.78
716.843	22953.92
717.186	22853.81
717.53	22871.43
717.873	22844.31
718.216	22799.8
718.559	22652.46
718.902	22586.69
719.246	22709.4
719.589	22556.19
719.932	22507.83
720.275	22485
720.617	22475.06
720.96	22507.37
721.303	22487.94
721.646	22374.27
721.989	22260.6
722.331	22410.43
722.674	22296.08
723.016	22306.02
723.359	22291.56
723.701	22310.77
724.044	22339.24
724.386	22079.81
724.729	22280.49
725.071	22226.48
725.413	22230.32
725.755	22215.86
726.097	22058.57
726.439	21974.28
726.782	22086.37
727.124	22161.85
727.465	21973.6
727.807	22008.4
728.149	21974.05
728.491	22052.47
728.833	22081.17
729.175	21937.22
729.516	21882.08
729.858	21890.89
730.199	21924.56
730.541	21937.9
730.882	21799.37
731.224	21972.7
731.565	21705.59
731.906	21827.62
732.248	21863.55
732.589	21776.09
732.93	21787.62
733.271	21670.11
733.612	21767.51
733.953	21825.36
734.294	21794.62
734.635	21646.83
734.976	21678.02
735.317	21622.88
735.658	21732.25
735.999	21704.23
736.339	21618.13
736.68	21744.46
737.021	21688.19
737.361	21611.8
737.702	21828.75
738.042	21702.88
738.383	21678.92
738.723	21682.54
739.063	21602.77
739.404	21713.72
739.744	21715.08
740.084	21625.36
740.424	21581.3
740.764	21654.29
741.104	21652.93
741.444	21533.84
741.784	21565.93
742.124	21626.27
742.464	21626.72
742.804	21497.01
743.143	21595.99
743.483	21520.06
743.823	21489.1
744.162	21495.2
744.502	21585.82
744.841	21478.93
745.181	21651.8
745.52	21398.25
745.86	21537
746.199	21450.23
746.538	21522.54
746.877	21575.2
747.216	21647.51
747.556	21596.89
747.895	21583.33
748.234	21455.2
748.573	21443.22
748.911	21525.48
749.25	21517.57
749.589	21360.51
749.928	21374.3
750.267	21466.05
750.605	21418.82
750.944	21370
751.283	21230.57
751.621	21384.92
751.96	21250.46
752.298	21248.65
752.636	21314.64
752.975	21220.85
753.313	21151.93
753.651	21286.39
753.989	21159.39
754.327	21184.47
754.666	21081.42
755.004	21174.08
755.342	21168.43
755.679	21119.39
756.017	20974.53
756.355	21033.74
