Data from tablewood_brown_FLMS001491_018.txt Node
Date: Tue Feb 07 11:10:06 GMT 2017
User: dcchb
Spectrometer: FLMS00149
Trigger mode: 0
Integration Time (sec): 2.000000E-2
Scans to average: 10
Electric dark correction enabled: true
Nonlinearity correction enabled: false
Boxcar width: 0
XAxis mode: Wavelengths
Number of Pixels in Spectrum: 2048
>>>>>Begin Spectral Data<<<<<
341.393	-21.72
341.776	-21.72
342.16	-21.72
342.543	-72.79
342.927	-72.34
343.31	-75.96
343.693	-49.97
344.077	-69.4
344.46	-61.27
344.843	-76.86
345.226	-35.06
345.61	-19.01
345.993	0.88
346.376	-11.55
346.759	13.3
347.142	20.99
347.525	44.94
347.908	42
348.291	69.12
348.674	98.73
349.057	109.12
349.44	132.62
349.823	133.3
350.206	166.97
350.588	194.09
350.971	206.52
351.354	240.87
351.737	263.47
352.119	258.72
352.502	261.89
352.884	291.72
353.267	284.48
353.65	300.53
354.032	315.22
354.414	333.07
354.797	322.22
355.179	330.58
355.562	349.12
355.944	338.49
356.326	331.94
356.709	337.82
357.091	347.53
357.473	342.34
357.855	364.93
358.238	358.15
358.62	362.45
359.002	360.64
359.384	340.75
359.766	368.55
360.148	340.98
360.53	364.93
360.912	359.06
361.294	346.4
361.676	343.01
362.057	322.9
362.439	345.73
362.821	353.18
363.203	344.82
363.584	342.56
363.966	342.79
364.348	347.99
364.729	345.27
365.111	327.65
365.493	333.52
365.874	320.42
366.256	357.02
366.637	328.32
367.019	347.31
367.4	342.34
367.781	338.27
368.163	343.24
368.544	327.87
368.925	339.62
369.306	335.78
369.688	330.81
370.069	317.93
370.45	306.4
370.831	356.35
371.212	350.02
371.593	348.21
371.974	324.48
372.355	325.84
372.736	333.52
373.117	346.18
373.498	364.93
373.879	370.58
374.26	342.11
374.641	348.44
375.021	339.62
375.402	333.75
375.783	354.09
376.163	361.09
376.544	367.87
376.925	353.41
377.305	362
377.686	359.96
378.066	369.91
378.447	346.18
378.827	355.22
379.208	371.26
379.588	366.97
379.968	373.52
380.349	361.32
380.729	372.62
381.109	353.18
381.489	354.76
381.87	362.22
382.25	384.59
382.63	372.84
383.01	377.14
383.39	387.08
383.77	362.67
384.15	399.28
384.53	378.04
384.91	402.45
385.29	400.64
385.67	372.84
386.049	407.42
386.429	396.12
386.809	414.88
387.189	411.03
387.568	404.93
387.948	401.77
388.328	405.61
388.707	394.54
389.087	399.28
389.466	426.63
389.846	421.88
390.225	410.81
390.605	450.36
390.984	438.38
391.363	447.42
391.743	447.19
392.122	430.02
392.501	465.04
392.881	453.75
393.26	451.49
393.639	418.94
394.018	459.39
394.397	465.95
394.776	475.44
395.155	458.26
395.534	489.45
395.913	476.57
396.292	476.8
396.671	459.17
397.05	457.81
397.429	490.58
397.808	477.47
398.186	487.42
398.565	493.74
398.944	497.81
399.323	497.36
399.701	484.48
400.08	501.2
400.458	520.41
400.837	514.76
401.215	499.17
401.594	505.5
401.972	520.18
402.351	517.25
402.729	511.6
403.107	533.29
403.486	550.24
403.864	539.62
404.242	538.49
404.62	532.84
404.999	549.56
405.377	550.69
405.755	579.62
406.133	558.83
406.511	580.97
406.889	578.04
407.267	573.97
407.645	594.76
408.023	608.09
408.401	604.02
408.779	601.09
409.156	606.51
409.534	603.57
409.912	589.79
410.29	624.59
410.667	609.67
411.045	624.81
411.422	634.53
411.8	649.9
412.178	648.54
412.555	676.34
412.933	662.33
413.31	656.68
413.687	675.66
414.065	665.94
414.442	681.31
414.819	703.68
415.197	689.45
415.574	691.7
415.951	706.17
416.328	702.1
416.705	707.98
417.082	698.71
417.46	715.66
417.837	724.47
418.214	737.13
418.591	717.69
418.967	737.81
419.344	746.84
419.721	723.57
420.098	747.07
420.475	758.14
420.852	764.47
421.228	791.14
421.605	734.42
421.982	764.02
422.358	782.32
422.735	796.56
423.111	812.15
423.488	789.1
423.864	828.42
424.241	818.71
424.617	815.77
424.994	838.37
425.37	834.07
425.746	843.79
426.123	846.73
426.499	854.19
426.875	885.15
427.251	874.3
427.627	891.93
428.003	879.5
428.379	875.2
428.756	892.6
429.132	905.94
429.507	938.48
429.883	929.44
430.259	920.63
430.635	931.25
431.011	978.25
431.387	968.31
431.763	993.39
432.138	1013.96
432.514	988.19
432.89	1003.34
433.265	999.72
433.641	1033.16
434.016	1021.41
434.392	1043.79
434.767	1043.79
435.143	1055.99
435.518	1085.14
435.894	1104.35
436.269	1097.12
436.644	1122.65
437.02	1124.24
437.395	1115.2
437.77	1138.02
438.145	1147.74
438.52	1149.09
438.895	1164.23
439.271	1169.66
439.646	1191.58
440.021	1212.37
440.395	1203.56
440.77	1184.12
441.145	1217.57
441.52	1205.59
441.895	1250.79
442.27	1226.15
442.645	1252.14
443.019	1285.14
443.394	1267.06
443.769	1299.15
444.143	1285.36
444.518	1275.42
444.892	1299.37
445.267	1308.41
445.641	1296.21
446.016	1322.87
446.39	1320.61
446.764	1334.17
447.139	1343.67
447.513	1386.83
447.887	1391.57
448.262	1361.52
448.636	1393.38
449.01	1398.58
449.384	1404
449.758	1392.25
450.132	1454.62
450.506	1430.44
450.88	1405.58
451.254	1445.36
451.628	1462.31
452.002	1456.66
452.376	1487.16
452.75	1466.83
453.123	1518.35
453.497	1498.69
453.871	1496.43
454.244	1549.76
454.618	1533.49
454.992	1567.39
455.365	1580.95
455.739	1624.56
456.112	1622.53
456.486	1639.93
456.859	1640.83
457.232	1672.47
457.606	1670.89
457.979	1708.18
458.352	1726.93
458.725	1784.56
459.099	1775.07
459.472	1785.01
459.845	1794.95
460.218	1850.77
460.591	1833.37
460.964	1825.91
461.337	1874.5
461.71	1916.53
462.083	1941.39
462.456	1911.11
462.829	1973.25
463.201	1968.28
463.574	2006.7
463.947	2020.03
464.32	2065.45
464.692	2095.06
465.065	2117.43
465.438	2140.25
465.81	2159.24
466.183	2187.48
466.555	2212.12
466.928	2259.57
467.3	2223.19
467.672	2274.49
468.045	2310.42
468.417	2355.39
468.789	2384.99
469.161	2401.94
469.534	2468.38
469.906	2492.11
470.278	2523.52
470.65	2530.53
471.022	2592.67
471.394	2655.5
471.766	2683.52
472.138	2708.38
472.51	2795.83
472.882	2769.84
473.253	2855.26
473.625	2889.61
473.997	2983.85
474.369	3016.39
474.74	3029.5
475.112	3075.6
475.484	3157.4
475.855	3211.19
476.227	3205.09
476.598	3338.42
476.97	3355.14
477.341	3431.52
477.713	3522.59
478.084	3540.22
478.455	3659.99
478.827	3671.51
479.198	3769.59
479.569	3822.7
479.94	3926.42
480.311	3947.44
480.682	4064.27
481.053	4171.61
481.424	4183.82
481.795	4240.09
482.166	4323.25
482.537	4422.23
482.908	4481.44
483.279	4528.67
483.65	4662.9
484.021	4741.99
484.391	4798.72
484.762	4884.59
485.133	4881.88
485.503	4962.1
485.874	5100.18
486.244	5145.83
486.615	5271.92
486.985	5374.97
487.356	5416.1
487.726	5437.57
488.097	5614.29
488.467	5697.68
488.837	5730.22
489.207	5819.71
489.578	5908.97
489.948	5938.8
490.318	6023.54
490.688	6092.69
491.058	6175.63
491.428	6210.2
491.798	6310.99
492.168	6475.51
492.538	6477.32
492.908	6504.43
493.278	6620.59
493.648	6633.7
494.017	6710.3
494.387	6856.29
494.757	6862.39
495.126	6909.17
495.496	6891.54
495.866	7028.26
496.235	7074.81
496.605	7127.47
496.974	7157.52
497.344	7243.4
497.713	7357.74
498.082	7413.79
498.452	7517.51
498.821	7484.75
499.19	7575.37
499.559	7593.44
499.928	7661.69
500.298	7755.47
500.667	7827.11
501.036	7807.22
501.405	7876.83
501.774	7918.41
502.143	8009.48
502.512	8051.06
502.88	8089.7
503.249	8170.6
503.618	8209.02
503.987	8283.14
504.356	8339.87
504.724	8410.6
505.093	8440.88
505.462	8424.16
505.83	8512.97
506.199	8621.21
506.567	8713.64
506.936	8706.64
507.304	8823.02
507.672	8857.59
508.041	8950.92
508.409	9008.32
508.777	9117.92
509.145	9184.81
509.514	9148.43
509.882	9295.55
510.25	9223.46
510.618	9393.4
510.986	9442.89
511.354	9539.83
511.722	9646.5
512.09	9662.09
512.458	9717.46
512.826	9831.58
513.193	9866.83
513.561	9942.54
513.929	9985.92
514.297	10110.89
514.664	10251.23
515.032	10268.85
515.4	10324.45
515.767	10399.02
516.135	10503.42
516.502	10434.5
516.869	10646.02
517.237	10717.66
517.604	10725.11
517.972	10820.48
518.339	10906.13
518.706	10943.41
519.073	11057.31
519.44	11069.06
519.808	11257.53
520.175	11250.75
520.542	11458.65
520.909	11479.67
521.276	11537.75
521.643	11669.27
522.009	11697.97
522.376	11850.51
522.743	11920.56
523.11	11982.03
523.477	12196.94
523.843	12304.28
524.21	12357.61
524.577	12511.51
524.943	12581.56
525.31	12534.33
525.676	12694.33
526.043	12866.98
526.409	12945.17
526.776	13003.02
527.142	13093.86
527.508	13165.5
527.874	13278.27
528.241	13398.04
528.607	13459.96
528.973	13571.82
529.339	13594.64
529.705	13751.47
530.071	13801.64
530.437	13887.97
530.803	14023.11
531.169	14079.83
531.535	14141.29
531.901	14203.44
532.267	14306.04
532.632	14332.7
532.998	14424.23
533.364	14513.49
533.73	14591
534.095	14696.76
534.461	14739.47
534.826	14770.66
535.192	14806.81
535.557	14992.8
535.923	14992.12
536.288	15132.23
536.653	15174.04
537.019	15054.27
537.384	15156.18
537.749	15249.29
538.114	15261.72
538.479	15384.88
538.845	15418.78
539.21	15460.13
539.575	15532.44
539.94	15630.75
540.305	15724.98
540.67	15629.17
541.034	15774.25
541.399	15843.62
541.764	15921.14
542.129	15871.64
542.494	15920.46
542.858	16034.58
543.223	16116.38
543.587	16269.15
543.952	16097.63
544.316	16203.84
544.681	16403.61
545.045	16370.39
545.41	16498.97
545.774	16433.21
546.138	16510.27
546.503	16626.88
546.867	16676.14
547.231	16800.43
547.595	16836.82
547.959	16880.88
548.324	16975.8
548.688	16990.26
549.052	17128.33
549.416	17162.68
549.779	17173.76
550.143	17340.31
550.507	17438.16
550.871	17507.31
551.235	17566.74
551.599	17684.7
551.962	17759.28
552.326	17794.98
552.689	17918.82
553.053	17874.08
553.417	18029.33
553.78	18288.53
554.143	18183.22
554.507	18293.28
554.87	18399.71
555.234	18635.41
555.597	18637.9
555.96	18735.75
556.323	18797.67
556.686	18816.43
557.05	19022.07
557.413	19241.73
557.776	19365.34
558.139	19367.15
558.502	19477.65
558.865	19652.79
559.228	19752.22
559.59	19950.41
559.953	20006.9
560.316	20195.6
560.679	20322.15
561.041	20502.03
561.404	20528.02
561.767	20799.88
562.129	20765.53
562.492	21097.72
562.854	21103.6
563.217	21152.64
563.579	21417.94
563.941	21547.2
564.304	21673.07
564.666	21767.53
565.028	21851.83
565.39	22169.56
565.753	22312.83
566.115	22392.38
566.477	22592.82
566.839	22690.45
567.201	22892.93
567.563	22947.62
567.925	23217.21
568.287	23259.93
568.648	23408.85
569.01	23706.24
569.372	23794.37
569.734	23950.08
570.095	24171.99
570.457	24362.04
570.819	24339.22
571.18	24624.18
571.542	24768.81
571.903	24855.59
572.265	25101.91
572.626	25250.16
572.987	25448.34
573.349	25578.73
573.71	25698.51
574.071	25854.66
574.432	26023.92
574.794	26277.02
575.155	26357.47
575.516	26479.28
575.877	26553.17
576.238	26597.24
576.599	26991.13
576.96	26910.45
577.32	27176.88
577.681	27216.21
578.042	27488.74
578.403	27515.63
578.763	27617.78
579.124	27807.83
579.485	27815.74
579.845	28001.27
580.206	28108.16
580.566	28058.89
580.927	28228.16
581.287	28462.05
581.648	28353.58
582.008	28584.98
582.368	28526.68
582.728	28756.73
583.089	28645.77
583.449	28820.23
583.809	28998.08
584.169	29026.78
584.529	29110.84
584.889	29243.72
585.249	29221.58
585.609	29222.71
585.969	29315.13
586.329	29422.7
586.688	29420.89
587.048	29423.38
587.408	29379.54
587.768	29453.43
588.127	29545.64
588.487	29497.05
588.846	29865.85
589.206	29564.84
589.565	29676.93
589.925	29823.59
590.284	29716.7
590.643	29883.48
591.003	30017.04
591.362	30070.37
591.721	30001.44
592.08	30062.91
592.44	30084.6
592.799	30155.34
593.158	29969.35
593.517	30089.35
593.876	30213.41
594.235	30112.17
594.593	30249.35
594.952	30284.15
595.311	30177.03
595.67	30244.15
596.029	30370.47
596.387	30449.79
596.746	30525.04
597.104	30292.28
597.463	30366.63
597.822	30570.69
598.18	30398.72
598.538	30312.85
598.897	30645.04
599.255	30501.54
599.613	30824.02
599.972	30669.67
600.33	30727.98
600.688	30527.3
601.046	30608.88
601.404	30889.78
601.762	30834.64
602.12	30838.03
602.478	31027.86
602.836	30953.06
603.194	30787.64
603.552	30912.83
603.91	30857.47
604.268	31020.4
604.625	30980.17
604.983	31017.91
605.341	30918.03
605.698	31010.68
606.056	31187.63
606.413	31010.68
606.771	31193.05
607.128	31110.34
607.485	31007.97
607.843	31116.67
608.2	31307.62
608.557	31261.75
608.914	31291.58
609.272	31427.85
609.629	31441.4
609.986	31485.7
610.343	31371.58
610.7	31657.9
611.057	31486.38
611.414	31627.84
611.771	31505.81
612.127	31633.49
612.484	31641.17
612.841	31770.44
613.198	31715.97
613.554	31697.44
613.911	31859.25
614.267	31924.1
614.624	31911.68
614.98	31877.55
615.337	32146.92
615.693	32005.46
616.05	32099.69
616.406	32125.91
616.762	32073.25
617.118	32094.04
617.475	32073.48
617.831	32156.64
618.187	32232.57
618.543	32246.81
618.899	32424.2
619.255	32329.52
619.611	32233.47
619.967	32333.36
620.323	32372.23
620.678	32334.26
621.034	32282.74
621.39	32287.26
621.746	32145.34
622.101	32549.85
622.457	32322.29
622.812	32403.41
623.168	32504.88
623.523	32498.33
623.879	32510.98
624.234	32406.13
624.589	32522.51
624.945	32590.53
625.3	32593.01
625.655	32539
626.01	32553.01
626.365	32548.04
626.72	32527.48
627.075	32497.42
627.43	32426.01
627.785	32350.76
628.14	32509.17
628.495	32388.72
628.85	32537.42
629.205	32339.46
629.559	32488.61
629.914	32225.11
630.269	32375.39
630.623	32234.15
630.978	32170.65
631.332	32279.57
631.687	32399.12
632.041	32170.2
632.396	32324.32
632.75	32115.74
633.104	32128.17
633.459	32080.71
633.813	31997.77
634.167	32049.98
634.521	32063.99
634.875	32111.22
635.229	32061.5
635.583	31759.14
635.937	31756.88
636.291	31759.36
636.645	31998.23
636.999	31779.7
637.352	31818.34
637.706	31470.78
638.06	31681.62
638.413	31734.73
638.767	31613.83
639.121	31715.3
639.474	31528.18
639.828	31513.72
640.181	31628.52
640.534	31587.39
640.888	31337
641.241	31248.42
641.594	31382.2
641.947	31502.87
642.301	31261.52
642.654	31414.29
643.007	31308.3
643.36	31255.42
643.713	31183.78
644.066	31346.72
644.419	31323.44
644.771	30959.84
645.124	30733.85
645.477	30575.89
645.83	30335.9
646.182	30295.67
646.535	30182.91
646.888	30321.66
647.24	30082.34
647.593	30365.5
647.945	30189.01
648.298	30133.87
648.65	30052.06
649.002	30106.75
649.355	30164.6
649.707	30151.95
650.059	30214.77
650.411	30546.97
650.763	30624.93
651.115	30941.31
651.467	30836.22
651.819	30922.55
652.171	30873.06
652.523	30618.6
652.875	30669.9
653.227	30584.93
653.578	30737.47
653.93	30817.92
654.282	30599.17
654.633	30493.41
654.985	30654.53
655.337	30581.31
655.688	30626.29
656.039	30667.19
656.391	30412.51
656.742	30512.62
657.094	30582.67
657.445	30580.41
657.796	30582.22
658.147	30617.92
658.498	30469
658.849	30639.84
659.2	30429.91
659.551	30448.21
659.902	30605.72
660.253	30533.63
660.604	30501.32
660.955	30335.22
661.306	30496.8
661.656	30515.55
662.007	30520.53
662.358	30431.71
662.708	30424.26
663.059	30405.73
663.409	30242.34
663.76	30486.85
664.11	30457.25
664.461	30473.97
664.811	30419.96
665.161	30523.24
665.511	30316.46
665.862	30377.48
666.212	30499.28
666.562	30589.68
666.912	30381.55
667.262	30329.12
667.612	30516.01
667.962	30449.11
668.312	30373.18
668.662	30504.71
669.011	30376.35
669.361	30303.58
669.711	30372.05
670.06	30292.96
670.41	30150.14
670.76	30246.86
671.109	30367.08
671.459	30304.94
671.808	30111.72
672.157	30246.18
672.507	29979.3
672.856	30018.62
673.205	30101.1
673.554	30298.38
673.904	29997.83
674.253	30240.76
674.602	30078.28
674.951	29644.16
675.3	29424.28
675.649	30055.9
675.998	29947.43
676.346	29978.84
676.695	30038.5
677.044	29809.36
677.393	29945.17
677.741	29826.76
678.09	29922.57
678.438	29824.72
678.787	29684.61
679.135	29694.78
679.484	29459.99
679.832	29635.58
680.181	29551.96
680.529	29479.87
680.877	29325.3
681.225	29505.18
681.573	29513.32
681.922	29419.31
682.27	29306.77
682.618	29240.56
682.966	29224.29
683.314	29292.99
683.661	29094.35
684.009	29044.18
684.357	28955.37
684.705	28766.9
685.053	28952.2
685.4	28946.33
685.748	28699.56
686.095	28743.4
686.443	28614.59
686.79	28551.54
687.138	28639.22
687.485	28643.51
687.832	28504.53
688.18	28424.54
688.527	28294.14
688.874	28322.16
689.221	28222.05
689.568	28124.43
689.915	27920.14
690.262	28015.28
690.609	27928.5
690.956	27805.12
691.303	27845.79
691.65	27648.74
691.997	27721.28
692.344	27338.24
692.69	27425.47
693.037	27491.23
693.383	27207.84
693.73	27197
694.077	27044.23
694.423	27086.94
694.769	26916.1
695.116	26854.86
695.462	26866.16
695.808	26665.49
696.155	26672.26
696.501	26401.31
696.847	26568.76
697.193	26275.21
697.539	26404.93
697.885	26201.99
698.231	26065.95
698.577	26040.19
698.923	26024.15
699.269	25934.66
699.614	25776.24
699.96	25736.24
700.306	25677.04
700.651	25657.6
700.997	25509.58
701.342	25409.7
701.688	25345.29
702.033	25283.15
702.379	25228.01
702.724	25041.57
703.069	25142.59
703.415	24782.82
703.76	24787.57
704.105	24879.09
704.45	24785.31
704.795	24590.74
705.14	24524.98
705.485	24612.88
705.83	24338.31
706.175	24443.62
706.52	24414.02
706.865	24256.28
707.209	24289.05
707.554	24129.96
707.899	24111.43
708.243	24018.1
708.588	23991.43
708.932	23741.49
709.277	23847.03
709.621	23753.47
709.966	23660.82
710.31	23642.74
710.654	23431.67
710.998	23421.73
711.342	23582.18
711.687	23510.77
712.031	23329.75
712.375	23293.6
712.719	23228.97
713.063	23138.57
713.407	23274.61
713.75	23136.54
714.094	23137.44
714.438	23034.62
714.782	23044.34
715.125	22942.87
715.469	22961.4
715.812	22880.95
716.156	22673.95
716.499	22778.36
716.843	22772.93
717.186	22720.96
717.53	22763.89
717.873	22790.78
718.216	22667.4
718.559	22515.54
718.902	22531.36
719.246	22532.71
719.589	22505.37
719.932	22302.89
720.275	22385.6
720.617	22449.55
720.96	22302.66
721.303	22253.62
721.646	22338.14
721.989	22138.6
722.331	22217.24
722.674	22213.85
723.016	22256.11
723.359	22247.75
723.701	22352.38
724.044	22106.96
724.386	22039.17
724.729	22167.07
725.071	22075.78
725.413	22118.49
725.755	22043.91
726.097	21990.13
726.439	21908.1
726.782	21979.96
727.124	22027.64
727.465	21996.46
727.807	21910.13
728.149	21838.72
728.491	21807.53
728.833	21958.26
729.175	21721.66
729.516	21781.55
729.858	21768.21
730.199	21824.93
730.541	21775.67
730.882	21676.46
731.224	21883.46
731.565	21770.7
731.906	21865.84
732.248	21872.84
732.589	21758.04
732.93	21733.41
733.271	21789.46
733.612	21753.75
733.953	21815.22
734.294	21717.14
734.635	21671.27
734.976	21686.86
735.317	21607.77
735.658	21669.46
735.999	21693.86
736.339	21675.56
736.68	21660.42
737.021	21706.75
737.361	21540.87
737.702	21607.77
738.042	21570.93
738.383	21625.17
738.723	21630.82
739.063	21557.82
739.404	21697.03
739.744	21620.87
740.084	21547.43
740.424	21518.05
740.764	21564.83
741.104	21723.92
741.444	21580.42
741.784	21510.82
742.124	21606.41
742.464	21548.78
742.804	21574.09
743.143	21493.19
743.483	21506.07
743.823	21510.82
744.162	21594.88
744.502	21590.59
744.841	21452.06
745.181	21564.83
745.52	21505.17
745.86	21634.43
746.199	21449.8
746.538	21453.42
746.877	21524.83
747.216	21564.15
747.556	21539.74
747.895	21572.74
748.234	21375.23
748.573	21554.43
748.911	21406.41
749.25	21530.03
749.589	21432.18
749.928	21476.02
750.267	21430.82
750.605	21373.65
750.944	21430.14
751.283	21320.99
751.621	21463.81
751.96	21302.46
752.298	21367.55
752.636	21380.88
752.975	21316.47
753.313	21235.35
753.651	21256.14
753.989	21170.26
754.327	21150.38
754.666	20986.99
755.004	21161.45
755.342	21099.53
755.679	21054.79
