Data from tablewood_dark_bookshelf_FLMS001491_00063.txt Node
Date: Wed Feb 08 14:15:23 GMT 2017
User: dcchb
Spectrometer: FLMS00149
Trigger mode: 0
Integration Time (sec): 2.000000E-2
Scans to average: 10
Electric dark correction enabled: true
Nonlinearity correction enabled: false
Boxcar width: 0
XAxis mode: Wavelengths
Number of Pixels in Spectrum: 2048
>>>>>Begin Spectral Data<<<<<
341.393	-2.73
341.776	-2.73
342.16	-2.73
342.543	-38.88
342.927	-56.28
343.31	-59.45
343.693	-91.99
344.077	-58.54
344.46	-65.1
344.843	-60.13
345.226	-51.31
345.61	-37.98
345.993	-17.41
346.376	-28.04
346.759	20.78
347.142	17.39
347.525	71.85
347.908	65.52
348.291	93.54
348.674	101.68
349.057	99.19
349.44	141.9
349.823	126.31
350.206	140.32
350.588	197.72
350.971	188.91
351.354	212.86
351.737	215.57
352.119	224.84
352.502	239.08
352.884	255.57
353.267	270.94
353.65	269.81
354.032	271.17
354.414	319.3
354.797	280.43
355.179	333.54
355.562	320.43
355.944	288.34
356.326	324.5
356.709	317.94
357.091	328.11
357.473	334.67
357.855	335.34
358.238	311.62
358.62	303.71
359.002	322.92
359.384	328.79
359.766	326.53
360.148	327.43
360.53	316.14
360.912	356.13
361.294	333.31
361.676	341.67
362.057	327.66
362.439	341.9
362.821	319.53
363.203	336.47
363.584	320.88
363.966	317.04
364.348	314.78
364.729	315.91
365.111	304.84
365.493	302.35
365.874	338.73
366.256	313.88
366.637	317.04
367.019	320.2
367.4	310.26
367.781	303.25
368.163	323.37
368.544	316.36
368.925	304.61
369.306	325.18
369.688	330.37
370.069	314.33
370.45	304.61
370.831	307.77
371.212	320.43
371.593	321.11
371.974	317.94
372.355	340.54
372.736	322.24
373.117	296.93
373.498	320.43
373.879	319.3
374.26	309.81
374.641	306.42
375.021	323.82
375.402	321.79
375.783	316.36
376.163	326.98
376.544	329.47
376.925	332.41
377.305	314.1
377.686	327.66
378.066	341.67
378.447	347.32
378.827	336.02
379.208	325.4
379.588	330.15
379.968	348.23
380.349	355
380.729	326.53
381.109	318.4
381.489	356.36
381.87	314.33
382.25	344.61
382.63	319.75
383.01	351.16
383.39	360.2
383.77	369.92
384.15	345.74
384.53	361.11
384.91	366.53
385.29	373.54
385.67	369.02
386.049	339.41
386.429	353.65
386.809	356.36
387.189	366.76
387.568	360.65
387.948	373.76
388.328	371.5
388.707	366.3
389.087	368.34
389.466	364.27
389.846	364.27
390.225	378.73
390.605	364.72
390.984	380.09
391.363	398.39
391.743	382.57
392.122	397.72
392.501	386.87
392.881	382.35
393.26	384.83
393.639	380.77
394.018	425.06
394.397	401.78
394.776	397.72
395.155	427.55
395.534	402.46
395.913	389.81
396.292	439.52
396.671	431.39
397.05	423.25
397.429	419.41
397.808	450.6
398.186	445.85
398.565	412.63
398.944	424.38
399.323	440.2
399.701	454.89
400.08	421.9
400.458	430.26
400.837	440.43
401.215	451.73
401.594	453.08
401.972	432.29
402.351	431.84
402.729	447.66
403.107	480.2
403.486	452.18
403.864	447.66
404.242	464.38
404.62	459.41
404.999	490.37
405.377	478.62
405.755	454.44
406.133	489.24
406.511	468.22
406.889	499.86
407.267	482.23
407.645	486.98
408.023	499.63
408.401	493.76
408.779	508
409.156	493.98
409.534	514.77
409.912	516.36
410.29	518.84
410.667	543.7
411.045	529.24
411.422	525.62
411.8	531.95
412.178	541.89
412.555	546.41
412.933	549.12
413.31	561.55
413.687	551.16
414.065	551.84
414.442	552.06
414.819	541.89
415.197	576.02
415.574	575.11
415.951	597.26
416.328	572.85
416.705	576.02
417.082	569.24
417.46	588.22
417.837	595.9
418.214	634.77
418.591	612.85
418.967	597.94
419.344	607.65
419.721	617.82
420.098	635.45
420.475	635.9
420.852	629.57
421.228	645.84
421.605	633.87
421.982	653.3
422.358	655.79
422.735	656.24
423.111	672.74
423.488	668.67
423.864	673.41
424.241	637.48
424.617	703.7
424.994	657.14
425.37	677.03
425.746	698.27
426.123	682.45
426.499	696.01
426.875	697.59
427.251	711.15
427.627	710.93
428.003	735.33
428.379	731.27
428.756	767.2
429.132	739.4
429.507	746.18
429.883	776.69
430.259	768.55
430.635	794.09
431.011	762.68
431.387	780.08
431.763	763.58
432.138	779.63
432.514	817.59
432.89	815.11
433.265	838.83
433.641	846.29
434.016	844.71
434.392	854.2
434.767	880.87
435.143	881.09
435.518	859.85
435.894	879.51
436.269	900.08
436.644	894.65
437.02	916.35
437.395	910.24
437.77	903.46
438.145	926.52
438.52	924.48
438.895	950.92
439.271	970.36
439.646	985.95
440.021	962.9
440.395	973.75
440.77	994.31
441.145	986.17
441.52	988.43
441.895	990.02
442.27	1008.55
442.645	1020.98
443.019	1032.95
443.394	1032.95
443.769	1025.72
444.143	1042.67
444.518	1053.07
444.892	1065.72
445.267	1080.86
445.641	1051.48
446.016	1056.91
446.39	1096.68
446.764	1085.38
447.139	1091.03
447.513	1122.67
447.887	1094.65
448.262	1107.98
448.636	1126.96
449.01	1132.39
449.384	1143.68
449.758	1124.7
450.132	1152.72
450.506	1149.56
450.88	1151.14
451.254	1156.57
451.628	1161.99
452.002	1192.95
452.376	1195.66
452.75	1208.77
453.123	1250.35
453.497	1208.32
453.871	1226.39
454.244	1239.5
454.618	1271.82
454.992	1265.94
455.365	1281.99
455.739	1310.91
456.112	1330.8
456.486	1327.63
456.859	1361.98
457.232	1372.38
457.606	1384.36
457.979	1372.61
458.352	1409.67
458.725	1425.03
459.099	1447.86
459.472	1446.05
459.845	1444.24
460.218	1499.83
460.591	1464.58
460.964	1513.84
461.337	1546.61
461.71	1567.4
462.083	1572.37
462.456	1599.04
462.829	1574.41
463.201	1608.31
463.574	1599.94
463.947	1615.54
464.32	1692.37
464.692	1687.63
465.065	1686.27
465.438	1707.96
465.81	1747.51
466.183	1749.77
466.555	1777.79
466.928	1794.74
467.3	1770.11
467.672	1808.53
468.045	1835.64
468.417	1864.8
468.789	1896.43
469.161	1907.73
469.534	1962.65
469.906	1985.7
470.278	1959.93
470.65	1974.17
471.022	2029.54
471.394	2045.36
471.766	2086.26
472.138	2084.45
472.51	2196.99
472.882	2178.91
473.253	2201.74
473.625	2217.55
473.997	2256.88
474.369	2279.47
474.74	2364.44
475.112	2366.7
475.484	2426.59
475.855	2438.79
476.227	2453.03
476.598	2502.74
476.97	2528.96
477.341	2589.97
477.713	2646.47
478.084	2611.67
478.455	2704.77
478.827	2707.49
479.198	2803.08
479.569	2763.3
479.94	2865
480.311	2895.5
480.682	2983.18
481.053	3016.86
481.424	3073.13
481.795	3098.89
482.166	3122.84
482.537	3180.92
482.908	3230.64
483.279	3229.73
483.65	3316.73
484.021	3354.7
484.391	3404.64
484.762	3467.69
485.133	3477.63
485.503	3519.89
485.874	3598.08
486.244	3666.33
486.615	3695.26
486.985	3734.12
487.356	3809.38
487.726	3801.24
488.097	3886.21
488.467	3907.45
488.837	4004.63
489.207	4066.77
489.578	4081.23
489.948	4139.09
490.318	4131.18
490.688	4178.18
491.058	4245.07
491.428	4321.91
491.798	4353.09
492.168	4444.84
492.538	4465.41
492.908	4499.75
493.278	4562.58
493.648	4568
494.017	4646.42
494.387	4692.07
494.757	4695.91
495.126	4770.48
495.496	4813.64
495.866	4862.46
496.235	4860.2
496.605	4884.83
496.974	4966.63
497.344	4967.31
497.713	5041.89
498.082	5016.58
498.452	5108.78
498.821	5132.28
499.19	5186.52
499.559	5184.03
499.928	5254.09
500.298	5264.48
500.667	5332.05
501.036	5302.67
501.405	5388.54
501.774	5380.18
502.143	5454.08
502.512	5521.87
502.88	5507.19
503.249	5554.87
503.618	5608.88
503.987	5609.56
504.356	5629.44
504.724	5708.99
505.093	5688.2
505.462	5750.8
505.83	5820.17
506.199	5840.51
506.567	5894.52
506.936	5923.45
507.304	5968.64
507.672	5992.82
508.041	6023.56
508.409	6045.7
508.777	6109.88
509.145	6238.69
509.514	6215.19
509.882	6287.96
510.25	6295.87
510.618	6331.12
510.986	6392.59
511.354	6408.4
511.722	6447.05
512.09	6565.01
512.458	6503.77
512.826	6575.86
513.193	6600.49
513.561	6682.07
513.929	6799.36
514.297	6828.28
514.664	6835.06
515.032	6889.52
515.4	6945.11
515.767	6952.35
516.135	6997.99
516.502	6948.28
516.869	7143.75
517.237	7146.01
517.604	7146.46
517.972	7167.71
518.339	7308.49
518.706	7284.54
519.073	7364.99
519.44	7354.37
519.808	7481.15
520.175	7508.26
520.542	7660.8
520.909	7676.62
521.276	7725.66
521.643	7722.95
522.009	7753.23
522.376	7827.12
522.743	7928.14
523.11	7978.76
523.477	8111.19
523.843	8163.61
524.21	8268.7
524.577	8274.57
524.943	8336.26
525.31	8380.56
525.676	8462.81
526.043	8505.98
526.409	8489.93
526.776	8647.22
527.142	8669.36
527.508	8754.78
527.874	8819.64
528.241	8782.13
528.607	8915.46
528.973	8936.02
529.339	8925.85
529.705	9083.36
530.071	9105.06
530.437	9188.22
530.803	9196.13
531.169	9345.28
531.535	9278.61
531.901	9333.98
532.267	9411.49
532.632	9495.56
532.998	9554.99
533.364	9569.23
533.73	9547.98
534.095	9610.81
534.461	9712.27
534.826	9769.22
535.192	9767.19
535.557	9905.26
535.923	9851.25
536.288	9946.17
536.653	9929.89
537.019	9953.4
537.384	10011.93
537.749	10140.06
538.114	10074.3
538.479	10140.51
538.845	10188.87
539.21	10198.36
539.575	10198.59
539.94	10261.41
540.305	10334.86
540.67	10319.26
541.034	10342.31
541.399	10416.44
541.764	10438.13
542.129	10507.51
542.494	10551.8
542.858	10595.64
543.223	10635.64
543.587	10671.34
543.952	10618.24
544.316	10741.85
544.681	10760.15
545.045	10871.11
545.41	10859.59
545.774	10911.79
546.138	10884.45
546.503	10898.91
546.867	10999.92
547.231	11010.54
547.595	11011.45
547.959	11103.2
548.324	11128.28
548.688	11179.8
549.052	11253.02
549.416	11213.48
549.779	11218.22
550.143	11319.24
550.507	11436.75
550.871	11437.2
551.235	11384.32
551.599	11482.4
551.962	11588.83
552.326	11634.03
552.689	11693.01
553.053	11650.08
553.417	11651.43
553.78	11857.98
554.143	11785.66
554.507	11886.68
554.87	11875.38
555.234	12038.09
555.597	12021.36
555.96	12064.53
556.323	12116.05
556.686	12108.82
557.05	12200.12
557.413	12196.95
557.776	12299.32
558.139	12440.11
558.502	12386.55
558.865	12481.69
559.228	12606.66
559.59	12578.64
559.953	12575.25
560.316	12834.22
560.679	12821.34
561.041	12856.82
561.404	12909.7
561.767	12980.89
562.129	12883.26
562.492	13207.55
562.854	13170.94
563.217	13170.94
563.579	13266.98
563.941	13307.43
564.304	13305.62
564.666	13471.5
565.028	13413.87
565.39	13546.3
565.753	13687.99
566.115	13589.23
566.477	13700.64
566.839	13767.08
567.201	13854.31
567.563	13886.17
567.925	14052.05
568.287	14087.53
568.648	14070.58
569.01	14232.38
569.372	14319.61
569.734	14283.9
570.095	14417.91
570.457	14485.03
570.819	14535.42
571.18	14538.59
571.542	14706.72
571.903	14738.13
572.265	14701.07
572.626	14814.74
572.987	14840.95
573.349	14946.26
573.71	14927.05
574.071	15041.85
574.432	15091.79
574.794	15223.09
575.155	15204.78
575.516	15146.03
575.877	15231.45
576.238	15290.88
576.599	15393.93
576.96	15335.63
577.32	15423.54
577.681	15605.45
578.042	15568.16
578.403	15577.88
578.763	15581.72
579.124	15763.19
579.485	15757.09
579.845	15852
580.206	15803.19
580.566	15848.16
580.927	15902.62
581.287	16041.82
581.648	15917.99
582.008	16056.29
582.368	16066.46
582.728	16047.02
583.089	16131.77
583.449	16111.65
583.809	16162.95
584.169	16154.36
584.529	16190.52
584.889	16389.39
585.249	16174.7
585.609	16161.37
585.969	16341.03
586.329	16448.14
586.688	16433.23
587.048	16421.47
587.408	16382.61
587.768	16374.24
588.127	16520.91
588.487	16520.46
588.846	16543.28
589.206	16522.04
589.565	16463.51
589.925	16621.47
590.284	16564.75
590.643	16707.57
591.003	16674.8
591.362	16726.78
591.721	16752.77
592.08	16785.99
592.44	16839.09
592.799	16831.18
593.158	16811.75
593.517	16899.65
593.876	16894.46
594.235	16863.27
594.593	16994.12
594.952	17105.07
595.311	16899.88
595.67	17011.74
596.029	17209.02
596.387	17082.02
596.746	17181
597.104	17095.81
597.463	17171.06
597.822	17167.44
598.18	17139.65
598.538	17093.32
598.897	17319.3
599.255	17171.74
599.613	17433.65
599.972	17305.29
600.33	17373.31
600.688	17314.11
601.046	17411.51
601.404	17447.66
601.762	17455.35
602.12	17556.59
602.478	17552.52
602.836	17567.43
603.194	17447.21
603.552	17534.44
603.91	17623.48
604.268	17669.13
604.625	17528.79
604.983	17626.87
605.341	17614.89
605.698	17653.31
606.056	17813.3
606.413	17798.84
606.771	17825.51
607.128	17900.08
607.485	17885.62
607.843	17917.25
608.2	17927.2
608.557	18011.94
608.914	17940.76
609.272	18015.11
609.629	18121.32
609.986	18079.96
610.343	17968.78
610.7	18170.81
611.057	18206.96
611.414	18184.82
611.771	18200.19
612.127	18209.68
612.484	18307.98
612.841	18304.82
613.198	18318.6
613.554	18304.82
613.911	18476.11
614.267	18400.41
614.624	18373.74
614.98	18329
615.337	18480.86
615.693	18509.78
616.05	18439.28
616.406	18621.19
616.762	18511.59
617.118	18569.22
617.475	18498.93
617.831	18645.37
618.187	18648.76
618.543	18640.63
618.899	18723.11
619.255	18672.94
619.611	18669.78
619.967	18778.7
620.323	18873.39
620.678	18813.73
621.034	18736.22
621.39	18671.59
621.746	18717.69
622.101	18935.08
622.457	18822.77
622.812	18808.3
623.168	18866.38
623.523	18818.02
623.879	18986.15
624.234	18769.44
624.589	18789.1
624.945	18801.53
625.3	18910.9
625.655	18802.66
626.01	18839.72
626.365	18878.81
626.72	18851.02
627.075	18894.18
627.43	18867.96
627.785	18743
628.14	18889.21
628.495	18859.38
628.85	18833.39
629.205	18742.32
629.559	18909.09
629.914	18857.8
630.269	18765.82
630.623	18742.77
630.978	18860.96
631.332	18905.48
631.687	18891.92
632.041	18770.34
632.396	18813.95
632.75	18661.42
633.104	18698.7
633.459	18673.39
633.813	18740.06
634.167	18677.46
634.521	18677.91
634.875	18728.31
635.229	18646.73
635.583	18619.61
635.937	18619.61
636.291	18629.1
636.645	18597.91
636.999	18548.65
637.352	18648.54
637.706	18441.99
638.06	18542.78
638.413	18554.53
638.767	18381.88
639.121	18511.14
639.474	18387.3
639.828	18334.19
640.181	18522.21
640.534	18379.62
640.888	18309.79
641.241	18198.38
641.594	18313.18
641.947	18360.63
642.301	18323.57
642.654	18307.3
643.007	18300.52
643.36	18221.43
643.713	18348.66
644.066	18259.84
644.419	18202.45
644.771	18157.7
645.124	17999.06
645.477	17922.23
645.83	17818.73
646.182	17752.29
646.535	17591.84
646.888	17712.97
647.24	17452.18
647.593	17673.42
647.945	17689.24
648.298	17540.32
648.65	17533.99
649.002	17499.86
649.355	17513.65
649.707	17492.18
650.059	17573.76
650.411	17866.18
650.763	17830.48
651.115	18073.18
651.467	17903.02
651.819	17940.76
652.171	17942.11
652.523	17901.66
652.875	17882.45
653.227	17878.39
653.578	17988.67
653.93	17869.8
654.282	17883.36
654.633	17792.96
654.985	17815.11
655.337	17802.23
655.688	17887.2
656.039	17871.61
656.391	17740.31
656.742	17740.99
657.094	17759.97
657.445	17790.93
657.796	17795.45
658.147	17801.55
658.498	17695.57
658.849	17812.4
659.2	17785.05
659.551	17754.1
659.902	17777.6
660.253	17737.82
660.604	17851.27
660.955	17706.64
661.306	17626.42
661.656	17683.59
662.007	17712.97
662.358	17771.72
662.708	17740.99
663.059	17715
663.409	17601.1
663.76	17797.48
664.11	17767.2
664.461	17766.52
664.811	17706.19
665.161	17783.93
665.511	17671.61
665.862	17721.1
666.212	17679.52
666.562	17676.13
666.912	17673.87
667.262	17717.71
667.612	17670.48
667.962	17769.69
668.312	17661.44
668.662	17767.65
669.011	17734.89
669.361	17694.44
669.711	17613.99
670.06	17610.14
670.41	17581.44
670.76	17599.75
671.109	17698.28
671.459	17614.89
671.808	17686.07
672.157	17584.16
672.507	17538.51
672.856	17577.38
673.205	17594.55
673.554	17591.84
673.904	17595.46
674.253	17645.17
674.602	17566.76
674.951	17330.38
675.3	17233.21
675.649	17524.95
675.998	17549.13
676.346	17597.72
676.695	17569.69
677.044	17454.89
677.393	17569.24
677.741	17643.36
678.09	17548
678.438	17445.63
678.787	17527.66
679.135	17571.95
679.484	17345.52
679.832	17363.82
680.181	17287.67
680.529	17337.61
680.877	17397.04
681.225	17344.61
681.573	17486.08
681.922	17286.76
682.27	17172.64
682.618	17211.51
682.966	17178.07
683.314	17325.86
683.661	17234.79
684.009	17083.6
684.357	17126.77
684.705	17094
685.053	16994.79
685.4	17000.22
685.748	16922.03
686.095	16954.79
686.443	16891.29
686.79	16882.25
687.138	16821.92
687.485	16900.11
687.832	16808.13
688.18	16826.89
688.527	16723.84
688.874	16730.85
689.221	16753.67
689.568	16697.85
689.915	16715.7
690.262	16694.91
690.609	16573.79
690.956	16621.92
691.303	16452.66
691.65	16434.36
691.997	16421.93
692.344	16363.17
692.69	16348.26
693.037	16410.85
693.383	16241.14
693.73	16327.47
694.077	16181.71
694.423	16207.02
694.769	16186.68
695.116	16035.04
695.462	16062.39
695.808	16022.62
696.155	16000.92
696.501	15972.45
696.847	15881.15
697.193	15778.78
697.539	15874.6
697.885	15747.82
698.231	15682.51
698.577	15722.74
698.923	15695.39
699.269	15603.42
699.614	15508.5
699.96	15578.33
700.306	15512.57
700.651	15372.46
700.997	15377.66
701.342	15358.23
701.688	15372.69
702.033	15290.66
702.379	15207.95
702.724	15186.25
703.069	15274.16
703.415	15066.26
703.76	15105.35
704.105	15092.47
704.45	15120.04
704.795	14982.42
705.14	14933.6
705.485	15040.04
705.83	14918.46
706.175	14913.04
706.52	14821.74
706.865	14770.67
707.209	14761.63
707.554	14721.86
707.899	14793.27
708.243	14654.06
708.588	14627.85
708.932	14503.79
709.277	14483.9
709.621	14607.29
709.966	14465.37
710.31	14544.91
710.654	14380.4
710.998	14502.43
711.342	14384.69
711.687	14372.04
712.031	14390.57
712.375	14267.18
712.719	14313.51
713.063	14302.43
713.407	14375.43
713.75	14226.28
714.094	14189.44
714.438	14181.76
714.782	14141.53
715.125	14104.93
715.469	14090.46
715.812	14094.98
716.156	14026.74
716.499	13952.84
716.843	14043.68
717.186	13938.38
717.53	14043.01
717.873	14036.23
718.216	13967.53
718.559	13890.69
718.902	13796.46
719.246	13835.33
719.589	13828.55
719.932	13744.26
720.275	13832.16
720.617	13785.39
720.96	13728.21
721.303	13730.7
721.646	13729.79
721.989	13714.2
722.331	13822.67
722.674	13726.18
723.016	13700.87
723.359	13734.31
723.701	13729.79
724.044	13633.75
724.386	13536.13
724.729	13609.8
725.071	13578.16
725.413	13519.86
725.755	13509.01
726.097	13490.25
726.439	13449.8
726.782	13429.46
727.124	13546.07
727.465	13390.14
727.807	13483.47
728.149	13436.69
728.491	13428.56
728.833	13393.76
729.175	13431.95
729.516	13377.26
729.858	13304.27
730.199	13371.84
730.541	13400.54
730.882	13280.77
731.224	13306.3
731.565	13236.02
731.906	13230.15
732.248	13273.99
732.589	13245.29
732.93	13211.39
733.271	13298.17
733.612	13204.84
733.953	13244.84
734.294	13178.85
734.635	13179.07
734.976	13187.89
735.317	13126.65
735.658	13084.39
735.999	13084.84
736.339	13065.18
736.68	13179.53
737.021	13052.07
737.361	13102.92
737.702	13070.38
738.042	13062.92
738.383	13047.33
738.723	13062.69
739.063	13053.2
739.404	13099.3
739.744	13013.65
740.084	12977.05
740.424	13065.63
740.764	12974.33
741.104	13019.53
741.444	12935.69
741.784	12888.69
742.124	13034.67
742.464	12923.04
742.804	13015.01
743.143	12924.62
743.483	12928.46
743.823	12844.39
744.162	12822.93
744.502	12839.2
744.841	12786.77
745.181	12884.39
745.52	12819.99
745.86	12879.65
746.199	12813.21
746.538	12828.8
746.877	12812.76
747.216	12814.79
747.556	12741.12
747.895	12714.91
748.234	12719.2
748.573	12646.88
748.911	12695.92
749.25	12773.66
749.589	12652.53
749.928	12681.69
750.267	12741.12
750.605	12668.35
750.944	12668.58
751.283	12617.73
751.621	12635.13
751.96	12621.8
752.298	12575.7
752.636	12647.79
752.975	12494.8
753.313	12437.85
753.651	12645.76
753.989	12486.21
754.327	12523.05
754.666	12440.11
755.004	12369.83
755.342	12404.86
755.679	12404.86
756.017	12379.1
756.355	12322.37
756.693	12201.02
757.031	12244.86
757.368	12217.29
