Data from tablewood_dark_bookshelf_FLMS001491_00057.txt Node
Date: Wed Feb 08 14:15:04 GMT 2017
User: dcchb
Spectrometer: FLMS00149
Trigger mode: 0
Integration Time (sec): 2.000000E-2
Scans to average: 10
Electric dark correction enabled: true
Nonlinearity correction enabled: false
Boxcar width: 0
XAxis mode: Wavelengths
Number of Pixels in Spectrum: 2048
>>>>>Begin Spectral Data<<<<<
341.393	-14.07
341.776	-14.07
342.16	-14.07
342.543	-70.11
342.927	-74.4
343.31	-99.49
343.693	-52.03
344.077	-65.37
344.46	-56.1
344.843	-46.38
345.226	-32.82
345.61	-16.1
345.993	-14.52
346.376	-12.49
346.759	3.11
347.142	5.82
347.525	48.08
347.908	65.93
348.291	50.34
348.674	101.41
349.057	120.62
349.44	112.48
349.823	150.22
350.206	140.05
350.588	191.8
350.971	207.85
351.354	206.72
351.737	232.48
352.119	239.94
352.502	270.67
352.884	253.95
353.267	253.27
353.65	291.46
354.032	275.42
354.414	290.78
354.797	282.87
355.179	319.26
355.562	297.79
355.944	334.85
356.326	333.49
356.709	325.58
357.091	316.32
357.473	343.44
357.855	321.97
358.238	339.37
358.62	338.92
359.002	339.14
359.384	331.01
359.766	323.32
360.148	333.95
360.53	327.17
360.912	323.78
361.294	332.36
361.676	330.56
362.057	334.4
362.439	335.08
362.821	328.52
363.203	338.92
363.584	342.53
363.966	330.56
364.348	297.79
364.729	305.25
365.111	320.61
365.493	325.36
365.874	300.5
366.256	314.96
366.637	309.99
367.019	311.35
367.4	315.87
367.781	312.03
368.163	308.41
368.544	304.79
368.925	328.3
369.306	310.44
369.688	307.96
370.069	293.5
370.45	310.67
370.831	295.08
371.212	313.38
371.593	303.21
371.974	323.32
372.355	310.67
372.736	334.4
373.117	321.52
373.498	311.8
373.879	314.51
374.26	306.6
374.641	311.12
375.021	308.18
375.402	322.19
375.783	319.48
376.163	332.36
376.544	331.46
376.925	322.87
377.305	324.91
377.686	342.76
378.066	322.19
378.447	338.47
378.827	356.32
379.208	352.25
379.588	346.15
379.968	338.69
380.349	338.69
380.729	354.28
381.109	320.39
381.489	360.16
381.87	327.84
382.25	364.23
382.63	363.32
383.01	350.44
383.39	353.38
383.77	343.66
384.15	365.36
384.53	343.66
384.91	362.65
385.29	364.91
385.67	368.52
386.049	380.5
386.429	372.14
386.809	379.59
387.189	371.46
387.568	378.01
387.948	371.46
388.328	385.47
388.707	376.43
389.087	387.73
389.466	400.16
389.846	396.54
390.225	392.48
390.605	377.79
390.984	414.4
391.363	394.51
391.743	394.51
392.122	385.7
392.501	408.07
392.881	397
393.26	415.75
393.639	412.14
394.018	418.46
394.397	409.65
394.776	399.03
395.155	415.07
395.534	420.72
395.913	435.19
396.292	417.11
396.671	441.97
397.05	440.38
397.429	426.15
397.808	439.93
398.186	439.93
398.565	411.91
398.944	424.11
399.323	438.12
399.701	459.37
400.08	437.45
400.458	443.1
400.837	463.66
401.215	452.14
401.594	459.37
401.972	458.24
402.351	467.95
402.729	456.65
403.107	460.04
403.486	499.14
403.864	464.79
404.242	486.71
404.62	471.12
404.999	479.48
405.377	476.09
405.755	480.83
406.133	475.64
406.511	481.29
406.889	505.47
407.267	504.79
407.645	531.45
408.023	512.02
408.401	515.41
408.779	512.02
409.156	507.73
409.534	512.7
409.912	531.45
410.29	540.04
410.667	526.03
411.045	520.61
411.422	536.43
411.8	550.89
412.178	563.09
412.555	571.68
412.933	568.52
413.31	568.74
413.687	567.39
414.065	583.66
414.442	590.44
414.819	591.34
415.197	595.86
415.574	592.24
415.951	584.33
416.328	600.83
416.705	624.79
417.082	620.49
417.46	604.9
417.837	629.98
418.214	620.94
418.591	627.05
418.967	632.92
419.344	638.57
419.721	656.2
420.098	647.61
420.475	633.6
420.852	671.56
421.228	635.86
421.605	664.11
421.982	676.76
422.358	640.6
422.735	690.55
423.111	701.39
423.488	679.25
423.864	691.45
424.241	711.11
424.617	695.97
424.994	719.47
425.37	721.73
425.746	707.27
426.123	733.26
426.499	757.44
426.875	756.99
427.251	743.65
427.627	755.63
428.003	742.3
428.379	777.1
428.756	795.4
429.132	786.82
429.507	780.94
429.883	774.84
430.259	830.88
430.635	815.06
431.011	846.25
431.387	837.21
431.763	872.91
432.138	850.99
432.514	865.68
432.89	852.35
433.265	874.04
433.641	903.65
434.016	888.51
434.392	901.39
434.767	925.12
435.143	934.61
435.518	946.36
435.894	924.21
436.269	966.02
436.644	959.47
437.02	937.32
437.395	979.58
437.77	978.22
438.145	969.64
438.52	990.43
438.895	1016.19
439.271	999.24
439.646	1045.34
440.021	1041.72
440.395	1049.18
440.77	1034.04
441.145	1043.76
441.52	1032.68
441.895	1031.78
442.27	1062.06
442.645	1070.42
443.019	1053.7
443.394	1081.05
443.769	1088.05
444.143	1091.44
444.518	1108.84
444.892	1104.55
445.267	1143.42
445.641	1115.39
446.016	1127.37
446.39	1130.99
446.764	1134.83
447.139	1173.7
447.513	1130.08
447.887	1130.54
448.262	1191.55
448.636	1167.6
449.01	1178.67
449.384	1172.57
449.758	1216.86
450.132	1228.39
450.506	1250.31
450.88	1212.79
451.254	1229.52
451.628	1252.34
452.002	1243.3
452.376	1298.21
452.75	1279.23
453.123	1299.57
453.497	1333.69
453.871	1316.75
454.244	1347.03
454.618	1338.44
454.992	1342.73
455.365	1361.04
455.739	1382.05
456.112	1352
456.486	1398.1
456.859	1451.66
457.232	1433.8
457.606	1442.62
457.979	1472.45
458.352	1493.24
458.725	1499.57
459.099	1506.8
459.472	1526.91
459.845	1558.09
460.218	1578.43
460.591	1568.72
460.964	1582.05
461.337	1615.95
461.71	1660.24
462.083	1644.65
462.456	1673.12
462.829	1683.74
463.201	1708.6
463.574	1700.24
463.947	1689.16
464.32	1786.34
464.692	1746.79
465.065	1808.71
465.438	1824.98
465.81	1854.13
466.183	1838.54
466.555	1866.34
466.928	1896.39
467.3	1882.83
467.672	1923.28
468.045	1964.41
468.417	1961.25
468.789	1986.56
469.161	2010.74
469.534	2055.48
469.906	2093.67
470.278	2088.25
470.65	2138.87
471.022	2149.94
471.394	2216.61
471.766	2248.02
472.138	2226.78
472.51	2281.47
472.882	2335.25
473.253	2355.81
473.625	2340.9
473.997	2426.32
474.369	2403.95
474.74	2428.13
475.112	2478.3
475.484	2498.41
475.855	2559.42
476.227	2578.18
476.598	2683.94
476.97	2655.69
477.341	2745.41
477.713	2781.11
478.084	2777.27
478.455	2849.36
478.827	2858.4
479.198	2961.9
479.569	2953.54
479.94	3059.98
480.311	3070.15
480.682	3116.02
481.053	3226.98
481.424	3251.61
481.795	3303.59
482.166	3318.05
482.537	3365.05
482.908	3424.49
483.279	3481.89
483.65	3476.46
484.021	3600.07
484.391	3586.29
484.762	3647.53
485.133	3703.35
485.503	3741.77
485.874	3806.85
486.244	3856.57
486.615	3915.32
486.985	3960.07
487.356	4027.18
487.726	4042.1
488.097	4113.28
488.467	4112.15
488.837	4195.77
489.207	4236.44
489.578	4336.33
489.948	4396.66
490.318	4375.2
490.688	4434.63
491.058	4489.54
491.428	4574.06
491.798	4627.84
492.168	4703.77
492.538	4698.13
492.908	4764.34
493.278	4871.45
493.648	4808.4
494.017	4902.19
494.387	4939.93
494.757	4951.23
495.126	5042.97
495.496	5069.41
495.866	5101.5
496.235	5186.7
496.605	5206.13
496.974	5238.22
497.344	5269.18
497.713	5300.6
498.082	5364.55
498.452	5429.86
498.821	5473.92
499.19	5464.43
499.559	5496.3
499.928	5584.2
500.298	5599.34
500.667	5609.97
501.036	5585.79
501.405	5750.75
501.774	5726.35
502.143	5801.82
502.512	5803.41
502.88	5901.71
503.249	5844.99
503.618	5911.88
503.987	5945.32
504.356	5963.63
504.724	6012.67
505.093	6010.41
505.462	6052.44
505.83	6095.6
506.199	6136.51
506.567	6300.57
506.936	6196.16
507.304	6345.99
507.672	6374.01
508.041	6380.34
508.409	6427.12
508.777	6530.17
509.145	6487.68
509.514	6558.42
509.882	6594.8
510.25	6659.66
510.618	6681.58
510.986	6673.67
511.354	6731.74
511.722	6770.39
512.09	6859.65
512.458	6897.16
512.826	6943.49
513.193	6982.81
513.561	6973.55
513.929	7136.25
514.297	7150.94
514.664	7180.32
515.032	7201.34
515.4	7283.14
515.767	7396.59
516.135	7386.19
516.502	7325.63
516.869	7421.9
517.237	7546.64
517.604	7504.15
517.972	7634.55
518.339	7717.03
518.706	7735.11
519.073	7760.87
519.44	7790.25
519.808	7885.61
520.175	7902.33
520.542	8031.37
520.909	8059.84
521.276	8067.75
521.643	8161.08
522.009	8240.86
522.376	8307.97
522.743	8299.61
523.11	8442.21
523.477	8483.11
523.843	8560.4
524.21	8635.2
524.577	8741.41
524.943	8785.25
525.31	8751.8
525.676	8926.71
526.043	8938.69
526.409	8953.83
526.776	9087.16
527.142	9061.17
527.508	9148.63
527.874	9222.75
528.241	9257.55
528.607	9280.38
528.973	9378.45
529.339	9396.76
529.705	9489.41
530.071	9552.91
530.437	9614.38
530.803	9721.95
531.169	9789.74
531.535	9736.41
531.901	9764.21
532.267	9855.5
532.632	9890.08
532.998	9934.37
533.364	9979.79
533.73	10094.59
534.095	10110.19
534.461	10203.52
534.826	10267.7
535.192	10270.41
535.557	10299.33
535.923	10332.33
536.288	10394.92
536.653	10423.4
537.019	10455.04
537.384	10551.53
537.749	10496.16
538.114	10567.8
538.479	10565.32
538.845	10627.23
539.21	10667.23
539.575	10725.99
539.94	10723.5
540.305	10802.15
540.67	10726.44
541.034	10844.63
541.399	10870.17
541.764	10964.85
542.129	10990.39
542.494	11036.94
542.858	11088.92
543.223	11110.84
543.587	11125.07
543.952	11153.55
544.316	11251.4
544.681	11242.81
545.045	11322.36
545.41	11369.81
545.774	11413.88
546.138	11365.29
546.503	11514.89
546.867	11442.81
547.231	11640.32
547.595	11507.66
547.959	11643.48
548.324	11561.9
548.688	11716.25
549.052	11716.25
549.416	11715.57
549.779	11757.15
550.143	11800.09
550.507	11950.82
550.871	11951.04
551.235	11937.03
551.599	12041.21
551.962	12082.79
552.326	12089.57
552.689	12159.4
553.053	12172.05
553.417	12162.79
553.78	12375.89
554.143	12335.89
554.507	12441.2
554.87	12420.41
555.234	12605.94
555.597	12534.76
555.96	12579.95
556.323	12702.21
556.686	12695.88
557.05	12792.83
557.413	12823.11
557.776	12908.76
558.139	12989.66
558.502	12947.17
558.865	13019.26
559.228	13120.5
559.59	13148.98
559.953	13269.43
560.316	13420.38
560.679	13357.56
561.041	13460.15
561.404	13516.88
561.767	13637.55
562.129	13602.98
562.492	13791.22
562.854	13720.03
563.217	13753.03
563.579	13740.15
563.941	13889.75
564.304	13968.84
564.666	14059.91
565.028	14131.55
565.39	14166.12
565.753	14245.44
566.115	14386.23
566.477	14394.82
566.839	14462.16
567.201	14571.09
567.563	14643.4
567.925	14688.6
568.287	14687.24
568.648	14759.56
569.01	14956.84
569.372	15023.05
569.734	14983.73
570.095	14999.32
570.457	15145.31
570.819	15230.5
571.18	15204.97
571.542	15423.72
571.903	15380.1
572.265	15474.56
572.626	15537.84
572.987	15650.15
573.349	15561.79
573.71	15691.96
574.071	15701
574.432	15835.91
574.794	15925.17
575.155	15951.16
575.516	15921.33
575.877	16040.2
576.238	16109.35
576.599	16197.94
576.96	16219.86
577.32	16216.92
577.681	16330.81
578.042	16423.01
578.403	16441.77
578.763	16466.4
579.124	16556.8
579.485	16622.78
579.845	16649.45
580.206	16687.64
580.566	16774.87
580.927	16754.53
581.287	16953.62
581.648	16875.88
582.008	16875.21
582.368	16820.52
582.728	16954.98
583.089	16993.17
583.449	16992.49
583.809	17085.37
584.169	17120.85
584.529	17163.79
584.889	17220.06
585.249	17122.66
585.609	17171.92
585.969	17428.86
586.329	17117.01
586.688	17353.61
587.048	17350.45
587.408	17275.65
587.768	17401.97
588.127	17390.9
588.487	17422.54
588.846	17583.89
589.206	17466.83
589.565	17578.92
589.925	17598.12
590.284	17646.71
590.643	17659.59
591.003	17727.84
591.362	17791.79
591.721	17768.74
592.08	17867.27
592.44	17884.67
592.799	17946.14
593.158	17941.62
593.517	17942.07
593.876	17985.91
594.235	17933.26
594.593	18097.09
594.952	18070.2
595.311	18111.56
595.67	18124.66
596.029	18219.8
596.387	18253.02
596.746	18261.38
597.104	18226.81
597.463	18236.3
597.822	18289.86
598.18	18309.07
598.538	18219.8
598.897	18483.98
599.255	18278.78
599.613	18476.97
599.972	18489.17
600.33	18510.87
600.688	18493.69
601.046	18669.96
601.404	18747.02
601.762	18699.56
602.12	18812.33
602.478	18743.41
602.836	18806.45
603.194	18770.3
603.552	18770.98
603.91	18625.89
604.268	18884.42
604.625	18831.31
604.983	18903.63
605.341	18793.12
605.698	19018.65
606.056	18962.61
606.413	19053.23
606.771	19021.59
607.128	19070.63
607.485	19043.51
607.843	19135.49
608.2	19109.72
608.557	19288.93
608.914	19123.51
609.272	19295.03
609.629	19281.47
609.986	19452.99
610.343	19360.34
610.7	19379.09
611.057	19526.66
611.414	19426.78
611.771	19420.68
612.127	19526.89
612.484	19532.31
612.841	19667.45
613.198	19443.95
613.554	19559.43
613.911	19607.79
614.267	19655.7
614.624	19734.79
614.98	19624.29
615.337	19824.73
615.693	19805.52
616.05	19828.35
616.406	19893.66
616.762	19833.32
617.118	19809.59
617.475	19809.37
617.831	19964.62
618.187	19975.24
618.543	19810.04
618.899	20129.58
619.255	20027.44
619.611	20064.05
619.967	19953.54
620.323	20118.06
620.678	20125.97
621.034	20105.4
621.39	20191.5
621.746	20058.17
622.101	20310.14
622.457	20078.06
622.812	20156.02
623.168	20149.47
623.523	20173.2
623.879	20260.88
624.234	20209.81
624.589	20227.43
624.945	20154.67
625.3	20249.58
625.655	20240.99
626.01	20233.76
626.365	20203.48
626.72	20225.85
627.075	20242.35
627.43	20217.27
627.785	20217.94
628.14	20179.07
628.495	20209.58
628.85	20162.58
629.205	20178.17
629.559	20241.22
629.914	20102.01
630.269	20110.15
630.623	20128
630.978	20062.47
631.332	20189.47
631.687	20123.71
632.041	20127.1
632.396	20092.07
632.75	19946.09
633.104	20064.95
633.459	20008.91
633.813	19974.11
634.167	19901.79
634.521	19953.09
634.875	20002.58
635.229	19976.14
635.583	19891.17
635.937	19928.01
636.291	19921.23
636.645	19787.67
636.999	19862.47
637.352	19843.04
637.706	19684.4
638.06	19852.75
638.413	19761.91
638.767	19762.36
639.121	19777.28
639.474	19600.56
639.828	19697.96
640.181	19808.01
640.534	19672.19
640.888	19591.52
641.241	19512.65
641.594	19735.02
641.947	19698.41
642.301	19551.29
642.654	19647.79
643.007	19600.56
643.36	19494.12
643.713	19505.87
644.066	19638.98
644.419	19491.41
644.771	19396.95
645.124	19236.05
645.477	19173.9
645.83	19010.74
646.182	18963.29
646.535	18924.42
646.888	18876.74
647.24	18796.74
647.593	18843.52
647.945	18884.87
648.298	18773.46
648.65	18695.72
649.002	18773.46
649.355	18880.8
649.707	18859.79
650.059	18936.62
650.411	19042.61
650.763	19139.1
651.115	19365.99
651.467	19296.16
651.819	19295.71
652.171	19239.66
652.523	19213.45
652.875	19230.85
653.227	19104.75
653.578	19230.4
653.93	19158.99
654.282	19067.92
654.633	19046.45
654.985	19113.79
655.337	19139.78
655.688	19122.15
656.039	19183.85
656.391	19007.81
656.742	19152.66
657.094	19086.22
657.445	19073.79
657.796	19073.34
658.147	19081.48
658.498	19030.4
658.849	19030.4
659.2	19063.85
659.551	19039.22
659.902	19087.13
660.253	18996.96
660.604	19132.32
660.955	18980.91
661.306	18970.07
661.656	19001.48
662.007	19059.56
662.358	19021.36
662.708	19072.89
663.059	19071.08
663.409	18912.21
663.76	19048.03
664.11	19060.23
664.461	19009.84
664.811	19015.49
665.161	19029.05
665.511	19010.29
665.862	18885.1
666.212	19093.68
666.562	19106.33
666.912	19049.84
667.262	19022.49
667.612	19023.4
667.962	19155.15
668.312	19058.88
668.662	19176.84
669.011	19035.15
669.361	19103.85
669.711	18991.99
670.06	18930.29
670.41	18927.81
670.76	18968.71
671.109	19013
671.459	19018.65
671.808	18903.4
672.157	18961.7
672.507	18755.61
672.856	18850.07
673.205	18844.65
673.554	18942.95
673.904	18935.49
674.253	18913.57
674.602	18883.74
674.951	18603.07
675.3	18521.72
675.649	18741.15
675.998	18783.86
676.346	18798.77
676.695	18976.85
677.044	18866.11
677.393	18874.93
677.741	18828.37
678.09	18810.97
678.438	18816.4
678.787	18887.13
679.135	18811.2
679.484	18737.3
679.832	18753.57
680.181	18786.79
680.529	18814.36
680.877	18627.25
681.225	18625.22
681.573	18714.93
681.922	18586.8
682.27	18538.21
682.618	18514.48
682.966	18647.59
683.314	18557.87
683.661	18544.09
684.009	18453.7
684.357	18383.41
684.705	18346.13
685.053	18448.95
685.4	18366.24
685.748	18284.21
686.095	18344.09
686.443	18192.46
686.79	18213.48
687.138	18190.2
687.485	18199.01
687.832	18140.03
688.18	18099.58
688.527	18066.14
688.874	17868.63
689.221	18090.32
689.568	17921.96
689.915	17912.47
690.262	17843.32
690.609	17984.78
690.956	17852.81
691.303	17890.32
691.65	17703.88
691.997	17786.14
692.344	17560.61
692.69	17653.94
693.037	17571.01
693.383	17495.08
693.73	17563.78
694.077	17457.34
694.423	17443.33
694.769	17441.97
695.116	17385.48
695.462	17327.62
695.808	17230
696.155	17308.41
696.501	17192.49
696.847	17265.7
697.193	17094.18
697.539	17056.67
697.885	17110.23
698.231	16968.99
698.577	17046.73
698.923	16950.91
699.269	16869.78
699.614	16742.33
699.96	16807.86
700.306	16782.1
700.651	16717.24
700.997	16546.4
701.342	16605.83
701.688	16499.62
702.033	16507.76
702.379	16455.33
702.724	16442.45
703.069	16496.23
703.415	16255.79
703.76	16309.8
704.105	16214.21
704.45	16279.29
704.795	16220.08
705.14	16119.52
705.485	16160.42
705.83	16076.81
706.175	16112.51
706.52	16044.95
706.865	16058.96
707.209	15870.49
707.554	15955.91
707.899	15992.29
708.243	15908.45
708.588	15852.86
708.932	15717.95
709.277	15766.53
709.621	15709.59
709.966	15699.42
710.31	15688.34
710.654	15589.36
710.998	15561.79
711.342	15596.6
711.687	15491.51
712.031	15375.81
712.375	15401.35
712.719	15446.09
713.063	15405.64
713.407	15486.99
713.75	15383.72
714.094	15474.56
714.438	15239.09
714.782	15294.23
715.125	15250.16
715.469	15317.73
715.812	15162.48
716.156	15100.56
716.499	15126.33
716.843	15159.32
717.186	15021.47
717.53	15075.25
717.873	15025.99
718.216	15056.27
718.559	15066.89
718.902	14933.34
719.246	15036.16
719.589	14870.29
719.932	14910.74
720.275	14797.97
720.617	14897.18
720.96	14850.4
721.303	14931.98
721.646	14934.01
721.989	14826.9
722.331	14860.57
722.674	14884.3
723.016	14790.97
723.359	14792.55
723.701	14832.55
724.044	14740.12
724.386	14663.96
724.729	14799.55
725.071	14683.85
725.413	14701.48
725.755	14638.2
726.097	14615.38
726.439	14546
726.782	14555.72
727.124	14635.94
727.465	14565.44
727.807	14562.72
728.149	14610.86
728.491	14562.05
728.833	14489.73
729.175	14494.7
729.516	14401.82
729.858	14456.06
730.199	14496.29
730.541	14451.31
730.882	14403.41
731.224	14510.07
731.565	14378.1
731.906	14387.14
732.248	14449.28
732.589	14342.39
732.93	14244.99
733.271	14296.06
733.612	14252
733.953	14284.31
734.294	14220.36
734.635	14198.21
734.976	14329.96
735.317	14231.21
735.658	14213.13
735.999	14258.78
736.339	14190.98
736.68	14272.56
737.021	14278.66
737.361	14222.17
737.702	14274.14
738.042	14177.88
738.383	14186.46
738.723	14209.51
739.063	14155.05
739.404	14249.96
739.744	14251.55
740.084	14250.42
740.424	14219.46
740.764	14138.78
741.104	14230.98
741.444	14094.04
741.784	14092.91
742.124	14075.96
742.464	14056.52
742.804	14088.16
743.143	14108.95
743.483	14069.4
743.823	13934.94
744.162	14024.66
744.502	14016.3
744.841	13998.67
745.181	14055.39
745.52	14016.75
745.86	14019.46
746.199	13931.78
746.538	14032.79
746.877	14026.92
747.216	13993.7
747.556	13929.52
747.895	13912.57
748.234	13843.87
748.573	13961.16
748.911	13928.84
749.25	13933.81
749.589	13859.92
749.928	13888.39
750.267	13895.85
750.605	13845
750.944	13906.24
751.283	13829.18
751.621	13792.8
751.96	13700.6
752.298	13794.38
752.636	13685.01
752.975	13698.57
753.313	13635.29
753.651	13718.23
753.989	13637.78
754.327	13602.98
754.666	13595.52
755.004	13692.01
755.342	13599.59
755.679	13532.92
756.017	13520.49
756.355	13639.81
756.693	13447.27
757.031	13423.77
