Data from tablewood_dark_bookshelf_FLMS001491_00030.txt Node
Date: Wed Feb 08 14:14:06 GMT 2017
User: dcchb
Spectrometer: FLMS00149
Trigger mode: 0
Integration Time (sec): 2.000000E-2
Scans to average: 10
Electric dark correction enabled: true
Nonlinearity correction enabled: false
Boxcar width: 0
XAxis mode: Wavelengths
Number of Pixels in Spectrum: 2048
>>>>>Begin Spectral Data<<<<<
341.393	-11.02
341.776	-11.02
342.16	-11.02
342.543	-51.02
342.927	-54.63
343.31	-81.52
343.693	-66.61
344.077	-53.73
344.46	-54.63
344.843	-59.83
345.226	-55.08
345.61	-29.55
345.993	-14.86
346.376	-10.11
346.759	2.32
347.142	36.67
347.525	40.96
347.908	62.2
348.291	69.66
348.674	105.36
349.057	108.75
349.44	109.88
349.823	128.19
350.206	143.33
350.588	186.04
350.971	196.89
351.354	224.01
351.737	212.25
352.119	252.03
352.502	241.41
352.884	281.41
353.267	271.24
353.65	291.57
354.032	276.43
354.414	276.43
354.797	294.06
355.179	316.21
355.562	313.72
355.944	313.27
356.326	314.85
356.709	311.91
357.091	330.22
357.473	321.86
357.855	324.57
358.238	327.96
358.62	321.18
359.002	327.51
359.384	328.18
359.766	321.18
360.148	360.27
360.53	342.19
360.912	313.04
361.294	329.54
361.676	302.2
362.057	307.85
362.439	327.73
362.821	315.75
363.203	332.48
363.584	311.46
363.966	311.23
364.348	330.22
364.729	348.97
365.111	292.03
365.493	300.39
365.874	290.9
366.256	314.17
366.637	313.72
367.019	306.26
367.4	298.58
367.781	305.81
368.163	304.68
368.544	299.48
368.925	300.16
369.306	313.27
369.688	316.43
370.069	314.85
370.45	347.39
370.831	311.46
371.212	328.18
371.593	298.13
371.974	306.04
372.355	307.39
372.736	320.05
373.117	305.59
373.498	311.69
373.879	300.16
374.26	317.56
374.641	292.48
375.021	304.46
375.402	304.23
375.783	314.85
376.163	309.43
376.544	324.34
376.925	329.54
377.305	315.3
377.686	329.09
378.066	309.43
378.447	336.54
378.827	333.83
379.208	326.83
379.588	323.89
379.968	309.65
380.349	334.96
380.729	329.99
381.109	341.06
381.489	334.51
381.87	324.34
382.25	345.36
382.63	351.46
383.01	324.79
383.39	354.17
383.77	337
384.15	313.95
384.53	321.86
384.91	342.42
385.29	340.61
385.67	374.28
386.049	370.44
386.429	337
386.809	353.49
387.189	359.6
387.568	366.37
387.948	385.13
388.328	361.4
388.707	364.79
389.087	359.14
389.466	360.05
389.846	372.93
390.225	384.91
390.605	368.18
390.984	382.19
391.363	382.87
391.743	391.23
392.122	380.16
392.501	380.16
392.881	378.13
393.26	393.72
393.639	396.88
394.018	374.28
394.397	401.4
394.776	386.94
395.155	386.04
395.534	401.4
395.913	385.58
396.292	388.75
396.671	395.98
397.05	392.14
397.429	408.41
397.808	403.21
398.186	407.73
398.565	396.43
398.944	407.73
399.323	415.19
399.701	434.62
400.08	400.95
400.458	437.79
400.837	434.85
401.215	449.76
401.594	419.48
401.972	423.55
402.351	427.39
402.729	436.2
403.107	428.97
403.486	437.56
403.864	435.75
404.242	443.43
404.62	476.88
404.999	435.75
405.377	436.43
405.755	457.22
406.133	452.47
406.511	453.6
406.889	436.88
407.267	462.87
407.645	465.35
408.023	483.43
408.401	485.47
408.779	471.46
409.156	462.19
409.534	471
409.912	508.29
410.29	503.55
410.667	506.94
411.045	510.78
411.422	488.63
411.8	480.27
412.178	498.57
412.555	501.74
412.933	509.42
413.31	516.65
413.687	509.65
414.065	538.57
414.442	527.05
414.819	556.88
415.197	533.38
415.574	540.16
415.951	567.73
416.328	546.93
416.705	540.16
417.082	534.05
417.46	535.18
417.837	553.26
418.214	577.44
418.591	591.91
418.967	577.44
419.344	567.05
419.721	579.93
420.098	575.41
420.475	582.64
420.852	569.99
421.228	608.18
421.605	594.39
421.982	600.49
422.358	612.7
422.735	606.59
423.111	600.04
423.488	597.78
423.864	621.51
424.241	630.1
424.617	645.01
424.994	624.67
425.37	644.33
425.746	615.18
426.123	650.89
426.499	668.06
426.875	635.29
427.251	668.29
427.627	675.74
428.003	676.42
428.379	685.01
428.756	699.93
429.132	691.56
429.507	711.68
429.883	699.25
430.259	708.51
430.635	709.19
431.011	717.78
431.387	734.05
431.763	744.44
432.138	746.25
432.514	754.61
432.89	752.35
433.265	760.71
433.641	793.48
434.016	767.04
434.392	762.07
434.767	788.06
435.143	785.8
435.518	793.93
435.894	790.54
436.269	814.5
436.644	795.52
437.02	816.53
437.395	798.91
437.77	856.53
438.145	835.06
438.52	845.91
438.895	846.81
439.271	863.76
439.646	863.54
440.021	892.69
440.395	865.57
440.77	866.7
441.145	901.5
441.52	918.9
441.895	891.33
442.27	920.48
442.645	904.44
443.019	931.56
443.394	912.35
443.769	928.17
444.143	923.2
444.518	923.2
444.892	933.59
445.267	937.21
445.641	929.98
446.016	965.45
446.39	961.84
446.764	941.5
447.139	953.03
447.513	956.64
447.887	978.11
448.262	976.98
448.636	952.8
449.01	988.05
449.384	997.32
449.758	1002.52
450.132	988.28
450.506	1024.66
450.88	1005.68
451.254	1056.75
451.628	1020.14
452.002	1053.81
452.376	1063.31
452.75	1075.28
453.123	1097.43
453.497	1079.35
453.871	1102.85
454.244	1130.2
454.618	1130.65
454.992	1128.39
455.365	1128.39
455.739	1177.65
456.112	1157.99
456.486	1156.18
456.859	1164.55
457.232	1204.54
457.606	1190.53
457.979	1215.39
458.352	1219.23
458.725	1235.05
459.099	1252.9
459.472	1262.62
459.845	1270.53
460.218	1276.18
460.591	1277.54
460.964	1320.7
461.337	1324.54
461.71	1369.74
462.083	1337.42
462.456	1343.52
462.829	1378.78
463.201	1404.99
463.574	1407.03
463.947	1409.28
464.32	1441.15
464.692	1469.62
465.065	1433.24
465.438	1472.11
465.81	1513.24
466.183	1517.98
466.555	1562.28
466.928	1520.24
467.3	1553.91
467.672	1587.81
468.045	1590.3
468.417	1615.61
468.789	1609.05
469.161	1645.21
469.534	1678.66
469.906	1675.49
470.278	1706.23
470.65	1694.02
471.022	1713.46
471.394	1780.12
471.766	1804.53
472.138	1776.96
472.51	1829.16
472.882	1866
473.253	1874.36
473.625	1906.67
473.997	1930.18
474.369	1965.88
474.74	1974.02
475.112	1982.15
475.484	2029.16
475.855	2057.63
476.227	2034.35
476.598	2112.77
476.97	2118.87
477.341	2177.4
477.713	2181.02
478.084	2218.76
478.455	2268.47
478.827	2306.44
479.198	2355.7
479.569	2355.47
479.94	2413.78
480.311	2435.02
480.682	2476.15
481.053	2536.49
481.424	2566.99
481.795	2569.71
482.166	2616.94
482.537	2698.52
482.908	2696.93
483.279	2724.96
483.65	2774.22
484.021	2816.25
484.391	2868.46
484.762	2890.38
485.133	2867.55
485.503	2939.87
485.874	2953.65
486.244	3038.62
486.615	3090.37
486.985	3079.98
487.356	3121.78
487.726	3162.23
488.097	3228.67
488.467	3252.17
488.837	3303.47
489.207	3379.63
489.578	3416.46
489.948	3427.76
490.318	3434.54
490.688	3488.33
491.058	3519.29
491.428	3590.02
491.798	3613.29
492.168	3676.8
492.538	3686.51
492.908	3753.63
493.278	3773.74
493.648	3749.56
494.017	3832.72
494.387	3882.21
494.757	3930.8
495.126	3935.55
495.496	3957.47
495.866	3971.03
496.235	4017.58
496.605	4040.85
496.974	4064.36
497.344	4083.11
497.713	4152.49
498.082	4161.3
498.452	4243.33
498.821	4276.1
499.19	4237.91
499.559	4291.02
499.928	4293.5
500.298	4342.77
500.667	4394.29
501.036	4377.57
501.405	4400.62
501.774	4413.27
502.143	4419.83
502.512	4470.45
502.88	4518.81
503.249	4538.47
503.618	4608.97
503.987	4633.16
504.356	4634.28
504.724	4626.15
505.093	4693.94
505.462	4722.19
505.83	4700.05
506.199	4748.63
506.567	4786.6
506.936	4852.58
507.304	4921.73
507.672	4930.32
508.041	4911.79
508.409	4999.7
508.777	5040.6
509.145	5036.31
509.514	5036.31
509.882	5097.78
510.25	5113.82
510.618	5118.34
510.986	5216.87
511.354	5246.7
511.722	5242.63
512.09	5307.04
512.458	5320.14
512.826	5372.57
513.193	5442.85
513.561	5426.58
513.929	5460.48
514.297	5480.59
514.664	5566.24
515.032	5563.07
515.4	5640.13
515.767	5660.92
516.135	5712.9
516.502	5660.7
516.869	5757.19
517.237	5774.14
517.604	5790.64
517.972	5832.9
518.339	5876.29
518.706	5910.64
519.073	5920.13
519.44	6001.25
519.808	6102.49
520.175	6106.34
520.542	6190.4
520.909	6188.59
521.276	6229.27
521.643	6205.32
522.009	6354.47
522.376	6291.64
522.743	6390.4
523.11	6411.64
523.477	6510.62
523.843	6578.64
524.21	6643.27
524.577	6659.99
524.943	6700.45
525.31	6740.9
525.676	6749.48
526.043	6823.61
526.409	6904.28
526.776	6981.34
527.142	6954
527.508	7038.74
527.874	7115.12
528.241	7109.93
528.607	7133.65
528.973	7196.93
529.339	7208.91
529.705	7311.95
530.071	7374.78
530.437	7415
530.803	7441.44
531.169	7481.22
531.535	7470.82
531.901	7486.19
532.267	7581.55
532.632	7615
532.998	7613.64
533.364	7734.54
533.73	7713.75
534.095	7820.19
534.461	7804.37
534.826	7841.66
535.192	7882.56
535.557	7955.33
535.923	7918.04
536.288	7930.7
536.653	8026.51
537.019	7970.47
537.384	8009.34
537.749	8095.89
538.114	8094.53
538.479	8147.64
538.845	8179.5
539.21	8250.01
539.575	8190.35
539.94	8242.55
540.305	8354.19
540.67	8288.65
541.034	8356.45
541.399	8424.92
541.764	8367.52
542.129	8412.49
542.494	8526.16
542.858	8478.48
543.223	8508.76
543.587	8600.51
543.952	8615.88
544.316	8628.3
544.681	8651.81
545.045	8633.05
545.41	8729.77
545.774	8756.66
546.138	8731.35
546.503	8798.92
546.867	8806.6
547.231	8874.85
547.595	8897.22
547.959	8942.42
548.324	8886.38
548.688	8948.75
549.052	9040.72
549.416	9014.28
549.779	9028.29
550.143	9055.19
550.507	9174.96
550.871	9233.03
551.235	9202.07
551.599	9256.99
551.962	9224.22
552.326	9342.86
552.689	9338.34
553.053	9390.54
553.417	9356.87
553.78	9473.71
554.143	9523.2
554.507	9549.18
554.87	9538.11
555.234	9638.45
555.597	9593.25
555.96	9649.75
556.323	9697.2
556.686	9734.49
557.05	9777.65
557.413	9889.06
557.776	9856.07
558.139	9905.78
558.502	9967.93
558.865	10051.77
559.228	10091.54
559.59	10142.84
559.953	10190.3
560.316	10240.01
560.679	10266.45
561.041	10308.03
561.404	10402.95
561.767	10493.57
562.129	10417.18
562.492	10640.45
562.854	10586.22
563.217	10538.08
563.579	10654.92
563.941	10691.3
564.304	10792.09
564.666	10817.17
565.028	10893.33
565.39	10884.97
565.753	10947.11
566.115	10987.11
566.477	11042.7
566.839	11097.62
567.201	11164.06
567.563	11296.48
567.925	11286.31
568.287	11301.68
568.648	11281.79
569.01	11468
569.372	11497.83
569.734	11475.23
570.095	11597.27
570.457	11659.64
570.819	11658.51
571.18	11694.44
571.542	11773.76
571.903	11846.75
572.265	11799.52
572.626	11989.8
572.987	11936.01
573.349	12060.08
573.71	12056.46
574.071	12161.32
574.432	12194.99
574.794	12267.76
575.155	12333.97
575.516	12268.43
575.877	12405.83
576.238	12391.37
576.599	12390.92
576.96	12423.68
577.32	12532.16
577.681	12571.93
578.042	12646.05
578.403	12632.49
578.763	12675.66
579.124	12822.77
579.485	12848.76
579.845	12814.86
580.206	12768.31
580.566	12917.68
580.927	12867.74
581.287	12950
581.648	12978.92
582.008	12941.86
582.368	12966.27
582.728	13011.92
583.089	13096.66
583.449	13059.83
583.809	13160.16
584.169	13141.41
584.529	13164.46
584.889	13205.36
585.249	13188.18
585.609	13198.13
585.969	13377.33
586.329	13257.11
586.688	13311.12
587.048	13308.18
587.408	13291.23
587.768	13242.65
588.127	13348.63
588.487	13428.63
588.846	13450.1
589.206	13381.85
589.565	13437.22
589.925	13510.66
590.284	13551.34
590.643	13478.12
591.003	13544.33
591.362	13680.6
591.721	13607.38
592.08	13675.18
592.44	13774.84
592.799	13717.21
593.158	13700.26
593.517	13704.78
593.876	13723.31
594.235	13791.11
594.593	13835.62
594.952	13796.76
595.311	13787.04
595.67	13853.03
596.029	13992.68
596.387	13949.07
596.746	13927.83
597.104	13950.2
597.463	13901.61
597.822	14108.16
598.18	13974.38
598.538	14008.5
598.897	14061.83
599.255	14072.91
599.613	14242.85
599.972	14138.67
600.33	14099.8
600.688	14176.86
601.046	14265.22
601.404	14273.58
601.762	14251.21
602.12	14331.88
602.478	14321.71
602.836	14370.98
603.194	14272.22
603.552	14384.09
603.91	14356.06
604.268	14364.65
604.625	14427.02
604.983	14481.94
605.341	14407.81
605.698	14492.33
606.056	14490.3
606.413	14494.82
606.771	14494.82
607.128	14522.16
607.485	14513.8
607.843	14625.21
608.2	14562.16
608.557	14692.55
608.914	14645.55
609.272	14763.28
609.629	14793.11
609.986	14839.67
610.343	14725.32
610.7	14841.25
611.057	14849.38
611.414	14771.65
611.771	14883.73
612.127	14938.65
612.484	14871.53
612.841	14996.95
613.198	15009.61
613.554	14937.74
613.911	15086.89
614.267	15059.32
614.624	15061.13
614.98	15062.49
615.337	15090.73
615.693	15165.08
616.05	15123.95
616.406	15202.14
616.762	15076.72
617.118	15142.71
617.475	15118.98
617.831	15230.62
618.187	15210.5
618.543	15212.99
618.899	15316.49
619.255	15331.4
619.611	15285.08
619.967	15317.85
620.323	15337.05
620.678	15416.37
621.034	15247.11
621.39	15323.72
621.746	15408.01
622.101	15524.17
622.457	15371.4
622.812	15334.34
623.168	15424.51
623.523	15439.65
623.879	15497.5
624.234	15335.92
624.589	15472.87
624.945	15412.31
625.3	15408.46
625.655	15454.34
626.01	15532.76
626.365	15405.3
626.72	15426.54
627.075	15504.96
627.43	15420.89
627.785	15451.85
628.14	15475.13
628.495	15481.91
628.85	15506.77
629.205	15458.41
629.559	15482.81
629.914	15340.67
630.269	15504.06
630.623	15390.39
630.978	15344.96
631.332	15412.98
631.687	15393.1
632.041	15377.73
632.396	15446.66
632.75	15255.47
633.104	15384.74
633.459	15273.78
633.813	15251.86
634.167	15274.68
634.521	15310.16
634.875	15312.42
635.229	15311.07
635.583	15202.37
635.937	15178.41
636.291	15168.47
636.645	15219.32
636.999	15113.33
637.352	15139.55
637.706	15092.77
638.06	15148.13
638.413	15159.66
638.767	15023.16
639.121	15147.45
639.474	15052.32
639.828	14992.43
640.181	15041.24
640.534	15125.31
640.888	14995.59
641.241	14929.16
641.594	14958.31
641.947	15049.83
642.301	15001.47
642.654	14885.99
643.007	15011.41
643.36	14941.36
643.713	14822.04
644.066	15027.68
644.419	14885.77
644.771	14839.44
645.124	14646
645.477	14650.97
645.83	14520.35
646.182	14529.62
646.535	14465.66
646.888	14507.92
647.24	14413.46
647.593	14516.28
647.945	14535.72
648.298	14410.75
648.65	14457.08
649.002	14337.31
649.355	14426.57
649.707	14326.91
650.059	14486.46
650.411	14644.64
650.763	14589.05
651.115	14773.91
651.467	14772.78
651.819	14683.51
652.171	14750.4
652.523	14713.57
652.875	14653.91
653.227	14586.11
653.578	14713.34
653.93	14559
654.282	14594.93
654.633	14607.81
654.985	14688.48
655.337	14637.41
655.688	14634.47
656.039	14757.63
656.391	14606.23
656.742	14577.3
657.094	14667.24
657.445	14595.83
657.796	14662.27
658.147	14644.42
658.498	14550.18
658.849	14643.29
659.2	14664.3
659.551	14564.19
659.902	14658.65
660.253	14576.4
660.604	14609.62
660.955	14649.84
661.306	14620.46
661.656	14592.67
662.007	14575.72
662.358	14623.63
662.708	14605.1
663.059	14549.73
663.409	14494.14
663.76	14593.57
664.11	14665.89
664.461	14635.38
664.811	14520.35
665.161	14562.84
665.511	14545.66
665.862	14548.6
666.212	14566.91
666.562	14600.8
666.912	14565.55
667.262	14663.17
667.612	14613.91
667.962	14560.35
668.312	14507.02
668.662	14667.92
669.011	14599.67
669.361	14632.21
669.711	14535.72
670.06	14507.25
670.41	14508.38
670.76	14477.19
671.109	14598.32
671.459	14559.9
671.808	14465.21
672.157	14517.87
672.507	14444.42
672.856	14452.11
673.205	14460.47
673.554	14573.46
673.904	14434.48
674.253	14586.34
674.602	14528.26
674.951	14366.68
675.3	14222.51
675.649	14435.16
675.998	14532.78
676.346	14436.06
676.695	14500.47
677.044	14306.12
677.393	14485.78
677.741	14475.83
678.09	14354.93
678.438	14373.69
678.787	14439.68
679.135	14449.39
679.484	14323.97
679.832	14403.75
680.181	14333.92
680.529	14371.66
680.877	14276.74
681.225	14243.98
681.573	14266.35
681.922	14156.75
682.27	14262.73
682.618	14194.49
682.966	14275.39
683.314	14271.77
683.661	14173.92
684.009	14056.41
684.357	14057.77
684.705	13988.16
685.053	14095.51
685.4	13996.75
685.748	13952.23
686.095	13936.41
686.443	13958.11
686.79	13879.47
687.138	13979.35
687.485	13909.52
687.832	13919.92
688.18	13892.35
688.527	13853.25
688.874	13773.25
689.221	13768.73
689.568	13834.49
689.915	13765.8
690.262	13792.69
690.609	13743.2
690.956	13686.48
691.303	13730.54
691.65	13608.96
691.997	13571.9
692.344	13619.59
692.69	13498.23
693.037	13580.26
693.383	13450.78
693.73	13457.33
694.077	13439.03
694.423	13436.54
694.769	13327.16
695.116	13364.45
695.462	13286.71
695.808	13197.68
696.155	13268.18
696.501	13152.48
696.847	13154.29
697.193	13010.11
697.539	13095.98
697.885	13069.54
698.231	12977.79
698.577	13007.4
698.923	13015.99
699.269	12925.37
699.614	12854.18
699.96	12850.11
700.306	12778.03
700.651	12762.43
700.997	12806.27
701.342	12683.34
701.688	12709.1
702.033	12670.23
702.379	12610.35
702.724	12618.03
703.069	12679.72
703.415	12510.69
703.76	12550.23
704.105	12594.98
704.45	12427.75
704.795	12334.2
705.14	12427.75
705.485	12378.71
705.83	12355.21
706.175	12425.04
706.52	12267.08
706.865	12235.22
707.209	12248.32
707.554	12169.68
707.899	12163.35
708.243	12154.77
708.588	12213.52
708.932	12052.85
709.277	12100.53
709.621	12070.7
709.966	12021.21
710.31	12084.94
710.654	11946.86
710.998	12046.07
711.342	11994.77
711.687	11901.89
712.031	11897.82
712.375	11864.15
712.719	11859.63
713.063	11885.62
713.407	11893.3
713.75	11876.81
714.094	11824.83
714.438	11760.43
714.782	11749.35
715.125	11717.94
715.469	11657.15
715.812	11664.83
716.156	11630.03
716.499	11609.92
716.843	11677.94
717.186	11597.04
717.53	11649.92
717.873	11617.6
718.216	11571.28
718.559	11607.43
718.902	11529.47
719.246	11529.47
719.589	11458.74
719.932	11512.07
720.275	11459.42
720.617	11430.72
720.96	11454.44
721.303	11435.69
721.646	11420.55
721.989	11385.07
722.331	11402.69
722.674	11382.58
723.016	11415.12
723.359	11372.41
723.701	11461.68
724.044	11324.28
724.386	11265.75
724.729	11371.96
725.071	11297.61
725.413	11291.74
725.755	11297.39
726.097	11248.57
726.439	11205.19
726.782	11229.37
727.124	11276.14
727.465	11177.39
727.807	11225.52
728.149	11166.32
728.491	11144.4
728.833	11125.41
729.175	11178.29
729.516	11077.96
729.858	11163.15
730.199	11096.71
730.541	11100.56
730.882	11102.14
731.224	11116.15
731.565	11051.07
731.906	11117.5
732.248	11099.65
732.589	11067.34
732.93	11042.7
733.271	11015.36
733.612	10999.32
733.953	10988.92
734.294	10934.68
734.635	11015.81
734.976	11054.46
735.317	11013.33
735.658	11000.9
735.999	10945.76
736.339	10988.02
736.68	10993.44
737.021	11005.42
737.361	10908.02
737.702	11041.8
738.042	10933.1
738.383	10987.79
738.723	11046.55
739.063	10936.94
739.404	10908.7
739.744	10923.84
740.084	10853.56
740.424	10858.3
740.764	10955.47
741.104	10875.48
741.444	10855.36
741.784	10875.02
742.124	10903.95
742.464	10861.69
742.804	10854.01
743.143	10859.88
743.483	10914.35
743.823	10794.8
744.162	10748.93
744.502	10868.92
744.841	10797.51
745.181	10825.99
745.52	10792.99
745.86	10799.55
746.199	10793.22
746.538	10815.37
746.877	10768.13
747.216	10820.34
747.556	10808.13
747.895	10702.37
748.234	10747.34
748.573	10746.21
748.911	10706.44
749.25	10736.95
749.589	10679.1
749.928	10776.27
750.267	10682.04
750.605	10635.03
750.944	10651.75
751.283	10656.5
751.621	10708.7
751.96	10516.16
752.298	10619.44
752.636	10597.97
752.975	10578.76
753.313	10548.25
753.651	10598.42
753.989	10521.14
754.327	10564.98
754.666	10457.18
755.004	10572.43
755.342	10481.36
755.679	10488.14
756.017	10380.8
756.355	10433.68
756.693	10391.2
757.031	10401.36
757.368	10410.86
757.706	10329.95
758.044	10335.38
758.381	10281.14
758.719	10273.46
