Data from tablewood_brown_FLMS001491_080.txt Node
Date: Tue Feb 07 11:11:00 GMT 2017
User: dcchb
Spectrometer: FLMS00149
Trigger mode: 0
Integration Time (sec): 2.000000E-2
Scans to average: 10
Electric dark correction enabled: true
Nonlinearity correction enabled: false
Boxcar width: 0
XAxis mode: Wavelengths
Number of Pixels in Spectrum: 2048
>>>>>Begin Spectral Data<<<<<
341.393	5.83
341.776	5.83
342.16	5.83
342.543	-61.28
342.927	-85.01
343.31	-87.5
343.693	-77.55
344.077	-74.16
344.46	-64
344.843	-46.82
345.226	-30.32
345.61	-22.64
345.993	-5.01
346.376	-14.73
346.759	8.54
347.142	24.59
347.525	48.54
347.908	51.93
348.291	86.96
348.674	99.39
349.057	102.78
349.44	121.99
349.823	131.93
350.206	158.6
350.588	190.01
350.971	203.12
351.354	208.77
351.737	232.04
352.119	265.26
352.502	274.75
352.884	284.24
353.267	295.09
353.65	282.89
354.032	300.74
354.414	316.56
354.797	315.66
355.179	333.51
355.562	317.92
355.944	316.79
356.326	329.44
356.709	309.55
357.091	325.15
357.473	344.58
357.855	326.05
358.238	344.81
358.62	335.09
359.002	317.46
359.384	328.31
359.766	339.38
360.148	333.51
360.53	339.61
360.912	354.75
361.294	324.24
361.676	320.4
362.057	328.08
362.439	334.19
362.821	323.79
363.203	331.93
363.584	336.45
363.966	306.39
364.348	318.37
364.729	328.54
365.111	324.69
365.493	329.21
365.874	318.82
366.256	316.11
366.637	333.73
367.019	308.65
367.4	343.9
367.781	328.76
368.163	303.9
368.544	312.04
368.925	322.66
369.306	311.36
369.688	317.01
370.069	324.24
370.45	315.43
370.831	310.91
371.212	331.47
371.593	303.9
371.974	310.91
372.355	308.88
372.736	326.28
373.117	309.78
373.498	331.93
373.879	329.44
374.26	321.98
374.641	341.19
375.021	333.51
375.402	325.15
375.783	320.18
376.163	355.65
376.544	352.72
376.925	336.9
377.305	335.09
377.686	324.69
378.066	351.59
378.447	349.55
378.827	331.25
379.208	326.5
379.588	343.9
379.968	355.43
380.349	353.85
380.729	349.78
381.109	356.78
381.489	351.36
381.87	372.83
382.25	357.01
382.63	359.72
383.01	353.62
383.39	362.89
383.77	371.47
384.15	357.69
384.53	362.43
384.91	363.34
385.29	385.48
385.67	386.61
386.049	362.89
386.429	373.06
386.809	373.73
387.189	383.45
387.568	373.96
387.948	395.65
388.328	385.71
388.707	381.19
389.087	388.2
389.466	410.34
389.846	404.24
390.225	431.13
390.605	420.51
390.984	421.87
391.363	428.19
391.743	442.88
392.122	420.29
392.501	424.81
392.881	418.03
393.26	421.19
393.639	440.4
394.018	411.92
394.397	414.41
394.776	422.77
395.155	443.11
395.534	441.75
395.913	437.01
396.292	449.44
396.671	469.1
397.05	465.93
397.429	460.74
397.808	461.64
398.186	460.51
398.565	465.03
398.944	472.04
399.323	463.67
399.701	455.76
400.08	469.78
400.458	473.84
400.837	464.35
401.215	493.5
401.594	484.92
401.972	480.17
402.351	504.58
402.729	494.41
403.107	500.74
403.486	499.38
403.864	523.11
404.242	498.25
404.62	498.02
404.999	534.41
405.377	538.25
405.755	544.12
406.133	536.67
406.511	544.58
406.889	543.9
407.267	543.22
407.645	560.85
408.023	553.84
408.401	551.36
408.779	566.5
409.156	577.57
409.534	568.76
409.912	594.52
410.29	590.22
410.667	594.07
411.045	614.18
411.422	620.28
411.8	587.29
412.178	608.98
412.555	644.23
412.933	619.6
413.31	643.56
413.687	618.92
414.065	632.26
414.442	651.69
414.819	642.65
415.197	673.61
415.574	683.1
415.951	687.4
416.328	657.12
416.705	695.98
417.082	683.1
417.46	709.77
417.837	696.21
418.214	691.01
418.591	707.28
418.967	710
419.344	740.05
419.721	716.55
420.098	703.67
420.475	714.74
420.852	756.1
421.228	729.66
421.605	745.02
421.982	720.39
422.358	753.84
422.735	742.54
423.111	745.47
423.488	786.15
423.864	769.43
424.241	787.28
424.617	785.7
424.994	801.97
425.37	789.32
425.746	816.89
426.123	819.15
426.499	818.69
426.875	809.65
427.251	867.96
427.627	873.83
428.003	864.79
428.379	874.06
428.756	855.98
429.132	866.6
429.507	876.54
429.883	896.66
430.259	937.33
430.635	899.59
431.011	940.72
431.387	926.71
431.763	933.94
432.138	949.76
432.514	945.24
432.89	975.75
433.265	964.9
433.641	994.51
434.016	995.64
434.392	1010.55
434.767	1020.5
435.143	1029.54
435.518	1052.59
435.894	1049.87
436.269	1062.98
436.644	1075.86
437.02	1110.21
437.395	1122.19
437.77	1125.58
438.145	1138.01
438.52	1128.74
438.895	1171.45
439.271	1152.7
439.646	1172.13
440.021	1164.67
440.395	1217.55
440.77	1177.33
441.145	1193.82
441.52	1223.2
441.895	1215.74
442.27	1219.36
442.645	1223.88
443.019	1231.34
443.394	1242.86
443.769	1267.72
444.143	1249.19
444.518	1290.77
444.892	1269.75
445.267	1296.42
445.641	1307.49
446.016	1293.03
446.39	1319.02
446.764	1339.36
447.139	1309.08
447.513	1345.23
447.887	1317.89
448.262	1360.83
448.636	1330.77
449.01	1393.59
449.384	1375.06
449.758	1391.79
450.132	1405.12
450.506	1404.44
450.88	1435.63
451.254	1426.13
451.628	1435.4
452.002	1458.9
452.376	1468.17
452.75	1491.44
453.123	1482.18
453.497	1507.04
453.871	1523.53
454.244	1552.69
454.618	1550.2
454.992	1558.56
455.365	1584.77
455.739	1613.02
456.112	1635.39
456.486	1653.93
456.859	1636.98
457.232	1672
457.606	1683.76
457.979	1726.92
458.352	1717.2
458.725	1768.95
459.099	1781.15
459.472	1817.99
459.845	1827.48
460.218	1834.26
460.591	1855.28
460.964	1853.92
461.337	1888.95
461.71	1869.29
462.083	1954.26
462.456	1969.17
462.829	1970.75
463.201	2015.5
463.574	1989.51
463.947	2059.11
464.32	2121.03
464.692	2135.95
465.065	2125.1
465.438	2132.33
465.81	2182.05
466.183	2235.38
466.555	2248.94
466.928	2288.03
467.3	2275.15
467.672	2291.87
468.045	2386.11
468.417	2387.92
468.789	2386.56
469.161	2445.77
469.534	2528.7
469.906	2557.63
470.278	2590.62
470.65	2641.02
471.022	2654.13
471.394	2722.37
471.766	2728.47
472.138	2763.95
472.51	2828.13
472.882	2936.83
473.253	2960.33
473.625	2990.61
473.997	3013.66
474.369	3056.6
474.74	3102.25
475.112	3192.42
475.484	3230.16
475.855	3367.55
476.227	3354.9
476.598	3493.43
476.97	3507.89
477.341	3566.42
477.713	3632.18
478.084	3700.88
478.455	3766.41
478.827	3800.31
479.198	3986.97
479.569	3911.95
479.94	4057.48
480.311	4138.61
480.682	4227.64
481.053	4331.14
481.424	4429.9
481.795	4483.23
482.166	4551.25
482.537	4624.47
482.908	4716.22
483.279	4765.71
483.65	4858.13
484.021	4933.61
484.391	5035.98
484.762	5103.33
485.133	5150.78
485.503	5276.2
485.874	5333.15
486.244	5434.84
486.615	5529.98
486.985	5621.5
487.356	5659.47
487.726	5747.6
488.097	5863.31
488.467	5921.84
488.837	6056.52
489.207	6137.88
489.578	6172.22
489.948	6294.26
490.318	6363.18
490.688	6346.68
491.058	6446.12
491.428	6591.2
491.798	6650.63
492.168	6820.57
492.538	6783.06
492.908	6870.51
493.278	7007.01
493.648	6992.54
494.017	7162.48
494.387	7145.76
494.757	7214.91
495.126	7350.72
495.496	7397.73
495.866	7474.79
496.235	7498.07
496.605	7573.77
496.974	7617.61
497.344	7686.31
497.713	7777.38
498.082	7871.84
498.452	7987.32
498.821	7954.55
499.19	7987.09
499.559	8110.25
499.928	8180.76
500.298	8218.27
500.667	8257.59
501.036	8320.87
501.405	8320.87
501.774	8374.65
502.143	8510.92
502.512	8565.16
502.88	8641.54
503.249	8683.35
503.618	8695.55
503.987	8787.98
504.356	8830.01
504.724	8925.15
505.093	8928.54
505.462	9038.14
505.83	9124.92
506.199	9142.09
506.567	9251.24
506.936	9246.72
507.304	9436.09
507.672	9449.65
508.041	9493.27
508.409	9630.21
508.777	9639.48
509.145	9757.44
509.514	9709.98
509.882	9823.43
510.25	9894.61
510.618	9956.53
510.986	10052.35
511.354	10176.64
511.722	10258.9
512.09	10417.76
512.458	10325.34
512.826	10444.43
513.193	10495.95
513.561	10603.29
513.929	10661.37
514.297	10765.1
514.664	10950.4
515.032	10851.88
515.4	10967.13
515.767	11165.31
516.135	11130.74
516.502	11126.67
516.869	11386.32
517.237	11350.39
517.604	11431.3
517.972	11529.15
518.339	11677.16
518.706	11658.18
519.073	11780.66
519.44	11954.45
519.808	12060.66
520.175	12096.14
520.542	12338.16
520.909	12290.93
521.276	12357.15
521.643	12485.05
522.009	12559.18
522.376	12700.41
522.743	12723.69
523.11	12891.14
523.477	13078.03
523.843	13159.61
524.21	13338.36
524.577	13364.58
524.943	13491.58
525.31	13501.07
525.676	13620.39
526.043	13745.13
526.409	13798.92
526.776	14032.58
527.142	13992.13
527.508	14124.56
527.874	14238.45
528.241	14316.87
528.607	14406.81
528.973	14547.15
529.339	14571.55
529.705	14646.8
530.071	14847.25
530.437	14882.5
530.803	14930.19
531.169	15000.02
531.535	14982.39
531.901	15173.12
532.267	15259.9
532.632	15360.46
532.998	15409.5
533.364	15515.48
533.73	15539.89
534.095	15624.41
534.461	15681.81
534.826	15811.97
535.192	15823.5
535.557	16049.48
535.923	15992.98
536.288	16097.84
536.653	16221.23
537.019	16196.14
537.384	16372.63
537.749	16341.22
538.114	16378.74
538.479	16368.34
538.845	16603.81
539.21	16560.88
539.575	16527.88
539.94	16632.51
540.305	16803.58
540.67	16824.15
541.034	16834.77
541.399	16912.28
541.764	17005.16
542.129	16984.14
542.494	17056.23
542.858	17156.57
543.223	17160.41
543.587	17275.21
543.952	17318.15
544.316	17314.3
544.681	17349.56
545.045	17550.91
545.41	17638.36
545.774	17618.25
546.138	17674.97
546.503	17718.59
546.867	17830.45
547.231	17972.82
547.595	17961.97
547.959	17956.32
548.324	18042.42
548.688	18099.14
549.052	18198.58
549.416	18253.71
549.779	18360.38
550.143	18420.94
550.507	18532.58
550.871	18570.32
551.235	18587.49
551.599	18809.63
551.962	18810.08
552.326	18898.67
552.689	19080.81
553.053	18946.8
553.417	19092.79
553.78	19360.58
554.143	19371.43
554.507	19477.19
554.87	19569.84
555.234	19747.69
555.597	19713.56
555.96	19898.87
556.323	19957.4
556.686	20081.01
557.05	20332.98
557.413	20325.07
557.776	20488.01
558.139	20568
558.502	20744.27
558.865	20775.23
559.228	21022
559.59	21102.68
559.953	21095.22
560.316	21526.85
560.679	21540.63
561.041	21649.33
561.404	21868.99
561.767	21970.45
562.129	21978.81
562.492	22254.51
562.854	22366.38
563.217	22400.5
563.579	22656.09
563.941	22784.9
564.304	22908.73
564.666	23051.1
565.028	23259.23
565.39	23388.04
565.753	23622.16
566.115	23681.59
566.477	23848.6
566.839	24102.6
567.201	24132.88
567.563	24358.19
567.925	24603.6
568.287	24683.15
568.648	24907.78
569.01	24999.07
569.372	25303.7
569.734	25363.36
570.095	25551.38
570.457	25630.02
570.819	25764.7
571.18	25755.66
571.542	26129.21
571.903	26200.85
572.265	26511.12
572.626	26589.09
572.987	26695.98
573.349	26791.34
573.71	27091.45
574.071	27203.54
574.432	27328.05
574.794	27502.51
575.155	27617.99
575.516	27651.43
575.877	27964.65
576.238	28023.4
576.599	28283.06
576.96	28298.42
577.32	28436.72
577.681	28595.36
578.042	28723.72
578.403	28900.44
578.763	28820.44
579.124	29035.58
579.485	29168.23
579.845	29371.39
580.206	29467.43
580.566	29416.81
580.927	29709.23
581.287	29838.27
581.648	29758.95
582.008	29845.95
582.368	29930.24
582.728	30014.76
583.089	30062.44
583.449	30091.6
583.809	30215.43
584.169	30340.85
584.529	30301.31
584.889	30637.57
585.249	30434.64
585.609	30461.53
585.969	30691.13
586.329	30549.21
586.688	30734.97
587.048	30693.84
587.408	30794.85
587.768	30745.82
588.127	30845.93
588.487	30695.2
588.846	31039.82
589.206	30938.13
589.565	30871.01
589.925	31194.39
590.284	30984.68
590.643	31140.38
591.003	31304.45
591.362	31221.28
591.721	31279.14
592.08	31160.27
592.44	31288.17
592.799	31344.67
593.158	31325.46
593.517	31340.38
593.876	31426.25
594.235	31469.64
594.593	31459.92
594.952	31463.99
595.311	31418.57
595.67	31554.38
596.029	31771.55
596.387	31805.9
596.746	31788.73
597.104	31629.86
597.463	31605.45
597.822	31766.81
598.18	31678.22
598.538	31692.68
598.897	31929.74
599.255	31569.52
599.613	32130.64
599.972	31778.11
600.33	32056.52
600.688	31880.7
601.046	32078.44
601.404	32252.89
601.762	32046.35
602.12	32227.36
602.478	32153.91
602.836	32319.79
603.194	32015.84
603.552	32056.97
603.91	31841.61
604.268	32219.68
604.625	32130.41
604.983	32294.93
605.341	32223.07
605.698	32341.03
606.056	32401.37
606.413	32340.8
606.771	32408.82
607.128	32440.01
607.485	32274.36
607.843	32366.79
608.2	32587.8
608.557	32803.16
608.914	32551.19
609.272	32679.1
609.629	32665.09
609.986	32849.49
610.343	32597.07
610.7	32927.45
611.057	32818.98
611.414	32934.91
611.771	32838.42
612.127	33000.22
612.484	32916.83
612.841	33008.81
613.198	32872.54
613.554	32987.56
613.911	33156.83
614.267	33170.38
614.624	33144.4
614.98	33289.25
615.337	33369.93
615.693	33307.1
616.05	33302.13
616.406	33492.86
616.762	33338.74
617.118	33443.6
617.475	33401.34
617.831	33354.56
618.187	33553.2
618.543	33540.54
618.899	33712.74
619.255	33579.87
619.611	33562.01
619.967	33663.25
620.323	33695.34
620.678	33497.38
621.034	33521.56
621.39	33719.97
621.746	33593.42
622.101	34025.28
622.457	33797.94
622.812	33769.47
623.168	33798.16
623.523	33791.16
623.879	33839.75
624.234	33685.4
624.589	33777.6
624.945	33800.2
625.3	33893.98
625.655	33788
626.01	33825.28
626.365	33882.91
626.72	33832.51
627.075	33803.81
627.43	33761.56
627.785	33678.85
628.14	33914.77
628.495	33769.92
628.85	33723.14
629.205	33622.35
629.559	33760.2
629.914	33635.01
630.269	33630.03
630.623	33580.32
630.978	33574.89
631.332	33651.05
631.687	33698.73
632.041	33510.71
632.396	33520.88
632.75	33382.81
633.104	33383.71
633.459	33314.34
633.813	33366.54
634.167	33376.48
634.521	33193.44
634.875	33349.36
635.229	33202.02
635.583	33118.63
635.937	33242.25
636.291	33121.57
636.645	33251.96
636.999	33076.15
637.352	33054.23
637.706	32968.58
638.06	33078.41
638.413	32953.22
638.767	33012.87
639.121	32971.97
639.474	32798.64
639.828	32762.49
640.181	32763.39
640.534	32721.36
640.888	32705.54
641.241	32472.32
641.594	32600.68
641.947	32705.09
642.301	32567.46
642.654	32650.85
643.007	32632.32
643.36	32567.01
643.713	32487.69
644.066	32486.34
644.419	32293.8
644.771	32301.26
645.124	32047.48
645.477	32137.42
645.83	31777.2
646.182	31658.11
646.535	31434.61
646.888	31547.38
647.24	31383.99
647.593	31388.96
647.945	31332.69
648.298	31212.7
648.65	31142.64
649.002	31189.65
649.355	31220.38
649.707	31263.32
650.059	31416.76
650.411	31781.72
650.763	31810.19
651.115	32134.25
651.467	31943.52
651.819	32066.46
652.171	32024.65
652.523	31947.82
652.875	31891.1
653.227	31852.68
653.578	32073.01
653.93	31807.26
654.282	31835.05
654.633	31667.6
654.985	31851.1
655.337	31816.07
655.688	31787.14
656.039	31981.04
656.391	31653.36
656.742	31762.06
657.094	31827.82
657.445	31955.73
657.796	31851.55
658.147	31823.75
658.498	31840.48
658.849	31838.44
659.2	31661.95
659.551	31662.4
659.902	31717.32
660.253	31641.39
660.604	31821.49
660.955	31560.03
661.306	31742.4
661.656	31699.24
662.007	31736.98
662.358	31654.72
662.708	31700.82
663.059	31624.89
663.409	31538.79
663.76	31792.34
664.11	31830.53
664.461	31807.71
664.811	31627.6
665.161	31614.49
665.511	31602.29
665.862	31534.95
666.212	31573.36
666.562	31719.8
666.912	31572.01
667.262	31614.95
667.612	31493.37
667.962	31739.91
668.312	31491.11
668.662	31699.01
669.011	31729.07
669.361	31537.89
669.711	31536.08
670.06	31470.77
670.41	31387.83
670.76	31434.16
671.109	31451.56
671.459	31501.28
671.808	31295.41
672.157	31416.98
672.507	31162.75
672.856	31212.24
673.205	31240.04
673.554	31346.03
673.904	31149.87
674.253	31245.69
674.602	31145.81
674.951	30889.09
675.3	30567.74
675.649	31127.05
675.998	31043.21
676.346	30995.3
676.695	31108.74
677.044	30840.95
677.393	30914.17
677.741	31080.95
678.09	30843.89
678.438	30802.54
678.787	30897.45
679.135	30963.66
679.484	30673.95
679.832	30849.54
680.181	30602.54
680.529	30706.04
680.877	30657.91
681.225	30630.79
681.573	30805.93
681.922	30455.43
682.27	30409.1
682.618	30238.71
682.966	30281.2
683.314	30302.66
683.661	30221.99
684.009	30055.21
684.357	30074.87
684.705	29937.02
685.053	30004.37
685.4	29945.16
685.748	29805.5
686.095	29729.8
686.443	29730.25
686.79	29662.91
687.138	29680.31
687.485	29726.63
687.832	29566.64
688.18	29604.6
688.527	29434.66
688.874	29268.11
689.221	29331.16
689.568	29210.04
689.915	29214.33
690.262	29097.05
690.609	28930.5
690.956	28968.91
691.303	29014.79
691.65	28666.32
691.997	28622.03
692.344	28439.21
692.69	28481.24
693.037	28530.28
693.383	28237.86
693.73	28284.19
694.077	28188.82
694.423	28073.12
694.769	27989.96
695.116	27878.55
695.462	27879
695.808	27858.43
696.155	27880.35
696.501	27481.04
696.847	27622.28
697.193	27417.09
697.539	27431.1
697.885	27253.03
698.231	27225.23
698.577	27189.75
698.923	27073.14
699.269	27024.56
699.614	26797.67
699.96	26820.72
700.306	26841.96
700.651	26541.18
700.997	26523.33
701.342	26433.16
701.688	26368.76
702.033	26386.38
702.379	26334.18
702.724	26320.4
703.069	26257.57
703.415	25964.02
703.76	26012.83
704.105	25960.18
704.45	25795.21
704.795	25595.67
705.14	25518.61
705.485	25566.74
705.83	25427.76
706.175	25439.74
706.52	25333.98
706.865	25319.07
707.209	25217.6
707.554	25216.7
707.899	25038.85
708.243	24973.99
708.588	25006.31
708.932	24783.26
709.277	24778.29
709.621	24801.57
709.966	24682.25
710.31	24764.96
710.654	24521.35
710.998	24541.69
711.342	24592.98
711.687	24460.33
712.031	24293.33
712.375	24253.78
712.719	24270.96
713.063	24311.86
713.407	24355.25
713.75	24167.23
714.094	24014.24
714.438	23823.29
714.782	24039.33
715.125	23877.52
715.469	24009.27
715.812	23920.68
716.156	23725.66
716.499	23772.67
716.843	23782.38
717.186	23561.82
717.53	23727.02
717.873	23786.68
718.216	23665.32
718.559	23590.75
718.902	23426.91
719.246	23499.45
719.589	23403.41
719.932	23365.44
720.275	23347.14
720.617	23390.53
720.96	23277.31
721.303	23309.4
721.646	23368.16
721.989	23155.51
722.331	23195.73
722.674	23141.72
723.016	23197.77
723.359	23105.56
723.701	23216.07
724.044	23029.18
724.386	22930.88
724.729	23067.15
725.071	22977.88
725.413	22929.75
725.755	22911.9
726.097	22875.51
726.439	22803.43
726.782	22911.9
727.124	22939.69
727.465	22809.3
727.807	22839.13
728.149	22758
728.491	22756.87
728.833	22841.16
729.175	22685.69
729.516	22660.38
729.858	22707.38
730.199	22740.15
730.541	22607.95
730.882	22580.83
731.224	22635.97
731.565	22469.42
731.906	22645.01
732.248	22599.36
732.589	22503.09
732.93	22477.78
733.271	22553.26
733.612	22457.45
733.953	22420.84
734.294	22404.34
734.635	22535.86
734.976	22488.41
735.317	22379.48
735.658	22469.88
735.999	22487.95
736.339	22366.6
736.68	22436.43
737.021	22389.2
737.361	22306.26
737.702	22414.51
738.042	22438.69
738.383	22304.46
738.723	22423.1
739.063	22240.05
739.404	22369.99
739.744	22354.62
740.084	22314.63
740.424	22373.61
740.764	22345.13
741.104	22399.37
741.444	22177.91
741.784	22298.35
742.124	22334.51
742.464	22339.94
742.804	22268.75
743.143	22242.54
743.483	22239.82
743.823	22198.47
744.162	22242.54
744.502	22302.87
744.841	22254.51
745.181	22218.81
745.52	22069.66
745.86	22224.91
746.199	22200.96
746.538	22147.85
746.877	22175.65
747.216	22133.84
747.556	22172.93
747.895	22139.94
748.234	22065.37
748.573	22078.7
748.911	22156.21
749.25	22084.12
749.589	21981.07
749.928	22061.52
750.267	22040.28
750.605	21934.97
750.944	21952.6
751.283	21831.02
751.621	21933.39
751.96	21855.88
752.298	21834.86
752.636	21887.97
752.975	21760.74
753.313	21666.51
753.651	21833.73
753.989	21613.4
754.327	21670.35
754.666	21455.89
755.004	21727.97
755.342	21671.25
755.679	21640.74
