Data from tablewood_dark_bookshelf_FLMS001491_00002.txt Node
Date: Wed Feb 08 14:13:19 GMT 2017
User: dcchb
Spectrometer: FLMS00149
Trigger mode: 0
Integration Time (sec): 2.000000E-2
Scans to average: 10
Electric dark correction enabled: true
Nonlinearity correction enabled: false
Boxcar width: 0
XAxis mode: Wavelengths
Number of Pixels in Spectrum: 2048
>>>>>Begin Spectral Data<<<<<
341.393	-29.01
341.776	-29.01
342.16	-29.01
342.543	-69.46
342.927	-72.17
343.31	-58.61
343.693	-79.86
344.077	-52.29
344.46	-34.89
344.843	-65.62
345.226	-47.09
345.61	-24.72
345.993	-19.75
346.376	-10.25
346.759	9.41
347.142	26.13
347.525	43.53
347.908	40.82
348.291	63.87
348.674	95.73
349.057	113.58
349.44	112.91
349.823	133.02
350.206	177.31
350.588	148.16
350.971	211.44
351.354	229.29
351.737	236.75
352.119	213.02
352.502	238.78
352.884	268.38
353.267	289.17
353.65	286.91
354.032	281.04
354.414	290.53
354.797	295.95
355.179	301.83
355.562	310.87
355.944	307.48
356.326	323.52
356.709	342.96
357.091	318.1
357.473	328.27
357.855	329.4
358.238	312.68
358.62	321.94
359.002	347.7
359.384	305.9
359.766	332.79
360.148	324.65
360.53	345.67
360.912	342.28
361.294	323.75
361.676	310.42
362.057	332.11
362.439	316.97
362.821	340.92
363.203	305.22
363.584	318.32
363.966	314.26
364.348	318.55
364.729	319.23
365.111	313.81
365.493	316.74
365.874	351.54
366.256	341.83
366.637	322.84
367.019	314.26
367.4	318.55
367.781	305.22
368.163	321.94
368.544	319.68
368.925	308.38
369.306	316.52
369.688	313.81
370.069	307.03
370.45	321.71
370.831	337.76
371.212	332.11
371.593	309.06
371.974	339.57
372.355	316.07
372.736	342.05
373.117	336.86
373.498	308.83
373.879	321.94
374.26	329.85
374.641	334.6
375.021	338.44
375.402	339.34
375.783	340.7
376.163	344.54
376.544	338.21
376.925	335.27
377.305	339.57
377.686	350.41
378.066	346.35
378.447	340.47
378.827	356.52
379.208	369.4
379.588	338.44
379.968	357.65
380.349	352.67
380.729	346.57
381.109	344.54
381.489	379.34
381.87	363.52
382.25	375.5
382.63	370.53
383.01	368.49
383.39	371.88
383.77	372.56
384.15	366.46
384.53	372.33
384.91	379.57
385.29	375.72
385.67	381.6
386.049	388.38
386.429	397.64
386.809	386.12
387.189	395.39
387.568	382.05
387.948	399
388.328	414.37
388.707	387.48
389.087	395.61
389.466	415.95
389.846	396.06
390.225	425.67
390.605	411.66
390.984	419.79
391.363	415.5
391.743	418.21
392.122	432.9
392.501	424.76
392.881	431.77
393.26	448.27
393.639	463.63
394.018	448.72
394.397	461.82
394.776	454.14
395.155	446.23
395.534	449.62
395.913	445.1
396.292	450.07
396.671	439.9
397.05	446.23
397.429	455.95
397.808	465.89
398.186	471.09
398.565	470.41
398.944	459.56
399.323	463.18
399.701	474.03
400.08	468.6
400.458	501.82
400.837	498.89
401.215	498.66
401.594	492.78
401.972	481.03
402.351	504.76
402.729	502.27
403.107	515.38
403.486	502.05
403.864	491.43
404.242	504.53
404.62	504.31
404.999	508.83
405.377	511.09
405.755	540.24
406.133	530.97
406.511	529.84
406.889	548.38
407.267	524.42
407.645	559.45
408.023	551.54
408.401	562.39
408.779	577.08
409.156	593.12
409.534	577.53
409.912	577.75
410.29	582.05
410.667	593.8
411.045	611.2
411.422	614.81
411.8	619.33
412.178	619.33
412.555	607.58
412.933	608.49
413.31	634.47
413.687	641.71
414.065	676.06
414.442	643.29
414.819	659.78
415.197	674.93
415.574	699.11
415.951	685.55
416.328	677.19
416.705	693.91
417.082	688.94
417.46	682.61
417.837	690.97
418.214	710.41
418.591	697.75
418.967	722.83
419.344	730.52
419.721	701.82
420.098	726.68
420.475	741.82
420.852	736.85
421.228	738.2
421.605	758.77
421.982	761.48
422.358	765.54
422.735	787.24
423.111	783.4
423.488	794.02
423.864	801.25
424.241	786.56
424.617	813.23
424.994	820.23
425.37	825.66
425.746	814.13
426.123	842.38
426.499	844.19
426.875	849.16
427.251	860.46
427.627	875.82
428.003	868.82
428.379	903.85
428.756	908.59
429.132	920.12
429.507	916.05
429.883	922.38
430.259	923.28
430.635	950.85
431.011	953.79
431.387	944.98
431.763	961.02
432.138	973.67
432.514	975.93
432.89	996.95
433.265	1022.49
433.641	1035.82
434.016	1057.29
434.392	1056.38
434.767	1062.71
435.143	1058.87
435.518	1066.33
435.894	1087.57
436.269	1098.19
436.644	1121.02
437.02	1143.39
437.395	1126.67
437.77	1154.01
438.145	1151.07
438.52	1160.79
438.895	1174.35
439.271	1199.43
439.646	1199.21
440.021	1186.32
440.395	1229.04
440.77	1220.67
441.145	1216.61
441.52	1229.49
441.895	1243.27
442.27	1260
442.645	1252.54
443.019	1265.42
443.394	1281.24
443.769	1313.55
444.143	1280.11
444.518	1319.88
444.892	1288.69
445.267	1349.48
445.641	1350.61
446.016	1345.19
446.39	1353.78
446.764	1343.61
447.139	1352.42
447.513	1363.72
447.887	1346.09
448.262	1368.47
448.636	1394.68
449.01	1423.15
449.384	1422.48
449.758	1404.4
450.132	1420.67
450.506	1461.35
450.88	1429.26
451.254	1483.94
451.628	1450.95
452.002	1512.87
452.376	1513.55
452.75	1531.17
453.123	1549.03
453.497	1551.96
453.871	1564.85
454.244	1584.28
454.618	1589.93
454.992	1634.22
455.365	1615.92
455.739	1654.34
456.112	1688.01
456.486	1694.79
456.859	1693.43
457.232	1748.12
457.606	1734.56
457.979	1764.84
458.352	1777.95
458.725	1817.49
459.099	1811.62
459.472	1860.88
459.845	1857.72
460.218	1851.39
460.591	1920.32
460.964	1929.36
461.337	1956.7
461.71	1972.07
462.083	1993.08
462.456	2015
462.829	2015
463.201	2080.31
463.574	2050.26
463.947	2109.24
464.32	2140.65
464.692	2141.33
465.065	2152.63
465.438	2192.63
465.81	2225.62
466.183	2240.53
466.555	2283.92
466.928	2284.15
467.3	2330.25
467.672	2344.71
468.045	2401.43
468.417	2417.25
468.789	2408.89
469.161	2412.51
469.534	2508.55
469.906	2546.74
470.278	2561.43
470.65	2587.64
471.022	2620.19
471.394	2673.52
471.766	2692.05
472.138	2742.89
472.51	2800.29
472.882	2868.99
473.253	2839.84
473.625	2872.38
473.997	2919.16
474.369	2969.78
474.74	2956.9
475.112	3045.26
475.484	3079.16
475.855	3170.91
476.227	3189.44
476.598	3235.54
476.97	3255.65
477.341	3364.35
477.713	3387.62
478.084	3447.28
478.455	3511.24
478.827	3553.95
479.198	3586.71
479.569	3661.51
479.94	3747.84
480.311	3769.76
480.682	3865.12
481.053	3951.45
481.424	3977.66
481.795	3995.74
482.166	4099.47
482.537	4114.61
482.908	4199.35
483.279	4268.5
483.65	4374.26
484.021	4405.22
484.391	4481.83
484.762	4542.85
485.133	4550.3
485.503	4647.7
485.874	4718.89
486.244	4734.93
486.615	4817.64
486.985	4866.91
487.356	4964.3
487.726	5001.37
488.097	5097.86
488.467	5116.39
488.837	5274.35
489.207	5362.94
489.578	5395.25
489.948	5403.39
490.318	5527.45
490.688	5484.29
491.058	5635.93
491.428	5734.68
491.798	5697.84
492.168	5826.2
492.538	5843.6
492.908	5900.55
493.278	6010.83
493.648	6028.91
494.017	6038.63
494.387	6121.79
494.757	6218.73
495.126	6284.04
495.496	6309.35
495.866	6338.28
496.235	6411.27
496.605	6500.08
496.974	6499.86
497.344	6540.31
497.713	6575.79
498.082	6687.65
498.452	6731.26
498.821	6748.44
499.19	6820.07
499.559	6842.22
499.928	6921.77
500.298	6999.73
500.667	7050.35
501.036	7016.68
501.405	7162.66
501.774	7123.12
502.143	7281.98
502.512	7263
502.88	7292.6
503.249	7308.88
503.618	7405.14
503.987	7393.17
504.356	7467.29
504.724	7538.47
505.093	7546.84
505.462	7602.88
505.83	7688.3
506.199	7655.31
506.567	7835.64
506.936	7790.22
507.304	7868.41
507.672	7926.03
508.041	7986.6
508.409	8056.2
508.777	8062.98
509.145	8197.44
509.514	8203.99
509.882	8255.74
510.25	8333.48
510.618	8342.52
510.986	8417.1
511.354	8483.31
511.722	8551.55
512.09	8620.25
512.458	8596.3
512.826	8728.05
513.193	8767.37
513.561	8826.12
513.929	8900.92
514.297	8973.46
514.664	9052.56
515.032	9082.16
515.4	9219.11
515.767	9189.5
516.135	9318.54
516.502	9221.82
516.869	9451.64
517.237	9455.03
517.604	9398.76
517.972	9547.23
518.339	9569.16
518.706	9661.58
519.073	9758.98
519.44	9812.99
519.808	9916.94
520.175	9951.29
520.542	10114.23
520.909	10041.69
521.276	10079.2
521.643	10267.67
522.009	10279.42
522.376	10375.46
522.743	10443.26
523.11	10546.3
523.477	10704.72
523.843	10685.06
524.21	10775.9
524.577	10996.01
524.943	10972.96
525.31	11017.7
525.676	11174.31
526.043	11171.6
526.409	11256.12
526.776	11406.17
527.142	11408.88
527.508	11509.22
527.874	11603
528.241	11708.53
528.607	11751.92
528.973	11889.09
529.339	11823.56
529.705	11938.58
530.071	12088.86
530.437	12044.34
530.803	12268.52
531.169	12365.69
531.535	12270.78
531.901	12329.76
532.267	12327.05
532.632	12479.14
532.998	12550.77
533.364	12692.69
533.73	12664.44
534.095	12687.04
534.461	12899.01
534.826	12906.92
535.192	12893.81
535.557	13033.92
535.923	13014.71
536.288	13106.24
536.653	13181.26
537.019	13145.56
537.384	13298.1
537.749	13296.51
538.114	13403.63
538.479	13301.71
538.845	13484.08
539.21	13452.22
539.575	13555.04
539.94	13571.99
540.305	13724.75
540.67	13688.37
541.034	13671.19
541.399	13823.96
541.764	13856.5
542.129	13917.29
542.494	13938.08
542.858	13991.41
543.223	14059.21
543.587	14067.79
543.952	14096.27
544.316	14230.28
544.681	14202.25
545.045	14310.5
545.41	14370.16
545.774	14330.61
546.138	14384.85
546.503	14479.76
546.867	14450.38
547.231	14600.66
547.595	14580.32
547.959	14675.24
548.324	14721.11
548.688	14831.39
549.052	14807.66
549.416	14864.16
549.779	14929.47
550.143	14928.34
550.507	15086.07
550.871	15177.37
551.235	15103.47
551.599	15261.66
551.962	15288.33
552.326	15341.88
552.689	15484.25
553.053	15350.7
553.417	15499.62
553.78	15573.07
554.143	15606.74
554.507	15702.1
554.87	15755.66
555.234	15877.01
555.597	15872.04
555.96	15961.08
556.323	16049.66
556.686	16036.1
557.05	16187.29
557.413	16306.38
557.776	16232.48
558.139	16298.92
558.502	16411.46
558.865	16469.54
559.228	16569.88
559.59	16670.66
559.953	16746.59
560.316	16764.67
560.679	16864.56
561.041	17007.15
561.404	17093.03
561.767	17221.16
562.129	17167.37
562.492	17349.29
562.854	17297.77
563.217	17397.2
563.579	17410.76
563.941	17627.93
564.304	17729.84
564.666	17869.05
565.028	17790.18
565.39	17983.85
565.753	18016.62
566.115	18048.03
566.477	18207.8
566.839	18297.74
567.201	18376.38
567.563	18417.96
567.925	18551.07
568.287	18585.42
568.648	18597.17
569.01	18689.59
569.372	18875.8
569.734	18857.05
570.095	18984.27
570.457	19148.11
570.819	19176.36
571.18	19073.31
571.542	19289.13
571.903	19279.41
572.265	19386.75
572.626	19526.41
572.987	19491.61
573.349	19620.42
573.71	19643.69
574.071	19768.44
574.432	19841.65
574.794	19965.72
575.155	19955.55
575.516	19906.06
575.877	20094.3
576.238	20217.24
576.599	20231.7
576.96	20289.1
577.32	20352.83
577.681	20482.77
578.042	20435.76
578.403	20451.35
578.763	20473.05
579.124	20647.73
579.485	20701.52
579.845	20781.97
580.206	20749.65
580.566	20813.61
580.927	20769.54
581.287	20935.64
581.648	20946.71
582.008	21108.06
582.368	20902.42
582.728	21035.29
583.089	21034.62
583.449	21103.09
583.809	21172.24
584.169	21225.8
584.529	21144.67
584.889	21320.26
585.249	21270.54
585.609	21218.79
585.969	21410.88
586.329	21260.6
586.688	21380.14
587.048	21385.34
587.408	21415.85
587.768	21381.05
588.127	21481.38
588.487	21418.34
588.846	21574.04
589.206	21396.87
589.565	21459.24
589.925	21707.14
590.284	21612.91
590.643	21672.79
591.003	21791.88
591.362	21717.08
591.721	21745.56
592.08	21718.89
592.44	21885.22
592.799	21832.56
593.158	21903.75
593.517	21972.9
593.876	21937.42
594.235	21883.41
594.593	21924.54
594.952	22059.9
595.311	21997.98
595.67	22028.04
596.029	22175.15
596.387	22123.63
596.746	22307.35
597.104	22125.66
597.463	22131.31
597.822	22242.04
598.18	22198.88
598.538	22204.98
598.897	22420.57
599.255	22222.61
599.613	22517.06
599.972	22490.62
600.33	22575.82
600.688	22408.37
601.046	22603.84
601.404	22631.41
601.762	22496.27
602.12	22636.83
602.478	22646.33
602.836	22716.83
603.194	22547.12
603.552	22686.1
603.91	22634.12
604.268	22565.42
604.625	22763.84
604.983	22779.43
605.341	22724.52
605.698	22936.71
606.056	23021.91
606.413	22799.99
606.771	22990.72
607.128	23104.84
607.485	22924.51
607.843	23026.88
608.2	23193.88
608.557	23158.18
608.914	23069.14
609.272	23240.66
609.629	23384.61
609.986	23303.48
610.343	23281.34
610.7	23444.04
611.057	23342.58
611.414	23339.64
611.771	23444.04
612.127	23405.85
612.484	23462.12
612.841	23574.89
613.198	23609.01
613.554	23555
613.911	23686.98
614.267	23626.64
614.624	23642.23
614.98	23674.77
615.337	23827.09
615.693	23694.89
616.05	23866.63
616.406	23852.62
616.762	23769.69
617.118	23783.7
617.475	23873.41
617.831	23937.82
618.187	23956.57
618.543	24037.7
618.899	24209
619.255	24063.24
619.611	24059.17
619.967	24190.24
620.323	24129.22
620.678	24107.76
621.034	23958.16
621.39	24074.31
621.746	23927.2
622.101	24251.71
622.457	24034.76
622.812	24077.25
623.168	24202.22
623.523	24199.96
623.879	24237.02
624.234	24075.67
624.589	24271.37
624.945	24157.02
625.3	24240.41
625.655	24271.14
626.01	24253.29
626.365	24235.21
626.72	24199.73
627.075	24193.86
627.43	24239.28
627.785	24201.31
628.14	24150.92
628.495	24167.42
628.85	24199.5
629.205	24119.96
629.559	24301.2
629.914	24130.35
630.269	24137.59
630.623	24032.5
630.978	24124.03
631.332	24106.85
631.687	24190.92
632.041	24114.76
632.396	24139.62
632.75	23966.06
633.104	23974.88
633.459	23927.42
633.813	23910.47
634.167	23934.65
634.521	23920.87
634.875	23933.75
635.229	23949.79
635.583	23788.67
635.937	23787.09
636.291	23826.86
636.645	23759.52
636.999	23740.76
637.352	23842.23
637.706	23701.66
638.06	23787.09
638.413	23644.94
638.767	23665.96
639.121	23675
639.474	23441.11
639.828	23596.13
640.181	23530.14
640.534	23556.81
640.888	23439.75
641.241	23389.58
641.594	23510.94
641.947	23539.41
642.301	23416.25
642.654	23502.12
643.007	23458.73
643.36	23471.39
643.713	23369.24
644.066	23356.36
644.419	23349.36
644.771	23164.05
645.124	23005.64
645.477	22954.11
645.83	22750.5
646.182	22659.66
646.535	22601.58
646.888	22598.42
647.24	22409.04
647.593	22619.43
647.945	22435.03
648.298	22372.89
648.65	22432.55
649.002	22329.05
649.355	22458.53
649.707	22357.75
650.059	22496.27
650.411	22755.93
650.763	22798.41
651.115	23002.93
651.467	23020.1
651.819	22967.45
652.171	22947.33
652.523	22797.73
652.875	22769.26
653.227	22692.2
653.578	22921.12
653.93	22804.29
654.282	22654.01
654.633	22686.32
654.985	22669.6
655.337	22794.8
655.688	22689.94
656.039	22740.79
656.391	22529.94
656.742	22726.1
657.094	22591.41
657.445	22682.26
657.796	22709.15
658.147	22615.59
658.498	22714.12
658.849	22708.24
659.2	22678.19
659.551	22568.59
659.902	22737.62
660.253	22668.47
660.604	22740.56
660.955	22558.42
661.306	22616.5
661.656	22526.33
662.007	22491.53
662.358	22567.46
662.708	22596.16
663.059	22540.79
663.409	22540.57
663.76	22677.74
664.11	22579.43
664.461	22568.14
664.811	22690.84
665.161	22498.98
665.511	22548.93
665.862	22596.38
666.212	22568.81
666.562	22572.66
666.912	22502.83
667.262	22555.03
667.612	22506.67
667.962	22547.57
668.312	22519.55
668.662	22538.98
669.011	22488.59
669.361	22544.63
669.711	22592.54
670.06	22517.74
670.41	22464.41
670.76	22352.1
671.109	22459.44
671.459	22387.58
671.808	22383.96
672.157	22424.86
672.507	22239.1
672.856	22263.96
673.205	22255.6
673.554	22447.01
673.904	22260.57
674.253	22496.95
674.602	22279.33
674.951	21937.42
675.3	21892.45
675.649	22319.1
675.998	22252.89
676.346	22256.51
676.695	22348.25
677.044	22105.1
677.393	22252.44
677.741	22253.79
678.09	22100.58
678.438	22161.37
678.787	22127.02
679.135	22224.19
679.484	22016.96
679.832	22202.72
680.181	22063.52
680.529	22119.11
680.877	22155.26
681.225	21978.32
681.573	22116.85
681.922	22057.41
682.27	21945.78
682.618	21924.54
682.966	21863.75
683.314	21889.28
683.661	21843.63
684.009	21890.87
684.357	21648.16
684.705	21682.28
685.053	21764.99
685.4	21680.48
685.748	21491.55
686.095	21552.34
686.443	21453.81
686.79	21422.18
687.138	21458.33
687.485	21442.06
687.832	21303.31
688.18	21341.5
688.527	21256.08
688.874	21304.21
689.221	21330.65
689.568	21157.33
689.915	21058.57
690.262	21176.31
690.609	21114.84
690.956	21038.23
691.303	21051.79
691.65	20899.48
691.997	20931.34
692.344	20715.53
692.69	20695.87
693.037	20686.38
693.383	20589.88
693.73	20667.39
694.077	20570.22
694.423	20560.28
694.769	20471.47
695.116	20392.83
695.462	20485.93
695.808	20310.34
696.155	20336.56
696.501	20247.29
696.847	20221.53
697.193	20055.43
697.539	20126.39
697.885	20024.7
698.231	19864.48
698.577	20046.62
698.923	19956
699.269	19868.77
699.614	19815.89
699.96	19727.53
700.306	19745.38
700.651	19652.51
700.997	19584.26
701.342	19497.03
701.688	19474.43
702.033	19455.67
702.379	19386.98
702.724	19372.51
703.069	19372.06
703.415	19283.02
703.76	19176.36
704.105	19250.71
704.45	19180.43
704.795	19036.93
705.14	19029.92
705.485	18930.94
705.83	18910.6
706.175	18830.61
706.52	18844.84
706.865	18719.42
707.209	18718.07
707.554	18619.54
707.899	18697.95
708.243	18583.38
708.588	18697.5
708.932	18431.07
709.277	18447.11
709.621	18500.22
709.966	18331.64
710.31	18380
710.654	18207.12
710.998	18329.15
711.342	18266.33
711.687	18226.33
712.031	18209.38
712.375	18184.3
712.719	18153.56
713.063	18142.04
713.407	18153.11
713.75	18116.28
714.094	18140.46
714.438	17941.82
714.782	18091.87
715.125	17901.37
715.469	17815.04
715.812	17808.94
716.156	17739.11
716.499	17671.77
716.843	17836.28
717.186	17753.57
717.53	17923.74
717.873	17803.74
718.216	17671.32
718.559	17705.21
718.902	17562.39
719.246	17555.16
719.589	17571.2
719.932	17476.07
720.275	17452.79
720.617	17424.77
720.96	17358.33
721.303	17482.39
721.646	17392
721.989	17312
722.331	17424.32
722.674	17284.66
723.016	17321.04
723.359	17339.35
723.701	17318.56
724.044	17255.73
724.386	17129.86
724.729	17216.86
725.071	17179.12
725.413	17167.15
725.755	17089.86
726.097	17154.27
726.439	17041.05
726.782	16989.98
727.124	17053.93
727.465	16967.83
727.807	16930.09
728.149	17001.28
728.491	16972.12
728.833	16915.18
729.175	16918.34
729.516	16899.36
729.858	16875.86
730.199	16955.85
730.541	16786.59
730.882	16848.51
731.224	16907.72
731.565	16757.89
731.906	16774.62
732.248	16804.67
732.589	16754.73
732.93	16560.84
733.271	16680.38
733.612	16699.36
733.953	16601.29
734.294	16598.57
734.635	16610.78
734.976	16663.66
735.317	16596.99
735.658	16572.59
735.999	16631.79
736.339	16404.68
736.68	16542.76
737.021	16509.54
737.361	16344.57
737.702	16523.1
738.042	16462.31
738.383	16354.74
738.723	16463.21
739.063	16425.25
739.404	16374.63
739.744	16303.44
740.084	16455.3
740.424	16282.65
740.764	16318.81
741.104	16337.56
741.444	16197
741.784	16167.85
742.124	16213.5
742.464	16175.54
742.804	16146.38
743.143	16152.26
743.483	16223.22
743.823	16085.82
744.162	16103.67
744.502	16060.06
744.841	16082.43
745.181	16173.95
745.52	16044.24
745.86	16159.04
746.199	16093.96
746.538	16036.33
746.877	16025.03
747.216	16052.83
747.556	15963.79
747.895	15984.58
748.234	15874.53
748.573	15875.66
748.911	15901.42
749.25	15956.33
749.589	15826.84
749.928	15854.41
750.267	15856.22
750.605	15726.96
750.944	15811.93
751.283	15700.07
751.621	15777.13
751.96	15606.96
752.298	15652.84
752.636	15595.44
752.975	15685.6
753.313	15528.09
753.651	15646.74
753.989	15571.03
754.327	15547.08
754.666	15402.67
755.004	15507.3
755.342	15492.84
755.679	15489.68
