Data from tablewood_dark_bookshelf_FLMS001491_00037.txt Node
Date: Wed Feb 08 14:14:26 GMT 2017
User: dcchb
Spectrometer: FLMS00149
Trigger mode: 0
Integration Time (sec): 2.000000E-2
Scans to average: 10
Electric dark correction enabled: true
Nonlinearity correction enabled: false
Boxcar width: 0
XAxis mode: Wavelengths
Number of Pixels in Spectrum: 2048
>>>>>Begin Spectral Data<<<<<
341.393	-7.22
341.776	-7.22
342.16	-7.22
342.543	-56.03
342.927	-74.33
343.31	-77.27
343.693	-51.96
344.077	-63.94
344.46	-56.03
344.843	-49.7
345.226	-46.54
345.61	-19.65
345.993	-14
346.376	-4.96
346.759	9.51
347.142	38.66
347.525	31.2
347.908	55.38
348.291	71.88
348.674	66.91
349.057	110.52
349.44	130.18
349.823	135.38
350.206	159.78
350.588	182.16
350.971	204.08
351.354	228.03
351.737	230.52
352.119	248.82
352.502	255.6
352.884	290.85
353.267	283.17
353.65	287.92
354.032	296.05
354.414	284.07
354.797	311.19
355.179	317.29
355.562	313.68
355.944	322.94
356.326	305.99
356.709	311.42
357.091	347.8
357.473	322.49
357.855	321.14
358.238	335.37
358.62	331.08
359.002	331.53
359.384	335.15
359.766	346.9
360.148	341.02
360.53	336.95
360.912	325.66
361.294	324.07
361.676	347.35
362.057	356.16
362.439	320.46
362.821	324.3
363.203	324.98
363.584	344.19
363.966	325.88
364.348	322.04
364.729	320.68
365.111	330.63
365.493	315.71
365.874	338.08
366.256	312.32
366.637	305.09
367.019	321.59
367.4	316.62
367.781	309.61
368.163	316.16
368.544	308.03
368.925	329.27
369.306	319.78
369.688	303.28
370.069	322.49
370.45	309.61
370.831	315.71
371.212	316.62
371.593	319.33
371.974	335.82
372.355	313.23
372.736	329.05
373.117	327.92
373.498	307.8
373.879	341.93
374.26	324.98
374.641	335.82
375.021	313.68
375.402	318.65
375.783	341.7
376.163	334.69
376.544	335.6
376.925	347.8
377.305	342.6
377.686	349.61
378.066	336.28
378.447	339.67
378.827	341.25
379.208	329.5
379.588	328.82
379.968	350.29
380.349	327.69
380.729	342.15
381.109	351.19
381.489	343.96
381.87	355.94
382.25	341.25
382.63	329.95
383.01	381.7
383.39	348.48
383.77	343.73
384.15	363.17
384.53	356.16
384.91	394.13
385.29	368.82
385.67	367.91
386.049	373.11
386.429	372.43
386.809	370.63
387.189	386.44
387.568	383.05
387.948	376.28
388.328	370.85
388.707	372.21
389.087	385.99
389.466	389.83
389.846	393.45
390.225	381.47
390.605	380.34
390.984	386.67
391.363	412.88
391.743	425.09
392.122	379.21
392.501	416.95
392.881	406.56
393.26	399.55
393.639	392.77
394.018	399.33
394.397	419.44
394.776	416.5
395.155	432.77
395.534	414.47
395.913	426.22
396.292	422.15
396.671	427.12
397.05	427.8
397.429	430.74
397.808	426.44
398.186	432.77
398.565	431.42
398.944	455.37
399.323	418.76
399.701	435.26
400.08	438.19
400.458	446.1
400.837	450.85
401.215	456.73
401.594	425.54
401.972	439.32
402.351	463.96
402.729	473.45
403.107	459.66
403.486	461.7
403.864	478.42
404.242	461.92
404.62	458.31
404.999	480.68
405.377	480.45
405.755	470.74
406.133	472.77
406.511	481.13
406.889	482.71
407.267	491.98
407.645	491.07
408.023	490.4
408.401	494.24
408.779	515.71
409.156	489.49
409.534	515.93
409.912	501.24
410.29	508.02
410.667	525.88
411.045	529.04
411.422	534.92
411.8	532.66
412.178	551.19
412.555	571.52
412.933	574.46
413.31	548.93
413.687	542.6
414.065	552.32
414.442	583.05
414.819	568.13
415.197	569.04
415.574	593.9
415.951	565.2
416.328	582.37
416.705	594.57
417.082	592.99
417.46	594.12
417.837	577.85
418.214	599.55
418.591	602.26
418.967	639.77
419.344	611.98
419.721	651.3
420.098	614.91
420.475	623.95
420.852	625.76
421.228	611.52
421.605	636.16
421.982	646.1
422.358	660.11
422.735	658.08
423.111	657.62
423.488	646.55
423.864	661.01
424.241	695.59
424.617	688.36
424.994	680.22
425.37	670.73
425.746	686.78
426.123	677.28
426.499	694.23
426.875	689.94
427.251	692.65
427.627	712.76
428.003	720
428.379	738.75
428.756	742.59
429.132	730.84
429.507	732.65
429.883	739.2
430.259	780.78
430.635	743.95
431.011	767.45
431.387	771.97
431.763	797.51
432.138	804.06
432.514	822.37
432.89	804.96
433.265	835.7
433.641	810.61
434.016	827.11
434.392	863.27
434.767	858.52
435.143	865.3
435.518	858.07
435.894	832.31
436.269	851.52
436.644	872.53
437.02	901.46
437.395	887
437.77	927.45
438.145	932.42
438.52	931.52
438.895	922.7
439.271	925.64
439.646	940.1
440.021	947.33
440.395	940.78
440.77	938.75
441.145	943.72
441.52	941.68
441.895	962.93
442.27	944.4
442.645	984.17
443.019	995.02
443.394	990.27
443.769	1002.93
444.143	969.25
444.518	1002.93
444.892	1025.3
445.267	1014.9
445.641	998.41
446.016	1003.38
446.39	1024.62
446.764	1013.77
447.139	1014.22
447.513	1058.29
447.887	1042.47
448.262	1019.65
448.636	1068.01
449.01	1052.87
449.384	1067.33
449.758	1089.03
450.132	1087.9
450.506	1102.81
450.88	1100.32
451.254	1092.64
451.628	1101
452.002	1134.9
452.376	1148.23
452.75	1105.75
453.123	1144.84
453.497	1151.85
453.871	1161.79
454.244	1187.33
454.618	1205.86
454.992	1193.43
455.365	1217.84
455.739	1263.71
456.112	1258.74
456.486	1261.68
456.859	1285.4
457.232	1271.17
457.606	1275.01
457.979	1270.04
458.352	1342.8
458.725	1339.64
459.099	1349.36
459.472	1384.84
459.845	1366.08
460.218	1377.61
460.591	1404.95
460.964	1397.94
461.337	1414.89
461.71	1435.68
462.083	1443.37
462.456	1465.06
462.829	1476.13
463.201	1488.56
463.574	1523.59
463.947	1510.71
464.32	1549.35
464.692	1563.14
465.065	1526.98
465.438	1576.92
465.81	1579.18
466.183	1593.42
466.555	1646.07
466.928	1664.83
467.3	1647.88
467.672	1681.1
468.045	1710.7
468.417	1674.09
468.789	1732.4
469.161	1756.35
469.534	1785.28
469.906	1811.72
470.278	1813.3
470.65	1846.52
471.022	1860.3
471.394	1902.11
471.766	1901.43
472.138	1920.87
472.51	1982.79
472.882	1990.02
473.253	1992.5
473.625	2019.62
473.997	2072.73
474.369	2115.89
474.74	2100.07
475.112	2153.18
475.484	2170.8
475.855	2181.2
476.227	2225.04
476.598	2254.19
476.97	2277.02
477.341	2324.7
477.713	2376.67
478.084	2385.49
478.455	2456.67
478.827	2434.3
479.198	2530.57
479.569	2494.41
479.94	2567.18
480.311	2608.08
480.682	2671.58
481.053	2720.62
481.424	2717.23
481.795	2746.16
482.166	2768.98
482.537	2819.15
482.908	2898.69
483.279	2948.86
483.65	2959.48
484.021	3006.04
484.391	3054.62
484.762	3089.2
485.133	3046.04
485.503	3128.97
485.874	3168.97
486.244	3215.52
486.615	3273.37
486.985	3334.62
487.356	3368.74
487.726	3378
488.097	3445.12
488.467	3450.32
488.837	3526.93
489.207	3553.37
489.578	3628.39
489.948	3639.47
490.318	3708.17
490.688	3678.11
491.058	3767.15
491.428	3770.54
491.798	3847.14
492.168	3867.94
492.538	3910.65
492.908	3984.77
493.278	4010.76
493.648	4008.95
494.017	4099.79
494.387	4125.78
494.757	4138.66
495.126	4196.06
495.496	4193.12
495.866	4212.78
496.235	4233.12
496.605	4324.42
496.974	4291.88
497.344	4367.36
497.713	4371.65
498.082	4384.31
498.452	4476.73
498.821	4489.61
499.19	4493
499.559	4575.94
499.928	4549.73
500.298	4592.66
500.667	4664.07
501.036	4648.03
501.405	4721.92
501.774	4715.82
502.143	4747.46
502.512	4740.68
502.88	4810.06
503.249	4795.14
503.618	4841.24
503.987	4853.45
504.356	4888.25
504.724	4932.31
505.093	4932.54
505.462	4963.73
505.83	4982.03
506.199	5044.4
506.567	5116.04
506.936	5154.91
507.304	5225.19
507.672	5170.95
508.041	5282.81
508.409	5281.68
508.777	5279.65
509.145	5282.59
509.514	5360.55
509.882	5367.56
510.25	5479.42
510.618	5470.15
510.986	5465.18
511.354	5556.93
511.722	5584.05
512.09	5597.83
512.458	5629.47
512.826	5656.36
513.193	5701.79
513.561	5722.12
513.929	5780.88
514.297	5831.73
514.664	5858.17
515.032	5879.63
515.4	5961.21
515.767	6001.66
516.135	5999.63
516.502	6011.38
516.869	6084.37
517.237	6125.05
517.604	6144.03
517.972	6183.35
518.339	6280.53
518.706	6268.78
519.073	6339.06
519.44	6310.81
519.808	6449.34
520.175	6428.32
520.542	6548.09
520.909	6511.26
521.276	6563.68
521.643	6688.88
522.009	6669.22
522.376	6719.84
522.743	6787.41
523.11	6845.03
523.477	6873.96
523.843	6947.63
524.21	7035.76
524.577	7065.82
524.943	7160.28
525.31	7136.55
525.676	7218.36
526.043	7280.5
526.409	7323.89
526.776	7430.55
527.142	7391.91
527.508	7442.76
527.874	7489.53
528.241	7536.99
528.607	7637.1
528.973	7646.14
529.339	7681.17
529.705	7769.3
530.071	7810.88
530.437	7809.98
530.803	7911.44
531.169	7986.02
531.535	7939.01
531.901	7959.13
532.267	8023.98
532.632	8077.54
532.998	8099.69
533.364	8135.62
533.73	8195.05
534.095	8274.82
534.461	8268.27
534.826	8342.85
535.192	8347.37
535.557	8444.31
535.923	8440.02
536.288	8447.02
536.653	8503.97
537.019	8483.41
537.384	8541.94
537.749	8615.83
538.114	8586.91
538.479	8706.45
538.845	8708.49
539.21	8675.49
539.575	8693.12
539.94	8786.68
540.305	8871.87
540.67	8872.1
541.034	8976.73
541.399	8890.85
541.764	8968.59
542.129	9009.49
542.494	9001.36
542.858	9041.81
543.223	9039.32
543.587	9145.54
543.952	9091.98
544.316	9138.76
544.681	9196.38
545.045	9218.53
545.41	9322.93
545.774	9335.81
546.138	9359.99
546.503	9339.66
546.867	9398.41
547.231	9502.82
547.595	9521.12
547.959	9467.56
548.324	9583.49
548.688	9525.87
549.052	9653.09
549.416	9573.77
549.779	9671.62
550.143	9625.52
550.507	9728.57
550.871	9825.07
551.235	9877.04
551.599	9946.19
551.962	9976.47
552.326	9937.61
552.689	10101.44
553.053	9990.03
553.417	10048.56
553.78	10175.11
554.143	10132.4
554.507	10200.2
554.87	10197.71
555.234	10330.36
555.597	10289.91
555.96	10308.22
556.323	10418.72
556.686	10434.99
557.05	10533.07
557.413	10606.74
557.776	10520.42
558.139	10706.85
558.502	10708.43
558.865	10747.3
559.228	10799.73
559.59	10803.8
559.953	10944.59
560.316	11011.48
560.679	10963.34
561.041	11058.93
561.404	11150.46
561.767	11177.35
562.129	11218.93
562.492	11284.69
562.854	11338.7
563.217	11378.47
563.579	11428.87
563.941	11539.15
564.304	11596.09
564.666	11629.76
565.028	11653.04
565.39	11769.87
565.753	11805.58
566.115	11859.14
566.477	11930.77
566.839	11999.47
567.201	12039.92
567.563	12133.71
567.925	12231.56
568.287	12186.36
568.648	12218.68
569.01	12352.46
569.372	12437.65
569.734	12410.08
570.095	12557.2
570.457	12582.06
570.819	12588.84
571.18	12600.13
571.542	12743.86
571.903	12752.22
572.265	12828.6
572.626	12841.26
572.987	12985.21
573.349	12980.92
573.71	13138.88
574.071	13139.33
574.432	13229.72
574.794	13317.4
575.155	13357.63
575.516	13253.22
575.877	13375.93
576.238	13422.71
576.599	13482.37
576.96	13466.78
577.32	13551.52
577.681	13654.8
578.042	13688.92
578.403	13637.17
578.763	13723.95
579.124	13779.31
579.485	13896.37
579.845	13870.38
580.206	13913.77
580.566	13949.48
580.927	13955.35
581.287	14027.44
581.648	14008.69
582.008	14131.39
582.368	14082.81
582.728	14215.46
583.089	14157.16
583.449	14199.64
583.809	14243.26
584.169	14297.72
584.529	14232.63
584.889	14368.22
585.249	14331.61
585.609	14312.86
585.969	14438.05
586.329	14437.6
586.688	14492.97
587.048	14463.59
587.408	14565.51
587.768	14514.21
588.127	14622
588.487	14626.97
588.846	14725.73
589.206	14562.8
589.565	14667.88
589.925	14715.56
590.284	14691.15
590.643	14765.28
591.003	14759.63
591.362	14870.13
591.721	14860.64
592.08	14949.9
592.44	14919.17
592.799	14906.29
593.158	14844.14
593.517	14961.43
593.876	14987.64
594.235	15017.02
594.593	15034.65
594.952	15092.05
595.311	14990.58
595.67	15108.54
596.029	15188.77
596.387	15241.42
596.746	15254.08
597.104	15228.77
597.463	15365.49
597.822	15341.08
598.18	15284.36
598.538	15276
598.897	15384.92
599.255	15246.39
599.613	15527.06
599.972	15406.39
600.33	15427.41
600.688	15436.67
601.046	15460.17
601.404	15626.72
601.762	15499.49
602.12	15633.05
602.478	15643.67
602.836	15689.32
603.194	15548.08
603.552	15671.92
603.91	15572.71
604.268	15714.63
604.625	15687.96
604.983	15773.16
605.341	15685.93
605.698	15832.82
606.056	15819.03
606.413	15803.21
606.771	15872.37
607.128	15870.11
607.485	15882.08
607.843	15849.99
608.2	15962.08
608.557	16120.04
608.914	16042.3
609.272	16100.61
609.629	16152.13
609.986	16162.3
610.343	16091.34
610.7	16224.45
611.057	16222.64
611.414	16174.05
611.771	16274.16
612.127	16258.57
612.484	16370.21
612.841	16372.46
613.198	16358.45
613.554	16365.69
613.911	16470.09
614.267	16470.99
614.624	16365.69
614.98	16426.93
615.337	16609.75
615.693	16542.4
616.05	16503.53
616.406	16581.27
616.762	16571.33
617.118	16580.82
617.475	16647.03
617.831	16691.1
618.187	16615.62
618.543	16671.89
618.899	16741.72
619.255	16721.61
619.611	16786.69
619.967	16753.02
620.323	16861.72
620.678	16754.38
621.034	16713.92
621.39	16760.93
621.746	16656.98
622.101	16849.97
622.457	16808.39
622.812	16851.1
623.168	16763.19
623.523	16801.15
623.879	16936.52
624.234	16847.25
624.589	16854.03
624.945	16986.46
625.3	16870.08
625.655	16827.37
626.01	16825.11
626.365	16947.14
626.72	16855.84
627.075	16837.99
627.43	16769.52
627.785	16952.56
628.14	16913.24
628.495	17012.45
628.85	16842.96
629.205	16849.51
629.559	16908.95
629.914	16888.38
630.269	16840.93
630.623	16820.36
630.978	16782.62
631.332	16820.14
631.687	16927.25
632.041	16869.85
632.396	16807.03
632.75	16864.2
633.104	16779.69
633.459	16677.77
633.813	16830.98
634.167	16823.53
634.521	16799.35
634.875	16793.7
635.229	16703.98
635.583	16574.72
635.937	16574.49
636.291	16606.58
636.645	16641.38
636.999	16562.97
637.352	16668.73
637.706	16539.24
638.06	16657.43
638.413	16605.45
638.767	16507.83
639.121	16604.55
639.474	16480.94
639.828	16500.15
640.181	16486.13
640.534	16404.55
640.888	16351.67
641.241	16303.54
641.594	16497.66
641.947	16402.97
642.301	16355.06
642.654	16381.05
643.007	16353.93
643.36	16367.27
643.713	16318.91
644.066	16385.57
644.419	16279.36
644.771	16148.29
645.124	16025.36
645.477	15982.19
645.83	15793.72
646.182	15824
646.535	15776.32
646.888	15809.99
647.24	15825.13
647.593	15927.96
647.945	15851.57
648.298	15856.55
648.65	15841.86
649.002	15691.58
649.355	15802.31
649.707	15745.59
650.059	15809.99
650.411	15960.05
650.763	16038.46
651.115	16236.65
651.467	16167.27
651.819	16028.29
652.171	16061.06
652.523	16071.91
652.875	16007.05
653.227	15989.65
653.578	16120.72
653.93	16077.33
654.282	15936.32
654.633	16016.54
654.985	16058.35
655.337	16047.05
655.688	15952.82
656.039	16099.48
656.391	15935.87
656.742	15941.06
657.094	15997.56
657.445	16059.48
657.796	16032.36
658.147	15868.75
658.498	15954.62
658.849	15967.73
659.2	16021.29
659.551	15911.91
659.902	15981.51
660.253	15975.41
660.604	15913.49
660.955	15951.01
661.306	15990.33
661.656	15926.38
662.007	15988.52
662.358	15938.58
662.708	15926.15
663.059	15874.62
663.409	15764.8
663.76	15922.08
664.11	15891.35
664.461	15970.89
664.811	15975.19
665.161	16028.07
665.511	15916.21
665.862	15947.39
666.212	16023.77
666.562	15965.02
666.912	15944.91
667.262	15908.75
667.612	15937.22
667.962	15890.67
668.312	15890.22
668.662	16022.64
669.011	15865.59
669.361	15946.26
669.711	15907.62
670.06	15958.46
670.41	15908.3
670.76	15858.81
671.109	15972.02
671.459	15867.85
671.808	15871.01
672.157	15909.43
672.507	15839.15
672.856	15823.78
673.205	15827.62
673.554	15795.76
673.904	15815.19
674.253	15933.38
674.602	15812.93
674.951	15616.78
675.3	15551.24
675.649	15856.09
675.998	15822.65
676.346	15793.72
676.695	15886.6
677.044	15737.68
677.393	15783.1
677.741	15826.49
678.09	15744.01
678.438	15749.88
678.787	15800.5
679.135	15800.28
679.484	15650.45
679.832	15813.84
680.181	15653.84
680.529	15803.89
680.877	15661.3
681.225	15608.87
681.573	15777.9
681.922	15687.96
682.27	15583.11
682.618	15615.65
682.966	15562.54
683.314	15588.3
683.661	15560.73
684.009	15525.03
684.357	15529.55
684.705	15437.57
685.053	15377.24
685.4	15369.33
685.748	15408.65
686.095	15288.65
686.443	15277.8
686.79	15316.67
687.138	15262.66
687.485	15259.27
687.832	15203
688.18	15308.99
688.527	15173.4
688.874	15152.61
689.221	15202.78
689.568	15041.65
689.915	15096.34
690.262	15049.79
690.609	15038.71
690.956	14951.03
691.303	14993.07
691.65	14843.69
691.997	14933.63
692.344	14862.45
692.69	14790.81
693.037	14819.96
693.383	14721.21
693.73	14747.42
694.077	14692.06
694.423	14767.54
694.769	14619.74
695.116	14516.92
695.462	14579.97
695.808	14467.43
696.155	14549.91
696.501	14507.66
696.847	14375.46
697.193	14379.75
697.539	14430.82
697.885	14296.59
698.231	14330.48
698.577	14319.64
698.923	14243.71
699.269	14203.93
699.614	14143.37
699.96	14072.64
700.306	14068.57
700.651	14041.68
700.997	14014.56
701.342	13955.58
701.688	13895.92
702.033	13841.91
702.379	13901.12
702.724	13902.93
703.069	13886.88
703.415	13790.16
703.76	13805.07
704.105	13707
704.45	13725.75
704.795	13595.14
705.14	13631.97
705.485	13591.07
705.83	13538.42
706.175	13457.51
706.52	13489.6
706.865	13522.14
707.209	13433.56
707.554	13460.45
707.899	13468.59
708.243	13415.93
708.588	13406.67
708.932	13193.11
709.277	13303.17
709.621	13296.61
709.966	13248.93
710.31	13267.91
710.654	13202.83
710.998	13101.14
711.342	13128.71
711.687	13128.03
712.031	12993.12
712.375	13054.59
712.719	13084.64
713.063	13035.83
713.407	13079.44
713.75	13019.11
714.094	12953.8
714.438	13001.93
714.782	12909.28
715.125	12897.3
715.469	12937.53
715.812	12870.41
716.156	12777.76
716.499	12810.52
716.843	12806.01
717.186	12730.07
717.53	12878.77
717.873	12760.13
718.216	12793.35
718.559	12737.08
718.902	12604.65
719.246	12701.6
719.589	12638.1
719.932	12668.38
720.275	12686.01
720.617	12582.28
720.96	12618.21
721.303	12571.66
721.646	12617.54
721.989	12524.88
722.331	12573.92
722.674	12504.77
723.016	12475.17
723.359	12540.02
723.701	12539.35
724.044	12401.72
724.386	12426.35
724.729	12486.01
725.071	12433.36
725.413	12478.78
725.755	12354.72
726.097	12407.82
726.439	12305.45
726.782	12378.67
727.124	12364.66
727.465	12300.48
727.807	12302.06
728.149	12283.53
728.491	12235.4
728.833	12375.06
729.175	12294.15
729.516	12260.93
729.858	12135.97
730.199	12326.47
730.541	12245.34
730.882	12222.74
731.224	12310.2
731.565	12165.12
731.906	12175.97
732.248	12181.61
732.589	12196.98
732.93	12210.54
733.271	12151.11
733.612	12169.64
733.953	12161.95
734.294	12125.12
734.635	12102.29
734.976	12051.9
735.317	12128.51
735.658	12039.02
735.999	12021.17
736.339	12042.18
736.68	12124.89
737.021	12067.04
737.361	12011.22
737.702	12102.75
738.042	12081.96
738.383	12080.37
738.723	12111.11
739.063	11982.07
739.404	12018.23
739.744	12009.19
740.084	12050.77
740.424	12038.12
740.764	12006.48
741.104	12016.87
741.444	11973.94
741.784	11834.28
742.124	11980.94
742.464	11953.15
742.804	11939.59
743.143	11872.02
743.483	11875.18
743.823	11853.94
744.162	11889.19
744.502	11863.66
744.841	11787.73
745.181	11887.84
745.52	11841.74
745.86	11868.85
746.199	11886.26
746.538	11893.26
746.877	11911.57
747.216	11828.4
747.556	11869.31
747.895	11801.51
748.234	11766.71
748.573	11787.95
748.911	11780.72
749.25	11769.42
749.589	11703.21
749.928	11729.65
750.267	11785.69
750.605	11675.41
750.944	11676.09
751.283	11675.19
751.621	11706.6
751.96	11661.18
752.298	11653.49
752.636	11592.7
752.975	11714.06
753.313	11519.71
753.651	11681.06
753.989	11517.23
754.327	11478.13
754.666	11499.15
755.004	11502.31
755.342	11507.06
755.679	11493.05
756.017	11444.46
756.355	11427.28
756.693	11391.13
757.031	11406.72
757.368	11383.44
757.706	11295.76
758.044	11253.96
