Data from tablewood_dark_bookshelf_FLMS001491_00041.txt Node
Date: Wed Feb 08 14:14:47 GMT 2017
User: dcchb
Spectrometer: FLMS00149
Trigger mode: 0
Integration Time (sec): 2.000000E-2
Scans to average: 10
Electric dark correction enabled: true
Nonlinearity correction enabled: false
Boxcar width: 0
XAxis mode: Wavelengths
Number of Pixels in Spectrum: 2048
>>>>>Begin Spectral Data<<<<<
341.393	-28.7
341.776	-28.7
342.16	-28.7
342.543	-57.17
342.927	-44.29
343.31	-78.87
343.693	-59.66
344.077	-59.89
344.46	-63.5
344.843	-37.06
345.226	-35.71
345.61	-25.76
345.993	-18.53
346.376	-5.65
346.759	16.95
347.142	28.93
347.525	32.09
347.908	54.69
348.291	63.73
348.674	84.97
349.057	103.27
349.44	119.09
349.823	137.62
350.206	148.47
350.588	185.31
350.971	200.22
351.354	179.88
351.737	243.84
352.119	250.61
352.502	249.71
352.884	260.33
353.267	277.96
353.65	284.06
354.032	280.44
354.414	289.26
354.797	307.11
355.179	317.51
355.562	302.36
355.944	306.21
356.326	328.35
356.709	321.8
357.091	319.09
357.473	345.08
357.855	321.57
358.238	322.03
358.62	333.1
359.002	319.31
359.384	331.97
359.766	339.65
360.148	323.38
360.53	322.93
360.912	325.64
361.294	310.27
361.676	326.55
362.057	299.2
362.439	312.99
362.821	297.85
363.203	303.72
363.584	310.95
363.966	307.34
364.348	303.27
364.729	313.21
365.111	293.78
365.493	298.52
365.874	317.28
366.256	312.08
366.637	295.36
367.019	309.37
367.4	297.39
367.781	304.17
368.163	292.2
368.544	301.01
368.925	319.54
369.306	299.2
369.688	306.88
370.069	309.6
370.45	299.43
370.831	305.53
371.212	303.95
371.593	298.75
371.974	308.01
372.355	329.93
372.736	310.95
373.117	303.72
373.498	299.2
373.879	297.17
374.26	312.31
374.641	284.06
375.021	281.12
375.402	315.25
375.783	317.05
376.163	325.64
376.544	319.09
376.925	323.16
377.305	327.22
377.686	330.61
378.066	330.84
378.447	339.43
378.827	338.3
379.208	326.77
379.588	317.51
379.968	326.09
380.349	337.84
380.729	333.78
381.109	317.73
381.489	335.13
381.87	330.39
382.25	318.86
382.63	347.56
383.01	334.68
383.39	315.25
383.77	345.98
384.15	347.11
384.53	334.23
384.91	337.39
385.29	358.63
385.67	314.79
386.049	360.44
386.429	352.53
386.809	343.95
387.189	358.86
387.568	357.96
387.948	347.79
388.328	361.12
388.707	352.76
389.087	346.66
389.466	378.07
389.846	368.35
390.225	355.92
390.605	359.99
390.984	369.48
391.363	366.77
391.743	352.53
392.122	358.63
392.501	350.5
392.881	361.57
393.26	375.13
393.639	374.45
394.018	380.55
394.397	384.17
394.776	385.75
395.155	392.53
395.534	369.48
395.913	380.55
396.292	394.34
396.671	402.25
397.05	393.89
397.429	406.09
397.808	388.46
398.186	402.02
398.565	393.89
398.944	403.61
399.323	413.32
399.701	416.71
400.08	404.74
400.458	398.18
400.837	423.49
401.215	386.43
401.594	426.43
401.972	423.04
402.351	424.85
402.729	420.78
403.107	442.93
403.486	413.77
403.864	426.88
404.242	412.42
404.62	444.28
404.999	423.27
405.377	421.46
405.755	451.97
406.133	451.29
406.511	468.24
406.889	465.07
407.267	437.73
407.645	451.97
408.023	480.67
408.401	475.69
408.779	461.23
409.156	456.03
409.534	466.65
409.912	500.1
410.29	463.26
410.667	489.93
411.045	478.86
411.422	492.19
411.8	508.24
412.178	503.26
412.555	514.11
412.933	511.4
413.31	507.56
413.687	500.78
414.065	530.61
414.442	522.47
414.819	526.31
415.197	542.81
415.574	514.34
415.951	550.95
416.328	538.06
416.705	561.34
417.082	556.6
417.46	530.38
417.837	556.82
418.214	565.41
418.591	568.57
418.967	567.89
419.344	560.44
419.721	583.49
420.098	592.3
420.475	584.39
420.852	584.62
421.228	590.27
421.605	581.91
421.982	581.45
422.358	586.43
422.735	608.35
423.111	628.01
423.488	602.47
423.864	627.78
424.241	621.68
424.617	646.08
424.994	631.85
425.37	634.33
425.746	639.53
426.123	656.71
426.499	633.43
426.875	656.48
427.251	653.32
427.627	673.88
428.003	683.37
428.379	664.84
428.756	682.92
429.132	702.13
429.507	712.98
429.883	715.24
430.259	729.47
430.635	718.85
431.011	731.51
431.387	728.57
431.763	751.39
432.138	757.04
432.514	757.95
432.89	787.55
433.265	773.31
433.641	777.38
434.016	757.72
434.392	783.71
434.767	797.72
435.143	801.11
435.518	828.68
435.894	825.06
436.269	810.15
436.644	823.71
437.02	814.44
437.395	845.85
437.77	850.37
438.145	858.06
438.52	848.57
438.895	852.86
439.271	884.95
439.646	900.32
440.021	885.4
440.395	902.8
440.77	886.76
441.145	907.09
441.52	943.25
441.895	931.5
442.27	921.11
442.645	926.98
443.019	947.77
443.394	958.62
443.769	950.26
444.143	929.47
444.518	967.66
444.892	942.35
445.267	958.39
445.641	969.92
446.016	984.38
446.39	966.53
446.764	977.15
447.139	985.51
447.513	1012.18
447.887	1003.59
448.262	1035
448.636	1034.78
449.01	1018.73
449.384	1039.52
449.758	1043.36
450.132	1035.45
450.506	1067.54
450.88	1073.42
451.254	1074.32
451.628	1087.43
452.002	1074.55
452.376	1126.07
452.75	1101.89
453.123	1126.07
453.497	1111.38
453.871	1141.66
454.244	1151.61
454.618	1171.49
454.992	1185.05
455.365	1200.19
455.739	1217.14
456.112	1231.83
456.486	1260.76
456.859	1253.75
457.232	1284.71
457.606	1280.87
457.979	1276.35
458.352	1278.16
458.725	1288.1
459.099	1348.44
459.472	1328.78
459.845	1337.82
460.218	1352.05
460.591	1357.93
460.964	1378.04
461.337	1406.52
461.71	1424.37
462.083	1439.51
462.456	1433.86
462.829	1437.25
463.201	1481.09
463.574	1471.83
463.947	1508.66
464.32	1514.76
464.692	1555.67
465.065	1530.36
465.438	1561.54
465.81	1597.02
466.183	1593.63
466.555	1643.57
466.928	1620.3
467.3	1627.3
467.672	1678.6
468.045	1693.97
468.417	1744.59
468.789	1716.34
469.161	1748.2
469.534	1790.01
469.906	1789.33
470.278	1838.6
470.65	1858.71
471.022	1865.49
471.394	1884.7
471.766	1887.41
472.138	1929.89
472.51	1962.21
472.882	1989.78
473.253	1985.94
473.625	2039.04
473.997	2082.88
474.369	2080.4
474.74	2106.84
475.112	2152.94
475.484	2189.55
475.855	2255.53
476.227	2250.79
476.598	2285.82
476.97	2301.63
477.341	2319.04
477.713	2369.43
478.084	2393.84
478.455	2484
478.827	2474.51
479.198	2564.68
479.569	2551.8
479.94	2612.59
480.311	2612.59
480.682	2698.01
481.053	2722.87
481.424	2778.68
481.795	2828.4
482.166	2892.58
482.537	2881.73
482.908	2925.12
483.279	2963.54
483.65	3052.35
484.021	3066.59
484.391	3126.02
484.762	3152.01
485.133	3164.21
485.503	3252.34
485.874	3315.17
486.244	3341.38
486.615	3391.1
486.985	3393.58
487.356	3464.32
487.726	3477.87
488.097	3549.96
488.467	3546.12
488.837	3646.23
489.207	3676.74
489.578	3728.04
489.948	3752.44
490.318	3831.54
490.688	3821.37
491.058	3908.15
491.428	3900.01
491.798	3960.8
492.168	4011.19
492.538	4043.96
492.908	4133.45
493.278	4169.83
493.648	4153.79
494.017	4217.74
494.387	4220.91
494.757	4309.49
495.126	4344.07
495.496	4366.44
495.866	4436.49
496.235	4429.71
496.605	4415.25
496.974	4462.93
497.344	4581.35
497.713	4576.83
498.082	4641.69
498.452	4650.05
498.821	4641.91
499.19	4676.71
499.559	4768.91
499.928	4743.6
500.298	4839.65
500.667	4876.93
501.036	4805.75
501.405	4919.64
501.774	4906.99
502.143	4939.31
502.512	5002.35
502.88	5043.71
503.249	5041
503.618	5069.7
503.987	5066.99
504.356	5150.83
504.724	5202.12
505.093	5213.2
505.462	5209.13
505.83	5260.65
506.199	5313.53
506.567	5344.94
506.936	5324.61
507.304	5434.21
507.672	5441.21
508.041	5491.83
508.409	5525.5
508.777	5615.67
509.145	5678.72
509.514	5617.03
509.882	5714.88
510.25	5699.96
510.618	5764.37
510.986	5789.9
511.354	5810.47
511.722	5859.28
512.09	5969.79
512.458	5950.13
512.826	5960.07
513.193	6047.52
513.561	6043.23
513.929	6108.54
514.297	6197.35
514.664	6186.73
515.032	6229.21
515.4	6289.55
515.767	6348.31
516.135	6374.97
516.502	6308.53
516.869	6483.45
517.237	6457.01
517.604	6493.16
517.972	6589.43
518.339	6635.76
518.706	6584.69
519.073	6628.98
519.44	6708.75
519.808	6796.66
520.175	6834.17
520.542	6878.46
520.909	6876.2
521.276	6980.16
521.643	7051.11
522.009	7068.51
522.376	7132.24
522.743	7200.49
523.11	7197.1
523.477	7297.89
523.843	7360.03
524.21	7377.66
524.577	7488.62
524.943	7481.84
525.31	7620.36
525.676	7665.56
526.043	7686.8
526.409	7744.66
526.776	7797.54
527.142	7827.36
527.508	7905.1
527.874	7955.95
528.241	8050.86
528.607	7957.98
528.973	8143.97
529.339	8107.36
529.705	8245.66
530.071	8225.55
530.437	8295.6
530.803	8350.29
531.169	8411.76
531.535	8387.8
531.901	8477.97
532.267	8513.9
532.632	8520.45
532.998	8562.26
533.364	8562.49
533.73	8654.01
534.095	8728.13
534.461	8760
534.826	8865.3
535.192	8840.45
535.557	8934
535.923	8958.18
536.288	8978.52
536.653	9032.98
537.019	8948.47
537.384	9069.14
537.749	9113.66
538.114	9141.23
538.479	9114.56
538.845	9146.2
539.21	9172.19
539.575	9174.9
539.94	9226.65
540.305	9288.8
540.67	9298.06
541.034	9341.9
541.399	9407.44
541.764	9425.06
542.129	9433.88
542.494	9488.56
542.858	9507.32
543.223	9605.85
543.587	9588
543.952	9589.58
544.316	9665.06
544.681	9660.31
545.045	9715.22
545.41	9663.7
545.774	9803.81
546.138	9817.82
546.503	9862.57
546.867	9877.25
547.231	9892.4
547.595	10029.79
547.959	9962.22
548.324	9992.96
548.688	9965.16
549.052	10074.76
549.416	10085.38
549.779	10140.75
550.143	10099.4
550.507	10182.56
550.871	10204.48
551.235	10242.67
551.599	10302.55
551.962	10331.03
552.326	10397.92
552.689	10439.95
553.053	10393.4
553.417	10411.48
553.78	10629.55
554.143	10531.7
554.507	10603.11
554.87	10641.75
555.234	10747.29
555.597	10745.48
555.96	10717.46
556.323	10872.71
556.686	10820.05
557.05	10881.07
557.413	10941.41
557.776	11014.17
558.139	11048.98
558.502	11127.39
558.865	11075.42
559.228	11226.82
559.59	11248.29
559.953	11296.88
560.316	11405.58
560.679	11388.63
561.041	11441.51
561.404	11549.98
561.767	11643.76
562.129	11582.97
562.492	11721.73
562.854	11669.3
563.217	11757.43
563.579	11784.55
563.941	11942.06
564.304	11947.93
564.666	12062.06
565.028	11984.77
565.39	12053.47
565.753	12159
566.115	12209.62
566.477	12268.38
566.839	12289.62
567.201	12347.47
567.563	12472.67
567.925	12447.58
568.287	12502.5
568.648	12619.1
569.01	12657.75
569.372	12680.12
569.734	12729.38
570.095	12862.49
570.457	12843.96
570.819	12943.61
571.18	12988.59
571.542	13054.12
571.903	13041.69
572.265	13157.85
572.626	13209.6
572.987	13177.28
573.349	13266.77
573.71	13240.56
574.071	13349.93
574.432	13437.16
574.794	13468.57
575.155	13531.85
575.516	13484.39
575.877	13619.3
576.238	13653.43
576.599	13687.32
576.96	13678.74
577.32	13720.32
577.681	13745.18
578.042	13800.77
578.403	13878.73
578.763	13850.94
579.124	13928.67
579.485	13957.15
579.845	14048.44
580.206	14046.41
580.566	14051.61
580.927	14134.32
581.287	14188.1
581.648	14163.92
582.008	14254.54
582.368	14208.89
582.728	14297.7
583.089	14316.23
583.449	14299.51
583.809	14357.36
584.169	14404.59
584.529	14407.3
584.889	14536.34
585.249	14438.04
585.609	14420.41
585.969	14500.86
586.329	14441.43
586.688	14540.63
587.048	14583.57
587.408	14479.39
587.768	14586.74
588.127	14614.98
588.487	14540.63
588.846	14683.46
589.206	14518.71
589.565	14694.98
589.925	14767.07
590.284	14775.66
590.643	14709.22
591.003	14731.14
591.362	14769.56
591.721	14779.72
592.08	14820.63
592.44	14921.87
592.799	14822.66
593.158	14879.61
593.517	14887.29
593.876	14953.51
594.235	14873.96
594.593	14983.56
594.952	14942.43
595.311	14972.71
595.67	15045.93
596.029	15140.17
596.387	15071.02
596.746	15186.95
597.104	15082.99
597.463	15141.97
597.822	15212.71
598.18	15093.16
598.538	15147.4
598.897	15311.91
599.255	15126.61
599.613	15390.33
599.972	15370.9
600.33	15320.73
600.688	15219.03
601.046	15284.8
601.404	15395.98
601.762	15383.32
602.12	15470.55
602.478	15480.27
602.836	15532.47
603.194	15485.47
603.552	15432.36
603.91	15409.99
604.268	15575.41
604.625	15528.63
604.983	15587.61
605.341	15553.94
605.698	15553.49
606.056	15616.54
606.413	15680.04
606.771	15687.05
607.128	15693.15
607.485	15713.71
607.843	15772.47
608.2	15810.43
608.557	15904.67
608.914	15874.61
609.272	15888.17
609.629	15868.28
609.986	15889.75
610.343	15950.99
610.7	16024.89
611.057	15995.96
611.414	15903.76
611.771	15969.75
612.127	16127.49
612.484	16057.43
612.841	16209.29
613.198	16094.72
613.554	16202.06
613.911	16194.38
614.267	16108.05
614.624	16200.03
614.98	16113.25
615.337	16212.68
615.693	16281.15
616.05	16263.75
616.406	16317.09
616.762	16261.27
617.118	16310.08
617.475	16311.21
617.831	16411.55
618.187	16311.89
618.543	16440.02
618.899	16484.54
619.255	16469.85
619.611	16416.74
619.967	16523.41
620.323	16440.25
620.678	16452.9
621.034	16443.64
621.39	16418.1
621.746	16453.35
622.101	16591.88
622.457	16475.72
622.812	16527.25
623.168	16494.26
623.523	16541.71
623.879	16550.98
624.234	16431.66
624.589	16488.15
624.945	16568.83
625.3	16599.34
625.655	16559.79
626.01	16501.26
626.365	16616.06
626.72	16613.57
627.075	16561.15
627.43	16565.67
627.785	16587.59
628.14	16603.18
628.495	16635.49
628.85	16556.63
629.205	16457.87
629.559	16512.56
629.914	16505.78
630.269	16462.62
630.623	16446.8
630.978	16402.73
631.332	16519.34
631.687	16487.93
632.041	16454.48
632.396	16508.72
632.75	16398.44
633.104	16474.14
633.459	16470.3
633.813	16419.68
634.167	16383.75
634.521	16424.88
634.875	16459
635.229	16375.84
635.583	16285.9
635.937	16360.7
636.291	16314.83
636.645	16338.33
636.999	16286.35
637.352	16225.11
637.706	16167.48
638.06	16317.54
638.413	16206.81
638.767	16172.68
639.121	16116.86
639.474	16048.84
639.828	16077.54
640.181	16107.37
640.534	16084.55
640.888	16044.55
641.241	16001.84
641.594	16011.33
641.947	16096.75
642.301	16018.34
642.654	15968.85
643.007	16045.45
643.36	16041.84
643.713	16048.62
644.066	16014.49
644.419	16011.78
644.771	15903.08
645.124	15768.85
645.477	15779.02
645.83	15651.11
646.182	15566.37
646.535	15424.91
646.888	15425.58
647.24	15381.06
647.593	15391.46
647.945	15333.83
648.298	15379.03
648.65	15246.6
649.002	15237.34
649.355	15324.79
649.707	15378.35
650.059	15429.88
650.411	15586.03
650.763	15683.43
651.115	15767.72
651.467	15722.3
651.819	15752.58
652.171	15724.56
652.523	15629.87
652.875	15597.1
653.227	15557.56
653.578	15616.54
653.93	15659.7
654.282	15621.51
654.633	15561.17
654.985	15620.83
655.337	15609.99
655.688	15567.5
656.039	15597.1
656.391	15509.42
656.742	15528.86
657.094	15573.38
657.445	15507.16
657.796	15595.97
658.147	15551.68
658.498	15521.85
658.849	15554.62
659.2	15601.17
659.551	15495.64
659.902	15598.91
660.253	15456.54
660.604	15546.26
660.955	15475.98
661.306	15522.53
661.656	15513.49
662.007	15561.4
662.358	15471.01
662.708	15566.14
663.059	15570.44
663.409	15424.68
663.76	15516.65
664.11	15494.51
664.461	15582.19
664.811	15558.23
665.161	15553.94
665.511	15528.86
665.862	15472.14
666.212	15551
666.562	15431.23
666.912	15492.7
667.262	15440.5
667.612	15555.75
667.962	15503.32
668.312	15473.49
668.662	15537.22
669.011	15426.04
669.361	15450.67
669.711	15440.05
670.06	15498.35
670.41	15475.53
670.76	15359.14
671.109	15428.97
671.459	15428.97
671.808	15466.71
672.157	15381.52
672.507	15396.21
672.856	15389.65
673.205	15338.35
673.554	15381.06
673.904	15345.81
674.253	15439.59
674.602	15358.92
674.951	15141.52
675.3	15109.89
675.649	15269.88
675.998	15363.21
676.346	15402.53
676.695	15384
677.044	15319.15
677.393	15294.06
677.741	15393.95
678.09	15238.92
678.438	15219.03
678.787	15235.08
679.135	15300.39
679.484	15127.29
679.832	15165.7
680.181	15072.37
680.529	15153.27
680.877	15116.21
681.225	15061.07
681.573	15187.85
681.922	15110.56
682.27	15048.64
682.618	15057.23
682.966	15034.86
683.314	15140.39
683.661	15052.94
684.009	14875.77
684.357	14882.09
684.705	14859.04
685.053	14859.27
685.4	14804.58
685.748	14801.64
686.095	14715.09
686.443	14751.02
686.79	14752.15
687.138	14789.22
687.485	14737.01
687.832	14694.98
688.18	14636.68
688.527	14612.27
688.874	14558.71
689.221	14628.99
689.568	14528.66
689.915	14555.32
690.262	14553.29
690.609	14462.22
690.956	14447.08
691.303	14393.97
691.65	14358.94
691.997	14312.62
692.344	14197.14
692.69	14245.28
693.037	14254.77
693.383	14167.31
693.73	14143.36
694.077	14104.26
694.423	14131.83
694.769	13994.21
695.116	14007.32
695.462	13970.03
695.808	13977.71
696.155	14033.08
696.501	13869.69
696.847	13911.5
697.193	13776.81
697.539	13750.37
697.885	13718.74
698.231	13644.84
698.577	13662.69
698.923	13620.21
699.269	13621.11
699.614	13519.42
699.96	13499.08
700.306	13556.93
700.651	13489.81
700.997	13398.52
701.342	13363.04
701.688	13399.87
702.033	13312.42
702.379	13293.66
702.724	13240.1
703.069	13243.49
703.415	13066.1
703.76	13080.33
704.105	13082.59
704.45	13038.08
704.795	13008.47
705.14	12971.41
705.485	12988.36
705.83	12912.2
706.175	12897.29
706.52	12894.58
706.865	12830.17
707.209	12765.31
707.554	12843.5
707.899	12753.56
708.243	12757.86
708.588	12741.13
708.932	12686.22
709.277	12692.55
709.621	12671.08
709.966	12605.09
710.31	12621.82
710.654	12433.8
710.998	12585.21
711.342	12510.18
711.687	12504.98
712.031	12457.53
712.375	12440.8
712.719	12434.48
713.063	12456.62
713.407	12447.58
713.75	12401.48
714.094	12359.22
714.438	12243.97
714.782	12249.62
715.125	12295.27
715.469	12231.77
715.812	12286
716.156	12153.13
716.499	12174.14
716.843	12233.12
717.186	12140.25
717.53	12121.49
717.873	12162.17
718.216	12107.7
718.559	12057.08
718.902	12022.73
719.246	11926.24
719.589	11969.18
719.932	11966.01
720.275	11951.32
720.617	11933.7
720.96	11915.62
721.303	11941.83
721.646	11893.7
721.989	11879.24
722.331	11901.61
722.674	11937.54
723.016	11913.36
723.359	11872
723.701	11911.33
724.044	11820.48
724.386	11755.62
724.729	11871.55
725.071	11781.16
725.413	11805.79
725.755	11799.01
726.097	11698.45
726.439	11664.55
726.782	11648.73
727.124	11712.46
727.465	11627.94
727.807	11664.55
728.149	11615.74
728.491	11611.67
728.833	11615.06
729.175	11598.11
729.516	11534.84
729.858	11576.64
730.199	11615.51
730.541	11606.7
730.882	11639.69
731.224	11633.59
731.565	11574.16
731.906	11517.66
732.248	11561.73
732.589	11465.01
732.93	11431.11
733.271	11501.84
733.612	11445.12
733.953	11469.3
734.294	11457.55
734.635	11431.56
734.976	11534.16
735.317	11424.33
735.658	11440.6
735.999	11449.64
736.339	11436.76
736.68	11411.23
737.021	11414.84
737.361	11341.17
737.702	11408.29
738.042	11338.46
738.383	11402.86
738.723	11323.54
739.063	11304.56
739.404	11360.15
739.744	11422.52
740.084	11416.42
740.424	11404.22
740.764	11317.44
741.104	11428.4
741.444	11300.72
741.784	11281.96
742.124	11231.34
742.464	11321.06
742.804	11238.35
743.143	11269.76
743.483	11306.37
743.823	11226.15
744.162	11257.56
744.502	11279.7
744.841	11128.97
745.181	11199.93
745.52	11197.45
745.86	11201.74
746.199	11169.65
746.538	11137.79
746.877	11252.81
747.216	11134.62
747.556	11185.92
747.895	11183.66
748.234	11116.77
748.573	11092.82
748.911	11092.59
749.25	11164.23
749.589	11070.9
749.928	11079.48
750.267	11114.06
750.605	11078.13
750.944	11024.12
751.283	10999.03
751.621	11037.9
751.96	10967.85
752.298	11009.88
752.636	11033.16
752.975	11022.08
753.313	10966.94
753.651	11004
753.989	10994.51
754.327	10886.49
754.666	10775.99
755.004	10891.24
755.342	10875.65
755.679	10860.96
756.017	10843.1
756.355	10839.26
756.693	10835.87
757.031	10812.15
757.368	10736.89
757.706	10717.46
758.044	10735.08
