Data from tablewood_brown_FLMS001491_015.txt Node
Date: Tue Feb 07 11:10:05 GMT 2017
User: dcchb
Spectrometer: FLMS00149
Trigger mode: 0
Integration Time (sec): 2.000000E-2
Scans to average: 10
Electric dark correction enabled: true
Nonlinearity correction enabled: false
Boxcar width: 0
XAxis mode: Wavelengths
Number of Pixels in Spectrum: 2048
>>>>>Begin Spectral Data<<<<<
341.393	-24.26
341.776	-24.26
342.16	-24.26
342.543	-57.94
342.927	-65.62
343.31	-69.69
343.693	-56.58
344.077	-61.78
344.46	-72.17
344.843	-31.95
345.226	-48.9
345.61	-37.15
345.993	-12.74
346.376	-1.89
346.759	-6.86
347.142	27.71
347.525	38.33
347.908	66.35
348.291	77.88
348.674	87.82
349.057	101.61
349.44	118.78
349.823	148.84
350.206	143.19
350.588	198.78
350.971	206.01
351.354	210.98
351.737	243.3
352.119	234.26
352.502	255.28
352.884	281.94
353.267	292.79
353.65	288.27
354.032	301.83
354.414	304.09
354.797	312.45
355.179	321.04
355.562	336.63
355.944	309.74
356.326	325.56
356.709	348.61
357.091	337.08
357.473	346.8
357.855	363.3
358.238	329.17
358.62	355.84
359.002	336.86
359.384	359.68
359.766	339.12
360.148	346.57
360.53	339.34
360.912	349.51
361.294	344.31
361.676	329.85
362.057	336.86
362.439	328.72
362.821	305.67
363.203	337.53
363.584	341.6
363.966	329.62
364.348	323.75
364.729	336.86
365.111	329.85
365.493	342.05
365.874	342.28
366.256	330.3
366.637	328.04
367.019	339.57
367.4	329.4
367.781	361.04
368.163	344.54
368.544	337.99
368.925	344.54
369.306	317.87
369.688	328.72
370.069	336.86
370.45	328.72
370.831	325.33
371.212	341.6
371.593	324.43
371.974	336.18
372.355	330.98
372.736	338.89
373.117	329.4
373.498	319
373.879	333.47
374.26	327.82
374.641	324.2
375.021	338.66
375.402	344.99
375.783	357.19
376.163	352.22
376.544	344.54
376.925	335.5
377.305	352.45
377.686	328.27
378.066	361.04
378.447	363.07
378.827	352.22
379.208	361.94
379.588	345.67
379.968	355.16
380.349	363.07
380.729	336.18
381.109	368.95
381.489	349.51
381.87	372.33
382.25	363.97
382.63	382.28
383.01	369.62
383.39	394.48
383.77	385.22
384.15	368.95
384.53	363.07
384.91	383.41
385.29	395.61
385.67	408.04
386.049	411.43
386.429	411.2
386.809	381.37
387.189	400.58
387.568	386.57
387.948	397.19
388.328	399.9
388.707	412.56
389.087	426.34
389.466	406.68
389.846	431.77
390.225	424.08
390.605	420.47
390.984	411.66
391.363	410.98
391.743	434.25
392.122	420.7
392.501	449.62
392.881	442.84
393.26	450.75
393.639	462.5
394.018	450.98
394.397	451.65
394.776	456.85
395.155	462.95
395.534	442.16
395.913	450.52
396.292	462.05
396.671	489.39
397.05	478.09
397.429	470.41
397.808	500.02
398.186	473.58
398.565	481.94
398.944	478.55
399.323	495.72
399.701	469.73
400.08	489.39
400.458	509.05
400.837	500.24
401.215	515.38
401.594	497.98
401.972	518.32
402.351	510.86
402.729	520.35
403.107	509.73
403.486	544.99
403.864	529.39
404.242	531.65
404.62	544.31
404.999	547.25
405.377	541.6
405.755	550.41
406.133	556.28
406.511	551.54
406.889	575.72
407.267	589.28
407.645	563.29
408.023	576.85
408.401	583.63
408.779	587.02
409.156	600.13
409.534	573.46
409.912	611.88
410.29	587.24
410.667	601.71
411.045	621.82
411.422	614.36
411.8	643.51
412.178	646.9
412.555	640.8
412.933	646.23
413.31	652.1
413.687	644.64
414.065	678.32
414.442	657.3
414.819	674.47
415.197	668.15
415.574	682.61
415.951	687.13
416.328	677.41
416.705	713.57
417.082	695.04
417.46	710.86
417.837	731.2
418.214	721.48
418.591	718.54
418.967	751.53
419.344	732.33
419.721	742.72
420.098	736.62
420.475	726.22
420.852	754.25
421.228	754.92
421.605	758.77
421.982	779.1
422.358	779.33
422.735	778.2
423.111	780.69
423.488	817.07
423.864	801.93
424.241	802.83
424.617	813.45
424.994	822.94
425.37	829.72
425.746	824.98
426.123	845.32
426.499	857.75
426.875	859.78
427.251	869.72
427.627	862.49
428.003	887.12
428.379	923.51
428.756	870.4
429.132	907.91
429.507	914.24
429.883	925.31
430.259	923.05
430.635	939.33
431.011	934.81
431.387	981.58
431.763	988.82
432.138	982.49
432.514	983.17
432.89	992.21
433.265	1024.52
433.641	1029.04
434.016	1018.19
434.392	1048.93
434.767	1046.89
435.143	1063.62
435.518	1096.16
435.894	1082.82
436.269	1099.55
436.644	1116.95
437.02	1104.07
437.395	1099.32
437.77	1124.86
438.145	1138.87
438.52	1147
438.895	1170.05
439.271	1145.42
439.646	1208.02
440.021	1189.49
440.395	1213.89
440.77	1200.34
441.145	1205.31
441.52	1234.91
441.895	1217.96
442.27	1263.61
442.645	1249.37
443.019	1244.63
443.394	1251.86
443.769	1265.87
444.143	1277.62
444.518	1305.19
444.892	1309.49
445.267	1300.9
445.641	1302.03
446.016	1293.44
446.39	1331.18
446.764	1327.79
447.139	1329.37
447.513	1337.28
447.887	1361.46
448.262	1360.56
448.636	1333.21
449.01	1408.01
449.384	1397.17
449.758	1394.23
450.132	1390.39
450.506	1407.56
450.88	1408.47
451.254	1429.26
451.628	1462.25
452.002	1471.51
452.376	1468.58
452.75	1487.11
453.123	1476.49
453.497	1507.67
453.871	1524.17
454.244	1580.89
454.618	1566.2
454.992	1570.72
455.365	1575.92
455.739	1603.94
456.112	1623.38
456.486	1629.48
456.859	1657.95
457.232	1660.66
457.606	1685.52
457.979	1719.42
458.352	1737.5
458.725	1780.43
459.099	1751.28
459.472	1785.41
459.845	1811.17
460.218	1828.12
460.591	1834.22
460.964	1829.25
461.337	1909.24
461.71	1906.31
462.083	1933.2
462.456	1930.94
462.829	1951.05
463.201	1984.27
463.574	1966.64
463.947	2018.39
464.32	2049.13
464.692	2060.88
465.065	2102.46
465.438	2124.61
465.81	2151.5
466.183	2177.71
466.555	2185.39
466.928	2222
467.3	2257.48
467.672	2268.1
468.045	2337.25
468.417	2368.89
468.789	2354.88
469.161	2395.56
469.534	2423.35
469.906	2516.46
470.278	2532.5
470.65	2541.09
471.022	2628.77
471.394	2638.26
471.766	2640.07
472.138	2666.29
472.51	2735.21
472.882	2806.62
473.253	2832.16
473.625	2931.14
473.997	2925.49
474.369	2949.44
474.74	3052.94
475.112	3105.6
475.484	3145.6
475.855	3211.36
476.227	3259.26
476.598	3315.53
476.97	3343.78
477.341	3460.84
477.713	3478.24
478.084	3508.07
478.455	3653.38
478.827	3658.58
479.198	3739.03
479.569	3832.81
479.94	3929.98
480.311	3949.87
480.682	4059.47
481.053	4180.14
481.424	4230.09
481.795	4244.78
482.166	4295.17
482.537	4426.01
482.908	4472.11
483.279	4573.81
483.65	4645.89
484.021	4769.51
484.391	4785.1
484.762	4846.12
485.133	4939.67
485.503	4950.97
485.874	5136.73
486.244	5167.69
486.615	5249.27
486.985	5328.36
487.356	5425.99
487.726	5465.76
488.097	5589.82
488.467	5619.2
488.837	5691.52
489.207	5786.43
489.578	5901
489.948	5974.22
490.318	6080.21
490.688	6137.16
491.058	6197.94
491.428	6240.66
491.798	6309.81
492.168	6475
492.538	6464.38
492.908	6537.82
493.278	6595.45
493.648	6697.37
494.017	6729
494.387	6811.04
494.757	6856.46
495.126	6909.79
495.496	6961.09
495.866	7027.3
496.235	7094.42
496.605	7112.04
496.974	7130.58
497.344	7279.05
497.713	7273.4
498.082	7402.66
498.452	7457.57
498.821	7572.6
499.19	7521.3
499.559	7625.25
499.928	7705.7
500.298	7641.97
500.667	7794.74
501.036	7743.44
501.405	7930.55
501.774	7892.59
502.143	8024.34
502.512	8036.09
502.88	8127.84
503.249	8155.86
503.618	8187.95
503.987	8268.85
504.356	8307.95
504.724	8374.16
505.093	8426.36
505.462	8507.71
505.83	8552.23
506.199	8672
506.567	8739.8
506.936	8723.53
507.304	8783.41
507.672	8897.08
508.041	8898.66
508.409	8977.98
508.777	9107.7
509.145	9117.42
509.514	9161.71
509.882	9313.12
510.25	9258.43
510.618	9375.04
510.986	9385.88
511.354	9530.74
511.722	9600.34
512.09	9660.45
512.458	9697.29
512.826	9767.57
513.193	9843.72
513.561	9927.56
513.929	10042.82
514.297	10151.51
514.664	10179.53
515.032	10202.81
515.4	10363.03
515.767	10394.44
516.135	10511.28
516.502	10468.79
516.869	10659.3
517.237	10582.46
517.604	10721.89
517.972	10850.25
518.339	10895.67
518.706	10953.53
519.073	11032.62
519.44	11119.17
519.808	11254.76
520.175	11291.82
520.542	11393.51
520.909	11498.14
521.276	11417.47
521.643	11570.23
522.009	11790.11
522.376	11831.24
522.743	11850.45
523.11	12001.18
523.477	12205.92
523.843	12249.54
524.21	12397.33
524.577	12488.85
524.943	12529.98
525.31	12584.9
525.676	12806.13
526.043	12858.79
526.409	12892.01
526.776	13016.52
527.142	13054.94
527.508	13208.16
527.874	13312.11
528.241	13395.72
528.607	13495.38
528.973	13639.78
529.339	13635.04
529.705	13689.72
530.071	13830.74
530.437	13854.01
530.803	14057.62
531.169	14148.02
531.535	14098.75
531.901	14181.01
532.267	14308.24
532.632	14317.96
532.998	14386.43
533.364	14525.86
533.73	14516.37
534.095	14648.57
534.461	14710.04
534.826	14826.64
535.192	14768.11
535.557	14919.75
535.923	14881.11
536.288	14992.74
536.653	15162.91
537.019	15094.89
537.384	15173.75
537.749	15202
538.114	15293.98
538.479	15332.85
538.845	15437.48
539.21	15476.8
539.575	15544.82
539.94	15591.6
540.305	15764.47
540.67	15732.16
541.034	15781.65
541.399	15824.58
541.764	15940.97
542.129	15879.05
542.494	15971.92
542.858	16044.24
543.223	16053.73
543.587	16123.56
543.952	16166.27
544.316	16208.53
544.681	16386.6
545.045	16383.44
545.41	16454.17
545.774	16462.31
546.138	16587.05
546.503	16612.13
546.867	16651.45
547.231	16764.67
547.595	16852.13
547.959	16889.19
548.324	16938.23
548.688	17036.76
549.052	17027.26
549.416	17074.95
549.779	17169.86
550.143	17194.49
550.507	17493.92
550.871	17464.31
551.235	17496.4
551.599	17654.59
551.962	17764.65
552.326	17822.27
552.689	17947.69
553.053	17936.17
553.417	17995.37
553.78	18318.53
554.143	18140
554.507	18352.43
554.87	18375.03
555.234	18589.03
555.597	18637.39
555.96	18832.64
556.323	18893.2
556.686	18913.77
557.05	19048.45
557.413	19181.33
557.776	19190.82
558.139	19442.79
558.502	19450.93
558.865	19609.8
559.228	19877.13
559.59	19923.91
559.953	19949.22
560.316	20241.87
560.679	20292.72
561.041	20438.7
561.404	20560.96
561.767	20755.98
562.129	20813.61
562.492	21092.47
562.854	21129.53
563.217	21108.06
563.579	21359.35
563.941	21541.95
564.304	21660.59
564.666	21857.42
565.028	21949.62
565.39	22101.48
565.753	22314.58
566.115	22474.35
566.477	22529.49
566.839	22649.49
567.201	22802.71
567.563	22924.96
567.925	23243.37
568.287	23279.53
568.648	23326.99
569.01	23660.54
569.372	23967.87
569.734	23788.44
570.095	24086.06
570.457	24294.64
570.819	24406.96
571.18	24543
571.542	24788.87
571.903	24827.29
572.265	25151.8
572.626	25298.91
572.987	25473.37
573.349	25480.83
573.71	25794.04
574.071	25950.19
574.432	26030.64
574.794	26303.18
575.155	26348.6
575.516	26314.03
575.877	26541.82
576.238	26723.51
576.599	26899.55
576.96	26965.31
577.32	27090.95
577.681	27262.25
578.042	27396.71
578.403	27441.68
578.763	27530.49
579.124	27759.41
579.485	27928.22
579.845	28092.51
580.206	27953.3
580.566	28108.1
580.927	28254.99
581.287	28424.7
581.648	28275.78
582.008	28572.95
582.368	28547.41
582.728	28682.55
583.089	28671.7
583.449	28795.77
583.809	28955.76
584.169	29131.35
584.529	28962.32
584.889	29286.6
585.249	29179.49
585.609	29193.72
585.969	29434.17
586.329	29338.13
586.688	29479.37
587.048	29493.38
587.408	29373.15
587.768	29470.33
588.127	29480.5
588.487	29584
588.846	29824.67
589.206	29588.06
589.565	29656.31
589.925	29755.52
590.284	29611.34
590.643	29830.77
591.003	29934.95
591.362	30091.78
591.721	29910.54
592.08	30054.49
592.44	30029.86
592.799	30109.63
593.158	30156.41
593.517	30180.14
593.876	30021.72
594.235	30057.2
594.593	30149.4
594.952	30241.61
595.311	30163.64
595.67	30181.49
596.029	30449.28
596.387	30400.92
596.746	30447.25
597.104	30319.8
597.463	30321.6
597.822	30466.23
598.18	30409.51
598.538	30448.61
598.897	30521.37
599.255	30408.38
599.613	30884.53
599.972	30617.42
600.33	30802.95
600.688	30559.56
601.046	30717.3
601.404	30934.7
601.762	30733.12
602.12	30928.82
602.478	30915.49
602.836	30979.89
603.194	30853.34
603.552	30887.46
603.91	30851.53
604.268	31066.89
604.625	30900.12
604.983	30982.6
605.341	30879.56
605.698	31057.86
606.056	31066.67
606.413	31031.19
606.771	31060.12
607.128	31213.56
607.485	31114.58
607.843	31040.46
608.2	31256.27
608.557	31303.72
608.914	31220.56
609.272	31403.84
609.629	31414.91
609.986	31606.09
610.343	31306.21
610.7	31597.05
611.057	31612.42
611.414	31518.41
611.771	31535.58
612.127	31732.87
612.484	31522.93
612.841	31756.14
613.198	31678.18
613.554	31687.9
613.911	31881.79
614.267	31926.76
614.624	31794.56
614.98	31889.47
615.337	32170.82
615.693	32079.52
616.05	32019.86
616.406	32220.99
616.762	31945.29
617.118	32144.15
617.475	32100.99
617.831	32182.35
618.187	32236.58
618.543	32133.08
618.899	32387.99
619.255	32316.81
619.611	32288.56
619.967	32373.3
620.323	32424.6
620.678	32256.47
621.034	32298.95
621.39	32277.71
621.746	32319.29
622.101	32655.55
622.457	32420.53
622.812	32350.03
623.168	32556.57
623.523	32591.15
623.879	32474.54
624.234	32327.88
624.589	32597.7
624.945	32565.61
625.3	32646.29
625.655	32498.95
626.01	32578.95
626.365	32687.19
626.72	32403.81
627.075	32461.89
627.43	32491.04
627.785	32358.84
628.14	32416.69
628.495	32441.77
628.85	32376.92
629.205	32240.2
629.559	32541.21
629.914	32223.93
630.269	32267.77
630.623	32217.6
630.978	32175.57
631.332	32299.63
631.687	32318.61
632.041	32075.68
632.396	32300.53
632.75	32142.8
633.104	32106.64
633.459	32070.03
633.813	32101.22
634.167	32029.81
634.521	32148.67
634.875	31967.66
635.229	32030.94
635.583	31755.46
635.937	31907.55
636.291	31802.69
636.645	31803.15
636.999	31661.46
637.352	31747.1
637.706	31470.73
638.06	31776.03
638.413	31618.74
638.767	31604.73
639.121	31616.26
639.474	31420.56
639.828	31447.45
640.181	31485.42
640.534	31441.57
640.888	31381.24
641.241	31196.61
641.594	31344.85
641.947	31449.71
642.301	31271.18
642.654	31351.86
643.007	31475.25
643.36	31334.91
643.713	31376.94
644.066	31336.27
644.419	31132.2
644.771	30913
645.124	30698.09
645.477	30667.13
645.83	30335.39
646.182	30224.88
646.535	30194.83
646.888	30305.56
647.24	30066.92
647.593	30392.56
647.945	30197.54
648.298	30042.06
648.65	30072.8
649.002	30009.75
649.355	30223.98
649.707	30191.21
650.059	30204.09
650.411	30676.17
650.763	30636.85
651.115	30889.27
651.467	30765.66
651.819	30841.59
652.171	30738.54
652.523	30847.01
652.875	30804.75
653.227	30557.98
653.578	30688.15
653.93	30705.32
654.282	30575.16
654.633	30411.54
654.985	30500.36
655.337	30666.23
655.688	30701.25
656.039	30717.98
656.391	30329.06
656.742	30575.83
657.094	30648.6
657.445	30610.86
657.796	30608.15
658.147	30453.8
658.498	30575.61
658.849	30598.66
659.2	30585.1
659.551	30513.24
659.902	30509.85
660.253	30519.56
660.604	30615.61
660.955	30470.07
661.306	30512.11
661.656	30467.59
662.007	30535.84
662.358	30556.17
662.708	30455.61
663.059	30527.02
663.409	30381.72
663.76	30529.28
664.11	30441.83
664.461	30553.24
664.811	30568.6
665.161	30475.95
665.511	30285.67
665.862	30543.07
666.212	30448.15
666.562	30476.18
666.912	30357.99
667.262	30313.92
667.612	30379.68
667.962	30446.8
668.312	30305.11
668.662	30457.65
669.011	30314.6
669.361	30298.33
669.711	30259.91
670.06	30292.45
670.41	30213.81
670.76	30254.49
671.109	30148.05
671.459	30210.87
671.808	30056.98
672.157	30271.66
672.507	30049.97
672.856	30157.77
673.205	30133.59
673.554	30181.27
673.904	30013.59
674.253	30223.3
674.602	30110.31
674.951	29555.97
675.3	29471.68
675.649	30058.33
675.998	29983.76
676.346	30038
676.695	30059.69
677.044	29724.11
677.393	29938.11
677.741	29905.34
678.09	29908.06
678.438	29712.35
678.787	29729.76
679.135	29722.52
679.484	29512.59
679.832	29651.56
680.181	29529.31
680.529	29407.73
680.877	29327.05
681.225	29334.29
681.573	29515.3
681.922	29212.25
682.27	29159.15
682.618	29167.96
682.966	29079.6
683.314	29209.32
683.661	29146.27
684.009	28930
684.357	28970.68
684.705	28946.5
685.053	28983.79
685.4	28787.86
685.748	28722.1
686.095	28788.31
686.443	28744.02
686.79	28546.51
687.138	28502.44
687.485	28455.44
687.832	28385.61
688.18	28429.22
688.527	28230.36
688.874	28177.25
689.221	28186.97
689.568	28102.91
689.915	28089.57
690.262	28034.88
690.609	28002.34
690.956	27791.05
691.303	27836.25
691.65	27629.25
691.997	27653.65
692.344	27461.57
692.69	27485.07
693.037	27455.92
693.383	27149.03
693.73	27214.11
694.077	27093.21
694.423	27086.21
694.769	26997.62
695.116	26893.67
695.462	26794.01
695.808	26677.41
696.155	26612.32
696.501	26512.44
696.847	26566.22
697.193	26220.47
697.539	26403.97
697.885	26195.38
698.231	26122.62
698.577	26127.14
698.923	26085.56
699.269	25807.15
699.614	25778.45
699.96	25724.21
700.306	25734.61
700.651	25632.69
700.997	25493.93
701.342	25466.82
701.688	25377.78
702.033	25279.02
702.379	25321.96
702.724	25070.44
703.069	25098.01
703.415	24781.18
703.76	24698.47
704.105	24799.94
704.45	24751.13
704.795	24649.44
705.14	24630.91
705.485	24508.65
705.83	24430.46
706.175	24525.82
706.52	24313.63
706.865	24261.2
707.209	24187.3
707.554	24199.96
707.899	24129.9
708.243	23897.14
708.588	24102.78
708.932	23674.32
709.277	23701.66
709.621	23784.15
709.966	23668.45
710.31	23713.42
710.654	23516.59
710.998	23551.39
711.342	23510.48
711.687	23456.47
712.031	23340.32
712.375	23251.73
712.719	23327.89
713.063	23305.97
713.407	23305.07
713.75	23117.05
714.094	23086.77
714.438	23005.86
714.782	23139.42
715.125	22881.57
715.469	22972.42
715.812	22875.02
716.156	22800.9
716.499	22756.61
716.843	22727.45
717.186	22643.16
717.53	22771.97
717.873	22653.56
718.216	22653.1
718.559	22614.24
718.902	22391.87
719.246	22514.8
719.589	22410.85
719.932	22371.3
720.275	22354.58
720.617	22377.86
720.96	22358.88
721.303	22231.2
721.646	22298.76
721.989	22262.15
722.331	22345.09
722.674	22280.69
723.016	22174.02
723.359	22233.23
723.701	22207.69
724.044	22098.32
724.386	22026.91
724.729	22175.38
725.071	22143.74
725.413	22110.97
725.755	22155.49
726.097	21971.09
726.439	21932.22
726.782	21979.22
727.124	22034.82
727.465	21974.03
727.807	21886.8
728.149	21898.32
728.491	21905.78
728.833	21838.66
729.175	21897.87
729.516	21832.79
729.858	21797.53
730.199	21820.13
730.541	21890.19
730.882	21799.57
731.224	21863.3
731.565	21769.29
731.906	21844.76
732.248	21876.85
732.589	21724.09
732.93	21713.92
733.271	21629.85
733.612	21750.53
733.953	21676.63
734.294	21669.18
734.635	21579.23
734.976	21691.55
735.317	21727.25
735.658	21667.37
735.999	21539.91
736.339	21526.13
736.68	21678.22
737.021	21575.39
737.361	21530.42
737.702	21612.68
738.042	21520.93
738.383	21532.46
738.723	21710.98
739.063	21504.43
739.404	21618.56
739.744	21655.62
740.084	21515.06
740.424	21598.9
740.764	21535.62
741.104	21634.15
741.444	21562.29
741.784	21501.5
742.124	21503.76
742.464	21543.98
742.804	21484.1
743.143	21526.35
743.483	21446.58
743.823	21437.32
744.162	21492.46
744.502	21591.21
744.841	21566.81
745.181	21595.05
745.52	21473.25
745.86	21502.17
746.199	21511.21
746.538	21571.78
746.877	21575.39
747.216	21494.94
747.556	21566.35
747.895	21573.13
748.234	21525.68
748.573	21371.56
748.911	21400.26
749.25	21496.3
749.589	21399.58
749.928	21446.58
750.267	21521.61
750.605	21297.66
750.944	21396.87
751.283	21332.69
751.621	21463.53
751.96	21257.89
752.298	21266.25
752.636	21311.22
752.975	21330.2
753.313	21189.64
753.651	21290.65
753.989	21083.88
754.327	21090.66
754.666	21204.56
755.004	21175.63
755.342	21169.3
755.679	21180.6
756.017	20973.6
