Data from tablewood_brown_FLMS001491_004.txt Node
Date: Tue Feb 07 11:09:55 GMT 2017
User: dcchb
Spectrometer: FLMS00149
Trigger mode: 0
Integration Time (sec): 2.000000E-2
Scans to average: 10
Electric dark correction enabled: true
Nonlinearity correction enabled: false
Boxcar width: 0
XAxis mode: Wavelengths
Number of Pixels in Spectrum: 2048
>>>>>Begin Spectral Data<<<<<
341.393	-17.22
341.776	-17.22
342.16	-17.22
342.543	-74.16
342.927	-44.11
343.31	-53.83
343.693	-85.46
344.077	-49.08
344.46	-72.36
344.843	-57.89
345.226	-40.49
345.61	-29.65
345.993	-6.6
346.376	-14.28
346.759	4.7
347.142	44.02
347.525	59.39
347.908	58.26
348.291	78.37
348.674	79.05
349.057	85.83
349.44	110.01
349.823	131.03
350.206	147.75
350.588	190.24
350.971	206.05
351.354	238.14
351.737	241.31
352.119	256.67
352.502	259.39
352.884	295.09
353.267	281.08
353.65	277.01
354.032	293.51
354.414	303.9
354.797	314.53
355.179	321.76
355.562	344.81
355.944	324.92
356.326	331.02
356.709	338.03
357.091	343.68
357.473	325.82
357.855	351.59
358.238	352.49
358.62	333.96
359.002	329.67
359.384	357.46
359.766	343
360.148	347.52
360.53	336.22
360.912	346.16
361.294	324.02
361.676	337.58
362.057	340.29
362.439	334.19
362.821	354.98
363.203	335.77
363.584	313.85
363.966	333.73
364.348	324.47
364.729	324.24
365.111	330.34
365.493	339.16
365.874	329.21
366.256	308.2
366.637	330.57
367.019	338.48
367.4	326.5
367.781	339.38
368.163	321.76
368.544	319.27
368.925	327.18
369.306	324.02
369.688	313.17
370.069	349.33
370.45	328.54
370.831	331.02
371.212	336.45
371.593	320.4
371.974	330.8
372.355	317.24
372.736	319.5
373.117	336.67
373.498	324.24
373.879	349.55
374.26	332.15
374.641	336.22
375.021	319.05
375.402	317.92
375.783	341.87
376.163	346.84
376.544	347.07
376.925	362.89
377.305	352.94
377.686	353.39
378.066	363.11
378.447	362.43
378.827	352.04
379.208	360.85
379.588	344.58
379.968	355.2
380.349	360.85
380.729	344.13
381.109	380.51
381.489	383.22
381.87	373.96
382.25	388.42
382.63	377.8
383.01	370.8
383.39	359.04
383.77	364.02
384.15	357.24
384.53	393.39
384.91	405.6
385.29	400.63
385.67	385.71
386.049	399.04
386.429	418.25
386.809	390.91
387.189	399.95
387.568	419.38
387.948	419.16
388.328	425.71
388.707	413.51
389.087	409.89
389.466	420.29
389.846	409.66
390.225	423
390.605	451.25
390.984	423.9
391.363	451.02
391.743	427.07
392.122	432.26
392.501	422.55
392.881	447.4
393.26	444.24
393.639	456.89
394.018	459.15
394.397	485.14
394.776	469.1
395.155	453.05
395.534	467.74
395.913	457.57
396.292	463.45
396.671	457.35
397.05	455.54
397.429	484.69
397.808	485.37
398.186	503.22
398.565	482.2
398.944	483.33
399.323	494.18
399.701	472.26
400.08	521.3
400.458	511.36
400.837	506.61
401.215	500.74
401.594	517.23
401.972	489.44
402.351	519.27
402.729	530.79
403.107	540.96
403.486	544.8
403.864	557.91
404.242	547.06
404.62	565.37
404.999	573.05
405.377	583.67
405.755	582.09
406.133	570.79
406.511	562.88
406.889	583.22
407.267	589.55
407.645	571.24
408.023	604.24
408.401	602.43
408.779	591.13
409.156	630
409.534	634.29
409.912	641.3
410.29	656.21
410.667	643.56
411.045	646.72
411.422	617.79
411.8	641.52
412.178	653.05
412.555	663.22
412.933	669.54
413.31	703.89
413.687	660.73
414.065	689.21
414.442	692.82
414.819	695.53
415.197	693.05
415.574	710.22
415.951	717
416.328	724.68
416.705	735.53
417.082	715.87
417.46	753.84
417.837	756.32
418.214	726.27
418.591	759.71
418.967	760.84
419.344	765.59
419.721	783.21
420.098	774.85
420.475	785.93
420.852	786.15
421.228	794.96
421.605	816.89
421.982	823.21
422.358	802.42
422.735	806.94
423.111	819.37
423.488	836.77
423.864	840.39
424.241	829.09
424.617	851.91
424.994	865.92
425.37	857.11
425.746	859.37
426.123	856.43
426.499	872.7
426.875	888.07
427.251	913.83
427.627	917.45
428.003	941.4
428.379	922.87
428.756	927.39
429.132	952.47
429.507	954.28
429.883	974.17
430.259	982.53
430.635	995.86
431.011	982.08
431.387	1005.35
431.763	1033.15
432.138	1010.55
432.514	1029.31
432.89	1022.08
433.265	1083.09
433.641	1061.17
434.016	1058.23
434.392	1099.59
434.767	1111.11
435.143	1115.63
435.518	1126.26
435.894	1138.46
436.269	1155.63
436.644	1156.99
437.02	1191.34
437.395	1168.97
437.77	1212.81
438.145	1237.67
438.52	1222.3
438.895	1244.22
439.271	1238.57
439.646	1258
440.021	1263.43
440.395	1273.14
440.77	1274.05
441.145	1271.56
441.52	1307.27
441.895	1308.17
442.27	1307.95
442.645	1337.55
443.019	1333.48
443.394	1344.56
443.769	1352.69
444.143	1357.44
444.518	1356.53
444.892	1375.29
445.267	1371.22
445.641	1374.16
446.016	1371.45
446.39	1399.47
446.764	1423.65
447.139	1430.2
447.513	1432.69
447.887	1433.59
448.262	1455.06
448.636	1418.9
449.01	1492.57
449.384	1460.26
449.758	1488.96
450.132	1508.39
450.506	1535.51
450.88	1537.54
451.254	1503.19
451.628	1523.99
452.002	1532.8
452.376	1586.36
452.75	1573.02
453.123	1585.45
453.497	1602.85
453.871	1621.61
454.244	1663.87
454.618	1662.51
454.992	1690.08
455.365	1690.76
455.739	1706.81
456.112	1725.11
456.486	1742.74
456.859	1768.27
457.232	1813.02
457.606	1800.81
457.979	1833.58
458.352	1850.76
458.725	1863.19
459.099	1868.61
459.472	1903.41
459.845	1943.18
460.218	1946.35
460.591	1956.06
460.964	1966.23
461.337	2020.47
461.71	2064.31
462.083	2064.31
462.456	2096.4
462.829	2062.73
463.201	2115.38
463.574	2133.01
463.947	2177.08
464.32	2228.37
464.692	2238.09
465.065	2270.18
465.438	2251.88
465.81	2313.8
466.183	2349.5
466.555	2411.87
466.928	2419.78
467.3	2441.25
467.672	2453.45
468.045	2494.36
468.417	2516.95
468.789	2544.3
469.161	2607.35
469.534	2595.14
469.906	2686.21
470.278	2701.81
470.65	2716.27
471.022	2800.11
471.394	2822.93
471.766	2906.1
472.138	2939.99
472.51	2991.97
472.882	3038.75
473.253	3057.05
473.625	3124.4
473.997	3129.14
474.369	3174.79
474.74	3277.61
475.112	3322.58
475.484	3371.17
475.855	3467.89
476.227	3482.35
476.598	3571.62
476.97	3612.52
477.341	3684.38
477.713	3755.34
478.084	3817.71
478.455	3908.1
478.827	3994.88
479.198	4073.52
479.569	4068.1
479.94	4233.07
480.311	4265.38
480.682	4363.23
481.053	4415.43
481.424	4568.43
481.795	4585.6
482.166	4680.96
482.537	4718.25
482.908	4879.38
483.279	4912.82
483.65	4991.69
484.021	5104.46
484.391	5186.94
484.762	5245.7
485.133	5261.29
485.503	5375.18
485.874	5462.19
486.244	5506.25
486.615	5640.94
486.985	5692.46
487.356	5854.27
487.726	5849.3
488.097	6000.25
488.467	6012.23
488.837	6135.39
489.207	6227.82
489.578	6277.08
489.948	6362.28
490.318	6552.78
490.688	6519.79
491.058	6638.43
491.428	6676.39
491.798	6832.32
492.168	6948.48
492.538	6975.82
492.908	7044.74
493.278	7086.78
493.648	7161.58
494.017	7285.19
494.387	7334.91
494.757	7375.13
495.126	7457.61
495.496	7507.1
495.866	7562.7
496.235	7628.23
496.605	7696.25
496.974	7766.53
497.344	7841.33
497.713	7912.07
498.082	7971.73
498.452	8058.05
498.821	8114.55
499.19	8124.49
499.559	8224.15
499.928	8270.25
500.298	8331.04
500.667	8413.97
501.036	8435.89
501.405	8525.38
501.774	8554.76
502.143	8632.5
502.512	8670.01
502.88	8704.59
503.249	8772.38
503.618	8887.86
503.987	8892.83
504.356	9006.95
504.724	9000.17
505.093	9040.62
505.462	9090.11
505.83	9213.95
506.199	9255.76
506.567	9423.66
506.936	9379.15
507.304	9534.62
507.672	9562.42
508.041	9634.28
508.409	9687.39
508.777	9794.05
509.145	9895.97
509.514	9851
509.882	9932.58
510.25	9995.63
510.618	10173.25
510.986	10185.23
511.354	10249.86
511.722	10354.49
512.09	10463.64
512.458	10466.58
512.826	10574.37
513.193	10594.93
513.561	10672.67
513.929	10787.92
514.297	10966
514.664	10972.78
515.032	11088.71
515.4	11173.9
515.767	11234.01
516.135	11320.56
516.502	11270.62
516.869	11470.62
517.237	11507.9
517.604	11544.96
517.972	11715.13
518.339	11812.3
518.706	11846.43
519.073	11899.31
519.44	11971.85
519.808	12081
520.175	12165.06
520.542	12323.02
520.909	12432.85
521.276	12415.68
521.643	12571.38
522.009	12699.06
522.376	12768.44
522.743	12924.36
523.11	13005.49
523.477	13158.48
523.843	13197.8
524.21	13432.37
524.577	13474.86
524.943	13568.19
525.31	13632.37
525.676	13783.55
526.043	13947.16
526.409	13976.77
526.776	14107.61
527.142	14159.36
527.508	14305.57
527.874	14334.04
528.241	14452.46
528.607	14524.32
528.973	14664.66
529.339	14685
529.705	14868.95
530.071	14969.51
530.437	14959.79
530.803	15120.92
531.169	15271.87
531.535	15217.18
531.901	15266
532.267	15350.74
532.632	15500.57
532.998	15635.48
533.364	15673.44
533.73	15701.69
534.095	15776.04
534.461	15873.44
534.826	15961.57
535.192	16131.74
535.557	16171.96
535.923	16156.37
536.288	16267.33
536.653	16356.14
537.019	16363.14
537.384	16440.88
537.749	16483.37
538.114	16571.5
538.479	16611.05
538.845	16692.63
539.21	16724.94
539.575	16823.24
539.94	16903.02
540.305	16979.62
540.67	16969.91
541.034	17017.59
541.399	17086.06
541.764	17164.7
542.129	17270.46
542.494	17336.68
542.858	17383
543.223	17333.29
543.587	17536.45
543.952	17641.98
544.316	17515.88
544.681	17595.65
545.045	17682.43
545.41	17855.76
545.774	17888.98
546.138	17892.82
546.503	17979.37
546.867	17976.89
547.231	18026.38
547.595	18256.88
547.959	18262.75
548.324	18283.54
548.688	18340.49
549.052	18566.48
549.416	18560.15
549.779	18729.41
550.143	18758.11
550.507	18859.35
550.871	18888.05
551.235	18927.37
551.599	19163.3
551.962	19211.66
552.326	19271.77
552.689	19383.85
553.053	19375.04
553.417	19455.27
553.78	19813.67
554.143	19677.41
554.507	19789.04
554.87	19853.67
555.234	20152.42
555.597	20173.89
555.96	20265.41
556.323	20437.84
556.686	20398.97
557.05	20620.43
557.413	20720.32
557.776	20871.5
558.139	21015.45
558.502	21070.59
558.865	21282.11
559.228	21402.11
559.59	21471.26
559.953	21568.66
560.316	21786.5
560.679	21921.19
561.041	22152.82
561.404	22306.72
561.767	22428.29
562.129	22439.59
562.492	22738.12
562.854	22726.82
563.217	23056.98
563.579	23071.22
563.941	23227.82
564.304	23465.33
564.666	23590.3
565.028	23702.61
565.39	23789.16
565.753	23915.49
566.115	24193.22
566.477	24226.67
566.839	24482.7
567.201	24645.86
567.563	24701.46
567.925	24890.6
568.287	25129.47
568.648	25252.85
569.01	25433.19
569.372	25721.77
569.734	25850.13
570.095	26032.95
570.457	26271.58
570.819	26268.87
571.18	26421.86
571.542	26764.45
571.903	26844.68
572.265	27024.11
572.626	27189.98
572.987	27408.73
573.349	27470.65
573.71	27605.79
574.071	27796.06
574.432	27970.75
574.794	28113.12
575.155	28227.69
575.516	28142.27
575.877	28468.59
576.238	28587.23
576.599	28840.33
576.96	28960.33
577.32	28901.57
577.681	29221.11
578.042	29498.39
578.403	29521.67
578.763	29749.46
579.124	29801.43
579.485	29956.01
579.845	30163.23
580.206	30144.02
580.566	30233.51
580.927	30333.17
581.287	30396.45
581.648	30458.37
582.008	30595.76
582.368	30683.22
582.728	30846.83
583.089	30828.07
583.449	30946.71
583.809	31066.03
584.169	31105.35
584.529	31085.92
584.889	31392.58
585.249	31222.87
585.609	31293.82
585.969	31519.81
586.329	31550.31
586.688	31539.47
587.048	31476.87
587.408	31555.29
587.768	31621.05
588.127	31717.54
588.487	31588.28
588.846	31909.18
589.206	31818.1
589.565	31748.95
589.925	32015.39
590.284	31985.33
590.643	32000.25
591.003	32120.69
591.362	32179.9
591.721	32154.59
592.08	32246.57
592.44	32325.89
592.799	32342.38
593.158	32326.79
593.517	32363.85
593.876	32431.42
594.235	32312.1
594.593	32317.07
594.952	32476.84
595.311	32307.36
595.67	32510.52
596.029	32642.49
596.387	32672.54
596.746	32724.75
597.104	32570.63
597.463	32668.25
597.822	32757.51
598.18	32573.11
598.538	32677.52
598.897	32835.7
599.255	32605.88
599.613	33136.94
599.972	32785.76
600.33	32876.38
600.688	32780.34
601.046	32949.37
601.404	33147.56
601.762	33062.59
602.12	33156.83
602.478	33224.17
602.836	33160.89
603.194	33067.79
603.552	33127.22
603.91	33048.35
604.268	33131.74
604.625	33038.18
604.983	33356.37
605.341	33084.51
605.698	33186.2
606.056	33282.47
606.413	33317.73
606.771	33385.29
607.128	33544.61
607.485	33240.89
607.843	33294.22
608.2	33595.68
608.557	33628.45
608.914	33455.8
609.272	33771.27
609.629	33704.61
609.986	33818.73
610.343	33587.55
610.7	33897.6
611.057	33861.67
611.414	33892.63
611.771	33780.76
612.127	34028.22
612.484	34045.62
612.841	34148.89
613.198	33895.79
613.554	33924.72
613.911	34167.87
614.267	34164.94
614.624	34052.62
614.98	34231.83
615.337	34383.23
615.693	34281.77
616.05	34316.34
616.406	34438.15
616.762	34435.44
617.118	34321.09
617.475	34334.2
617.831	34615.09
618.187	34664.13
618.543	34597.47
618.899	34819.38
619.255	34826.16
619.611	34661.87
619.967	34735.54
620.323	34836.78
620.678	34729.21
621.034	34619.61
621.39	34561.53
621.746	34674.75
622.101	35010.34
622.457	34833.84
622.812	34788.87
623.168	34834.3
623.523	34869.55
623.879	35148.41
624.234	34822.77
624.589	34807.63
624.945	34819.16
625.3	34979.83
625.655	34912.71
626.01	34869.55
626.365	34955.65
626.72	34829.32
627.075	34831.36
627.43	34896.89
627.785	34598.6
628.14	34733.28
628.495	34798.59
628.85	34812.38
629.205	34609.22
629.559	34942.99
629.914	34726.95
630.269	34736.9
630.623	34580.52
630.978	34644.7
631.332	34850.57
631.687	34928.08
632.041	34599.95
632.396	34631.82
632.75	34562.89
633.104	34641.98
633.459	34477.02
633.813	34411.48
634.167	34432.72
634.521	34402.44
634.875	34406.51
635.229	34410.35
635.583	34033.19
635.937	34138.27
636.291	34122.22
636.645	34221.88
636.999	34200.41
637.352	34166.52
637.706	33987.76
638.06	34272.73
638.413	33993.64
638.767	33995
639.121	34106.86
639.474	33880.2
639.828	33800.65
640.181	33962.91
640.534	33934.43
640.888	33748.22
641.241	33677.94
641.594	33638.85
641.947	33797.94
642.301	33651.95
642.654	33773.53
643.007	33674.78
643.36	33751.84
643.713	33559.53
644.066	33653.08
644.419	33426.2
644.771	33150.5
645.124	32989.37
645.477	32917.51
645.83	32674.35
646.182	32538.99
646.535	32524.75
646.888	32575.82
647.24	32379.67
647.593	32610.17
647.945	32530.4
648.298	32445.21
648.65	32398.2
649.002	32323.4
649.355	32466.45
649.707	32443.85
650.059	32503.74
650.411	32825.76
650.763	32896.49
651.115	33201.34
651.467	33165.87
651.819	32999.77
652.171	33017.62
652.523	33023.72
652.875	33006.77
653.227	32881.58
653.578	33150.05
653.93	33143.27
654.282	32898.53
654.633	32906.21
654.985	32927.23
655.337	33107.34
655.688	33033.44
656.039	33053.55
656.391	32810.85
656.742	32966.77
657.094	32920.67
657.445	33039.09
657.796	32953.67
658.147	32916.15
658.498	32817.85
658.849	32930.39
659.2	32934.91
659.551	32806.55
659.902	32859.88
660.253	32722.04
660.604	32853.11
660.955	32661.7
661.306	32817.85
661.656	32738.98
662.007	32729.72
662.358	32724.75
662.708	32804.97
663.059	32739.44
663.409	32567.91
663.76	32875.25
664.11	32884.97
664.461	32882.93
664.811	32850.62
665.161	32857.4
665.511	32789.15
665.862	32816.72
666.212	32956.61
666.562	32902.82
666.912	32762.71
667.262	32729.04
667.612	32737.18
667.962	32838.87
668.312	32730.85
668.662	32807.46
669.011	32595.71
669.361	32698.98
669.711	32763.16
670.06	32590.74
670.41	32458.77
670.76	32495.6
671.109	32629.61
671.459	32529.5
671.808	32433.91
672.157	32557.29
672.507	32372.21
672.856	32455.15
673.205	32430.07
673.554	32601.13
673.904	32383.96
674.253	32465.77
674.602	32264.65
674.951	31924.77
675.3	31735.39
675.649	32268.71
675.998	32245.89
676.346	32329.73
676.695	32345.77
677.044	32120.02
677.393	32138.32
677.741	32166.34
678.09	32260.58
678.438	32045.22
678.787	32090.41
679.135	32061.71
679.484	31782.4
679.832	31917.76
680.181	31662.4
680.529	31877.99
680.877	31793.25
681.225	31819.91
681.573	31929.29
681.922	31605.45
682.27	31624.66
682.618	31547.15
682.966	31591.44
683.314	31524.1
683.661	31391.45
684.009	31285.01
684.357	31204.79
684.705	31245.92
685.053	31195.75
685.4	31084.34
685.748	31007.96
686.095	31001.63
686.443	30781.07
686.79	30721.41
687.138	30823.33
687.485	30779.71
687.832	30555.76
688.18	30732.03
688.527	30459.04
688.874	30453.17
689.221	30360.97
689.568	30327.97
689.915	30103.57
690.262	30204.59
690.609	30126.17
690.956	29974.54
691.303	29989.45
691.65	29856.8
691.997	29844.37
692.344	29651.16
692.69	29552.4
693.037	29561.89
693.383	29309.24
693.73	29471.95
694.077	29301.33
694.423	29228.12
694.769	29144.28
695.116	29111.06
695.462	28984.73
695.808	28824.06
696.155	28786.32
696.501	28662.25
696.847	28673.55
697.193	28354.92
697.539	28549.49
697.885	28358.99
698.231	28247.12
698.577	28173.91
698.923	28033.12
699.269	27929.62
699.614	27785.89
699.96	27760.36
700.306	27763.52
700.651	27665.67
700.997	27517.65
701.342	27490.31
701.688	27453.02
702.033	27347.71
702.379	27387.26
702.724	27115.18
703.069	27298.45
703.415	26879.93
703.76	26956.31
704.105	26858.23
704.45	26839.03
704.795	26721.29
705.14	26548.19
705.485	26554.29
705.83	26444.23
706.175	26445.36
706.52	26343.67
706.865	26209.21
707.209	26223.22
707.554	26081.31
707.899	26071.36
708.243	25841.54
708.588	25843.8
708.932	25873.4
709.277	25733.29
709.621	25745.27
709.966	25602
710.31	25630.7
710.654	25374.21
710.998	25586.86
711.342	25382.57
711.687	25343.02
712.031	25223.93
712.375	25100.77
712.719	25185.28
713.063	25113.42
713.407	25255.34
713.75	24997.04
714.094	25037.49
714.438	24973.76
714.782	24911.17
715.125	24776.03
715.469	24865.29
715.812	24699.65
716.156	24602.93
716.499	24628.46
716.843	24621.01
717.186	24519.54
717.53	24674.34
717.873	24646.54
718.216	24425.98
718.559	24315.48
718.902	24235.25
719.246	24372.65
719.589	24222.15
719.932	24165.42
720.275	24152.09
720.617	24107.12
720.96	24096.5
721.303	24134.69
721.646	24112.32
721.989	23952.77
722.331	24131.75
722.674	23993.68
723.016	24073.9
723.359	23939.67
723.701	23945.54
724.044	23818.09
724.386	23924.3
724.729	23867.58
725.071	23782.61
725.413	23920.46
725.755	23862.83
726.097	23753.91
726.439	23743.97
726.782	23728.15
727.124	23850.4
727.465	23781.71
727.807	23738.54
728.149	23690.86
728.491	23602.73
728.833	23622.16
729.175	23560.24
729.516	23543.75
729.858	23489.28
730.199	23640.69
730.541	23485.44
730.882	23508.94
731.224	23651.09
731.565	23408.61
731.906	23411.32
732.248	23557.98
732.589	23284.54
732.93	23317.08
733.271	23434.14
733.612	23418.78
733.953	23462.62
734.294	23236.86
734.635	23247.48
734.976	23417.42
735.317	23306.46
735.658	23394.6
735.999	23339
736.339	23407.48
736.68	23390.98
737.021	23233.02
737.361	23272.11
737.702	23353.02
738.042	23269.85
738.383	23449.96
738.723	23516.18
739.063	23325.45
739.404	23476.4
739.744	23354.82
740.084	23240.25
740.424	23415.16
740.764	23353.92
741.104	23418.55
741.444	23305.56
741.784	23242.96
742.124	23329.51
742.464	23347.14
742.804	23361.6
743.143	23230.31
743.483	23244.32
743.823	23174.72
744.162	23200.7
744.502	23234.83
744.841	23171.1
745.181	23324.54
745.52	23134.49
745.86	23149.41
746.199	23166.81
746.538	23227.82
746.877	23218.56
747.216	23295.16
747.556	23104.66
747.895	23168.39
748.234	23137.43
748.573	23202.74
748.911	23249.74
749.25	23104.66
749.589	23085
749.928	23151.44
750.267	23112.34
750.605	23169.74
750.944	23148.95
751.283	23023.76
751.621	23214.49
751.96	22988.28
752.298	23153.25
752.636	23122.51
752.975	23038.9
753.313	22987.38
753.651	23001.39
753.989	22962.29
754.327	22976.53
754.666	22880.26
755.004	22920.71
755.342	22949.41
755.679	22833.26
