Data from tablewood_brown_FLMS001491_078.txt Node
Date: Tue Feb 07 11:11:00 GMT 2017
User: dcchb
Spectrometer: FLMS00149
Trigger mode: 0
Integration Time (sec): 2.000000E-2
Scans to average: 10
Electric dark correction enabled: true
Nonlinearity correction enabled: false
Boxcar width: 0
XAxis mode: Wavelengths
Number of Pixels in Spectrum: 2048
>>>>>Begin Spectral Data<<<<<
341.393	-15.99
341.776	-15.99
342.16	-15.99
342.543	-70.68
342.927	-69.09
343.31	-66.38
343.693	-52.6
344.077	-59.6
344.46	-55.54
344.843	-57.8
345.226	-27.97
345.61	-34.74
345.993	-19.38
346.376	-19.15
346.759	7.74
347.142	17.91
347.525	36.89
347.908	55.87
348.291	83.67
348.674	85.48
349.057	105.59
349.44	116.89
349.823	144.01
350.206	158.7
350.588	189.88
350.971	190.56
351.354	230.33
351.737	246.15
352.119	240.73
352.502	269.2
352.884	271.91
353.267	279.37
353.65	292.7
354.032	294.51
354.414	289.09
354.797	307.85
355.179	313.49
355.562	309.65
355.944	328.41
356.326	310.56
356.709	333.61
357.091	331.35
357.473	321.63
357.855	349.43
358.238	339.93
358.62	320.5
359.002	306.94
359.384	353.27
359.766	344.45
360.148	329.54
360.53	326.15
360.912	349.65
361.294	339.26
361.676	337.22
362.057	347.39
362.439	326.6
362.821	335.87
363.203	340.84
363.584	321.18
363.966	302.87
364.348	324.57
364.729	332.25
365.111	325.25
365.493	311.91
365.874	321.86
366.256	312.59
366.637	304.91
367.019	301.07
367.4	310.33
367.781	320.05
368.163	326.6
368.544	326.6
368.925	314.85
369.306	315.08
369.688	323.66
370.069	310.56
370.45	320.27
370.831	309.88
371.212	320.73
371.593	315.08
371.974	305.81
372.355	323.44
372.736	319.82
373.117	325.47
373.498	332.25
373.879	325.25
374.26	322.99
374.641	307.62
375.021	307.85
375.402	324.34
375.783	334.74
376.163	339.48
376.544	329.09
376.925	337.9
377.305	339.48
377.686	355.3
378.066	351.69
378.447	322.76
378.827	342.19
379.208	339.48
379.588	343.55
379.968	340.84
380.349	341.97
380.729	348.3
381.109	344.91
381.489	358.01
381.87	360.27
382.25	359.14
382.63	366.6
383.01	358.47
383.39	374.74
383.77	372.7
384.15	360.5
384.53	369.54
384.91	377.9
385.29	360.5
385.67	368.63
386.049	384.91
386.429	384.68
386.809	376.77
387.189	378.58
387.568	386.71
387.948	377.22
388.328	382.65
388.707	402.31
389.087	381.06
389.466	390.78
389.846	419.48
390.225	411.35
390.605	409.09
390.984	409.31
391.363	408.41
391.743	423.55
392.122	420.38
392.501	393.72
392.881	419.93
393.26	424
393.639	417.9
394.018	423.77
394.397	410.89
394.776	435.75
395.155	447.28
395.534	432.81
395.913	452.93
396.292	451.34
396.671	442.76
397.05	453.83
397.429	450.21
397.808	443.66
398.186	442.3
398.565	459.48
398.944	465.13
399.323	458.35
399.701	499.93
400.08	500.16
400.458	468.74
400.837	496.77
401.215	478.01
401.594	495.64
401.972	492.7
402.351	499.93
402.729	501.51
403.107	498.57
403.486	488.86
403.864	514.85
404.242	528.63
404.62	517.78
404.999	532.7
405.377	532.7
405.755	512.59
406.133	542.19
406.511	521.17
406.889	554.62
407.267	536.54
407.645	554.62
408.023	570.89
408.401	569.53
408.779	556.65
409.156	591.45
409.534	576.54
409.912	577.67
410.29	588.74
410.667	605.69
411.045	601.85
411.422	594.62
411.8	609.31
412.178	636.88
412.555	588.52
412.933	627.61
413.31	645.01
413.687	639.81
414.065	659.02
414.442	646.59
414.819	654.95
415.197	648.4
415.574	669.87
415.951	661.51
416.328	657.89
416.705	689.08
417.082	674.39
417.46	706.03
417.837	684.78
418.214	697.44
418.591	699.93
418.967	698.34
419.344	715.97
419.721	722.98
420.098	710.77
420.475	714.61
420.852	721.39
421.228	746.25
421.605	743.31
421.982	767.95
422.358	774.27
422.735	767.04
423.111	777.89
423.488	771.56
423.864	795.97
424.241	797.32
424.617	806.59
424.994	795.52
425.37	795.97
425.746	824.44
426.123	803.65
426.499	797.1
426.875	828.51
427.251	852.69
427.627	868.06
428.003	859.02
428.379	874.16
428.756	868.51
429.132	890.43
429.507	888.62
429.883	893.59
430.259	921.39
430.635	924.55
431.011	927.49
431.387	958
431.763	947.15
432.138	970.2
432.514	957.09
432.89	957.32
433.265	997.32
433.641	1014.04
434.016	1019.69
434.392	1028.96
434.767	1043.64
435.143	1028.05
435.518	1049.07
435.894	1045.23
436.269	1094.27
436.644	1086.58
437.02	1090.42
437.395	1117.77
437.77	1098.56
438.145	1149.86
438.52	1119.12
438.895	1135.85
439.271	1148.27
439.646	1182.17
440.021	1176.3
440.395	1199.12
440.77	1182.62
441.145	1191.44
441.52	1217.88
441.895	1221.04
442.27	1242.28
442.645	1205.22
443.019	1265.11
443.394	1234.83
443.769	1278.67
444.143	1256.52
444.518	1300.81
444.892	1273.92
445.267	1296.97
445.641	1304.2
446.016	1303.53
446.39	1306.69
446.764	1317.76
447.139	1322.96
447.513	1328.84
447.887	1332.9
448.262	1341.04
448.636	1381.72
449.01	1357.99
449.384	1379
449.758	1416.52
450.132	1432.56
450.506	1428.72
450.88	1407.7
451.254	1416.52
451.628	1443.18
452.002	1442.73
452.376	1456.52
452.75	1474.14
453.123	1494.25
453.497	1499.68
453.871	1525.89
454.244	1557.53
454.618	1554.82
454.992	1569.96
455.365	1567.7
455.739	1610.18
456.112	1636.17
456.486	1621.48
456.859	1665.78
457.232	1682.27
457.606	1687.47
457.979	1707.81
458.352	1729.5
458.725	1754.36
459.099	1772.21
459.472	1765.43
459.845	1809.5
460.218	1846.79
460.591	1855.83
460.964	1892.44
461.337	1908.93
461.71	1909.16
462.083	1986.44
462.456	1965.43
462.829	1950.97
463.201	2016.27
463.574	2005.43
463.947	2049.72
464.32	2094.92
464.692	2088.82
465.065	2106.44
465.438	2142.15
465.81	2205.42
466.183	2228.02
466.555	2277.06
466.928	2268.7
467.3	2279.77
467.672	2319.09
468.045	2397.06
468.417	2399.77
468.789	2400.67
469.161	2453.78
469.534	2520.67
469.906	2540.33
470.278	2589.59
470.65	2584.62
471.022	2670.72
471.394	2728.8
471.766	2691.51
472.138	2776.48
472.51	2852.64
472.882	2890.83
473.253	2902.58
473.625	2974.89
473.997	3057.38
474.369	3112.97
474.74	3117.71
475.112	3183.48
475.484	3252.85
475.855	3307.31
476.227	3340.31
476.598	3429.57
476.97	3457.59
477.341	3567.42
477.713	3639.28
478.084	3647.19
478.455	3782.56
478.827	3811.93
479.198	3931.7
479.569	3965.38
479.94	4105.26
480.311	4194.07
480.682	4210.34
481.053	4315.65
481.424	4384.8
481.795	4445.59
482.166	4554.96
482.537	4600.61
482.908	4674.06
483.279	4816.88
483.65	4865.01
484.021	4974.84
484.391	5026.14
484.762	5056.87
485.133	5161.5
485.503	5170.99
485.874	5342.06
486.244	5433.13
486.615	5512.45
486.985	5602.85
487.356	5715.16
487.726	5769.85
488.097	5881.26
488.467	5856.17
488.837	6082.38
489.207	6117.86
489.578	6190.4
489.948	6249.84
490.318	6380.91
490.688	6371.41
491.058	6455.03
491.428	6561.69
491.798	6680.78
492.168	6800.33
492.538	6794.23
492.908	6886.2
493.278	6990.83
493.648	7015.47
494.017	7092.07
494.387	7176.59
494.757	7237.83
495.126	7327.1
495.496	7371.84
495.866	7441.67
496.235	7514.66
496.605	7527.77
496.974	7610.7
497.344	7708.78
497.713	7767.08
498.082	7835.78
498.452	7893.41
498.821	7935.22
499.19	7958.49
499.559	8108.09
499.928	8125.49
500.298	8162.78
500.667	8254.3
501.036	8286.84
501.405	8398.48
501.774	8370.01
502.143	8508.31
502.512	8527.52
502.88	8626.95
503.249	8643.67
503.618	8730.9
503.987	8794.63
504.356	8798.7
504.724	8890.9
505.093	8880.5
505.462	9034.4
505.83	9038.91
506.199	9135.41
506.567	9258.57
506.936	9205.46
507.304	9408.17
507.672	9416.53
508.041	9496.53
508.409	9613.14
508.777	9657.2
509.145	9742.85
509.514	9778.78
509.882	9895.16
510.25	9876.18
510.618	10017.87
510.986	10047.25
511.354	10233.01
511.722	10237.3
512.09	10361.59
512.458	10297.86
512.826	10382.38
513.193	10485.43
513.561	10595.48
513.929	10634.35
514.297	10766.1
514.664	10859.66
515.032	10921.8
515.4	11012.65
515.767	11074.12
516.135	11171.51
516.502	11067.79
516.869	11323.6
517.237	11405.18
517.604	11442.92
517.972	11514.33
518.339	11644.27
518.706	11791.16
519.073	11757.04
519.44	11900.76
519.808	12085.61
520.175	12054.88
520.542	12214.42
520.909	12295.1
521.276	12321.31
521.643	12428.2
522.009	12540.74
522.376	12674.75
522.743	12728.31
523.11	12942.77
523.477	13032.03
523.843	13132.82
524.21	13244
524.577	13330.55
524.943	13437.67
525.31	13500.04
525.676	13610.77
526.043	13705.68
526.409	13829.52
526.776	13973.02
527.142	14025.22
527.508	14127.59
527.874	14269.96
528.241	14258.89
528.607	14414.37
528.973	14549.28
529.339	14556.51
529.705	14613.68
530.071	14791.08
530.437	14832.43
530.803	15038.53
531.169	15034.69
531.535	15045.08
531.901	15142.48
532.267	15204.63
532.632	15360.56
532.998	15467.67
533.364	15618.18
533.73	15532.98
534.095	15716.48
534.461	15717.84
534.826	15767.78
535.192	15791.51
535.557	15968.45
535.923	15978.62
536.288	16184.72
536.653	16235.11
537.019	16169.35
537.384	16223.36
537.749	16324.82
538.114	16356.01
538.479	16349.91
538.845	16517.81
539.21	16388.1
539.575	16485.95
539.94	16651.14
540.305	16887.07
540.67	16688.66
541.034	16871.48
541.399	16920.52
541.764	16934.75
542.129	17083.45
542.494	17099.72
542.858	17269.66
543.223	17183.56
543.587	17309.43
543.952	17330.67
544.316	17373.84
544.681	17400.5
545.045	17576.32
545.41	17550.78
545.774	17700.38
546.138	17720.49
546.503	17713.72
546.867	17692.47
547.231	17831.68
547.595	17910.77
547.959	18021.5
548.324	18012.01
548.688	18025.8
549.052	18260.82
549.416	18224.44
549.779	18225.57
550.143	18355.51
550.507	18439.35
550.871	18626.23
551.235	18683.41
551.599	18860.35
551.962	18860.8
552.326	18891.54
552.689	19020.57
553.053	19084.3
553.417	19133.11
553.78	19442.26
554.143	19367.91
554.507	19598.19
554.87	19527.68
555.234	19699.65
555.597	19697.39
555.96	19799.54
556.323	20011.06
556.686	20103.48
557.05	20313.19
557.413	20296.7
557.776	20417.37
558.139	20626.86
558.502	20622.79
558.865	20801.32
559.228	20955.44
559.59	21048.09
559.953	21157.69
560.316	21406.05
560.679	21481.07
561.041	21640.17
561.404	21846.71
561.767	22020.95
562.129	21930.78
562.492	22248.29
562.854	22345.01
563.217	22460.71
563.579	22609.18
563.941	22866.8
564.304	22988.6
564.666	23213.91
565.028	23354.92
565.39	23430.17
565.753	23526.67
566.115	23688.25
566.477	23934.79
566.839	23956.49
567.201	24244.62
567.563	24273.54
567.925	24592.4
568.287	24626.53
568.648	24805.05
569.01	24963.02
569.372	25203.69
569.734	25258.15
570.095	25547.63
570.457	25662.21
570.819	25831.47
571.18	25990.79
571.542	26108.3
571.903	26219.03
572.265	26489.08
572.626	26613.82
572.987	26641.84
573.349	26923.87
573.71	27068.5
574.071	27226.01
574.432	27310.98
574.794	27649.27
575.155	27538.09
575.516	27652.21
575.877	27861.24
576.238	27975.59
576.599	28085.42
576.96	28308.24
577.32	28438.86
577.681	28566.54
578.042	28698.51
578.403	28719.75
578.763	28876.59
579.124	29088.56
579.485	29205.84
579.845	29357.48
580.206	29514.76
580.566	29515.21
580.927	29578.49
581.287	29806.96
581.648	29700.74
582.008	29828.88
582.368	29873.62
582.728	30004.92
583.089	30020.06
583.449	30045.59
583.809	30222.31
584.169	30219.6
584.529	30255.53
584.889	30582.98
585.249	30444.68
585.609	30441.74
585.969	30724.67
586.329	30545.69
586.688	30650.32
587.048	30721.28
587.408	30754.05
587.768	30749.76
588.127	30764.22
588.487	30863.43
588.846	30949.07
589.206	30820.04
589.565	30905.01
589.925	31058.9
590.284	31069.07
590.643	31194.49
591.003	31194.04
591.362	31255.73
591.721	31246.01
592.08	31238.56
592.44	31361.49
592.799	31292.57
593.158	31178.22
593.517	31343.64
593.876	31465.44
594.235	31401.26
594.593	31399.46
594.952	31489.85
595.311	31359.01
595.67	31463.86
596.029	31617.98
596.387	31677.19
596.746	31784.76
597.104	31513.8
597.463	31529.4
597.822	31871.53
598.18	31758.09
598.538	31675.16
598.897	31874.25
599.255	31580.02
599.613	31970.52
599.972	31868.15
600.33	31913.12
600.688	31881.48
601.046	31981.59
601.404	32118.99
601.762	32011.87
602.12	32133
602.478	32265.87
602.836	32120.12
603.194	32051.19
603.552	32195.37
603.91	32004.64
604.268	32119.66
604.625	32232.2
604.983	32230.17
605.341	32204.63
605.698	32263.39
606.056	32352.2
606.413	32336.38
606.771	32471.75
607.128	32595.58
607.485	32350.39
607.843	32338.64
608.2	32652.98
608.557	32719.42
608.914	32661.12
609.272	32711.06
609.629	32702.47
609.986	32797.61
610.343	32753.77
610.7	33033.31
611.057	32858.63
611.414	32810.27
611.771	32941.11
612.127	32892.75
612.484	32937.95
612.841	33034.89
613.198	32908.8
613.554	32930.04
613.911	33164.16
614.267	33058.17
614.624	33122.58
614.98	33211.84
615.337	33430.82
615.693	33248.45
616.05	33357.6
616.406	33575.67
616.762	33367.77
617.118	33339.74
617.475	33336.58
617.831	33487.31
618.187	33562.56
618.543	33509.46
618.899	33685.27
619.255	33533.41
619.611	33615.22
619.967	33635.33
620.323	33654.76
620.678	33638.04
621.034	33541.77
621.39	33614.09
621.746	33604.37
622.101	33848.21
622.457	33667.19
622.812	33760.98
623.168	33867.64
623.523	33770.92
623.879	33899.73
624.234	33591.04
624.589	33771.15
624.945	33735.21
625.3	33829
625.655	33880.3
626.01	33884.59
626.365	33810.24
626.72	33653.18
627.075	33779.06
627.43	33767.53
627.785	33702.67
628.14	33846.4
628.495	33820.64
628.85	33692.05
629.205	33660.41
629.559	33883.46
629.914	33727.31
630.269	33592.85
630.623	33605.95
630.978	33420.87
631.332	33624.94
631.687	33694.31
632.041	33579.06
632.396	33681.88
632.75	33448.44
633.104	33417.03
633.459	33426.07
633.813	33241.22
634.167	33211.39
634.521	33269.24
634.875	33277.83
635.229	33295.9
635.583	33141.78
635.937	33107.66
636.291	33170.71
636.645	33087.55
636.999	33083.48
637.352	33096.36
637.706	32979.75
638.06	33039.64
638.413	33067.44
638.767	32888.01
639.121	32900.66
639.474	32813.66
639.828	32826.09
640.181	32672.42
640.534	32805.75
640.888	32719.65
641.241	32507
641.594	32573.21
641.947	32629.03
642.301	32628.58
642.654	32631.29
643.007	32573.89
643.36	32626.77
643.713	32341.8
644.066	32531.4
644.419	32349.26
644.771	32270.39
645.124	32030.85
645.477	32003.73
645.83	31801.48
646.182	31510.41
646.535	31398.33
646.888	31491.66
647.24	31399.91
647.593	31488.72
647.945	31352.68
648.298	31220.48
648.65	31151.33
649.002	31150.2
649.355	31264.77
649.707	31170.76
650.059	31530.3
650.411	31703.63
650.763	31824.08
651.115	32107.46
651.467	31950.4
651.819	32065.88
652.171	31935.26
652.523	31881.03
652.875	31973.91
653.227	31852.33
653.578	31974.81
653.93	31858.2
654.282	31747.47
654.633	31771.42
654.985	31725.32
655.337	31784.76
655.688	31856.39
656.039	31842.16
656.391	31601.94
656.742	31779.79
657.094	31729.17
657.445	31903.17
657.796	31798.32
658.147	31738.66
658.498	31820.69
658.849	31769.39
659.2	31754.48
659.551	31739.11
659.902	31766.23
660.253	31653.01
660.604	31707.25
660.955	31516.06
661.306	31738.43
661.656	31694.82
662.007	31755.83
662.358	31579.57
662.708	31641.94
663.059	31639
663.409	31565.55
663.76	31719
664.11	31726.68
664.461	31733.46
664.811	31703.86
665.161	31692.33
665.511	31652.33
665.862	31622.05
666.212	31737.98
666.562	31744.53
666.912	31545.22
667.262	31484.43
667.612	31627.47
667.962	31595.61
668.312	31544.99
668.662	31746.57
669.011	31643.29
669.361	31569.85
669.711	31584.31
670.06	31473.13
670.41	31613.46
670.76	31375.5
671.109	31478.32
671.459	31352
671.808	31373.92
672.157	31403.07
672.507	31139.12
672.856	31254.15
673.205	31318.1
673.554	31209.41
673.904	31227.94
674.253	31295.73
674.602	31189.52
674.951	30829.3
675.3	30642.19
675.649	31124.21
675.998	31151.55
676.346	31071.78
676.695	31053.25
677.044	30880.83
677.393	30941.84
677.741	30966.02
678.09	30941.16
678.438	30818.46
678.787	30933.48
679.135	30848.96
679.484	30666.82
679.832	30709.31
680.181	30681.51
680.529	30753.82
680.877	30582.53
681.225	30595.86
681.573	30610.55
681.922	30402.42
682.27	30317.68
682.618	30286.04
682.966	30308.64
683.314	30442.19
683.661	30218.7
684.009	30011.47
684.357	29898.25
684.705	29996.33
685.053	30032.71
685.4	29938.48
685.748	29857.35
686.095	29849.44
686.443	29809.22
686.79	29778.93
687.138	29649.45
687.485	29647.86
687.832	29578.49
688.18	29591.59
688.527	29360.19
688.874	29337.14
689.221	29039.52
689.568	29156.35
689.915	29113.87
690.262	29075.22
690.609	28987.32
690.956	28968.79
691.303	28877.72
691.65	28708
691.997	28650.15
692.344	28500.78
692.69	28432.98
693.037	28570.38
693.383	28261.01
693.73	28302.14
694.077	28218.3
694.423	28083.84
694.769	28048.13
695.116	27863.96
695.462	27895.37
695.808	27850.4
696.155	27877.74
696.501	27640.23
696.847	27537.41
697.193	27484.31
697.539	27410.64
697.885	27225.78
698.231	27272.33
698.577	27091.55
698.923	27131.77
699.269	27005.22
699.614	26825.34
699.96	26820.82
700.306	26660.6
700.651	26632.12
700.997	26493.82
701.342	26536.76
701.688	26462.41
702.033	26295.64
702.379	26283.43
702.724	26161.4
703.069	26226.03
703.415	25858.36
703.76	25921.63
704.105	25866.95
704.45	25821.75
704.795	25732.26
705.14	25611.81
705.485	25514.41
705.83	25449.56
706.175	25433.74
706.52	25351.03
706.865	25171.6
707.209	25081.66
707.554	25113.75
707.899	25179.51
708.243	24861.32
708.588	24946.29
708.932	24736.81
709.277	24775
709.621	24752.85
709.966	24685.96
710.31	24733.19
710.654	24409.58
710.998	24574.33
711.342	24572.07
711.687	24465.4
712.031	24342.69
712.375	24308.8
712.719	24304.05
713.063	24359.42
713.407	24356.93
713.75	24107.22
714.094	24103.83
714.438	23953.55
714.782	24062.93
715.125	23918.3
715.469	23952.42
715.812	23757.17
716.156	23787.45
716.499	23776.61
716.843	23781.35
717.186	23661.13
717.53	23711.98
717.873	23721.92
718.216	23650.96
718.559	23507.91
718.902	23452.55
719.246	23458.42
719.589	23285.32
719.932	23283.51
720.275	23294.59
720.617	23384.07
720.96	23355.37
721.303	23363.51
721.646	23338.65
721.989	23131.65
722.331	23255.26
722.674	23145.66
723.016	23164.19
723.359	23140.24
723.701	23112.22
724.044	22982.28
724.386	22843.3
724.729	23082.84
725.071	22905.89
725.413	22897.99
725.755	22946.8
726.097	22809.4
726.439	22764.43
726.782	22735.96
727.124	22907.02
727.465	22829.96
727.807	22845.11
728.149	22716.3
728.491	22781.6
728.833	22838.78
729.175	22698.67
729.516	22620.25
729.858	22714.04
730.199	22679.46
730.541	22644.21
730.882	22597.88
731.224	22604.43
731.565	22552.23
731.906	22680.36
732.248	22656.41
732.589	22414.61
732.93	22497.77
733.271	22619.8
733.612	22565.79
733.953	22563.98
734.294	22438.79
734.635	22383.87
734.976	22505.91
735.317	22491.67
735.658	22462.52
735.999	22443.08
736.339	22437.21
736.68	22439.92
737.021	22324.67
737.361	22345.01
737.702	22446.47
738.042	22359.92
738.383	22398.79
738.723	22427.26
739.063	22352.92
739.404	22339.81
739.744	22274.5
740.084	22354.72
740.424	22283.54
740.764	22307.94
741.104	22364.67
741.444	22152.24
741.784	22154.95
742.124	22234.5
742.464	22323.09
742.804	22291.67
743.143	22290.77
743.483	22344.55
743.823	22112.47
744.162	22277.21
744.502	22202.18
744.841	22119.02
745.181	22163.99
745.52	22125.35
745.86	22201.73
746.199	22123.77
746.538	22111.57
746.877	22119.7
747.216	22222.52
747.556	22096.42
747.895	22153.15
748.234	22033.15
748.573	22180.49
748.911	22093.94
749.25	22018.91
749.589	21935.07
749.928	22013.26
750.267	22012.13
750.605	21956.99
750.944	21849.88
751.283	21872.48
751.621	21926.49
751.96	21740.73
752.298	21893.72
752.636	21988.63
752.975	21781.86
753.313	21665.7
753.651	21807.62
753.989	21782.53
754.327	21703.89
754.666	21562.43
755.004	21583.22
755.342	21691.46
755.679	21687.4
