Data from tablewood_brown_FLMS001491_041.txt Node
Date: Tue Feb 07 11:10:30 GMT 2017
User: dcchb
Spectrometer: FLMS00149
Trigger mode: 0
Integration Time (sec): 2.000000E-2
Scans to average: 10
Electric dark correction enabled: true
Nonlinearity correction enabled: false
Boxcar width: 0
XAxis mode: Wavelengths
Number of Pixels in Spectrum: 2048
>>>>>Begin Spectral Data<<<<<
341.393	-0.64
341.776	-0.64
342.16	-0.64
342.543	-51.48
342.927	-57.36
343.31	-72.72
343.693	-67.3
344.077	-87.64
344.46	-59.62
344.843	-45.15
345.226	-39.96
345.61	-31.37
345.993	-22.56
346.376	-9.45
346.759	4.79
347.142	53.83
347.525	42.98
347.908	56.76
348.291	68.52
348.674	90.66
349.057	118.23
349.44	117.1
349.823	132.47
350.206	148.29
350.588	188.06
350.971	201.39
351.354	240.04
351.737	235.97
352.119	252.69
352.502	254.5
352.884	299.7
353.267	281.16
353.65	305.35
354.032	315.74
354.414	311.45
354.797	318.45
355.179	306.02
355.562	318.23
355.944	311.45
356.326	326.36
356.709	342.41
357.091	328.4
357.473	342.18
357.855	367.26
358.238	342.86
358.62	346.02
359.002	345.34
359.384	334.72
359.766	329.53
360.148	348.96
360.53	352.35
360.912	340.37
361.294	343.99
361.676	344.44
362.057	341.5
362.439	343.31
362.821	339.92
363.203	327.27
363.584	351.9
363.966	333.59
364.348	352.35
364.729	347.15
365.111	328.85
365.493	328.4
365.874	329.53
366.256	316.42
366.637	334.95
367.019	339.24
367.4	333.37
367.781	349.86
368.163	332.91
368.544	309.64
368.925	326.36
369.306	329.98
369.688	336.3
370.069	350.99
370.45	326.59
370.831	334.27
371.212	327.72
371.593	334.72
371.974	331.79
372.355	311.9
372.736	324.33
373.117	330.2
373.498	317.55
373.879	312.8
374.26	312.8
374.641	317.1
375.021	337.89
375.402	356.87
375.783	320.26
376.163	342.18
376.544	348.06
376.925	351.9
377.305	344.89
377.686	342.41
378.066	353.03
378.447	322.07
378.827	376.76
379.208	336.98
379.588	341.95
379.968	348.51
380.349	341.95
380.729	342.18
381.109	372.01
381.489	350.54
381.87	360.03
382.25	364.1
382.63	356.87
383.01	386.47
383.39	369.98
383.77	367.26
384.15	373.37
384.53	395.74
384.91	378.56
385.29	386.92
385.67	368.85
386.049	383.99
386.429	378.56
386.809	395.74
387.189	387.38
387.568	381.28
387.948	387.83
388.328	409.3
388.707	384.67
389.087	413.36
389.466	396.87
389.846	418.11
390.225	397.09
390.605	417.88
390.984	396.87
391.363	414.27
391.743	405.46
392.122	460.14
392.501	400.03
392.881	426.25
393.26	449.75
393.639	429.41
394.018	424.21
394.397	429.86
394.776	433.25
395.155	426.47
395.534	454.04
395.913	438.9
396.292	456.3
396.671	457.21
397.05	458.11
397.429	463.08
397.808	464.89
398.186	463.31
398.565	462.86
398.944	472.57
399.323	466.92
399.701	485
400.08	501.5
400.458	508.96
400.837	473.48
401.215	485.91
401.594	486.81
401.972	496.75
402.351	514.15
402.729	505.79
403.107	499.69
403.486	508.5
403.864	499.24
404.242	520.48
404.62	506.24
404.999	539.24
405.377	495.62
405.755	540.59
406.133	531.55
406.511	538.11
406.889	557.54
407.267	544.21
407.645	534.27
408.023	558.67
408.401	579.91
408.779	563.64
409.156	570.65
409.534	578.78
409.912	578.11
410.29	599.57
410.667	588.73
411.045	608.84
411.422	606.81
411.8	597.77
412.178	614.94
412.555	622.4
412.933	583.98
413.31	629.86
413.687	625.11
414.065	633.25
414.442	646.81
414.819	663.98
415.197	659.23
415.574	641.38
415.951	650.19
416.328	659.23
416.705	664.43
417.082	675.73
417.46	670.99
417.837	703.53
418.214	706.92
418.591	711.89
418.967	685.67
419.344	675.73
419.721	706.01
420.098	721.83
420.475	729.74
420.852	716.18
421.228	717.99
421.605	733.13
421.982	739.91
422.358	742.62
422.735	770.87
423.111	738.1
423.488	762.73
423.864	787.82
424.241	769.51
424.617	765.67
424.994	780.13
425.37	798.89
425.746	808.61
426.123	788.5
426.499	814.03
426.875	825.11
427.251	817.42
427.627	790.98
428.003	830.75
428.379	878.21
428.756	840.02
429.132	849.51
429.507	859
429.883	857.65
430.259	890.64
430.635	896.97
431.011	890.64
431.387	908.04
431.763	936.29
432.138	934.93
432.514	915.5
432.89	948.04
433.265	956.4
433.641	980.81
434.016	1006.57
434.392	978.32
434.767	1007.7
435.143	1023.52
435.518	1019.22
435.894	1016.96
436.269	1032.11
436.644	1043.86
437.02	1047.92
437.395	1060.13
437.77	1062.39
438.145	1072.56
438.52	1075.27
438.895	1077.98
439.271	1080.24
439.646	1134.25
440.021	1125.89
440.395	1127.7
440.77	1136.51
441.145	1139.45
441.52	1157.3
441.895	1175.38
442.27	1169.5
442.645	1170.41
443.019	1162.72
443.394	1202.95
443.769	1213.8
444.143	1182.16
444.518	1219.45
444.892	1229.61
445.267	1258.54
445.641	1234.36
446.016	1236.17
446.39	1256.73
446.764	1263.06
447.139	1289.73
447.513	1269.16
447.887	1284.3
448.262	1277.75
448.636	1276.84
449.01	1298.09
449.384	1320.69
449.758	1357.07
450.132	1334.7
450.506	1331.76
450.88	1340.57
451.254	1352.32
451.628	1376.73
452.002	1346.45
452.376	1428.71
452.75	1386.9
453.123	1428.71
453.497	1432.77
453.871	1437.74
454.244	1437.07
454.618	1446.33
454.992	1519.32
455.365	1508.48
455.739	1508.93
456.112	1533.56
456.486	1544.18
456.859	1571.07
457.232	1625.54
457.606	1589.61
457.979	1592.54
458.352	1628.02
458.725	1641.36
459.099	1639.55
459.472	1696.27
459.845	1692.43
460.218	1745.99
460.591	1734.23
460.964	1745.31
461.337	1769.04
461.71	1825.98
462.083	1842.93
462.456	1849.26
462.829	1868.92
463.201	1880.9
463.574	1893.78
463.947	1926.09
464.32	1959.09
464.692	1971.97
465.065	2011.51
465.438	2007.9
465.81	2029.14
466.183	2045.41
466.555	2118.18
466.928	2106.43
467.3	2093.09
467.672	2175.35
468.045	2222.81
468.417	2234.33
468.789	2282.92
469.161	2256.25
469.534	2330.38
469.906	2386.42
470.278	2406.31
470.65	2430.03
471.022	2420.32
471.394	2497.6
471.766	2548.9
472.138	2584.16
472.51	2624.61
472.882	2651.27
473.253	2735.79
473.625	2782.79
473.997	2820.99
474.369	2836.58
474.74	2869.57
475.112	2950.93
475.484	3038.83
475.855	3058.27
476.227	3105.27
476.598	3196.12
476.97	3217.13
477.341	3314.76
477.713	3399.5
478.084	3440.4
478.455	3533.06
478.827	3566.73
479.198	3685.82
479.569	3645.14
479.94	3782.99
480.311	3829.32
480.682	3945.7
481.053	4011.01
481.424	4075.19
481.795	4155.41
482.166	4194.51
482.537	4291
482.908	4374.16
483.279	4357.22
483.65	4513.14
484.021	4621.16
484.391	4674.5
484.762	4726.7
485.133	4741.39
485.503	4836.75
485.874	4922.85
486.244	5007.82
486.615	5069.74
486.985	5158.78
487.356	5290.75
487.726	5324.65
488.097	5485.77
488.467	5463.63
488.837	5546.11
489.207	5652.55
489.578	5732.77
489.948	5767.12
490.318	5888.7
490.688	5940.9
491.058	6035.14
491.428	6111.52
491.798	6136.15
492.168	6267.22
492.538	6290.05
492.908	6369.82
493.278	6427.44
493.648	6462.25
494.017	6557.61
494.387	6596.71
494.757	6693.43
495.126	6804.84
495.496	6789.47
495.866	6807.55
496.235	6930.26
496.605	6949.24
496.974	7038.5
497.344	7138.39
497.713	7158.05
498.082	7213.86
498.452	7329.79
498.821	7348.32
499.19	7369.79
499.559	7410.02
499.928	7481.88
500.298	7530.92
500.667	7627.41
501.036	7618.83
501.405	7772.72
501.774	7787.86
502.143	7815.2
502.512	7864.02
502.88	7955.31
503.249	7965.03
503.618	8092.71
503.987	8122.99
504.356	8128.42
504.724	8226.49
505.093	8209.54
505.462	8294.74
505.83	8371.35
506.199	8400.27
506.567	8520.72
506.936	8527.73
507.304	8754.61
507.672	8721.85
508.041	8715.07
508.409	8805.91
508.777	8931.33
509.145	8966.59
509.514	8982.86
509.882	9139.69
510.25	9145.34
510.618	9138.79
510.986	9287.26
511.354	9346.46
511.722	9447.48
512.09	9535.61
512.458	9510.53
512.826	9568.6
513.193	9707.58
513.561	9713.69
513.929	9944.41
514.297	9969.05
514.664	9996.16
515.032	10073
515.4	10134.92
515.767	10190.51
516.135	10266.21
516.502	10277.96
516.869	10473.67
517.237	10548.24
517.604	10481.35
517.972	10652.42
518.339	10752.53
518.706	10756.37
519.073	10855.58
519.44	11004.5
519.808	11093.08
520.175	11113.65
520.542	11287.88
520.909	11359.29
521.276	11347.77
521.643	11515.9
522.009	11573.3
522.376	11687.19
522.743	11709.11
523.11	11851.26
523.477	11983.91
523.843	12151.59
524.21	12261.64
524.577	12336.67
524.943	12385.93
525.31	12493.27
525.676	12622.08
526.043	12725.81
526.409	12824.56
526.776	12962.19
527.142	12995.18
527.508	13065.24
527.874	13113.37
528.241	13195.18
528.607	13253.48
528.973	13367.37
529.339	13385.45
529.705	13529.86
530.071	13662.28
530.437	13742.05
530.803	13869.73
531.169	13867.25
531.535	13959.22
531.901	13991.54
532.267	14070.63
532.632	14176.17
532.998	14259.33
533.364	14359.21
533.73	14413
534.095	14493.67
534.461	14554.69
534.826	14630.84
535.192	14692.99
535.557	14818.86
535.923	14817.51
536.288	14829.26
536.653	14927.79
537.019	14932.98
537.384	15019.31
537.749	15127.55
538.114	15241
538.479	15234.44
538.845	15293.2
539.21	15264.05
539.575	15344.95
539.94	15479.18
540.305	15445.96
540.67	15578.39
541.034	15604.83
541.399	15733.19
541.764	15765.5
542.129	15857.93
542.494	15852.05
542.858	15944.93
543.223	16005.05
543.587	16075.78
543.952	16027.19
544.316	16127.3
544.681	16053.41
545.045	16316.68
545.41	16280.07
545.774	16332.72
546.138	16396.22
546.503	16484.13
546.867	16549.44
547.231	16701.52
547.595	16688.19
547.959	16773.16
548.324	16690.45
548.688	16799.37
549.052	16998.47
549.416	17005.02
549.779	17006.6
550.143	17163.88
550.507	17235.75
550.871	17361.39
551.235	17376.53
551.599	17440.94
551.962	17604.1
552.326	17654.04
552.689	17833.47
553.053	17743.98
553.417	17876.18
553.78	18155.95
554.143	17993.69
554.507	18213.57
554.87	18363.18
555.234	18506
555.597	18460.8
555.96	18597.97
556.323	18684.97
556.686	18856.5
557.05	18963.39
557.413	19031.41
557.776	19117.05
558.139	19267.78
558.502	19451.51
558.865	19505.52
559.228	19679.3
559.59	19742.8
559.953	19788.45
560.316	20077.25
560.679	20060.31
561.041	20257.81
561.404	20357.25
561.767	20625.26
562.129	20549.78
562.492	20836.33
562.854	20928.53
563.217	21040.17
563.579	21102.76
563.941	21329.43
564.304	21551.57
564.666	21820.71
565.028	21907.04
565.39	21863.65
565.753	22100.48
566.115	22283.07
566.477	22390.64
566.839	22535.27
567.201	22843.06
567.563	22932.55
567.925	23095.03
568.287	23189.72
568.648	23302.71
569.01	23386.32
569.372	23780.43
569.734	23777.95
570.095	24024.72
570.457	24238.5
570.819	24257.94
571.18	24464.48
571.542	24694.31
571.903	24714.87
572.265	24881.87
572.626	25016.56
572.987	25115.77
573.349	25390.79
573.71	25471.46
574.071	25637.79
574.432	25834.39
574.794	26108.28
575.155	26110.09
575.516	26232.12
575.877	26405
576.238	26543.53
576.599	26653.35
576.96	26841.6
577.32	26815.16
577.681	27049.5
578.042	27145.77
578.403	27353.67
578.763	27333.56
579.124	27404.97
579.485	27559.32
579.845	27921.57
580.206	27843.15
580.566	27887.67
580.927	27972.64
581.287	28124.5
581.648	28151.84
582.008	28410.59
582.368	28399.07
582.728	28641.1
583.089	28562
583.449	28660.53
583.809	28663.47
584.169	28827.31
584.529	28683.58
584.889	29077.24
585.249	28927.19
585.609	28907.08
585.969	29183
586.329	29112.72
586.688	29230.23
587.048	29255.09
587.408	29157.69
587.768	29236.79
588.127	29287.63
588.487	29358.59
588.846	29446.05
589.206	29392.94
589.565	29566.5
589.925	29706.38
590.284	29590
590.643	29652.82
591.003	29686.49
591.362	29741.86
591.721	29800.61
592.08	29715.87
592.44	29862.76
592.799	29934.85
593.158	29882.19
593.517	29879.26
593.876	29841.52
594.235	29875.19
594.593	29901.18
594.952	29966.49
595.311	29914.06
595.67	29957.45
596.029	30106.82
596.387	30119.25
596.746	30217.1
597.104	30043.09
597.463	30109.53
597.822	30253.26
598.18	30143.88
598.538	30164.67
598.897	30272.24
599.255	30070.21
599.613	30599.92
599.972	30331.9
600.33	30554.49
600.688	30351.33
601.046	30486.92
601.404	30536.41
601.762	30476.76
602.12	30565.34
602.478	30649.86
602.836	30709.52
603.194	30527.6
603.552	30543.19
603.91	30531.89
604.268	30735.96
604.625	30559.46
604.983	30676.75
605.341	30618.67
605.698	30835.39
606.056	30890.98
606.413	30802.85
606.771	30913.58
607.128	30871.55
607.485	30911.77
607.843	30837.2
608.2	31030.86
608.557	31150.86
608.914	31059.56
609.272	31276.51
609.629	31212.56
609.986	31220.24
610.343	31187.02
610.7	31442.83
611.057	31442.15
611.414	31397.18
611.771	31411.19
612.127	31536.39
612.484	31615.48
612.841	31678.08
613.198	31624.75
613.554	31515.82
613.911	31829.71
614.267	31664.07
614.624	31748.81
614.98	31834.69
615.337	31868.13
615.693	31767.34
616.05	31800.11
616.406	31794.91
616.762	31751.98
617.118	31810.96
617.475	31869.26
617.831	31887.34
618.187	31841.01
618.543	31942.93
618.899	32147.45
619.255	32095.02
619.611	32210.27
619.967	32175.24
620.323	32379.3
620.678	32107.45
621.034	32009.37
621.39	31997.17
621.746	32063.61
622.101	32411.39
622.457	32103.38
622.812	32173.66
623.168	32256.14
623.523	32181.8
623.879	32311.74
624.234	32065.64
624.589	32210.27
624.945	32200.78
625.3	32384.05
625.655	32284.17
626.01	32407.1
626.365	32464.27
626.72	32365.97
627.075	32430.83
627.43	32261.12
627.785	32237.16
628.14	32357.16
628.495	32341.11
628.85	32291.17
629.205	32128.24
629.559	32372.52
629.914	32284.17
630.269	32173.21
630.623	32102.48
630.978	31948.81
631.332	32107.9
631.687	32172.08
632.041	32050.05
632.396	32034.45
632.75	31956.94
633.104	31997.62
633.459	31843.5
633.813	31871.07
634.167	31893.67
634.521	31950.84
634.875	32005.3
635.229	31815.93
635.583	31733.9
635.937	31772.31
636.291	31548.59
636.645	31661.81
636.999	31709.72
637.352	31598.99
637.706	31385.66
638.06	31540.23
638.413	31559.21
638.767	31493
639.121	31600.34
639.474	31392.21
639.828	31382.27
640.181	31358.54
640.534	31474.02
640.888	31218.66
641.241	31119.9
641.594	31319.9
641.947	31360.57
642.301	31057.98
642.654	31319.9
643.007	31230.41
643.36	31154.93
643.713	31116.74
644.066	31227.92
644.419	31025.44
644.771	30856.41
645.124	30554.04
645.477	30444.44
645.83	30428.17
646.182	30157.89
646.535	30031.12
646.888	30292.13
647.24	30109.76
647.593	30271.34
647.945	30092.36
648.298	30029.99
648.65	30024.11
649.002	29981.63
649.355	30055.3
649.707	30016.43
650.059	30106.37
650.411	30390.2
650.763	30533.02
651.115	30735.28
651.467	30608.28
651.819	30710.42
652.171	30644.89
652.523	30556.98
652.875	30702.06
653.227	30472.24
653.578	30700.93
653.93	30582.06
654.282	30411.67
654.633	30438.11
654.985	30531.89
655.337	30419.81
655.688	30458
656.039	30599.69
656.391	30320.6
656.742	30435.85
657.094	30415.97
657.445	30519.92
657.796	30512.23
658.147	30446.7
658.498	30423.2
658.849	30490.31
659.2	30383.65
659.551	30301.39
659.902	30514.04
660.253	30463.65
660.604	30479.01
660.955	30354.05
661.306	30549.52
661.656	30431.56
662.007	30467.49
662.358	30390.88
662.708	30366.25
663.059	30457.55
663.409	30245.12
663.76	30420.03
664.11	30424.78
664.461	30356.31
664.811	30347.94
665.161	30341.84
665.511	30329.64
665.862	30313.37
666.212	30467.04
666.562	30392.69
666.912	30403.99
667.262	30384.1
667.612	30310.88
667.962	30339.58
668.312	30366.25
668.662	30512.23
669.011	30376.19
669.361	30367.61
669.711	30228.4
670.06	30325.57
670.41	30042.42
670.76	30085.58
671.109	30257.55
671.459	30054.39
671.808	30101.62
672.157	30087.39
672.507	29902.31
672.856	29959.25
673.205	29997.9
673.554	30096.2
673.904	29960.38
674.253	30140.94
674.602	30059.14
674.951	29626.16
675.3	29484.92
675.649	30036.54
675.998	29971.91
676.346	29882.42
676.695	30029.54
677.044	29794.51
677.393	29830.67
677.741	29797.22
678.09	29657.34
678.438	29712.26
678.787	29696.66
679.135	29715.65
679.484	29454.41
679.832	29577.34
680.181	29502.77
680.529	29568.08
680.877	29414.86
681.225	29418.03
681.573	29583.67
681.922	29334.19
682.27	29301.42
682.618	29443.56
682.966	29186.39
683.314	29264.36
683.661	29202.44
684.009	28919.73
684.357	28926.97
684.705	28830.7
685.053	28860.53
685.4	28877.48
685.748	28761.55
686.095	28700.3
686.443	28574.88
686.79	28510.03
687.138	28613.75
687.485	28550.25
687.832	28423.7
688.18	28348.9
688.527	28253.54
688.874	28268.9
689.221	28189.81
689.568	28183.93
689.915	28068.91
690.262	28091.51
690.609	27904.39
690.956	27897.16
691.303	27824.62
691.65	27616.04
691.997	27575.14
692.344	27308.48
692.69	27469.6
693.037	27438.19
693.383	27189.84
693.73	27297.18
694.077	27090.63
694.423	27078.88
694.769	27027.35
695.116	26894.02
695.462	26850.41
695.808	26763.18
696.155	26814.48
696.501	26523.86
696.847	26623.98
697.193	26373.13
697.539	26463.3
697.885	26270.76
698.231	26212.01
698.577	26282.29
698.923	26022.63
699.269	25887.72
699.614	25790.32
699.96	25851.11
700.306	25733.15
700.651	25639.14
700.997	25505.59
701.342	25499.71
701.688	25367.06
702.033	25314.86
702.379	25253.62
702.724	25158.7
703.069	25291.81
703.415	24971.36
703.76	25062.89
704.105	24890.46
704.45	24827.41
704.795	24678.49
705.14	24623.58
705.485	24652.28
705.83	24599.4
706.175	24549.23
706.52	24465.84
706.865	24346.75
707.209	24283.47
707.554	24229.24
707.899	24175.23
708.243	24091.39
708.588	24047.55
708.932	23956.25
709.277	23898.17
709.621	23857.04
709.966	23756.93
710.31	23786.54
710.654	23680.78
710.998	23588.8
711.342	23574.56
711.687	23538.41
712.031	23476.26
712.375	23376.38
712.719	23414.34
713.063	23243.95
713.407	23339.99
713.75	23226.78
714.094	23280.11
714.438	23189.94
714.782	23223.84
715.125	23013
715.469	23051.87
715.812	22911.53
716.156	22774.13
716.499	22890.51
716.843	22975.48
717.186	22891.42
717.53	22829.27
717.873	22916.95
718.216	22912.89
718.559	22668.82
718.902	22539.11
719.246	22683.74
719.589	22567.58
719.932	22495.04
720.275	22574.14
720.617	22550.41
720.96	22388.38
721.303	22491.2
721.646	22477.19
721.989	22355.16
722.331	22356.29
722.674	22196.97
723.016	22316.97
723.359	22256.18
723.701	22351.77
724.044	22253.47
724.386	22120.82
724.729	22278.1
725.071	22190.42
725.413	22222.96
725.755	22148.39
726.097	22129.18
726.439	22063.64
726.782	22111.1
727.124	22192.91
727.465	22105.9
727.807	22083.3
728.149	21975.51
728.491	21941.16
728.833	22112.68
729.175	21914.04
729.516	21960.82
729.858	21932.8
730.199	22024.32
730.541	21870.43
730.882	21780.49
731.224	21945
731.565	21795.85
731.906	21777.77
732.248	21840.82
732.589	21742.97
732.93	21731.9
733.271	21756.31
733.612	21869.52
733.953	21796.31
734.294	21673.82
734.635	21646.03
734.976	21765.57
735.317	21643.54
735.658	21658.23
735.999	21705.46
736.339	21685.8
736.68	21732.35
737.021	21681.51
737.361	21658.23
737.702	21719.7
738.042	21688.06
738.383	21629.3
738.723	21785.91
739.063	21651.45
739.404	21733.26
739.744	21606.03
740.084	21689.87
740.424	21629.53
740.764	21613.49
741.104	21721.05
741.444	21605.12
741.784	21577.55
742.124	21589.76
742.464	21614.84
742.804	21596.76
743.143	21473.83
743.483	21569.19
743.823	21465.47
744.162	21523.09
744.502	21470.66
744.841	21474.73
745.181	21605.35
745.52	21486.71
745.86	21519.48
746.199	21478.12
746.538	21504.56
746.877	21565.13
747.216	21540.27
747.556	21455.3
747.895	21534.17
748.234	21572.58
748.573	21546.59
748.911	21371.23
749.25	21472.7
749.589	21328.52
749.928	21442.42
750.267	21486.71
750.605	21407.16
750.944	21367.16
751.283	21392.25
751.621	21361.29
751.96	21353.61
752.298	21209.2
752.636	21323.78
752.975	21215.98
753.313	21132.14
753.651	21272.48
753.989	21085.82
754.327	21124.46
754.666	21100.73
755.004	21127.62
755.342	21160.39
755.679	21098.02
756.017	21019.6
756.355	21069.09
