Data from tablewood_dark_bookshelf_FLMS001491_00098.txt Node
Date: Wed Feb 08 14:16:02 GMT 2017
User: dcchb
Spectrometer: FLMS00149
Trigger mode: 0
Integration Time (sec): 2.000000E-2
Scans to average: 10
Electric dark correction enabled: true
Nonlinearity correction enabled: false
Boxcar width: 0
XAxis mode: Wavelengths
Number of Pixels in Spectrum: 2048
>>>>>Begin Spectral Data<<<<<
341.393	9.27
341.776	9.27
342.16	9.27
342.543	-63.95
342.927	-60.79
343.31	-80
343.693	-94.91
344.077	-76.16
344.46	-69.83
344.843	-31.41
345.226	-28.47
345.61	-24.86
345.993	-7.01
346.376	1.58
346.759	12.43
347.142	42.48
347.525	55.82
347.908	48.36
348.291	83.61
348.674	62.37
349.057	105.99
349.44	112.09
349.823	144.85
350.206	161.58
350.588	174.46
350.971	212.2
351.354	216.49
351.737	224.63
352.119	235.93
352.502	264.63
352.884	268.02
353.267	292.42
353.65	272.54
354.032	294.23
354.414	316.15
354.797	309.6
355.179	296.04
355.562	302.36
355.944	328.35
356.326	316.38
356.709	327.45
357.091	353.44
357.473	346.21
357.855	332.87
358.238	330.39
358.62	366.77
359.002	346.88
359.384	325.19
359.766	332.19
360.148	344.17
360.53	324.06
360.912	341.23
361.294	347.34
361.676	331.52
362.057	329.03
362.439	310.73
362.821	340.78
363.203	309.82
363.584	316.6
363.966	321.8
364.348	343.04
364.729	311.18
365.111	317.28
365.493	317.28
365.874	305.3
366.256	324.74
366.637	300.78
367.019	319.54
367.4	305.3
367.781	318.64
368.163	308.69
368.544	322.93
368.925	298.3
369.306	302.14
369.688	329.71
370.069	319.54
370.45	326.09
370.831	335.58
371.212	314.12
371.593	316.38
371.974	318.86
372.355	331.97
372.736	334.45
373.117	333.32
373.498	301.24
373.879	309.37
374.26	315.7
374.641	323.61
375.021	328.58
375.402	322.7
375.783	334.68
376.163	331.74
376.544	331.06
376.925	338.75
377.305	326.55
377.686	333.55
378.066	345.08
378.447	343.72
378.827	326.55
379.208	327.9
379.588	335.13
379.968	334.91
380.349	346.88
380.729	330.39
381.109	341.46
381.489	348.69
381.87	337.39
382.25	357.05
382.63	365.87
383.01	350.73
383.39	354.34
383.77	370.61
384.15	350.27
384.53	371.74
384.91	360.22
385.29	359.54
385.67	357.96
386.049	379.65
386.429	390.72
386.809	372.19
387.189	389.14
387.568	335.58
387.948	366.32
388.328	384.17
388.707	373.55
389.087	384.17
389.466	381.01
389.846	382.59
390.225	381.01
390.605	400.44
390.984	385.3
391.363	397.28
391.743	392.53
392.122	398.63
392.501	415.58
392.881	416.26
393.26	410.61
393.639	396.37
394.018	410.38
394.397	426.88
394.776	402.93
395.155	424.4
395.534	402.02
395.913	409.25
396.292	401.57
396.671	441.34
397.05	422.81
397.429	450.16
397.808	439.54
398.186	440.44
398.565	418.29
398.944	439.99
399.323	460.33
399.701	439.08
400.08	436.15
400.458	461.91
400.837	471.85
401.215	450.61
401.594	472.3
401.972	451.51
402.351	474.79
402.729	468.46
403.107	458.74
403.486	475.69
403.864	483.38
404.242	472.98
404.62	498.97
404.999	495.58
405.377	482.47
405.755	486.31
406.133	508.24
406.511	483.83
406.889	509.37
407.267	510.5
407.645	497.84
408.023	493.32
408.401	495.35
408.779	519.31
409.156	503.49
409.534	536.71
409.912	508.24
410.29	519.08
410.667	545.97
411.045	535.58
411.422	527.67
411.8	543.94
412.178	558.86
412.555	558.63
412.933	570.83
413.31	547.56
413.687	561.57
414.065	582.36
414.442	568.8
414.819	569.25
415.197	607.22
415.574	605.41
415.951	586.43
416.328	620.55
416.705	613.32
417.082	602.02
417.46	591.62
417.837	607.89
418.214	604.28
418.591	620.1
418.967	624.62
419.344	628.68
419.721	631.17
420.098	641.79
420.475	664.84
420.852	637.72
421.228	666.65
421.605	667.33
421.982	654.45
422.358	655.35
422.735	670.04
423.111	681.79
423.488	646.54
423.864	688.57
424.241	688.57
424.617	701.9
424.994	703.26
425.37	712.75
425.746	699.42
426.123	725.63
426.499	712.52
426.875	715.69
427.251	761.79
427.627	735.12
428.003	762.47
428.379	759.98
428.756	762.24
429.132	757.95
429.507	776.7
429.883	788.68
430.259	802.01
430.635	808.34
431.011	801.11
431.387	840.66
431.763	834.78
432.138	843.59
432.514	851.73
432.89	857.38
433.265	868.68
433.641	852.41
434.016	867.77
434.392	881.33
434.767	934.66
435.143	892.41
435.518	891.95
435.894	895.57
436.269	940.54
436.644	928.11
437.02	947.55
437.395	975.12
437.77	947.55
438.145	964.95
438.52	954.1
438.895	969.24
439.271	963.14
439.646	1011.05
440.021	1021.44
440.395	1020.31
440.77	997.04
441.145	1016.7
441.52	1029.58
441.895	1045.85
442.27	1047.43
442.645	1037.03
443.019	1087.66
443.394	1045.85
443.769	1075.68
444.143	1076.13
444.518	1072.06
444.892	1081.33
445.267	1078.62
445.641	1087.88
446.016	1104.38
446.39	1111.84
446.764	1127.2
447.139	1104.83
447.513	1102.57
447.887	1116.13
448.262	1143.92
448.636	1145.28
449.01	1144.6
449.384	1164.26
449.758	1156.58
450.132	1171.72
450.506	1178.05
450.88	1205.84
451.254	1202.23
451.628	1182.34
452.002	1224.83
452.376	1236.58
452.75	1220.08
453.123	1229.35
453.497	1259.18
453.871	1267.09
454.244	1302.34
454.618	1296.69
454.992	1291.94
455.365	1314.09
455.739	1354.09
456.112	1357.7
456.486	1366.74
456.859	1410.58
457.232	1385.5
457.606	1398.16
457.979	1411.71
458.352	1433.86
458.725	1481.54
459.099	1477.25
459.472	1494.2
459.845	1492.39
460.218	1529.68
460.591	1511.15
460.964	1564.7
461.337	1561.31
461.71	1617.36
462.083	1596.12
462.456	1597.7
462.829	1601.54
463.201	1658.04
463.574	1644.48
463.947	1678.37
464.32	1726.06
464.692	1733.29
465.065	1720.86
465.438	1764.02
465.81	1784.81
466.183	1790.24
466.555	1824.36
466.928	1820.97
467.3	1799.95
467.672	1869.78
468.045	1913.85
468.417	1894.41
468.789	1921.31
469.161	1930.57
469.534	1983.9
469.906	1993.39
470.278	2008.99
470.65	2049.21
471.022	2124.92
471.394	2119.04
471.766	2173.5
472.138	2139.83
472.51	2188.87
472.882	2225.03
473.253	2255.53
473.625	2278.58
473.997	2319.26
474.369	2321.29
474.74	2364.23
475.112	2371.69
475.484	2406.72
475.855	2458.69
476.227	2486.26
476.598	2541.63
476.97	2562.87
477.341	2620.27
477.713	2665.92
478.084	2690.55
478.455	2783.2
478.827	2785.01
479.198	2843.54
479.569	2855.52
479.94	2931.67
480.311	2937.55
480.682	2994.72
481.053	3090.31
481.424	3109.75
481.795	3116.75
482.166	3200.37
482.537	3229.75
482.908	3302.06
483.279	3297.31
483.65	3355.62
484.021	3391.32
484.391	3511.32
484.762	3486.01
485.133	3498.67
485.503	3560.13
485.874	3661.15
486.244	3680.81
486.615	3750.86
486.985	3775.27
487.356	3836.28
487.726	3892.55
488.097	3981.36
488.467	3988.82
488.837	4043.51
489.207	4109.95
489.578	4138.87
489.948	4151.53
490.318	4238.98
490.688	4240.34
491.058	4359.89
491.428	4394.01
491.798	4413.9
492.168	4476.27
492.538	4531.41
492.908	4568.92
493.278	4631.74
493.648	4613.89
494.017	4678.3
494.387	4708.8
494.757	4797.84
495.126	4818.86
495.496	4844.84
495.866	4886.65
496.235	4947.44
496.605	4951.28
496.974	5003.48
497.344	5040.77
497.713	5117.38
498.082	5108.34
498.452	5177.72
498.821	5184.95
499.19	5203.7
499.559	5299.52
499.928	5329.8
500.298	5325.96
500.667	5404.83
501.036	5354.21
501.405	5452.29
501.774	5461.55
502.143	5551.72
502.512	5558.27
502.88	5595.11
503.249	5596.91
503.618	5641.66
503.987	5616.58
504.356	5721.88
504.724	5714.65
505.093	5786.06
505.462	5816.8
505.83	5816.34
506.199	5925.04
506.567	5997.81
506.936	5955.1
507.304	6057.47
507.672	6114.19
508.041	6101.53
508.409	6130.46
508.777	6211.59
509.145	6240.06
509.514	6244.36
509.882	6318.48
510.25	6307.86
510.618	6404.35
510.986	6431.92
511.354	6448.42
511.722	6539.94
512.09	6614.52
512.458	6557.57
512.826	6650.67
513.193	6704.68
513.561	6716.43
513.929	6759.82
514.297	6796.21
514.664	6894.28
515.032	6907.16
515.4	6961.85
515.767	7023.54
516.135	7060.83
516.502	7027.16
516.869	7174.95
517.237	7181.73
517.604	7142.64
517.972	7306.47
518.339	7325.68
518.706	7328.39
519.073	7427.38
519.44	7472.57
519.808	7496.53
520.175	7575.17
520.542	7654.49
520.909	7691.32
521.276	7737.2
521.643	7779.23
522.009	7862.39
522.376	7839.79
522.743	7969.51
523.11	8053.35
523.477	8069.84
523.843	8164.08
524.21	8226.45
524.577	8342.38
524.943	8368.37
525.31	8363.17
525.676	8463.96
526.043	8496.73
526.409	8568.36
526.776	8656.27
527.142	8653.78
527.508	8753.44
527.874	8844.74
528.241	8851.52
528.607	8896.94
528.973	8915.25
529.339	8929.03
529.705	9097.39
530.071	9160.89
530.437	9199.08
530.803	9232.53
531.169	9329.92
531.535	9343.71
531.901	9343.03
532.267	9439.53
532.632	9480.2
532.998	9539.41
533.364	9577.15
533.73	9590.93
534.095	9686.3
534.461	9684.49
534.826	9777.37
535.192	9762
535.557	9884.94
535.923	9863.47
536.288	9915.22
536.653	9948.21
537.019	9900.98
537.384	9939.17
537.749	10119.06
538.114	10125.38
538.479	10171.03
538.845	10217.81
539.21	10158.15
539.575	10250.35
539.94	10340.97
540.305	10372.16
540.67	10376.45
541.034	10410.12
541.399	10450.35
541.764	10429.33
542.129	10451.48
542.494	10542.55
542.858	10599.95
543.223	10641.53
543.587	10638.82
543.952	10763.56
544.316	10717.23
544.681	10730.79
545.045	10782.32
545.41	10809.43
545.774	10909.32
546.138	10939.83
546.503	10997
546.867	10986.83
547.231	11082.65
547.595	11088.07
547.959	11109.76
548.324	11128.29
548.688	11138.92
549.052	11254.17
549.416	11301.62
549.779	11251
550.143	11303.66
550.507	11313.83
550.871	11404.9
551.235	11428.4
551.599	11595.4
551.962	11575.97
552.326	11585.23
552.689	11695.96
553.053	11607.83
553.417	11646.02
553.78	11841.72
554.143	11810.76
554.507	11890.99
554.87	11899.8
555.234	12041.04
555.597	12001.49
555.96	12105.22
556.323	12153.58
556.686	12150.64
557.05	12257.76
557.413	12283.52
557.776	12359.22
558.139	12424.53
558.502	12444.19
558.865	12504.08
559.228	12609.61
559.59	12562.16
559.953	12707.46
560.316	12765.99
560.679	12758.53
561.041	12877.85
561.404	12958.3
561.767	13051.41
562.129	13018.64
562.492	13178.64
562.854	13158.52
563.217	13133.67
563.579	13261.57
563.941	13336.15
564.304	13460.21
564.666	13573.65
565.028	13539.08
565.39	13654.33
565.753	13742.01
566.115	13848
566.477	13803.48
566.839	13949.01
567.201	13994.21
567.563	13988.11
567.925	14067.65
568.287	14113.75
568.648	14125.28
569.01	14262.45
569.372	14278.04
569.734	14396.23
570.095	14459.73
570.457	14588.99
570.819	14527.75
571.18	14657.69
571.542	14779.72
571.903	14714.87
572.265	14839.84
572.626	14989.89
572.987	14942.21
573.349	14986.27
573.71	15070.34
574.071	15164.8
574.432	15235.53
574.794	15332.7
575.155	15341.52
575.516	15306.26
575.877	15456.32
576.238	15480.72
576.599	15531.79
576.96	15598.46
577.32	15549.87
577.681	15695.86
578.042	15747.38
578.403	15763.43
578.763	15827.61
579.124	15936.08
579.485	16085.23
579.845	16086.13
580.206	15966.36
580.566	16094.72
580.927	16187.82
581.287	16207.71
581.648	16168.84
582.008	16348.5
582.368	16273.47
582.728	16357.99
583.089	16358.21
583.449	16243.19
583.809	16435.27
584.169	16458.1
584.529	16533.12
584.889	16644.08
585.249	16619.45
585.609	16540.36
585.969	16753.01
586.329	16665.78
586.688	16716.4
587.048	16728.15
587.408	16736.96
587.768	16701.71
588.127	16849.5
588.487	16785.77
588.846	16967.01
589.206	16837.3
589.565	16994.58
589.925	17101.47
590.284	16992.55
590.643	17033.22
591.003	17053.56
591.362	17235.03
591.721	17124.3
592.08	17127.91
592.44	17276.38
592.799	17255.82
593.158	17353.44
593.517	17320
593.876	17410.39
594.235	17405.19
594.593	17420.56
594.952	17490.84
595.311	17454
595.67	17499.65
596.029	17660.55
596.387	17595.7
596.746	17584.85
597.104	17597.5
597.463	17633.66
597.822	17706.2
598.18	17624.85
598.538	17684.05
598.897	17912.52
599.255	17699.87
599.613	17981.9
599.972	17811.51
600.33	17934.9
600.688	17827.55
601.046	17943.71
601.404	18102.57
601.762	17997.94
602.12	18068.68
602.478	18129.24
602.836	18186.41
603.194	18072.52
603.552	18117.72
603.91	18090.82
604.268	18142.35
604.625	18095.8
604.983	18206.07
605.341	18201.78
605.698	18284.26
606.056	18288.33
606.413	18360.65
606.771	18409.91
607.128	18408.33
607.485	18390.7
607.843	18436.13
608.2	18568.78
608.557	18620.08
608.914	18634.54
609.272	18728.77
609.629	18691.26
609.986	18766.06
610.343	18623.47
610.7	18810.58
611.057	18815.78
611.414	18703.69
611.771	18834.76
612.127	18944.13
612.484	18857.36
612.841	18985.49
613.198	18848.32
613.554	18906.85
613.911	18939.39
614.267	19052.61
614.624	19050.57
614.98	19016.45
615.337	19096.9
615.693	19052.38
616.05	19104.81
616.406	19162.89
616.762	19088.54
617.118	19167.63
617.475	19060.29
617.831	19132.83
618.187	19260.74
618.543	19344.8
618.899	19316.78
619.255	19393.84
619.611	19287.63
619.967	19476.32
620.323	19476.32
620.678	19430.9
621.034	19419.38
621.39	19382.99
621.746	19427.51
622.101	19591.58
622.457	19460.05
622.812	19505.93
623.168	19499.83
623.523	19507.51
623.879	19546.15
624.234	19405.82
624.589	19379.15
624.945	19394.52
625.3	19514.74
625.655	19554.51
626.01	19665.25
626.365	19588.19
626.72	19533.72
627.075	19572.37
627.43	19685.81
627.785	19494.85
628.14	19623.44
628.495	19533.27
628.85	19594.29
629.205	19494.18
629.559	19500.5
629.914	19487.17
630.269	19479.71
630.623	19465.25
630.978	19535.98
631.332	19526.04
631.687	19575.3
632.041	19463.67
632.396	19483.56
632.75	19444.46
633.104	19469.09
633.459	19378.25
633.813	19318.14
634.167	19325.14
634.521	19301.87
634.875	19346.38
635.229	19279.72
635.583	19293.73
635.937	19353.39
636.291	19298.93
636.645	19367.85
636.999	19217.8
637.352	19375.31
637.706	19152.72
638.06	19258.93
638.413	19239.04
638.767	19171.7
639.121	19193.62
639.474	19083.79
639.828	19102.55
640.181	19035.21
640.534	19103.23
640.888	19032.95
641.241	18990.46
641.594	18887.19
641.947	19009.67
642.301	18932.61
642.654	19022.78
643.007	19032.27
643.36	19025.26
643.713	18947.75
644.066	19011.48
644.419	18920.41
644.771	18837.24
645.124	18649.68
645.477	18633.86
645.83	18539.85
646.182	18391.38
646.535	18277.26
646.888	18343.92
647.24	18205.17
647.593	18212.63
647.945	18095.8
648.298	18140.77
648.65	18147.09
649.002	18197.26
649.355	18206.3
649.707	18177.6
650.059	18331.5
650.411	18606.74
650.763	18578.72
651.115	18770.35
651.467	18668.21
651.819	18702.56
652.171	18739.17
652.523	18602.45
652.875	18658.49
653.227	18573.75
653.578	18621.66
653.93	18638.15
654.282	18514.09
654.633	18521.09
654.985	18479.29
655.337	18458.95
655.688	18472.96
656.039	18600.19
656.391	18396.13
656.742	18533.75
657.094	18517.25
657.445	18564.48
657.796	18445.84
658.147	18377.14
658.498	18400.42
658.849	18462.11
659.2	18406.97
659.551	18367.65
659.902	18557.48
660.253	18493.53
660.604	18542.79
660.955	18272.29
661.306	18514.32
661.656	18421.44
662.007	18441.32
662.358	18381.44
662.708	18381.44
663.059	18375.79
663.409	18319.97
663.76	18455.11
664.11	18500.98
664.461	18545.95
664.811	18435.22
665.161	18467.76
665.511	18378.73
665.862	18446.29
666.212	18468.89
666.562	18426.41
666.912	18430.93
667.262	18394.09
667.612	18366.3
667.962	18445.16
668.312	18456.46
668.662	18514.54
669.011	18424.6
669.361	18522.45
669.711	18411.49
670.06	18429.57
670.41	18325.39
670.76	18435.45
671.109	18453.53
671.459	18333.3
671.808	18444.94
672.157	18406.52
672.507	18300.76
672.856	18375.56
673.205	18436.8
673.554	18428.44
673.904	18349.35
674.253	18362.91
674.602	18323.81
674.951	18130.14
675.3	18096.02
675.649	18218.28
675.998	18327.88
676.346	18274.1
676.695	18358.39
677.044	18190.93
677.393	18245.62
677.741	18341.44
678.09	18223.93
678.438	18201.78
678.787	18205.4
679.135	18195.68
679.484	18102.8
679.832	18200.43
680.181	18121.33
680.529	18150.03
680.877	18101.9
681.225	18098.51
681.573	18161.1
681.922	18132.86
682.27	18088.56
682.618	18014.22
682.966	17920.43
683.314	17999.98
683.661	17990.04
684.009	17948.68
684.357	17847.89
684.705	17787.78
685.053	17865.52
685.4	17807.89
685.748	17683.38
686.095	17796.37
686.443	17775.58
686.79	17694.9
687.138	17779.19
687.485	17723.6
687.832	17642.93
688.18	17606.32
688.527	17605.64
688.874	17618.97
689.221	17482.03
689.568	17551.18
689.915	17461.01
690.262	17471.86
690.609	17362.03
690.956	17410.39
691.303	17373.55
691.65	17262.37
691.997	17317.06
692.344	17165.2
692.69	17087.23
693.037	17207.68
693.383	17031.19
693.73	17092.66
694.077	16972.66
694.423	16878.2
694.769	16972.89
695.116	16848.6
695.462	16893.34
695.808	16803.63
696.155	16810.18
696.501	16687.24
696.847	16695.38
697.193	16611.09
697.539	16632.33
697.885	16508.04
698.231	16427.59
698.577	16439.57
698.923	16478.66
699.269	16363.86
699.614	16295.16
699.96	16320.25
700.306	16231.44
700.651	16232.57
700.997	16087.26
701.342	16095.62
701.688	16124.1
702.033	16061.95
702.379	16016.98
702.724	15975.63
703.069	15935.4
703.415	15859.47
703.76	15823.99
704.105	15797.32
704.45	15845.91
704.795	15807.04
705.14	15842.3
705.485	15659.25
705.83	15660.83
706.175	15742.86
706.52	15709.19
706.865	15552.36
707.209	15559.82
707.554	15542.19
707.899	15553.72
708.243	15406.6
708.588	15405.24
708.932	15383.1
709.277	15307.39
709.621	15326.38
709.966	15340.39
710.31	15240.28
710.654	15103.11
710.998	15103.33
711.342	15188.3
711.687	15163.9
712.031	15123.9
712.375	15045.93
712.719	15052.71
713.063	14987.4
713.407	15035.99
713.75	14969.78
714.094	15023.79
714.438	14919.61
714.782	14920.06
715.125	14852.04
715.469	14987.4
715.812	14849.55
716.156	14795.32
716.499	14731.36
716.843	14786.05
717.186	14641.87
717.53	14771.14
717.873	14795.54
718.216	14756.45
718.559	14648.65
718.902	14543.12
719.246	14548.77
719.589	14584.93
719.932	14460.41
720.275	14524.59
720.617	14567.53
720.96	14477.13
721.303	14540.18
721.646	14493.63
721.989	14404.14
722.331	14534.53
722.674	14416.57
723.016	14441.43
723.359	14439.17
723.701	14419.06
724.044	14288.89
724.386	14297.03
724.729	14387.42
725.071	14343.8
725.413	14402.11
725.755	14416.8
726.097	14295.44
726.439	14193.07
726.782	14259.06
727.124	14250.25
727.465	14218.16
727.807	14165.05
728.149	14179.51
728.491	14100.19
728.833	14198.5
729.175	14150.14
729.516	14191.72
729.858	14058.39
730.199	14101.78
730.541	14026.3
730.882	14033.76
731.224	14132.51
731.565	14014.55
731.906	14013.64
732.248	14038.27
732.589	14056.13
732.93	13878.05
733.271	14020.65
733.612	13964.6
733.953	13993.3
734.294	13979.52
734.635	13904.04
734.976	13980.65
735.317	13906.75
735.658	13956.24
735.999	13925.28
736.339	13920.31
736.68	13839.86
737.021	13852.74
737.361	13820.88
737.702	13899.97
738.042	13806.42
738.383	13775.91
738.723	13825.4
739.063	13772.52
739.404	13830.6
739.744	13825.63
740.084	13723.71
740.424	13763.03
740.764	13761.22
741.104	13881.67
741.444	13716.93
741.784	13727.32
742.124	13761.22
742.464	13682.58
742.804	13760.77
743.143	13718.06
743.483	13677.83
743.823	13560.1
744.162	13623.6
744.502	13712.18
744.841	13582.69
745.181	13641.45
745.52	13562.58
745.86	13597.38
746.199	13577.72
746.538	13615.24
746.877	13605.29
747.216	13580.21
747.556	13538.85
747.895	13540.89
748.234	13524.62
748.573	13474.9
748.911	13520.32
749.25	13485.07
749.589	13429.7
749.928	13478.29
750.267	13488.68
750.605	13468.57
750.944	13450.04
751.283	13405.07
751.621	13449.36
751.96	13393.77
752.298	13391.51
752.636	13428.8
752.975	13326.43
753.313	13265.19
753.651	13308.35
753.989	13311.29
754.327	13257.5
754.666	13240.78
755.004	13193.55
755.342	13182.48
755.679	13151.97
756.017	13044.18
756.355	13197.39
756.693	13054.57
757.031	13080.11
757.368	13059.77
