Data from tablewood_dark_bookshelf_FLMS001491_00039.txt Node
Date: Wed Feb 08 14:14:26 GMT 2017
User: dcchb
Spectrometer: FLMS00149
Trigger mode: 0
Integration Time (sec): 2.000000E-2
Scans to average: 10
Electric dark correction enabled: true
Nonlinearity correction enabled: false
Boxcar width: 0
XAxis mode: Wavelengths
Number of Pixels in Spectrum: 2048
>>>>>Begin Spectral Data<<<<<
341.393	-7.56
341.776	-7.56
342.16	-7.56
342.543	-55.24
342.927	-43.49
343.31	-65.41
343.693	-61.34
344.077	-65.63
344.46	-64.73
344.843	-56.37
345.226	-38.74
345.61	-22.7
345.993	-4.17
346.376	0.81
346.759	-7.33
347.142	26.57
347.525	26.12
347.908	27.7
348.291	82.84
348.674	105.89
349.057	116.51
349.44	121.03
349.823	150.41
350.206	178.43
350.588	192.89
350.971	202.38
351.354	231.99
351.737	218.65
352.119	231.31
352.502	257.3
352.884	267.46
353.267	272.21
353.65	304.53
354.032	292.1
354.414	306.79
354.797	294.58
355.179	304.75
355.562	306.11
355.944	310.18
356.326	342.04
356.709	352.89
357.091	334.81
357.473	321.25
357.855	336.16
358.238	311.31
358.62	356.73
359.002	332.77
359.384	359.44
359.766	328.93
360.148	331.42
360.53	337.29
360.912	357.18
361.294	354.02
361.676	351.08
362.057	326.67
362.439	328.48
362.821	337.52
363.203	321.47
363.584	318.76
363.966	334.81
364.348	315.83
364.729	309.05
365.111	316.73
365.493	310.4
365.874	309.27
366.256	310.18
366.637	315.15
367.019	322.6
367.4	307.69
367.781	313.57
368.163	320.34
368.544	327.35
368.925	317.41
369.306	312.21
369.688	332.32
370.069	328.93
370.45	328.48
370.831	318.99
371.212	352.21
371.593	318.99
371.974	344.75
372.355	325.09
372.736	322.15
373.117	321.7
373.498	342.72
373.879	319.67
374.26	342.04
374.641	316.28
375.021	341.14
375.402	335.26
375.783	342.94
376.163	342.49
376.544	342.27
376.925	335.26
377.305	323.96
377.686	333.68
378.066	326.9
378.447	323.51
378.827	353.11
379.208	338.42
379.588	338.42
379.968	338.65
380.349	343.17
380.729	336.39
381.109	340.01
381.489	378.42
381.87	365.32
382.25	356.95
382.63	373.45
383.01	358.31
383.39	339.33
383.77	349.95
384.15	340.91
384.53	349.5
384.91	380.46
385.29	370.74
385.67	358.54
386.049	359.89
386.429	366.45
386.809	376.61
387.189	402.38
387.568	382.26
387.948	382.94
388.328	385.2
388.707	384.52
389.087	380.91
389.466	400.57
389.846	401.47
390.225	387.91
390.605	393.11
390.984	409.61
391.363	402.15
391.743	388.82
392.122	416.84
392.501	416.61
392.881	392.66
393.26	427.91
393.639	404.64
394.018	418.65
394.397	384.98
394.776	430.17
395.155	416.84
395.534	421.81
395.913	401.02
396.292	402.38
396.671	412.77
397.05	424.07
397.429	435.6
397.808	424.97
398.186	450.06
398.565	436.05
398.944	423.39
399.323	435.82
399.701	451.87
400.08	454.58
400.458	451.64
400.837	428.14
401.215	433.79
401.594	455.48
401.972	461.81
402.351	452.77
402.729	461.13
403.107	461.36
403.486	474.24
403.864	458.19
404.242	475.37
404.62	476.95
404.999	477.85
405.377	478.31
405.755	473.11
406.133	489.15
406.511	483.5
406.889	467.91
407.267	500.68
407.645	507.01
408.023	519.89
408.401	508.59
408.779	520.79
409.156	513.79
409.534	526.67
409.912	523.73
410.29	531.86
410.667	530.28
411.045	545.42
411.422	546.1
411.8	535.03
412.178	549.49
412.555	538.42
412.933	545.2
413.31	561.69
413.687	543.16
414.065	566.21
414.442	570.51
414.819	567.12
415.197	566.21
415.574	586.55
415.951	592.2
416.328	587.23
416.705	605.53
417.082	609.15
417.46	601.92
417.837	593.11
418.214	625.42
418.591	612.99
418.967	623.84
419.344	614.35
419.721	628.13
420.098	621.35
420.475	603.5
420.852	640.11
421.228	645.76
421.605	626.55
421.982	635.82
422.358	646.66
422.735	654.35
423.111	654.57
423.488	661.8
423.864	673.33
424.241	675.59
424.617	665.19
424.994	678.08
425.37	672.43
425.746	695.48
426.123	691.41
426.499	696.15
426.875	691.86
427.251	706.55
427.627	736.15
428.003	729.83
428.379	742.93
428.756	746.32
429.132	748.36
429.507	739.99
429.883	767.56
430.259	756.04
430.635	756.72
431.011	777.73
431.387	812.08
431.763	816.15
432.138	796.49
432.514	815.7
432.89	804.85
433.265	797.17
433.641	814.57
434.016	827.22
434.392	835.13
434.767	849.14
435.143	849.37
435.518	826.09
435.894	868.58
436.269	873.78
436.644	892.08
437.02	874.91
437.395	886.88
437.77	906.54
438.145	904.51
438.52	917.17
438.895	918.52
439.271	909.26
439.646	936.15
440.021	925.98
440.395	947.67
440.77	956.49
441.145	942.93
441.52	954.45
441.895	972.98
442.27	1023.15
442.645	986.77
443.019	986.54
443.394	984.96
443.769	1025.64
444.143	984.06
444.518	997.62
444.892	1010.72
445.267	1003.04
445.641	1027.44
446.016	1014.79
446.39	1011.85
446.764	1054.11
447.139	1053.43
447.513	1028.57
447.887	1058.63
448.262	1057.05
448.636	1076.71
449.01	1082.13
449.384	1076.48
449.758	1100.21
450.132	1121.23
450.506	1090.49
450.88	1109.48
451.254	1109.25
451.628	1121.68
452.002	1149.02
452.376	1162.81
452.75	1163.94
453.123	1167.1
453.497	1187.89
453.871	1177.5
454.244	1179.31
454.618	1201.68
454.992	1204.62
455.365	1236.93
455.739	1225.86
456.112	1247.1
456.486	1243.03
456.859	1245.52
457.232	1289.13
457.606	1305.86
457.979	1308.12
458.352	1326.87
458.725	1346.98
459.099	1352.63
459.472	1370.71
459.845	1382.24
460.218	1408.68
460.591	1374.78
460.964	1405.97
461.337	1430.15
461.71	1443.03
462.083	1461.78
462.456	1472.63
462.829	1489.13
463.201	1479.86
463.574	1482.35
463.947	1518.05
464.32	1558.05
464.692	1560.54
465.065	1585.85
465.438	1555.79
465.81	1589.69
466.183	1636.02
466.555	1645.96
466.928	1669.69
467.3	1636.02
467.672	1674.66
468.045	1701.78
468.417	1713.98
468.789	1728.9
469.161	1756.24
469.534	1746.3
469.906	1809.35
470.278	1807.76
470.65	1845.05
471.022	1902.9
471.394	1905.61
471.766	1911.72
472.138	1916.46
472.51	1965.73
472.882	2000.07
473.253	2000.98
473.625	2059.28
473.997	2085.72
474.369	2063.35
474.74	2111.94
475.112	2120.75
475.484	2162.33
475.855	2180.18
476.227	2197.13
476.598	2275.55
476.97	2273.51
477.341	2307.64
477.713	2394.41
478.084	2381.99
478.455	2434.41
478.827	2475.32
479.198	2523
479.569	2508.31
479.94	2598.7
480.311	2618.36
480.682	2673.96
481.053	2706.72
481.424	2703.33
481.795	2778.36
482.166	2801.18
482.537	2817.23
482.908	2869.88
483.279	2908.75
483.65	2961.86
484.021	2993.49
484.391	3052.7
484.762	3033.04
485.133	3089.09
485.503	3119.37
485.874	3222.19
486.244	3205.92
486.615	3284.33
486.985	3294.96
487.356	3408.4
487.726	3379.7
488.097	3450.43
488.467	3493.82
488.837	3566.36
489.207	3555.29
489.578	3602.74
489.948	3619.02
490.318	3659.69
490.688	3697.66
491.058	3790.08
491.428	3783.08
491.798	3840.93
492.168	3894.94
492.538	3906.24
492.908	3971.32
493.278	3998.89
493.648	4030.08
494.017	4088.83
494.387	4134.93
494.757	4133.8
495.126	4164.09
495.496	4181.71
495.866	4238.66
496.235	4259
496.605	4327.24
496.974	4343.06
497.344	4392.33
497.713	4350.3
498.082	4420.12
498.452	4452.44
498.821	4499.44
499.19	4518.2
499.559	4582.15
499.928	4595.26
500.298	4544.64
500.667	4703.51
501.036	4595.49
501.405	4693.34
501.774	4694.69
502.143	4736.73
502.512	4818.98
502.88	4811.53
503.249	4768.59
503.618	4908.7
503.987	4855.59
504.356	4911.64
504.724	4880.9
505.093	4935.59
505.462	4980.79
505.83	4980.34
506.199	5019.43
506.567	5105.98
506.936	5100.11
507.304	5140.78
507.672	5197.28
508.041	5231.63
508.409	5280.67
508.777	5311.85
509.145	5330.38
509.514	5390.72
509.882	5386.88
510.25	5391.4
510.618	5464.39
510.986	5451.96
511.354	5555.46
511.722	5602.01
512.09	5621
512.458	5630.04
512.826	5674.78
513.193	5717.04
513.561	5749.58
513.929	5765.85
514.297	5822.57
514.664	5823.7
515.032	5884.27
515.4	5996.58
515.767	5998.16
516.135	6031.15
516.502	6036.8
516.869	6092.4
517.237	6177.37
517.604	6174.2
517.972	6168.55
518.339	6285.16
518.706	6263.92
519.073	6364.71
519.44	6286.52
519.808	6392.95
520.175	6427.08
520.542	6541.88
520.909	6562.67
521.276	6587.75
521.643	6609.9
522.009	6729.22
522.376	6694.41
522.743	6756.11
523.11	6860.06
523.477	6918.82
523.843	6978.47
524.21	7015.99
524.577	7081.52
524.943	7113.39
525.31	7154.97
525.676	7174.18
526.043	7198.81
526.409	7290.1
526.776	7324.91
527.142	7444.9
527.508	7432.25
527.874	7564.45
528.241	7556.54
528.607	7553.37
528.973	7714.95
529.339	7697.78
529.705	7795.85
530.071	7812.13
530.437	7904.1
530.803	7955.4
531.169	7933.7
531.535	7955.85
531.901	7971.44
532.267	8014.83
532.632	8032.91
532.998	8090.08
533.364	8186.8
533.73	8210.53
534.095	8249.85
534.461	8308.61
534.826	8364.43
535.192	8366.23
535.557	8429.06
535.923	8453.24
536.288	8451.43
536.653	8521.48
537.019	8528.72
537.384	8546.57
537.749	8597.19
538.114	8628.15
538.479	8588.15
538.845	8733
539.21	8728.03
539.575	8774.81
539.94	8838.54
540.305	8847.58
540.67	8820.91
541.034	8854.36
541.399	8863.85
541.764	8953.56
542.129	9034.24
542.494	9052.77
542.858	9015.26
543.223	9102.49
543.587	9165.31
543.952	9190.17
544.316	9162.6
544.681	9169.83
545.045	9231.97
545.41	9287.79
545.774	9314.91
546.138	9344.97
546.503	9395.13
546.867	9311.75
547.231	9516.26
547.595	9506.32
547.959	9517.39
548.324	9560.78
548.688	9508.13
549.052	9588.12
549.416	9583.6
549.779	9649.82
550.143	9711.06
550.507	9784.73
550.871	9838.74
551.235	9767.1
551.599	9923.48
551.962	9913.99
552.326	9931.62
552.689	10050.48
553.053	9978.85
553.417	10040.54
553.78	10193.31
554.143	10116.47
554.507	10175.45
554.87	10218.62
555.234	10342.45
555.597	10300.42
555.96	10408.44
556.323	10433.53
556.686	10494.31
557.05	10497.7
557.413	10564.6
557.776	10614.76
558.139	10681.43
558.502	10731.6
558.865	10718.49
559.228	10820.63
559.59	10857.69
559.953	10850.69
560.316	11027.63
560.679	10996
561.041	11131.36
561.404	11190.79
561.767	11227.4
562.129	11224.46
562.492	11351.47
562.854	11366.16
563.217	11350.34
563.579	11445.02
563.941	11535.64
564.304	11558.47
564.666	11640.95
565.028	11738.35
565.39	11748.97
565.753	11812.92
566.115	11848.63
566.477	11975.63
566.839	11962.98
567.201	12103.31
567.563	12042.3
567.925	12206.59
568.287	12138.57
568.648	12266.92
569.01	12346.47
569.372	12403.42
569.734	12413.81
570.095	12467.14
570.457	12613.35
570.819	12623.07
571.18	12655.84
571.542	12728.83
571.903	12763.18
572.265	12822.61
572.626	12939.22
572.987	12948.71
573.349	13069.84
573.71	13120.01
574.071	13214.69
574.432	13228.48
574.794	13273.9
575.155	13363.62
575.516	13281.81
575.877	13399.1
576.238	13344.86
576.599	13529.26
576.96	13506.44
577.32	13463.73
577.681	13609.26
578.042	13716.83
578.403	13628.47
578.763	13758.86
579.124	13834.57
579.485	13872.08
579.845	13894.9
580.206	13857.84
580.566	13910.5
580.927	13976.48
581.287	13989.82
581.648	14021.45
582.008	14114.33
582.368	14101
582.728	14159.53
583.089	14178.51
583.449	14207.21
583.809	14164.73
584.169	14268
584.529	14326.3
584.889	14407.21
585.249	14301.67
585.609	14327.43
585.969	14418.05
586.329	14370.14
586.688	14510.03
587.048	14541.89
587.408	14514.1
587.768	14548.9
588.127	14564.94
588.487	14532.17
588.846	14674.32
589.206	14629.8
589.565	14630.93
589.925	14732.4
590.284	14727.42
590.643	14767.87
591.003	14828.21
591.362	14869.79
591.721	14837.03
592.08	14841.32
592.44	14959.96
592.799	14892.16
593.158	14989.79
593.517	15007.87
593.876	15009.9
594.235	14987.53
594.593	15132.84
594.952	15068.66
595.311	14993.86
595.67	15069.56
596.029	15147.3
596.387	15277.92
596.746	15268.2
597.104	15204.47
597.463	15294.41
597.822	15344.13
598.18	15337.12
598.538	15323.57
598.897	15467.29
599.255	15334.41
599.613	15540.06
599.972	15444.24
600.33	15545.26
600.688	15417.57
601.046	15463
601.404	15529.66
601.762	15664.12
602.12	15642.65
602.478	15666.83
602.836	15643.56
603.194	15537.8
603.552	15683.33
603.91	15623.67
604.268	15759.49
604.625	15632.03
604.983	15872.93
605.341	15711.58
605.698	15859.15
606.056	15895.08
606.413	15831.8
606.771	15895.08
607.128	15942.76
607.485	15945.02
607.843	15907.05
608.2	15915.41
608.557	15970.33
608.914	16013.04
609.272	16141.4
609.629	16094.39
609.986	16206.93
610.343	16146.37
610.7	16242.64
611.057	16216.2
611.414	16272.47
611.771	16230.21
612.127	16332.13
612.484	16267.95
612.841	16437.44
613.198	16330.09
613.554	16327.16
613.911	16430.43
614.267	16429.98
614.624	16496.64
614.98	16441.05
615.337	16552.23
615.693	16632.23
616.05	16537.32
616.406	16695.28
616.762	16606.47
617.118	16618.45
617.475	16567.15
617.831	16669.97
618.187	16688.05
618.543	16765.34
618.899	16728.95
619.255	16674.49
619.611	16699.58
619.967	16813.02
620.323	16735.05
620.678	16682.4
621.034	16716.3
621.39	16688.5
621.746	16759.23
622.101	16944.77
622.457	16803.75
622.812	16895.28
623.168	16856.41
623.523	16839.91
623.879	16870.19
624.234	16862.73
624.589	16908.16
624.945	16824.32
625.3	16863.64
625.655	16926.01
626.01	16959.23
626.365	16933.69
626.72	16836.07
627.075	16834.03
627.43	16914.26
627.785	16881.04
628.14	16901.38
628.495	16874.71
628.85	16848.5
629.205	16835.84
629.559	16989.51
629.914	16812.11
630.269	16884.65
630.623	16892.34
630.978	16827.03
631.332	16782.51
631.687	16951.32
632.041	16870.19
632.396	16845.33
632.75	16788.16
633.104	16821.38
633.459	16774.15
633.813	16735.28
634.167	16749.07
634.521	16849.4
634.875	16716.52
635.229	16718.78
635.583	16684.66
635.937	16761.27
636.291	16642.63
636.645	16608.96
636.999	16661.38
637.352	16623.87
637.706	16668.39
638.06	16597.2
638.413	16629.75
638.767	16535.29
639.121	16530.77
639.474	16514.27
639.828	16550.88
640.181	16497.77
640.534	16570.99
640.888	16439.02
641.241	16420.26
641.594	16427.72
641.947	16411.45
642.301	16300.04
642.654	16306.37
643.007	16422.75
643.36	16300.04
643.713	16336.87
644.066	16394.95
644.419	16197.44
644.771	16209.42
645.124	15957.9
645.477	15949.76
645.83	15923.78
646.182	15750.67
646.535	15749.09
646.888	15830.22
647.24	15746.38
647.593	15955.64
647.945	15880.84
648.298	15810.56
648.65	15794.74
649.002	15690.79
649.355	15702.77
649.707	15689.66
650.059	15860.5
650.411	16036.99
650.763	15985.24
651.115	16241.06
651.467	16001.29
651.819	16149.08
652.171	16119.03
652.523	16056.65
652.875	16059.82
653.227	16038.12
653.578	16131.23
653.93	16069.08
654.282	16015.98
654.633	16003.77
654.985	16063.21
655.337	15996.09
655.688	16082.87
656.039	16133.49
656.391	15900.73
656.742	15916.32
657.094	15962.87
657.445	15989.99
657.796	16032.02
658.147	16018.91
658.498	15955.41
658.849	15994.28
659.2	15955.41
659.551	15915.87
659.902	16006.94
660.253	15943.89
660.604	16057.78
660.955	15936.43
661.306	15951.35
661.656	15985.47
662.007	16000.61
662.358	15986.15
662.708	16072.47
663.059	15935.53
663.409	15861.4
663.76	15921.29
664.11	15920.61
664.461	15947.5
664.811	15975.53
665.161	15968.75
665.511	15888.52
665.862	16047.61
666.212	15998.58
666.562	15940.72
666.912	15933.04
667.262	15919.03
667.612	15943.66
667.962	16028.86
668.312	15885.36
668.662	15944.11
669.011	15921.74
669.361	15931.46
669.711	16011.01
670.06	15863.66
670.41	15850.33
670.76	15854.63
671.109	15905.25
671.459	15874.29
671.808	15824.34
672.157	15959.26
672.507	15814.85
672.856	15846.72
673.205	15867.05
673.554	15891.91
673.904	15812.14
674.253	15858.92
674.602	15851.24
674.951	15612.37
675.3	15638.36
675.649	15820.73
675.998	15769.88
676.346	15836.09
676.695	15842.87
677.044	15753.39
677.393	15740.73
677.741	15834.51
678.09	15680.84
678.438	15692.82
678.787	15812.59
679.135	15759.71
679.484	15664.8
679.832	15804.23
680.181	15751.35
680.529	15796.55
680.877	15687.85
681.225	15619.38
681.573	15793.84
681.922	15647.63
682.27	15599.26
682.618	15623.67
682.966	15568.08
683.314	15608.08
683.661	15592.71
684.009	15466.16
684.357	15494.86
684.705	15410.12
685.053	15474.52
685.4	15420.96
685.748	15310.68
686.095	15505.26
686.443	15263.23
686.79	15248.31
687.138	15293.74
687.485	15309.33
687.832	15168.77
688.18	15233.85
688.527	15150.69
688.874	15239.5
689.221	15195.21
689.568	15127.41
689.915	15011.94
690.262	15130.8
690.609	15052.84
690.956	15006.06
691.303	14888.1
691.65	14874.54
691.997	14887.65
692.344	14912.73
692.69	14861.43
693.037	14798.61
693.383	14695.79
693.73	14747.76
694.077	14690.36
694.423	14633.87
694.769	14634.32
695.116	14623.92
695.462	14472.06
695.808	14521.55
696.155	14483.81
696.501	14423.93
696.847	14437.94
697.193	14384.61
697.539	14433.87
697.885	14258.96
698.231	14293.99
698.577	14275.91
698.923	14209.02
699.269	14256.25
699.614	14088.8
699.96	14140.55
700.306	14031.4
700.651	14078.85
700.997	14012.41
701.342	14007.67
701.688	13986.88
702.033	13850.16
702.379	13868.69
702.724	13843.38
703.069	13905.3
703.415	13675.47
703.76	13716.83
704.105	13800.67
704.45	13750.27
704.795	13672.31
705.14	13575.82
705.485	13592.09
705.83	13569.71
706.175	13655.59
706.52	13453.11
706.865	13479.32
707.209	13430.28
707.554	13447.68
707.899	13459.89
708.243	13343.05
708.588	13296.73
708.932	13251.98
709.277	13231.64
709.621	13266.22
709.966	13219.44
710.31	13258.76
710.654	13114.36
710.998	13171.98
711.342	13199.33
711.687	13180.57
712.031	13098.77
712.375	13040.91
712.719	13101.03
713.063	13021.71
713.407	12997.3
713.75	12943.74
714.094	12997.53
714.438	12956.17
714.782	12947.36
715.125	12835.04
715.469	12849.51
715.812	12847.7
716.156	12746.91
716.499	12798.43
716.843	12756.63
717.186	12706.91
717.53	12795.72
717.873	12757.31
718.216	12825.55
718.559	12752.79
718.902	12644.09
719.246	12693.35
719.589	12689.51
719.932	12630.08
720.275	12759.57
720.617	12612
720.96	12595.73
721.303	12618.55
721.646	12570.87
721.989	12601.38
722.331	12595.95
722.674	12567.71
723.016	12546.24
723.359	12610.64
723.701	12568.38
724.044	12422.4
724.386	12428.05
724.729	12456.07
725.071	12414.26
725.413	12419.01
725.755	12418.56
726.097	12284.1
726.439	12254.95
726.782	12332.23
727.124	12365.45
727.465	12355.06
727.807	12314.61
728.149	12318.67
728.491	12349.18
728.833	12309.86
729.175	12349.18
729.516	12311.44
729.858	12259.24
730.199	12183.76
730.541	12234.38
730.882	12274.83
731.224	12280.71
731.565	12246.58
731.906	12171.11
732.248	12161.39
732.589	12142.18
732.93	12082.97
733.271	12142.63
733.612	12203.65
733.953	12140.82
734.294	12086.14
734.635	12094.72
734.976	12220.6
735.317	12054.05
735.658	12070.09
735.999	12137.66
736.339	12040.26
736.68	12052.92
737.021	12105.8
737.361	11965.01
737.702	12110.09
738.042	12099.92
738.383	12059.25
738.723	12052.01
739.063	12050.43
739.404	12077.78
739.744	12008.85
740.084	11939.25
740.424	12024.67
740.764	11959.36
741.104	11990.77
741.444	11935.63
741.784	11892.7
742.124	11979.02
742.464	11896.99
742.804	11892.24
743.143	11900.61
743.483	11868.52
743.823	11837.33
744.162	11788.74
744.502	11847.73
744.841	11798.46
745.181	11892.47
745.52	11842.53
745.86	11841.85
746.199	11881.62
746.538	11827.84
746.877	11851.57
747.216	11877.55
747.556	11800.49
747.895	11836.43
748.234	11830.1
748.573	11770.67
748.911	11754.85
749.25	11806.14
749.589	11674.85
749.928	11616.32
750.267	11725.47
750.605	11780.38
750.944	11673.04
751.283	11658.35
751.621	11671.01
751.96	11659.48
752.298	11641.85
752.636	11698.58
752.975	11640.27
753.313	11566.83
753.651	11660.39
753.989	11563.44
754.327	11582.42
754.666	11527.51
755.004	11465.81
755.342	11539.03
755.679	11540.16
756.017	11467.85
756.355	11496.1
756.693	11410.9
757.031	11472.37
757.368	11378.13
757.706	11361.41
758.044	11337.46
