Data from tablewood_dark_bookshelf_FLMS001491_00092.txt Node
Date: Wed Feb 08 14:16:01 GMT 2017
User: dcchb
Spectrometer: FLMS00149
Trigger mode: 0
Integration Time (sec): 2.000000E-2
Scans to average: 10
Electric dark correction enabled: true
Nonlinearity correction enabled: false
Boxcar width: 0
XAxis mode: Wavelengths
Number of Pixels in Spectrum: 2048
>>>>>Begin Spectral Data<<<<<
341.393	-2.03
341.776	-2.03
342.16	-2.03
342.543	-71.64
342.927	-55.59
343.31	-54.01
343.693	-72.31
344.077	-75.7
344.46	-65.54
344.843	-54.24
345.226	-47.23
345.61	-35.25
345.993	-20.56
346.376	13.11
346.759	15.59
347.142	35.71
347.525	36.84
347.908	62.15
348.291	65.53
348.674	78.64
349.057	117.29
349.44	117.06
349.823	153.67
350.206	169.94
350.588	185.08
350.971	223.95
351.354	223.5
351.737	205.87
352.119	239.09
352.502	247.68
352.884	270.28
353.267	292.65
353.65	284.96
354.032	284.51
354.414	284.29
354.797	326.77
355.179	322.25
355.562	330.84
355.944	329.48
356.326	311.63
356.709	338.75
357.091	328.13
357.473	335.13
357.855	337.84
358.238	315.7
358.62	336.26
359.002	331.74
359.384	358.41
359.766	317.28
360.148	313.89
360.53	334.45
360.912	325.87
361.294	343.95
361.676	328.58
362.057	333.55
362.439	318.18
362.821	330.39
363.203	311.4
363.584	332.65
363.966	326.55
364.348	329.26
364.729	324.96
365.111	315.92
365.493	328.35
365.874	315.7
366.256	332.42
366.637	319.54
367.019	302.36
367.4	301.46
367.781	323.16
368.163	306.21
368.544	310.95
368.925	308.01
369.306	308.47
369.688	319.09
370.069	323.83
370.45	312.53
370.831	306.21
371.212	307.56
371.593	312.99
371.974	325.64
372.355	310.5
372.736	316.83
373.117	313.89
373.498	322.25
373.879	324.74
374.26	317.28
374.641	333.55
375.021	315.02
375.402	315.92
375.783	323.16
376.163	337.84
376.544	347.56
376.925	344.17
377.305	328.58
377.686	316.6
378.066	357.28
378.447	338.3
378.827	359.09
379.208	367
379.588	324.74
379.968	336.04
380.349	335.58
380.729	338.07
381.109	353.89
381.489	338.3
381.87	357.28
382.25	364.74
382.63	348.01
383.01	353.66
383.39	361.57
383.77	351.4
384.15	366.77
384.53	365.64
384.91	347.34
385.29	354.34
385.67	373.32
386.049	375.13
386.429	357.73
386.809	354.79
387.189	371.29
387.568	362.93
387.948	369.03
388.328	377.17
388.707	389.59
389.087	385.98
389.466	394.11
389.846	388.46
390.225	384.17
390.605	401.12
390.984	403.15
391.363	386.66
391.743	394.34
392.122	399.99
392.501	389.82
392.881	399.76
393.26	406.99
393.639	420.33
394.018	404.28
394.397	429.82
394.776	415.36
395.155	443.15
395.534	427.11
395.913	407.67
396.292	419.88
396.671	426.88
397.05	397.05
397.429	436.15
397.808	432.53
398.186	411.29
398.565	439.08
398.944	435.69
399.323	447.45
399.701	448.8
400.08	446.77
400.458	433.66
400.837	458.52
401.215	439.08
401.594	461.91
401.972	443.38
402.351	462.59
402.729	464.62
403.107	475.24
403.486	468.01
403.864	469.82
404.242	479.31
404.62	461.91
404.999	497.16
405.377	509.37
405.755	497.39
406.133	467.33
406.511	508.01
406.889	509.82
407.267	478.86
407.645	488.8
408.023	526.09
408.401	514.79
408.779	520.21
409.156	524.73
409.534	525.86
409.912	525.64
410.29	543.26
410.667	547.56
411.045	538.97
411.422	539.65
411.8	524.51
412.178	557.27
412.555	566.09
412.933	543.26
413.31	557.73
413.687	548.23
414.065	571.74
414.442	592.3
414.819	565.63
415.197	603.83
415.574	585.3
415.951	580.78
416.328	612.64
416.705	592.53
417.082	596.14
417.46	600.89
417.837	605.63
418.214	609.48
418.591	621.23
418.967	612.64
419.344	628.23
419.721	650.6
420.098	623.03
420.475	651.73
420.852	667.55
421.228	654.45
421.605	652.41
421.982	677.04
422.358	648.34
422.735	674.78
423.111	673.43
423.488	668.23
423.864	674.33
424.241	711.39
424.617	736.7
424.994	699.42
425.37	724.27
425.746	715.69
426.123	739.64
426.499	730.38
426.875	722.92
427.251	739.87
427.627	756.59
428.003	751.39
428.379	754.56
428.756	764.5
429.132	760.21
429.507	783.71
429.883	785.97
430.259	794.78
430.635	801.33
431.011	817.15
431.387	844.05
431.763	818.74
432.138	823.71
432.514	853.08
432.89	865.51
433.265	858.28
433.641	879.07
434.016	865.51
434.392	896.02
434.767	893.99
435.143	894.21
435.518	879.07
435.894	922.24
436.269	952.97
436.644	918.85
437.02	964.95
437.395	936.02
437.77	937.38
438.145	966.75
438.52	958.17
438.895	971.5
439.271	995.45
439.646	1014.89
440.021	994.78
440.395	1025.06
440.77	1013.98
441.145	1023.7
441.52	1039.07
441.895	1028.67
442.27	1047.43
442.645	1047.66
443.019	1037.49
443.394	1058.96
443.769	1054.89
444.143	1060.76
444.518	1075.9
444.892	1079.97
445.267	1074.32
445.641	1100.99
446.016	1090.82
446.39	1109.35
446.764	1110.71
447.139	1108.22
447.513	1142.12
447.887	1121.33
448.262	1141.66
448.636	1129.91
449.01	1181.66
449.384	1175.34
449.758	1182.12
450.132	1177.37
450.506	1201.32
450.88	1164.94
451.254	1186.86
451.628	1202.68
452.002	1207.88
452.376	1232.51
452.75	1206.75
453.123	1247.42
453.497	1276.12
453.871	1290.36
454.244	1289.68
454.618	1306.63
454.992	1321.1
455.365	1322.9
455.739	1345.5
456.112	1364.94
456.486	1354.31
456.859	1397.7
457.232	1391.6
457.606	1410.13
457.979	1444.93
458.352	1457.14
458.725	1462.11
459.099	1484.48
459.472	1498.49
459.845	1512.5
460.218	1525.16
460.591	1539.62
460.964	1535.55
461.337	1568.77
461.71	1581.88
462.083	1586.17
462.456	1630.24
462.829	1599.96
463.201	1653.06
463.574	1660.97
463.947	1723.12
464.32	1692.84
464.692	1712.5
465.065	1715.66
465.438	1748.43
465.81	1802.89
466.183	1782.55
466.555	1799.05
466.928	1845.15
467.3	1845.38
467.672	1851.25
468.045	1911.36
468.417	1898.48
468.789	1928.76
469.161	1953.62
469.534	1947.52
469.906	2018.03
470.278	2066.61
470.65	2015.09
471.022	2078.36
471.394	2106.39
471.766	2127.18
472.138	2161.75
472.51	2183.67
472.882	2237.91
473.253	2242.2
473.625	2237.91
473.997	2293.95
474.369	2320.62
474.74	2341.86
475.112	2403.1
475.484	2433.61
475.855	2484
476.227	2471.8
476.598	2569.88
476.97	2597.9
477.341	2615.07
477.713	2653.94
478.084	2664.79
478.455	2738.69
478.827	2769.64
479.198	2856.42
479.569	2811.45
479.94	2904.56
480.311	2992.46
480.682	2979.58
481.053	3028.85
481.424	3089.86
481.795	3116.53
482.166	3182.97
482.537	3216.19
482.908	3281.95
483.279	3345.45
483.65	3374.6
484.021	3420.48
484.391	3455.95
484.762	3490.98
485.133	3522.39
485.503	3563.97
485.874	3630.86
486.244	3684.65
486.615	3772.56
486.985	3790.86
487.356	3870.41
487.726	3845.1
488.097	3932.55
488.467	3980.69
488.837	4038.09
489.207	4043.51
489.578	4140
489.948	4175.48
490.318	4204.86
490.688	4269.27
491.058	4332.32
491.428	4381.35
491.798	4399.88
492.168	4497.51
492.538	4547.68
492.908	4539.99
493.278	4595.59
493.648	4604.85
494.017	4658.41
494.387	4736.37
494.757	4804.39
495.126	4804.62
495.496	4819.53
495.866	4927.78
496.235	4928.68
496.605	4965.52
496.974	5000.32
497.344	5018.63
497.713	5055.23
498.082	5070.38
498.452	5206.42
498.821	5199.64
499.19	5184.72
499.559	5233.31
499.928	5334.77
500.298	5320.54
500.667	5340.2
501.036	5428.78
501.405	5497.93
501.774	5462
502.143	5469.46
502.512	5545.62
502.88	5567.76
503.249	5621.1
503.618	5648.89
503.987	5595.56
504.356	5696.12
504.724	5734.76
505.093	5762.11
505.462	5772.73
505.83	5858.38
506.199	5906.06
506.567	5972.72
506.936	5942.89
507.304	6028.54
507.672	6046.39
508.041	6129.78
508.409	6227.18
508.777	6200.97
509.145	6209.33
509.514	6240.29
509.882	6271.93
510.25	6372.49
510.618	6369.55
510.986	6427.18
511.354	6496.55
511.722	6507.4
512.09	6628.53
512.458	6569.09
512.826	6657.68
513.193	6667.85
513.561	6741.52
513.929	6832.36
514.297	6807.96
514.664	6936.31
515.032	6814.51
515.4	6986.71
515.767	7010.21
516.135	7083.66
516.502	7017.67
516.869	7200.04
517.237	7175.63
517.604	7167.5
517.972	7276.42
518.339	7349.19
518.706	7316.19
519.073	7382.86
519.44	7470.54
519.808	7526.81
520.175	7525.23
520.542	7652.68
520.909	7663.98
521.276	7747.37
521.643	7782.85
522.009	7835.27
522.376	7880.24
522.743	7980.13
523.11	8088.37
523.477	8096.06
523.843	8109.62
524.21	8218.54
524.577	8290.86
524.943	8344.41
525.31	8388.48
525.676	8496.95
526.043	8517.06
526.409	8558.19
526.776	8620.11
527.142	8721.58
527.508	8703.95
527.874	8823.95
528.241	8868.69
528.607	8863.72
528.973	8992.76
529.339	8953.44
529.705	9019.2
530.071	9169.7
530.437	9208.57
530.803	9279.3
531.169	9319.3
531.535	9322.69
531.901	9363.82
532.267	9397.49
532.632	9449.47
532.998	9500.77
533.364	9572.86
533.73	9610.82
534.095	9735.11
534.461	9764.26
534.826	9704.6
535.192	9830.25
535.557	9823.02
535.923	9928.1
536.288	9851.04
536.653	9983.01
537.019	9989.79
537.384	9986.18
537.749	10044.26
538.114	10108.21
538.479	10117.25
538.845	10233.4
539.21	10158.6
539.575	10215.32
539.94	10277.02
540.305	10334.42
540.67	10281.31
541.034	10390.91
541.399	10449.67
541.764	10520.18
542.129	10468.88
542.494	10585.03
542.858	10627.52
543.223	10673.62
543.587	10699.61
543.952	10710.23
544.316	10714.07
544.681	10700.96
545.045	10792.48
545.41	10879.49
545.774	10888.75
546.138	10912.48
546.503	10953.61
546.867	10978.69
547.231	11060.5
547.595	11080.16
547.959	11100.27
548.324	11102.76
548.688	11202.64
549.052	11248.29
549.416	11215.3
549.779	11177.11
550.143	11314.5
550.507	11392.24
550.871	11383.2
551.235	11462.07
551.599	11534.16
551.962	11627.04
552.326	11580.26
552.689	11683.53
553.053	11586.36
553.417	11702.07
553.78	11875.85
554.143	11717.66
554.507	11895.96
554.87	11890.53
555.234	12072
555.597	11938.44
555.96	12066.8
556.323	12161.04
556.686	12176.18
557.05	12263.63
557.413	12265.67
557.776	12336.4
558.139	12438.54
558.502	12473.34
558.865	12449.62
559.228	12624.75
559.59	12667.46
559.953	12702.49
560.316	12820.45
560.679	12895.48
561.041	12930.06
561.404	12929.38
561.767	13039.66
562.129	12988.13
562.492	13179.09
562.854	13098.86
563.217	13170.95
563.579	13263.15
563.941	13385.18
564.304	13467.44
564.666	13518.51
565.028	13622.24
565.39	13573.43
565.753	13639.42
566.115	13755.34
566.477	13912.85
566.839	13888
567.201	13958.73
567.563	13953.53
567.925	14070.59
568.287	14172.96
568.648	14179.97
569.01	14236.91
569.372	14419.28
569.734	14277.36
570.095	14498.6
570.457	14438.04
570.819	14562.55
571.18	14569.56
571.542	14681.87
571.903	14753.06
572.265	14870.34
572.626	14911.92
572.987	14934.75
573.349	14972.26
573.71	15125.93
574.071	15195.98
574.432	15165.93
574.794	15325.02
575.155	15352.14
575.516	15190.34
575.877	15456.99
576.238	15500.84
576.599	15626.93
576.96	15594.39
577.32	15623.77
577.681	15546.26
578.042	15808.17
578.403	15801.17
578.763	15835.74
579.124	15800.04
579.485	15937.66
579.845	16066.02
580.206	15950.32
580.566	16064.44
580.927	16090.65
581.287	16230.53
581.648	16142.85
582.008	16259.23
582.368	16287.48
582.728	16372
583.089	16319.12
583.449	16490.19
583.809	16397.99
584.169	16397.99
584.529	16500.58
584.889	16628.94
585.249	16530.86
585.609	16500.81
585.969	16688.15
586.329	16645.89
586.688	16758.43
587.048	16710.75
587.408	16691.31
587.768	16759.79
588.127	16870.52
588.487	16819.9
588.846	17011.08
589.206	16948.48
589.565	16980.34
589.925	16961.59
590.284	17105.31
590.643	17053.34
591.003	17117.74
591.362	17067.57
591.721	17139.89
592.08	17158.42
592.44	17226.44
592.799	17301.01
593.158	17250.85
593.517	17364.97
593.876	17298.3
594.235	17335.14
594.593	17398.64
594.952	17440.22
595.311	17422.82
595.67	17434.34
596.029	17595.02
596.387	17645.64
596.746	17602.93
597.104	17593.21
597.463	17644.06
597.822	17687.22
598.18	17586.66
598.538	17614.9
598.897	17831.85
599.255	17700.78
599.613	17961.11
599.972	17853.32
600.33	17936.7
600.688	17854.9
601.046	18002.24
601.404	18094.89
601.762	18104.16
602.12	18084.95
602.478	18125.17
602.836	18111.84
603.194	18078.85
603.552	18184.15
603.91	18057.83
604.268	18225.74
604.625	18160.2
604.983	18206.75
605.341	18130.14
605.698	18300.54
606.056	18348.9
606.413	18202.91
606.771	18383.92
607.128	18376.92
607.485	18447.65
607.843	18434.77
608.2	18479.29
608.557	18532.17
608.914	18568.1
609.272	18689
609.629	18641.32
609.986	18787.08
610.343	18683.12
610.7	18830.92
611.057	18720.86
611.414	18743.01
611.771	18824.82
612.127	18839.96
612.484	18837.24
612.841	18983.91
613.198	18824.36
613.554	18908.43
613.911	18958.6
614.267	19008.99
614.624	19016.45
614.98	19114.3
615.337	19168.76
615.693	19110.01
616.05	19087.86
616.406	19162.66
616.762	19106.16
617.118	19065.49
617.475	19282.2
617.831	19198.14
618.187	19190.23
618.543	19296.67
618.899	19388.87
619.255	19382.09
619.611	19388.42
619.967	19403.33
620.323	19512.71
620.678	19387.29
621.034	19336.44
621.39	19432.26
621.746	19336.67
622.101	19608.98
622.457	19406.27
622.812	19455.76
623.168	19574.63
623.523	19590.67
623.879	19620.28
624.234	19455.31
624.589	19563.78
624.945	19471.13
625.3	19541.18
625.655	19568.75
626.01	19527.85
626.365	19615.53
626.72	19607.39
627.075	19585.47
627.43	19579.37
627.785	19544.57
628.14	19632.25
628.495	19528.98
628.85	19549.54
629.205	19498.92
629.559	19535.53
629.914	19477.23
630.269	19504.57
630.623	19445.36
630.978	19428.87
631.332	19634.96
631.687	19582.54
632.041	19504.35
632.396	19520.39
632.75	19367.85
633.104	19364.69
633.459	19335.76
633.813	19422.31
634.167	19318.81
634.521	19426.38
634.875	19357.23
635.229	19342.99
635.583	19312.26
635.937	19279.49
636.291	19312.49
636.645	19233.62
636.999	19344.35
637.352	19405.59
637.706	19271.13
638.06	19278.59
638.413	19171.02
638.767	19181.19
639.121	19263.67
639.474	19108.65
639.828	19056.45
640.181	19060.74
640.534	19120.63
640.888	19047.41
641.241	18973.96
641.594	19057.58
641.947	18955.43
642.301	18939.62
642.654	18990.46
643.007	18990.69
643.36	18964.47
643.713	18910.46
644.066	19068.43
644.419	18856.23
644.771	18738.94
645.124	18547.08
645.477	18579.17
645.83	18549.12
646.182	18434.54
646.535	18348.67
646.888	18378.5
647.24	18195.91
647.593	18354.55
647.945	18260.08
648.298	18165.85
648.65	18128.56
649.002	18041.33
649.355	18217.83
649.707	18268.45
650.059	18329.69
650.411	18515.22
650.763	18582.79
651.115	18758.6
651.467	18632.96
651.819	18692.62
652.171	18755.21
652.523	18559.51
652.875	18518.38
653.227	18514.54
653.578	18623.47
653.93	18599.51
654.282	18490.59
654.633	18449.68
654.985	18458.5
655.337	18526.74
655.688	18529
656.039	18607.87
656.391	18513.64
656.742	18564.71
657.094	18475.67
657.445	18588.44
657.796	18475.22
658.147	18458.95
658.498	18376.01
658.849	18441.32
659.2	18297.37
659.551	18367.2
659.902	18449.68
660.253	18489.01
660.604	18388.22
660.955	18403.58
661.306	18399.97
661.656	18453.75
662.007	18499.17
662.358	18417.59
662.708	18360.42
663.059	18410.14
663.409	18414.43
663.76	18541.89
664.11	18404.71
664.461	18490.14
664.811	18520.64
665.161	18526.52
665.511	18392.96
665.862	18483.81
666.212	18521.32
666.562	18535.78
666.912	18503.47
667.262	18443.81
667.612	18435.67
667.962	18299.86
668.312	18361.1
668.662	18502.79
669.011	18420.53
669.361	18520.42
669.711	18434.32
670.06	18336.02
670.41	18366.97
670.76	18326.07
671.109	18398.84
671.459	18354.32
671.808	18368.1
672.157	18346.64
672.507	18325.62
672.856	18263.47
673.205	18417.37
673.554	18430.7
673.904	18395
674.253	18453.98
674.602	18399.97
674.951	18232.29
675.3	18087.66
675.649	18357.03
675.998	18308.9
676.346	18257.6
676.695	18377.14
677.044	18275.68
677.393	18315
677.741	18297.15
678.09	18287.88
678.438	18288.33
678.787	18195.45
679.135	18265.96
679.484	18118.17
679.832	18155.91
680.181	18018.51
680.529	18152.29
680.877	18164.49
681.225	18081.33
681.573	18297.15
681.922	18052.63
682.27	18052.63
682.618	17973.99
682.966	17926.76
683.314	18050.37
683.661	18008.57
684.009	17865.97
684.357	17927.66
684.705	17802.47
685.053	17822.13
685.4	17779.19
685.748	17658.97
686.095	17796.37
686.443	17668.01
686.79	17632.53
687.138	17737.39
687.485	17666.88
687.832	17640.21
688.18	17694
688.527	17539.2
688.874	17601.57
689.221	17524.96
689.568	17487.9
689.915	17516.38
690.262	17441.58
690.609	17420.11
690.956	17315.48
691.303	17306.66
691.65	17259.66
691.997	17215.82
692.344	17045.2
692.69	17100.79
693.037	17215.82
693.383	17001.59
693.73	17068.25
694.077	16892.89
694.423	17016.95
694.769	16905.32
695.116	16935.15
695.462	16879.33
695.808	16756.85
696.155	16817.64
696.501	16583.07
696.847	16742.84
697.193	16621.48
697.539	16609.73
697.885	16548.72
698.231	16471.66
698.577	16433.01
698.923	16441.15
699.269	16381.26
699.614	16310.98
699.96	16276.63
700.306	16306.92
700.651	16252.45
700.997	16183.53
701.342	16101.95
701.688	16113.93
702.033	16038.67
702.379	16014.95
702.724	15957.55
703.069	16100.82
703.415	15854.95
703.76	15745.8
704.105	15771.34
704.45	15782.86
704.795	15768.4
705.14	15817.66
705.485	15741.06
705.83	15618.57
706.175	15686.14
706.52	15654.05
706.865	15573.15
707.209	15489.54
707.554	15466.94
707.899	15440.95
708.243	15383.1
708.588	15426.71
708.932	15289.99
709.277	15358.69
709.621	15284.12
709.966	15182.43
710.31	15255.87
710.654	15134.07
710.998	15188.98
711.342	15198.24
711.687	15111.69
712.031	15121.86
712.375	14985.59
712.719	15020.17
713.063	14958.7
713.407	14952.83
713.75	14933.62
714.094	14978.14
714.438	14949.66
714.782	14950.34
715.125	14878.03
715.469	14958.25
715.812	14868.76
716.156	14833.28
716.499	14783.57
716.843	14764.13
717.186	14691.59
717.53	14743.79
717.873	14732.72
718.216	14722.55
718.559	14638.71
718.902	14535.66
719.246	14608.43
719.589	14568.66
719.932	14471.03
720.275	14505.83
720.617	14480.75
720.96	14466.51
721.303	14478.26
721.646	14509.67
721.989	14428.77
722.331	14493.4
722.674	14466.96
723.016	14482.11
723.359	14497.7
723.701	14403.01
724.044	14352.62
724.386	14264.03
724.729	14438.94
725.071	14341.54
725.413	14325.95
725.755	14312.84
726.097	14328.21
726.439	14204.6
726.782	14268.55
727.124	14324.82
727.465	14269.68
727.807	14175.22
728.149	14199.85
728.491	14121.44
728.833	14172.51
729.175	14172.06
729.516	14110.36
729.858	14150.14
730.199	14077.37
730.541	14034.21
730.882	14069.69
731.224	14113.53
731.565	14004.6
731.906	14119.18
732.248	14057.48
732.589	13986.98
732.93	14097.93
733.271	13982.68
733.612	13979.75
733.953	13996.47
734.294	13955.11
734.635	13972.06
734.976	13963.25
735.317	13905.62
735.658	13879.41
735.999	13925.28
736.339	13891.84
736.68	13931.84
737.021	13925.51
737.361	13807.09
737.702	13886.64
738.042	13890.26
738.383	13749.92
738.723	13890.48
739.063	13763.25
739.404	13909.69
739.744	13791.5
740.084	13824.04
740.424	13835.34
740.764	13745.63
741.104	13781.11
741.444	13742.01
741.784	13675.35
742.124	13715.57
742.464	13675.12
742.804	13652.07
743.143	13685.74
743.483	13691.62
743.823	13610.94
744.162	13630.15
744.502	13592.86
744.841	13590.15
745.181	13669.92
745.52	13497.27
745.86	13553.09
746.199	13591.51
746.538	13542.02
746.877	13629.02
747.216	13648.68
747.556	13551.73
747.895	13541.79
748.234	13569.36
748.573	13513.54
748.911	13515.58
749.25	13544.5
749.589	13507.67
749.928	13488.68
750.267	13518.29
750.605	13504.96
750.944	13372.3
751.283	13413.66
751.621	13432.19
751.96	13330.72
752.298	13355.81
752.636	13333.66
752.975	13257.05
753.313	13304.28
753.651	13409.36
753.989	13230.61
754.327	13293.44
754.666	13177.05
755.004	13223.16
755.342	13164.63
755.679	13254.34
756.017	13172.08
756.355	13180.9
756.693	13085.98
757.031	13073.33
