Data from tablewood_dark_bookshelf_FLMS001491_00032.txt Node
Date: Wed Feb 08 14:14:25 GMT 2017
User: dcchb
Spectrometer: FLMS00149
Trigger mode: 0
Integration Time (sec): 2.000000E-2
Scans to average: 10
Electric dark correction enabled: true
Nonlinearity correction enabled: false
Boxcar width: 0
XAxis mode: Wavelengths
Number of Pixels in Spectrum: 2048
>>>>>Begin Spectral Data<<<<<
341.393	-26.78
341.776	-26.78
342.16	-26.78
342.543	-53.22
342.927	-50.96
343.31	-71.52
343.693	-65.42
344.077	-66.55
344.46	-75.82
344.843	-56.83
345.226	-36.27
345.61	-40.11
345.993	-35.14
346.376	2.82
346.759	20.9
347.142	32.2
347.525	42.82
347.908	59.32
348.291	69.72
348.674	113.33
349.057	106.55
349.44	129.15
349.823	121.24
350.206	165.31
350.588	176.61
350.971	187.23
351.354	196.72
351.737	215.93
352.119	229.94
352.502	252.76
352.884	277.62
353.267	264.74
353.65	265.64
354.032	265.64
354.414	296.83
354.797	291.63
355.179	309.48
355.562	318.52
355.944	330.95
356.326	325.3
356.709	309.94
357.091	295.02
357.473	323.27
357.855	317.84
358.238	314.23
358.62	316.26
359.002	351.52
359.384	342.02
359.766	316.49
360.148	333.89
360.53	318.3
360.912	341.12
361.294	327.34
361.676	307.68
362.057	314.23
362.439	318.3
362.821	322.59
363.203	315.58
363.584	335.7
363.966	295.02
364.348	324.4
364.729	306.77
365.111	321.69
365.493	307
365.874	313.33
366.256	318.75
366.637	321.46
367.019	334.12
367.4	311.97
367.781	302.93
368.163	305.64
368.544	299.99
368.925	316.94
369.306	297.51
369.688	309.71
370.069	281.24
370.45	315.58
370.831	309.03
371.212	308.58
371.593	311.29
371.974	317.84
372.355	319.88
372.736	305.64
373.117	279.2
373.498	308.13
373.879	315.13
374.26	327.79
374.641	318.3
375.021	309.03
375.402	311.74
375.783	318.07
376.163	346.09
376.544	314.46
376.925	322.36
377.305	327.56
377.686	334.79
378.066	322.36
378.447	304.06
378.827	342.02
379.208	344.96
379.588	320.56
379.968	340.44
380.349	317.84
380.729	334.34
381.109	330.5
381.489	351.74
381.87	349.26
382.25	339.31
382.63	351.74
383.01	345.87
383.39	353.55
383.77	350.39
384.15	343.61
384.53	357.84
384.91	356.04
385.29	366.21
385.67	339.31
386.049	360.1
386.429	341.57
386.809	353.78
387.189	370.95
387.568	359.65
387.948	386.54
388.328	372.98
388.707	382.7
389.087	382.48
389.466	381.8
389.846	367.33
390.225	379.09
390.605	396.03
390.984	384.51
391.363	393.32
391.743	381.12
392.122	384.06
392.501	396.26
392.881	397.84
393.26	401.01
393.639	407.11
394.018	409.37
394.397	406.2
394.776	400.55
395.155	414.79
395.534	417.5
395.913	414.79
396.292	425.41
396.671	406.43
397.05	422.47
397.429	428.35
397.808	410.95
398.186	442.36
398.565	420.44
398.944	453.43
399.323	402.14
399.701	438.97
400.08	441.01
400.458	436.03
400.837	419.54
401.215	441.01
401.594	428.58
401.972	461.34
402.351	437.62
402.729	472.87
403.107	453.43
403.486	442.36
403.864	463.15
404.242	447.11
404.62	454.34
404.999	473.77
405.377	454.11
405.755	469.71
406.133	485.75
406.511	481.23
406.889	488.24
407.267	472.19
407.645	484.39
408.023	482.59
408.401	518.52
408.779	485.3
409.156	513.77
409.534	493.43
409.912	524.84
410.29	525.75
410.667	517.16
411.045	530.49
411.422	525.75
411.8	531.17
412.178	541.57
412.555	552.19
412.933	529.36
413.31	561.45
413.687	563.71
414.065	561.68
414.442	572.3
414.819	571.17
415.197	566.65
415.574	557.16
415.951	580.21
416.328	579.53
416.705	565.97
417.082	575.24
417.46	581.57
417.837	574.56
418.214	605.29
418.591	584.96
418.967	596.26
419.344	587.67
419.721	605.97
420.098	609.14
420.475	610.72
420.852	617.05
421.228	652.98
421.605	612.75
421.982	636.93
422.358	636.03
422.735	626.31
423.111	634.67
423.488	654.79
423.864	655.01
424.241	649.81
424.617	651.85
424.994	675.8
425.37	674.67
425.746	664.05
426.123	707.21
426.499	704.28
426.875	673.09
427.251	704.5
427.627	747.44
428.003	733.65
428.379	745.86
428.756	729.81
429.132	720.55
429.507	735.69
429.883	751.28
430.259	751.05
430.635	780.21
431.011	765.52
431.387	778.17
431.763	786.98
432.138	805.06
432.514	798.74
432.89	801
433.265	819.75
433.641	814.78
434.016	828.34
434.392	825.85
434.767	838.06
435.143	818.85
435.518	834.67
435.894	848.9
436.269	856.36
436.644	871.5
437.02	868.11
437.395	872.18
437.77	888.23
438.145	913.99
438.52	913.54
438.895	917.15
439.271	935.68
439.646	927.77
440.021	958.51
440.395	931.61
440.77	933.42
441.145	957.15
441.52	960.09
441.895	956.92
442.27	931.61
442.645	997.15
443.019	951.5
443.394	956.7
443.769	995.34
444.143	983.36
444.518	997.83
444.892	982.69
445.267	1001.22
445.641	1011.39
446.016	1012.74
446.39	1013.87
446.764	1022.01
447.139	1016.36
447.513	1033.53
447.887	1027.43
448.262	1047.77
448.636	1020.43
449.01	1067.66
449.384	1041.22
449.758	1079.18
450.132	1101.78
450.506	1102
450.88	1085.06
451.254	1090.03
451.628	1098.39
452.002	1100.88
452.376	1160.31
452.75	1139.74
453.123	1149.24
453.497	1137.71
453.871	1173.64
454.244	1190.14
454.618	1180.87
454.992	1181.55
455.365	1189.46
455.739	1213.64
456.112	1232.85
456.486	1237.14
456.859	1254.09
457.232	1264.94
457.606	1265.16
457.979	1305.16
458.352	1324.37
458.725	1357.82
459.099	1332.73
459.472	1335.9
459.845	1359.4
460.218	1393.75
460.591	1370.02
460.964	1401.66
461.337	1414.09
461.71	1434.88
462.083	1478.27
462.456	1460.87
462.829	1453.18
463.201	1479.4
463.574	1497.02
463.947	1501.54
464.32	1538.15
464.692	1564.82
465.065	1538.6
465.438	1596.68
465.81	1610.69
466.183	1589.9
466.555	1610.92
466.928	1633.29
467.3	1622.44
467.672	1681.42
468.045	1705.83
468.417	1719.16
468.789	1721.2
469.161	1721.2
469.534	1754.42
469.906	1780.86
470.278	1819.27
470.65	1822.44
471.022	1832.83
471.394	1886.62
471.766	1918.03
472.138	1922.1
472.51	1939.27
472.882	1981.76
473.253	1994.86
473.625	2025.37
473.997	2041.64
474.369	2075.99
474.74	2113.96
475.112	2115.09
475.484	2152.6
475.855	2181.07
476.227	2217.91
476.598	2238.02
476.97	2231.69
477.341	2302.2
477.713	2350.11
478.084	2401.18
478.455	2439.14
478.827	2471.91
479.198	2482.99
479.569	2492.48
479.94	2573.6
480.311	2594.85
480.682	2644.11
481.053	2681.4
481.424	2728.4
481.795	2752.13
482.166	2756.2
482.537	2783.32
482.908	2898.34
483.279	2909.87
483.65	2954.61
484.021	3023.31
484.391	3052.24
484.762	3056.08
485.133	3092.69
485.503	3122.74
485.874	3197.09
486.244	3202.51
486.615	3298.33
486.985	3299.01
487.356	3357.54
487.726	3372.91
488.097	3391.89
488.467	3458.55
488.837	3517.31
489.207	3568.38
489.578	3619.45
489.948	3638.66
490.318	3633.92
490.688	3708.04
491.058	3767.25
491.428	3760.24
491.798	3841.14
492.168	3867.58
492.538	3894.47
492.908	3990.06
493.278	3985.54
493.648	4007.92
494.017	4085.2
494.387	4065.77
494.757	4144.64
495.126	4178.53
495.496	4193.22
495.866	4221.24
496.235	4229.61
496.605	4287.91
496.974	4316.84
497.344	4371.52
497.713	4383.5
498.082	4397.74
498.452	4473.89
498.821	4469.83
499.19	4498.07
499.559	4582.14
499.928	4576.72
500.298	4599.54
500.667	4613.55
501.036	4593.89
501.405	4700.33
501.774	4672.76
502.143	4688.8
502.512	4799.53
502.88	4811.29
503.249	4807.67
503.618	4835.47
503.987	4905.75
504.356	4921.79
504.724	4927.89
505.093	4945.97
505.462	4990.49
505.83	5035.46
506.199	5047.44
506.567	5168.34
506.936	5097.15
507.304	5197.04
507.672	5186.42
508.041	5199.07
508.409	5246.98
508.777	5328.33
509.145	5380.99
509.514	5357.03
509.882	5395
510.25	5475.45
510.618	5471.61
510.986	5477.48
511.354	5543.7
511.722	5581.44
512.09	5667.08
512.458	5609.91
512.826	5675.9
513.193	5706.4
513.561	5777.81
513.929	5742.11
514.297	5853.52
514.664	5879.73
515.032	5884.25
515.4	5995.66
515.767	5945.95
516.135	6039.73
516.502	5999.05
516.869	6086.51
517.237	6116.11
517.604	6102.55
517.972	6185.71
518.339	6219.84
518.706	6227.29
519.073	6313.62
519.44	6324.24
519.808	6338.25
520.175	6417.57
520.542	6546.83
520.909	6546.61
521.276	6546.16
521.643	6603.33
522.009	6672.03
522.376	6751.57
522.743	6763.32
523.11	6800.39
523.477	6879.03
523.843	6980.27
524.21	6974.62
524.577	7022.3
524.943	7065.92
525.31	7135.97
525.676	7237.21
526.043	7222.07
526.409	7291.22
526.776	7347.49
527.142	7395.85
527.508	7524.21
527.874	7473.36
528.241	7578.9
528.607	7523.98
528.973	7682.85
529.339	7700.25
529.705	7725.79
530.071	7787.03
530.437	7875.16
530.803	7849.62
531.169	7946.34
531.535	7930.98
531.901	7967.14
532.267	8036.51
532.632	8057.53
532.998	8081.71
533.364	8122.61
533.73	8165.77
534.095	8195.15
534.461	8278.77
534.826	8334.13
535.192	8363.28
535.557	8421.13
535.923	8413.45
536.288	8478.76
536.653	8558.53
537.019	8532.32
537.384	8522.83
537.749	8602.82
538.114	8664.74
538.479	8628.36
538.845	8696.16
539.21	8678.75
539.575	8750.62
539.94	8834.46
540.305	8827
540.67	8857.96
541.034	8856.38
541.399	8969.82
541.764	8981.57
542.129	8969.14
542.494	9002.81
542.858	9021.34
543.223	9019.31
543.587	9132.75
543.952	9148.8
544.316	9118.97
544.681	9191.51
545.045	9190.15
545.41	9253.65
545.774	9300.89
546.138	9276.93
546.503	9373.43
546.867	9388.34
547.231	9454.1
547.595	9418.62
547.959	9570.26
548.324	9515.57
548.688	9524.38
549.052	9640.09
549.416	9685.96
549.779	9659.07
550.143	9683.47
550.507	9797.14
550.871	9824.71
551.235	9812.51
551.599	9841.66
551.962	9907.42
552.326	9981.32
552.689	10005.95
553.053	9951.04
553.417	10031.71
553.78	10165.04
554.143	10160.52
554.507	10284.36
554.87	10216.79
555.234	10330.46
555.597	10301.99
555.96	10283.23
556.323	10382.44
556.686	10461.53
557.05	10509.67
557.413	10572.72
557.776	10598.93
558.139	10687.06
558.502	10688.42
558.865	10733.39
559.228	10750.11
559.59	10856.78
559.953	10891.35
560.316	11024.91
560.679	11041.18
561.041	11202.98
561.404	11137
561.767	11146.71
562.129	11217.9
562.492	11308.52
562.854	11304.67
563.217	11400.27
563.579	11392.58
563.941	11508.74
564.304	11566.59
564.666	11619.92
565.028	11710.31
565.39	11727.49
565.753	11786.7
566.115	11795.06
566.477	11911.44
566.839	11926.13
567.201	12022.4
567.563	12173.8
567.925	12225.33
568.287	12179.91
568.648	12240.47
569.01	12266.46
569.372	12393.69
569.734	12330.18
570.095	12463.29
570.457	12567.47
570.819	12671.42
571.18	12666.9
571.542	12632.78
571.903	12712.1
572.265	12796.84
572.626	12899.89
572.987	12858.31
573.349	12974.46
573.71	13048.13
574.071	13143.27
574.432	13267.79
574.794	13296.03
575.155	13297.16
575.516	13254
575.877	13359.99
576.238	13432.98
576.599	13445.64
576.96	13484.28
577.32	13552.98
577.681	13588.46
578.042	13671.62
578.403	13657.16
578.763	13752.29
579.124	13662.13
579.485	13846.53
579.845	13884.72
580.206	13893.08
580.566	13869.8
580.927	13906.64
581.287	14076.35
581.648	14047.88
582.008	14030.93
582.368	14042.46
582.728	14147.54
583.089	14179.18
583.449	14113.19
583.809	14157.48
584.169	14193.19
584.529	14235.9
584.889	14359.74
585.249	14262.34
585.609	14375.55
585.969	14413.29
586.329	14462.11
586.688	14440.41
587.048	14516.57
587.408	14461.88
587.768	14536
588.127	14519.73
588.487	14527.19
588.846	14648.77
589.206	14603.57
589.565	14603.34
589.925	14846.5
590.284	14690.57
590.643	14746.84
591.003	14769.22
591.362	14891.92
591.721	14874.07
592.08	14862.77
592.44	14978.7
592.799	14963.34
593.158	14926.95
593.517	14912.94
593.876	14990.45
594.235	14942.32
594.593	15000.85
594.952	15044.69
595.311	15008.53
595.67	15058.7
596.029	15242.42
596.387	15239.03
596.746	15229.09
597.104	15143.67
597.463	15230
597.822	15295.98
598.18	15219.6
598.538	15324.91
598.897	15394.28
599.255	15339.37
599.613	15430.22
599.972	15458.46
600.33	15438.58
600.688	15415.75
601.046	15510.44
601.404	15584.79
601.762	15523.55
602.12	15586.82
602.478	15691.9
602.836	15656.88
603.194	15514.73
603.552	15715.63
603.91	15642.19
604.268	15749.53
604.625	15740.04
604.983	15701.4
605.341	15684.45
605.698	15782.07
606.056	15815.52
606.413	15785.23
606.771	15897.55
607.128	15904.55
607.485	15833.14
607.843	15856.65
608.2	15923.76
608.557	16121.95
608.914	16012.12
609.272	16111.78
609.629	16105.45
609.986	16092.57
610.343	16090.31
610.7	16241.72
611.057	16297.54
611.414	16132.57
611.771	16218.44
612.127	16326.46
612.484	16294.6
612.841	16415.27
613.198	16346.12
613.554	16350.64
613.911	16420.02
614.267	16427.03
614.624	16465.67
614.98	16433.35
615.337	16557.64
615.693	16576.4
616.05	16535.27
616.406	16575.72
616.762	16488.04
617.118	16526.01
617.475	16573.24
617.831	16681.48
618.187	16664.53
618.543	16712.89
618.899	16737.75
619.255	16773.01
619.611	16705.66
619.967	16778.65
620.323	16857.52
620.678	16733.68
621.034	16723.74
621.39	16638.09
621.746	16716.96
622.101	16854.59
622.457	16744.53
622.812	16860.69
623.168	16796.28
623.523	16898.88
623.879	16926.22
624.234	16773.23
624.589	16784.76
624.945	16872.89
625.3	16860.69
625.655	16766.45
626.01	16916.73
626.365	16920.57
626.72	16917.63
627.075	16886.67
627.43	16867.69
627.785	16773.91
628.14	16949.05
628.495	16911.08
628.85	16897.3
629.205	16747.24
629.559	16902.49
629.914	16751.76
630.269	16824.98
630.623	16819.33
630.978	16679.22
631.332	16773.01
631.687	16946.79
632.041	16822.5
632.396	16821.82
632.75	16738.43
633.104	16745.44
633.459	16734.14
633.813	16664.76
634.167	16772.1
634.521	16756.28
634.875	16798.77
635.229	16760.12
635.583	16674.7
635.937	16784.08
636.291	16598.32
636.645	16673.35
636.999	16604.87
637.352	16663.4
637.706	16579.34
638.06	16633.57
638.413	16551.32
638.767	16612.56
639.121	16524.65
639.474	16497.98
639.828	16493.92
640.181	16446.46
640.534	16389.96
640.888	16387.93
641.241	16370.53
641.594	16418.44
641.947	16459.12
642.301	16290.08
642.654	16341.38
643.007	16369.4
643.36	16416.86
643.713	16321.04
644.066	16304.54
644.419	16230.87
644.771	16094.61
645.124	15942.97
645.477	15997.66
645.83	15832.92
646.182	15836.31
646.535	15625.92
646.888	15958.79
647.24	15776.65
647.593	15932.8
647.945	15867.49
648.298	15775.74
648.65	15834.72
649.002	15762.18
649.355	15822.3
649.707	15599.25
650.059	15820.94
650.411	15924.67
650.763	15960.82
651.115	16192.23
651.467	16072.68
651.819	16131.67
652.171	16114.04
652.523	16011.67
652.875	16078.56
653.227	15945.68
653.578	16039.69
653.93	16020.26
654.282	15993.36
654.633	15936.42
654.985	15977.77
655.337	15965.12
655.688	15948.85
656.039	16097.09
656.391	15902.75
656.742	16027.04
657.094	15989.98
657.445	16027.49
657.796	16022.52
658.147	15970.31
658.498	15987.26
658.849	15979.81
659.2	15940.94
659.551	15989.52
659.902	15976.87
660.253	15930.32
660.604	15947.72
660.955	15952.69
661.306	15930.32
661.656	15906.81
662.007	15905.23
662.358	15941.39
662.708	15900.94
663.059	15898.9
663.409	15833.82
663.76	15970.09
664.11	15853.93
664.461	15906.81
664.811	15896.42
665.161	15956.08
665.511	15828.62
665.862	15861.39
666.212	15965.57
666.562	16029.07
666.912	15822.3
667.262	15820.49
667.612	15882.63
667.962	15887.6
668.312	15888.96
668.662	15974.83
669.011	15858
669.361	15834.72
669.711	15876.98
670.06	15897.1
670.41	15843.54
670.76	15875.63
671.109	15944.33
671.459	15916.76
671.808	15952.69
672.157	15833.82
672.507	15735.97
672.856	15803.31
673.205	15801.05
673.554	15863.65
673.904	15765.8
674.253	15887.6
674.602	15790.43
674.951	15618.91
675.3	15594.51
675.649	15797.21
675.998	15768.74
676.346	15766.25
676.695	15824.78
677.044	15756.31
677.393	15699.14
677.741	15821.17
678.09	15727.61
678.438	15777.55
678.787	15722.19
679.135	15797.44
679.484	15681.96
679.832	15750.21
680.181	15632.02
680.529	15653.03
680.877	15670.66
681.225	15615.97
681.573	15698.01
681.922	15660.72
682.27	15571
682.618	15589.53
682.966	15518.35
683.314	15634.28
683.661	15505.24
684.009	15499.14
684.357	15471.12
684.705	15428.41
685.053	15441.06
685.4	15447.16
685.748	15340.73
686.095	15293.27
686.443	15299.37
686.79	15349.31
687.138	15335.75
687.485	15245.59
687.832	15207.62
688.18	15283.55
688.527	15210.79
688.874	15179.83
689.221	15129.21
689.568	15069.77
689.915	15062.32
690.262	15024.12
690.609	15017.8
690.956	14929.21
691.303	14987.74
691.65	14873.85
691.997	14841.53
692.344	14818.48
692.69	14758.14
693.037	14820.29
693.383	14649.9
693.73	14795.43
694.077	14675.21
694.423	14620.52
694.769	14628.2
695.116	14607.86
695.462	14647.41
695.808	14568.77
696.155	14493.97
696.501	14368.1
696.847	14387.98
697.193	14325.84
697.539	14397.25
697.885	14341.43
698.231	14143.24
698.577	14240.19
698.923	14246.07
699.269	14155.67
699.614	14119.74
699.96	14067.09
700.306	14121.1
700.651	14033.42
700.997	13969.69
701.342	14018.28
701.688	13989.58
702.033	13863.03
702.379	13909.58
702.724	13826.87
703.069	13927.43
703.415	13743.48
703.76	13708.45
704.105	13712.97
704.45	13742.8
704.795	13651.05
705.14	13588
705.485	13495.58
705.83	13445.41
706.175	13489.93
706.52	13470.72
706.865	13446.09
707.209	13414.9
707.554	13412.42
707.899	13451.51
708.243	13300.33
708.588	13319.08
708.932	13149.15
709.277	13314.79
709.621	13258.3
709.966	13194.79
710.31	13280.44
710.654	13102.59
710.998	13133.78
711.342	13127.68
711.687	13124.29
712.031	13027.12
712.375	13043.16
712.719	13096.72
713.063	13068.92
713.407	13003.39
713.75	13035.48
714.094	12927.46
714.438	12886.1
714.782	12958.64
715.125	12907.57
715.469	12861.47
715.812	12871.19
716.156	12699.44
716.499	12806.33
716.843	12766.11
717.186	12731.98
717.53	12832.09
717.873	12794.58
718.216	12745.54
718.559	12668.93
718.902	12613.34
719.246	12694.24
719.589	12635.49
719.932	12543.29
720.275	12715.48
720.617	12669.16
720.96	12546.9
721.303	12510.07
721.646	12617.86
721.989	12474.81
722.331	12544.64
722.674	12498.54
723.016	12548.03
723.359	12497.41
723.701	12492.44
724.044	12433.46
724.386	12359.11
724.729	12471.88
725.071	12388.71
725.413	12358.88
725.755	12375.61
726.097	12410.86
726.439	12344.87
726.782	12340.58
727.124	12316.85
727.465	12291.99
727.807	12372.9
728.149	12233.01
728.491	12313.24
728.833	12356.4
729.175	12209.96
729.516	12134.03
729.858	12292.67
730.199	12284.31
730.541	12280.69
730.882	12180.58
731.224	12262.84
731.565	12218.55
731.906	12118.44
732.248	12210.87
732.589	12113.01
732.93	12143.07
733.271	12142.39
733.612	12162.73
733.953	12096.74
734.294	12180.58
734.635	12092.22
734.976	12099
735.317	12054.94
735.658	12032.34
735.999	12037.54
736.339	12143.07
736.68	12080.47
737.021	12114.14
737.361	12059.68
737.702	12091.09
738.042	12050.87
738.383	11958.44
738.723	12040.93
739.063	12056.75
739.404	12008.84
739.744	12003.19
740.084	12036.41
740.424	12005.67
740.764	12000.7
741.104	11955.73
741.444	11986.69
741.784	11855.62
742.124	11902.85
742.464	11945.79
742.804	11993.24
743.143	11836.64
743.483	11826.92
743.823	11822.85
744.162	11863.3
744.502	11810.42
744.841	11838.9
745.181	11775.62
745.52	11860.82
745.86	11882.96
746.199	11864.43
746.538	11772.23
746.877	11932.91
747.216	11812.23
747.556	11887.48
747.895	11874.38
748.234	11747.6
748.573	11757.09
748.911	11692.69
749.25	11732.01
749.589	11642.52
749.928	11811.33
750.267	11670.77
750.605	11788.28
750.944	11736.08
751.283	11652.01
751.621	11757.32
751.96	11691.11
752.298	11648.17
752.636	11638
752.975	11544.22
753.313	11627.83
753.651	11614.27
753.989	11519.58
754.327	11597.55
754.666	11432.58
755.004	11469.87
755.342	11515.74
755.679	11457.21
756.017	11423.99
756.355	11464.9
756.693	11409.53
757.031	11447.95
757.368	11283.88
757.706	11352.58
758.044	11347.61
758.381	11310.55
