Data from tablewood_brown_FLMS001491_003.txt Node
Date: Tue Feb 07 11:09:55 GMT 2017
User: dcchb
Spectrometer: FLMS00149
Trigger mode: 0
Integration Time (sec): 2.000000E-2
Scans to average: 10
Electric dark correction enabled: true
Nonlinearity correction enabled: false
Boxcar width: 0
XAxis mode: Wavelengths
Number of Pixels in Spectrum: 2048
>>>>>Begin Spectral Data<<<<<
341.393	-18.67
341.776	-18.67
342.16	-18.67
342.543	-49.86
342.927	-61.61
343.31	-81.95
343.693	-54.83
344.077	-73.13
344.46	-68.16
344.843	-40.14
345.226	-40.37
345.61	-28.16
345.993	-40.82
346.376	4.6
346.759	17.49
347.142	29.24
347.525	57.71
347.908	61.1
348.291	60.65
348.674	83.47
349.057	113.3
349.44	142.68
349.823	134.54
350.206	182.68
350.588	206.86
350.971	210.25
351.354	223.36
351.737	239.63
352.119	273.98
352.502	268.78
352.884	271.94
353.267	276.91
353.65	297.25
354.032	303.58
354.414	329.79
354.797	326.18
355.179	306.52
355.562	323.24
355.944	327.99
356.326	336.57
356.709	359.62
357.091	318.72
357.473	327.08
357.855	346.52
358.238	359.4
358.62	358.72
359.002	351.26
359.384	348.78
359.766	360.75
360.148	337.48
360.53	353.07
360.912	331.6
361.294	348.32
361.676	366.4
362.057	345.39
362.439	340.87
362.821	338.15
363.203	343.13
363.584	305.84
363.966	315.33
364.348	338.61
364.729	343.8
365.111	334.77
365.493	349.68
365.874	337.25
366.256	324.6
366.637	344.93
367.019	328.66
367.4	313.52
367.781	320.3
368.163	327.08
368.544	345.61
368.925	306.29
369.306	328.89
369.688	335.9
370.069	315.78
370.45	336.57
370.831	335.67
371.212	337.48
371.593	350.36
371.974	353.75
372.355	336.12
372.736	347.65
373.117	345.39
373.498	355.78
373.879	330.7
374.26	335.22
374.641	364.14
375.021	351.04
375.402	320.98
375.783	368.21
376.163	356.46
376.544	356.91
376.925	362.11
377.305	349.45
377.686	360.3
378.066	342
378.447	385.16
378.827	361.21
379.208	371.37
379.588	366.63
379.968	370.92
380.349	371.15
380.729	378.83
381.109	401.43
381.489	363.24
381.87	363.69
382.25	378.15
382.63	360.98
383.01	386.29
383.39	385.61
383.77	379.06
384.15	391.49
384.53	398.72
384.91	387.19
385.29	383.13
385.67	386.74
386.049	402.11
386.429	406.63
386.809	409.11
387.189	405.05
387.568	409.11
387.948	398.27
388.328	411.6
388.707	431.49
389.087	394.2
389.466	421.09
389.846	420.19
390.225	413.86
390.605	422.45
390.984	433.52
391.363	425.38
391.743	445.5
392.122	461.99
392.501	453.63
392.881	452.5
393.26	462.9
393.639	466.74
394.018	459.06
394.397	466.06
394.776	448.89
395.155	477.59
395.534	497.02
395.913	465.38
396.292	477.81
396.671	486.63
397.05	481.65
397.429	497.25
397.808	485.04
398.186	498.15
398.565	492.95
398.944	492.73
399.323	497.47
399.701	501.99
400.08	500.41
400.458	520.75
400.837	521.43
401.215	505.61
401.594	521.2
401.972	523.01
402.351	544.03
402.729	547.87
403.107	532.27
403.486	541.99
403.864	555.32
404.242	538.15
404.62	560.3
404.999	546.06
405.377	547.87
405.755	562.78
406.133	574.31
406.511	566.62
406.889	599.62
407.267	579.96
407.645	600.07
408.023	609.79
408.401	612.05
408.779	609.11
409.156	592.61
409.534	614.08
409.912	640.07
410.29	634.87
410.667	647.3
411.045	621.09
411.422	628.09
411.8	660.18
412.178	674.64
412.555	675.77
412.933	694.53
413.31	696.79
413.687	699.95
414.065	722.1
414.442	690.46
414.819	691.82
415.197	707.18
415.574	714.42
415.951	725.04
416.328	733.85
416.705	738.14
417.082	728.65
417.46	755.77
417.837	766.39
418.214	749.22
418.591	734.75
418.967	756
419.344	778.37
419.721	782.44
420.098	764.13
420.475	808.43
420.852	766.39
421.228	826.28
421.605	798.26
421.982	831.93
422.358	829.89
422.735	823.11
423.111	825.37
423.488	820.4
423.864	842.55
424.241	851.36
424.617	835.77
424.994	864.02
425.37	847.97
425.746	866.73
426.123	870.8
426.499	894.75
426.875	892.94
427.251	901.3
427.627	911.93
428.003	929.1
428.379	939.72
428.756	970.68
429.132	976.1
429.507	955.31
429.883	983.79
430.259	998.93
430.635	989.89
431.011	995.31
431.387	1006.39
431.763	1022.43
432.138	1066.27
432.514	1033.96
432.89	1052.71
433.265	1076.89
433.641	1085.48
434.016	1099.94
434.392	1105.59
434.767	1114.86
435.143	1158.47
435.518	1121.64
435.894	1125.03
436.269	1153.5
436.644	1206.38
437.02	1198.25
437.395	1195.53
437.77	1224.69
438.145	1231.24
438.52	1213.39
438.895	1228.75
439.271	1232.37
439.646	1287.96
440.021	1265.59
440.395	1290.9
440.77	1290.45
441.145	1275.98
441.52	1282.54
441.895	1318.02
442.27	1317.79
442.645	1321.41
443.019	1342.42
443.394	1323.67
443.769	1371.12
444.143	1324.57
444.518	1388.07
444.892	1348.98
445.267	1374.51
445.641	1411.57
446.016	1414.06
446.39	1429.65
446.764	1435.3
447.139	1422.87
447.513	1432.59
447.887	1434.17
448.262	1454.28
448.636	1482.76
449.01	1461.52
449.384	1487.05
449.758	1492.7
450.132	1522.76
450.506	1521.17
450.88	1520.95
451.254	1509.2
451.628	1549.87
452.002	1559.82
452.376	1583.55
452.75	1588.07
453.123	1597.33
453.497	1622.41
453.871	1603.66
454.244	1648.4
454.618	1652.02
454.992	1678.01
455.365	1684.33
455.739	1716.42
456.112	1724.56
456.486	1765.69
456.859	1787.61
457.232	1800.04
457.606	1785.57
457.979	1812.47
458.352	1871
458.725	1868.74
459.099	1900.37
459.472	1920.03
459.845	1937.43
460.218	1953.48
460.591	1964.55
460.964	1955.06
461.337	2030.31
461.71	2036.64
462.083	2049.97
462.456	2072.8
462.829	2131.78
463.201	2114.61
463.574	2131.78
463.947	2183.76
464.32	2224.21
464.692	2212
465.065	2254.26
465.438	2288.39
465.81	2330.42
466.183	2340.36
466.555	2374.26
466.928	2401.38
467.3	2421.94
467.672	2432.34
468.045	2514.82
468.417	2524.09
468.789	2518.21
469.161	2577.64
469.534	2615.61
469.906	2730.63
470.278	2674.36
470.65	2759.79
471.022	2787.58
471.394	2831.65
471.766	2845.43
472.138	2876.85
472.51	2928.14
472.882	2997.29
473.253	3063.96
473.625	3126.33
473.997	3195.48
474.369	3165.88
474.74	3271.86
475.112	3315.25
475.484	3380.56
475.855	3404.52
476.227	3507.79
476.598	3562.48
476.97	3638.41
477.341	3721.57
477.713	3754.34
478.084	3806.54
478.455	3909.13
478.827	3957.95
479.198	4086.76
479.569	4133.31
479.94	4236.13
480.311	4268.67
480.682	4362.23
481.053	4456.92
481.424	4549.57
481.795	4590.47
482.166	4684.93
482.537	4759.96
482.908	4826.62
483.279	4922.44
483.65	4996.56
484.021	5112.94
484.391	5227.07
484.762	5233.62
485.133	5295.54
485.503	5354.07
485.874	5540.96
486.244	5540.73
486.615	5655.53
486.985	5727.17
487.356	5838.58
487.726	5897.78
488.097	5991.11
488.467	6093.26
488.837	6194.05
489.207	6261.84
489.578	6293.93
489.948	6343.42
490.318	6483.3
490.688	6518.56
491.058	6666.8
491.428	6660.47
491.798	6793.8
492.168	6903.18
492.538	6967.13
492.908	7020.69
493.278	7196.73
493.648	7111.31
494.017	7276.28
494.387	7261.14
494.757	7411.42
495.126	7471.07
495.496	7530.28
495.866	7625.19
496.235	7714.68
496.605	7744.29
496.974	7811.63
497.344	7856.6
497.713	7911.29
498.082	7996.94
498.452	8168.46
498.821	8097.95
499.19	8143.37
499.559	8227.21
499.928	8264.73
500.298	8378.17
500.667	8401.45
501.036	8408.9
501.405	8546.53
501.774	8566.19
502.143	8640.99
502.512	8687.99
502.88	8733.87
503.249	8833.3
503.618	8816.8
503.987	8910.13
504.356	8962.56
504.724	9071.71
505.093	9065.38
505.462	9093.18
505.83	9197.36
506.199	9250.01
506.567	9424.47
506.936	9386.5
507.304	9561.87
507.672	9522.09
508.041	9615.2
508.409	9678.7
508.777	9794.86
509.145	9864.23
509.514	9831.01
509.882	9972.48
510.25	10026.71
510.618	10097.45
510.986	10131.34
511.354	10343.99
511.722	10351
512.09	10470.77
512.458	10486.14
512.826	10608.62
513.193	10616.08
513.561	10662.4
513.929	10771.33
514.297	10912.57
514.664	10953.92
515.032	11039.57
515.4	11155.95
515.767	11182.16
516.135	11343.06
516.502	11272.78
516.869	11444.98
517.237	11560.91
517.604	11526.56
517.972	11665.77
518.339	11779.44
518.706	11815.59
519.073	11904.63
519.44	11978.07
519.808	12032.31
520.175	12134.91
520.542	12302.36
520.909	12483.82
521.276	12433.88
521.643	12680.43
522.009	12663.71
522.376	12789.8
522.743	12905.06
523.11	12977.14
523.477	13122.68
523.843	13211.49
524.21	13364.03
524.577	13419.62
524.943	13528.09
525.31	13675.66
525.676	13769.44
526.043	13849.44
526.409	13959.27
526.776	14129.66
527.142	14172.59
527.508	14187.96
527.874	14382.31
528.241	14437.9
528.607	14563.54
528.973	14616.65
529.339	14729.87
529.705	14807.15
530.071	14931.22
530.437	15062.51
530.803	15144.09
531.169	15137.54
531.535	15218.89
531.901	15241.27
532.267	15419.79
532.632	15427.02
532.998	15556.51
533.364	15647.36
533.73	15708.15
534.095	15858.2
534.461	15885.99
534.826	16059.32
535.192	16105.42
535.557	16187.23
535.923	16176.83
536.288	16266.32
536.653	16307.45
537.019	16341.12
537.384	16372.99
537.749	16562.36
538.114	16616.6
538.479	16602.59
538.845	16681.91
539.21	16758.29
539.575	16853.88
539.94	16925.29
540.305	16989.69
540.67	16926.87
541.034	17037.15
541.399	17037.6
541.764	17252.51
542.129	17229.69
542.494	17316.24
542.858	17306.3
543.223	17441.43
543.587	17570.92
543.952	17586.97
544.316	17699.96
544.681	17602.79
545.045	17742.22
545.41	17871.71
545.774	17934.53
546.138	17922.55
546.503	17998.26
546.867	18069.89
547.231	18171.13
547.595	18229.21
547.959	18216.78
548.324	18353.95
548.688	18393.95
549.052	18518.24
549.416	18531.57
549.779	18666.03
550.143	18698.8
550.507	18902.86
550.871	18899.02
551.235	19028.06
551.599	19184.44
551.962	19285.45
552.326	19210.88
552.689	19419.91
553.053	19404.55
553.417	19498.33
553.78	19782.16
554.143	19631.21
554.507	19811.99
554.87	19913.91
555.234	20141.48
555.597	20044.76
555.96	20247.69
556.323	20356.39
556.686	20430.96
557.05	20680.67
557.413	20655.81
557.776	20836.15
558.139	21089.47
558.502	21217.38
558.865	21120.66
559.228	21373.76
559.59	21615.34
559.953	21590.93
560.316	21862.33
560.679	21961.09
561.041	22071.59
561.404	22280.18
561.767	22533.96
562.129	22439.49
562.492	22580.73
562.854	22702.09
563.217	22869.09
563.579	23114.05
563.941	23288.29
564.304	23461.84
564.666	23691.44
565.028	23717.88
565.39	23838.33
565.753	24084.65
566.115	24165.1
566.477	24467.92
566.839	24423.62
567.201	24751.52
567.563	24851.63
567.925	25181.12
568.287	25124.85
568.648	25328.23
569.01	25567.55
569.372	25686.42
569.734	25779.97
570.095	26106.06
570.457	26223.12
570.819	26334.76
571.18	26443.91
571.542	26688.65
571.903	26789.44
572.265	26945.14
572.626	27128.19
572.987	27206.83
573.349	27483.66
573.71	27569.53
574.071	27750.99
574.432	28013.81
574.794	28252.45
575.155	28276.63
575.516	28257.87
575.877	28549.39
576.238	28689.05
576.599	28779.67
576.96	28927.69
577.32	29042.26
577.681	29366.77
578.042	29463.94
578.403	29539.42
578.763	29627.1
579.124	29815.57
579.485	29972.63
579.845	30072.06
580.206	30151.61
580.566	30162.68
580.927	30279.29
581.287	30542.78
581.648	30472.28
582.008	30763.57
582.368	30710.24
582.728	30759.05
583.089	30956.11
583.449	30909.55
583.809	31209.66
584.169	31166.95
584.529	31240.62
584.889	31433.38
585.249	31231.13
585.609	31347.51
585.969	31464.79
586.329	31477.22
586.688	31591.12
587.048	31464.12
587.408	31510.89
587.768	31654.17
588.127	31707.05
588.487	31703.43
588.846	31972.35
589.206	31782.98
589.565	31838.34
589.925	32022.52
590.284	31889.64
590.643	31982.29
591.003	32152.46
591.362	32300.25
591.721	32184.55
592.08	32154.95
592.44	32256.64
592.799	32281.27
593.158	32277.2
593.517	32319.46
593.876	32372.79
594.235	32341.16
594.593	32335.05
594.952	32523.3
595.311	32380.93
595.67	32389.06
596.029	32571.21
596.387	32648.72
596.746	32764.42
597.104	32618.89
597.463	32655.72
597.822	32669.96
598.18	32592.22
598.538	32682.39
598.897	32766.45
599.255	32460.93
599.613	33056.16
599.972	32841.48
600.33	32924.19
600.688	32757.19
601.046	32930.97
601.404	33058.65
601.762	33067.92
602.12	33200.34
602.478	33070.63
602.836	33283.73
603.194	32984.08
603.552	33189.49
603.91	32953.79
604.268	33074.7
604.625	33077.86
604.983	33244.18
605.341	33094.13
605.698	33206.9
606.056	33345.65
606.413	33364.63
606.771	33430.39
607.128	33557.39
607.485	33219.55
607.843	33331.64
608.2	33557.62
608.557	33652.76
608.914	33481.69
609.272	33694.79
609.629	33694.79
609.986	33834.22
610.343	33591.74
610.7	33824.96
611.057	33963.71
611.414	33732.98
611.771	33870.38
612.127	33990.83
612.484	33903.37
612.841	33895.92
613.198	33915.58
613.554	34023.82
613.911	34106.08
614.267	34178.85
614.624	34266.53
614.98	34160.32
615.337	34382.91
615.693	34350.14
616.05	34336.13
616.406	34278.73
616.762	34385.17
617.118	34369.58
617.475	34355.79
617.831	34570.02
618.187	34558.27
618.543	34526.18
618.899	34818.38
619.255	34726.63
619.611	34751.04
619.967	34809.56
620.323	34836.23
620.678	34581.1
621.034	34608.67
621.39	34579.74
621.746	34715.1
622.101	35149.67
622.457	34747.65
622.812	34860.19
623.168	34883.91
623.523	34909.9
623.879	35014.31
624.234	34739.74
624.589	34771.83
624.945	34919.39
625.3	34977.47
625.655	34941.09
626.01	34804.37
626.365	34898.15
626.72	34911.48
627.075	34819.28
627.43	34823.35
627.785	34718.49
628.14	34749.23
628.495	34842.11
628.85	34705.84
629.205	34726.63
629.559	34867.64
629.914	34580.87
630.269	34685.05
630.623	34645.05
630.978	34624.71
631.332	34782
631.687	34726.4
632.041	34547.88
632.396	34658.38
632.75	34488.67
633.104	34717.82
633.459	34440.99
633.813	34514.66
634.167	34341.55
634.521	34399.86
634.875	34461.55
635.229	34292.74
635.583	34170.94
635.937	34340.88
636.291	34123.26
636.645	34173.65
636.999	34205.29
637.352	34303.59
637.706	34082.58
638.06	34036.7
638.413	34123.26
638.767	34037.61
639.121	34138.17
639.474	33862.25
639.828	33977.5
640.181	33937.5
640.534	33826.09
640.888	33765.98
641.241	33586.09
641.594	33630.61
641.947	33787.9
642.301	33634.91
642.654	33725.53
643.007	33750.61
643.36	33608.01
643.713	33639.88
644.066	33740.67
644.419	33427.45
644.771	33390.85
645.124	33058.2
645.477	32895.27
645.83	32702.95
646.182	32477.42
646.535	32442.4
646.888	32479.91
647.24	32446.01
647.593	32585.89
647.945	32502.73
648.298	32431.77
648.65	32320.14
649.002	32258.9
649.355	32403.98
649.707	32366.01
650.059	32510.42
650.411	32838.09
650.763	32845.55
651.115	33234.24
651.467	33107.24
651.819	33129.61
652.171	33001.93
652.523	33029.72
652.875	33034.7
653.227	32939.56
653.578	33212.77
653.93	33090.74
654.282	32934.36
654.633	32920.58
654.985	33128.48
655.337	32972.1
655.688	33031.76
656.039	33146.56
656.391	32829.05
656.742	32848.26
657.094	32930.97
657.445	32927.35
657.796	32968.94
658.147	32896.17
658.498	32840.35
658.849	32929.61
659.2	32958.54
659.551	32854.14
659.902	32869.28
660.253	32769.17
660.604	32846.23
660.955	32671.32
661.306	32829.5
661.656	32810.52
662.007	32824.31
662.358	32718.09
662.708	32836.51
663.059	32801.26
663.409	32654.59
663.76	32798.77
664.11	32717.64
664.461	32883.74
664.811	32899.56
665.161	32770.97
665.511	32650.07
665.862	32831.31
666.212	32950.86
666.562	32842.16
666.912	32711.09
667.262	32733.91
667.612	32813.46
667.962	32716.06
668.312	32663.86
668.662	32918.09
669.011	32813.01
669.361	32690.3
669.711	32575.27
670.06	32661.6
670.41	32532.34
670.76	32500.47
671.109	32587.93
671.459	32625.89
671.808	32533.92
672.157	32688.04
672.507	32429.51
672.856	32351.78
673.205	32514.94
673.554	32510.42
673.904	32359.46
674.253	32411.44
674.602	32424.99
674.951	31907.04
675.3	31853.48
675.649	32374.37
675.998	32379.8
676.346	32321.27
676.695	32452.34
677.044	32147.26
677.393	32099.81
677.741	32172.8
678.09	32109.3
678.438	32046.93
678.787	31999.24
679.135	31989.3
679.484	31736.65
679.832	32015.29
680.181	31763.54
680.529	31879.92
680.877	31736.65
681.225	31638.12
681.573	31921.96
681.922	31714.96
682.27	31542.31
682.618	31592.93
682.966	31505.02
683.314	31465.92
683.661	31431.12
684.009	31220.05
684.357	31222.09
684.705	31236.1
685.053	31185.71
685.4	31041.3
685.748	31065.93
686.095	30990.91
686.443	30980.51
686.79	30806.73
687.138	30861.42
687.485	30878.59
687.832	30638.6
688.18	30729.22
688.527	30487.64
688.874	30501.2
689.221	30381.66
689.568	30433.18
689.915	30259.63
690.262	30161.55
690.609	30156.81
690.956	30095.11
691.303	29983.03
691.65	29784.84
691.997	29839.53
692.344	29628.01
692.69	29663.49
693.037	29517.95
693.383	29393.89
693.73	29362.93
694.077	29232.54
694.423	29250.62
694.769	29066.67
695.116	29005.2
695.462	29023.05
695.808	28822.6
696.155	28802.49
696.501	28651.08
696.847	28660.12
697.193	28372.9
697.539	28577.64
697.885	28332
698.231	28091.32
698.577	28098.78
698.923	28071.66
699.269	28002.06
699.614	27877.09
699.96	27748.73
700.306	27715.29
700.651	27519.14
700.997	27531.11
701.342	27477.33
701.688	27440.49
702.033	27296.54
702.379	27341.96
702.724	27130.22
703.069	27257.9
703.415	26954.4
703.76	26943.78
704.105	26897.46
704.45	26732.72
704.795	26630.57
705.14	26549.67
705.485	26510.12
705.83	26412.5
706.175	26401.42
706.52	26347.41
706.865	26125.27
707.209	26048.44
707.554	26097.25
707.899	26029
708.243	26059.96
708.588	25822.91
708.932	25706.75
709.277	25706.08
709.621	25694.32
709.966	25537.27
710.31	25690.93
710.654	25366.88
710.998	25459.08
711.342	25396.25
711.687	25285.52
712.031	25226.31
712.375	25096.37
712.719	25196.03
713.063	25194.68
713.407	25210.95
713.75	25115.36
714.094	25027.68
714.438	24972.76
714.782	25038.52
715.125	24819.09
715.469	24837.85
715.812	24687.57
716.156	24694.12
716.499	24702.71
716.843	24702.71
717.186	24617.52
717.53	24670.62
717.873	24652.77
718.216	24496.39
718.559	24390.86
718.902	24268.37
719.246	24254.36
719.589	24329.39
719.932	24210.75
720.275	24236.74
720.617	24145.44
720.96	24157.42
721.303	24075.61
721.646	24117.19
721.989	24012.11
722.331	24157.19
722.674	24017.31
723.016	24020.47
723.359	24004.2
723.701	24018.66
724.044	23902.73
724.386	23845.11
724.729	24017.76
725.071	23920.81
725.413	23860.02
725.755	23825.9
726.097	23785.22
726.439	23771.89
726.782	23691.44
727.124	23729.63
727.465	23700.48
727.807	23712
728.149	23627.03
728.491	23601.27
728.833	23723.08
729.175	23607.83
729.516	23610.54
729.858	23584.78
730.199	23632.46
730.541	23528.28
730.882	23557.66
731.224	23627.49
731.565	23470.43
731.906	23578.67
732.248	23530.31
732.589	23405.57
732.93	23409.19
733.271	23459.13
733.612	23505
733.953	23478.34
734.294	23384.1
734.635	23307.49
734.976	23399.24
735.317	23356.98
735.658	23411.9
735.999	23470.43
736.339	23424.33
736.68	23535.51
737.021	23336.19
737.361	23242.41
737.702	23369.64
738.042	23419.58
738.383	23373.93
738.723	23409.19
739.063	23345.01
739.404	23515.62
739.744	23331.45
740.084	23371
740.424	23349.08
740.764	23339.81
741.104	23333.26
741.444	23243.77
741.784	23303.43
742.124	23347.72
742.464	23290.77
742.804	23307.04
743.143	23245.12
743.483	23184.79
743.823	23119.48
744.162	23241.28
744.502	23329.64
744.841	23143.21
745.181	23349.98
745.52	23271.11
745.86	23278.57
746.199	23109.31
746.538	23226.59
746.877	23229.08
747.216	23186.37
747.556	23168.06
747.895	23313.14
748.234	23176.2
748.573	23123.32
748.911	23097.33
749.25	23232.69
749.589	23053.94
749.928	23158.35
750.267	23165.58
750.605	23128.97
750.944	23142.3
751.283	22959.48
751.621	23071.79
751.96	23019.82
752.298	23078.57
752.636	23167.16
752.975	23051.46
753.313	23051.46
753.651	23029.31
753.989	22867.05
754.327	22947.96
754.666	22813.27
755.004	22903.21
755.342	22790.45
