Data from tablewood_dark_bookshelf_FLMS001491_00062.txt Node
Date: Wed Feb 08 14:15:22 GMT 2017
User: dcchb
Spectrometer: FLMS00149
Trigger mode: 0
Integration Time (sec): 2.000000E-2
Scans to average: 10
Electric dark correction enabled: true
Nonlinearity correction enabled: false
Boxcar width: 0
XAxis mode: Wavelengths
Number of Pixels in Spectrum: 2048
>>>>>Begin Spectral Data<<<<<
341.393	-2.01
341.776	-2.01
342.16	-2.01
342.543	-69.12
342.927	-44.49
343.31	-54.89
343.693	-76.81
344.077	-48.78
344.46	-57.6
344.843	-44.72
345.226	-31.84
345.61	-34.55
345.993	-17.37
346.376	-11.27
346.759	1.84
347.142	20.14
347.525	33.02
347.908	60.37
348.291	72.79
348.674	99.01
349.057	90.65
349.44	134.49
349.823	143.08
350.206	154.6
350.588	197.09
350.971	218.1
351.354	223.3
351.737	247.48
352.119	236.41
352.502	243.41
352.884	266.24
353.267	264.43
353.65	287.25
354.032	290.19
354.414	305.78
354.797	301.26
355.179	331.54
355.562	320.02
355.944	332.67
356.326	308.95
356.709	349.17
357.091	340.81
357.473	342.17
357.855	353.69
358.238	315.73
358.62	298.55
359.002	343.75
359.384	343.52
359.766	347.14
360.148	342.39
360.53	318.89
360.912	319.79
361.294	314.82
361.676	329.51
362.057	332.67
362.439	318.66
362.821	326.12
363.203	330.87
363.584	321.6
363.966	324.31
364.348	306.69
364.729	312.79
365.111	322.51
365.493	334.93
365.874	318.44
366.256	301.49
366.637	308.95
367.019	319.79
367.4	316.4
367.781	287.7
368.163	314.82
368.544	313.69
368.925	307.14
369.306	310.3
369.688	306.01
370.069	312.56
370.45	330.19
370.831	312.11
371.212	306.23
371.593	332.67
371.974	318.44
372.355	308.27
372.736	320.25
373.117	316.63
373.498	322.28
373.879	333.35
374.26	320.7
374.641	322.96
375.021	317.08
375.402	353.01
375.783	322.73
376.163	315.5
376.544	332.22
376.925	329.96
377.305	333.13
377.686	315.5
378.066	314.14
378.447	323.18
378.827	343.97
379.208	346.46
379.588	330.87
379.968	355.95
380.349	351.21
380.729	338.78
381.109	350.53
381.489	329.96
381.87	338.1
382.25	338.55
382.63	355.27
383.01	350.08
383.39	355.27
383.77	350.53
384.15	369.51
384.53	372.22
384.91	366.57
385.29	340.36
385.67	349.4
386.049	351.21
386.429	372.9
386.809	382.84
387.189	364.31
387.568	359.57
387.948	376.06
388.328	363.18
388.707	381.71
389.087	379.45
389.466	381.04
389.846	353.92
390.225	384.88
390.605	391.66
390.984	386.01
391.363	365.89
391.743	389.17
392.122	397.08
392.501	395.5
392.881	397.08
393.26	416.97
393.639	409.73
394.018	407.48
394.397	407.25
394.776	399.11
395.155	410.86
395.534	401.83
395.913	402.5
396.292	430.3
396.671	416.97
397.05	423.52
397.429	407.02
397.808	417.87
398.186	410.64
398.565	400.02
398.944	442.28
399.323	421.71
399.701	429.85
400.08	440.02
400.458	418.32
400.837	452.22
401.215	442.28
401.594	437.98
401.972	421.94
402.351	436.63
402.729	456.29
403.107	452.22
403.486	457.64
403.864	456.06
404.242	462.16
404.62	456.51
404.999	473.01
405.377	455.84
405.755	475.72
406.133	462.84
406.511	478.89
406.889	494.7
407.267	485.44
407.645	501.48
408.023	491.31
408.401	507.59
408.779	490.18
409.156	510.07
409.534	505.33
409.912	515.49
410.29	521.14
410.667	497.42
411.045	529.96
411.422	527.47
411.8	523.63
412.178	528.6
412.555	531.99
412.933	548.94
413.31	550.75
413.687	560.92
414.065	582.39
414.442	542.61
414.819	570.41
415.197	562.27
415.574	579.9
415.951	582.61
416.328	588.26
416.705	601.14
417.082	604.31
417.46	592.33
417.837	580.35
418.214	602.05
418.591	586
418.967	619.45
419.344	631.88
419.721	622.38
420.098	623.74
420.475	615.15
420.852	630.07
421.228	648.6
421.605	646.34
421.982	650.41
422.358	660.35
422.735	668.49
423.111	663.06
423.488	659.67
423.864	681.82
424.241	669.84
424.617	668.71
424.994	698.31
425.37	680.24
425.746	703.29
426.123	693.8
426.499	689.73
426.875	700.12
427.251	722.5
427.627	728.14
428.003	729.73
428.379	718.43
428.756	753.91
429.132	732.21
429.507	759.78
429.883	762.49
430.259	773.79
430.635	792.32
431.011	811.76
431.387	774.7
431.763	829.16
432.138	799.33
432.514	817.18
432.89	801.36
433.265	836.84
433.641	861.02
434.016	861.7
434.392	866.9
434.767	851.98
435.143	865.54
435.518	884.3
435.894	901.7
436.269	892.89
436.644	926.56
437.02	913.45
437.395	927.24
437.77	953
438.145	948.7
438.52	945.99
438.895	954.13
439.271	965.88
439.646	974.01
440.021	951.64
440.395	972.88
440.77	990.28
441.145	978.76
441.52	1001.13
441.895	1020.57
442.27	1037.97
442.645	1002.26
443.019	1044.97
443.394	1024.41
443.769	1046.55
444.143	1053.56
444.518	1047.91
444.892	1064.18
445.267	1065.76
445.641	1063.96
446.016	1076.38
446.39	1083.84
446.764	1084.52
447.139	1080
447.513	1072.54
447.887	1095.14
448.262	1113.45
448.636	1127
449.01	1144.86
449.384	1150.28
449.758	1139.66
450.132	1173.78
450.506	1136.72
450.88	1175.36
451.254	1156.16
451.628	1181.01
452.002	1179.21
452.376	1197.74
452.75	1195.48
453.123	1248.36
453.497	1242.93
453.871	1235.48
454.244	1280.9
454.618	1275.47
454.992	1308.69
455.365	1295.81
455.739	1320.67
456.112	1327.22
456.486	1339.65
456.859	1350.28
457.232	1391.63
457.606	1348.02
457.979	1386.66
458.352	1421.01
458.725	1446.77
459.099	1449.48
459.472	1442.25
459.845	1479.76
460.218	1505.75
460.591	1492.42
460.964	1514.56
461.337	1523.6
461.71	1570.16
462.083	1550.5
462.456	1596.37
462.829	1585.07
463.201	1624.39
463.574	1637.95
463.947	1629.36
464.32	1661
464.692	1698.97
465.065	1714.56
465.438	1723.6
465.81	1735.35
466.183	1745.29
466.555	1791.17
466.928	1800.43
467.3	1807.44
467.672	1816.03
468.045	1843.14
468.417	1862.35
468.789	1883.82
469.161	1904.61
469.534	1933.76
469.906	1990.03
470.278	2025.51
470.65	2008.11
471.022	2040.65
471.394	2035
471.766	2070.03
472.138	2108
472.51	2160.42
472.882	2201.55
473.253	2197.26
473.625	2249.69
473.997	2250.14
474.369	2271.61
474.74	2308.44
475.112	2370.14
475.484	2369.46
475.855	2448.33
476.227	2452.62
476.598	2504.6
476.97	2545.05
477.341	2583.46
477.713	2579.85
478.084	2660.3
478.455	2684.48
478.827	2725.61
479.198	2796.34
479.569	2807.19
479.94	2884.47
480.311	2887.64
480.682	2964.7
481.053	3023.68
481.424	3037.01
481.795	3075.43
482.166	3113.84
482.537	3181.19
482.908	3253.28
483.279	3266.61
483.65	3340.28
484.021	3371.47
484.391	3454.63
484.762	3463.44
485.133	3487.85
485.503	3511.12
485.874	3601.52
486.244	3656.43
486.615	3709.99
486.985	3763.32
487.356	3824.56
487.726	3862.3
488.097	3925.57
488.467	3890.55
488.837	3993.82
489.207	4032.01
489.578	4068.4
489.948	4141.39
490.318	4160.14
490.688	4234.49
491.058	4267.26
491.428	4340.25
491.798	4384.55
492.168	4456.63
492.538	4525.56
492.908	4476.52
493.278	4613.92
493.648	4593.81
494.017	4642.84
494.387	4691.88
494.757	4745.67
495.126	4803.97
495.496	4822.5
495.866	4821.6
496.235	4909.28
496.605	4907.47
496.974	4968.94
497.344	4975.04
497.713	4992.67
498.082	5012.1
498.452	5126.9
498.821	5157.63
499.19	5130.51
499.559	5177.97
499.928	5249.16
500.298	5281.25
500.667	5348.59
501.036	5328.93
501.405	5363.96
501.774	5457.51
502.143	5403.73
502.512	5482.14
502.88	5567.34
503.249	5560.33
503.618	5579.99
503.987	5596.27
504.356	5664.96
504.724	5677.17
505.093	5716.49
505.462	5721.23
505.83	5839.65
506.199	5832.42
506.567	5919.87
506.936	5909.48
507.304	5991.28
507.672	6017.5
508.041	6088.68
508.409	6110.83
508.777	6201.67
509.145	6198.06
509.514	6158.06
509.882	6266.53
510.25	6310.14
510.618	6367.54
510.986	6401.22
511.354	6464.72
511.722	6525.28
512.09	6503.81
512.458	6549.23
512.826	6599.63
513.193	6663.81
513.561	6614.77
513.929	6729.12
514.297	6836.68
514.664	6847.53
515.032	6874.2
515.4	6941.99
515.767	6972.05
516.135	6989.45
516.502	6976.79
516.869	7107.41
517.237	7146.06
517.604	7126.85
517.972	7271.93
518.339	7333.62
518.706	7291.81
519.073	7348.08
519.44	7378.82
519.808	7514.41
520.175	7536.55
520.542	7617.91
520.909	7681.86
521.276	7678.02
521.643	7739.94
522.009	7818.35
522.376	7853.16
522.743	7943.77
523.11	7984
523.477	8087.5
523.843	8071.91
524.21	8261.96
524.577	8259.25
524.943	8290.66
525.31	8328.62
525.676	8394.84
526.043	8453.59
526.409	8535.4
526.776	8632.12
527.142	8607.49
527.508	8749.63
527.874	8829.85
528.241	8854.48
528.607	8862.17
528.973	9001.6
529.339	8989.17
529.705	9010.86
530.071	9121.6
530.437	9196.85
530.803	9294.25
531.169	9269.62
531.535	9243.85
531.901	9341.48
532.267	9368.37
532.632	9450.18
532.998	9511.19
533.364	9553
533.73	9581.25
534.095	9661.02
534.461	9724.29
534.826	9758.42
535.192	9764.52
535.557	9783.73
535.923	9832.76
536.288	9952.08
536.653	9957.73
537.019	9963.16
537.384	10020.1
537.749	10033.66
538.114	10130.61
538.479	10143.26
538.845	10270.94
539.21	10135.13
539.575	10258.29
539.94	10253.54
540.305	10363.37
540.67	10391.39
541.034	10422.58
541.399	10471.84
541.764	10429.13
542.129	10491.28
542.494	10560.65
542.858	10556.59
543.223	10592.29
543.587	10703.7
543.952	10683.36
544.316	10694.89
544.681	10768.11
545.045	10846.52
545.41	10897.14
545.774	10926.29
546.138	10877.26
546.503	10947.76
546.867	10955.67
547.231	11091.26
547.595	11043.58
547.959	11152.5
548.324	11116.57
548.688	11143.92
549.052	11229.11
549.416	11270.24
549.779	11301.65
550.143	11332.16
550.507	11317.02
550.871	11393.63
551.235	11407.41
551.599	11507.75
551.962	11480.18
552.326	11581.19
552.689	11688.53
553.053	11645.37
553.417	11749.55
553.78	11838.36
554.143	11742.54
554.507	11831.58
554.87	11946.38
555.234	11966.04
555.597	11982.54
555.96	12033.84
556.323	12127.62
556.686	12150.67
557.05	12286.03
557.413	12268.63
557.776	12279.03
558.139	12373.04
558.502	12476.76
558.865	12506.59
559.228	12551.34
559.59	12633.82
559.953	12733.48
560.316	12741.61
560.679	12786.13
561.041	12896.64
561.404	12945.45
561.767	13050.76
562.129	13001.72
562.492	13108.16
562.854	13130.98
563.217	13145.67
563.579	13220.92
563.941	13240.13
564.304	13355.84
564.666	13392.67
565.028	13508.83
565.39	13598.31
565.753	13560.8
566.115	13705.66
566.477	13814.13
566.839	13751.31
567.201	13824.98
567.563	13930.28
567.925	14063.84
568.287	13995.14
568.648	14046.66
569.01	14168.24
569.372	14320.1
569.734	14239.88
570.095	14403.49
570.457	14419.54
570.819	14568.91
571.18	14499.31
571.542	14633.99
571.903	14719.42
572.265	14686.2
572.626	14740.43
572.987	14891.61
573.349	14862.69
573.71	14984.49
574.071	15065.62
574.432	14987.43
574.794	15245.5
575.155	15160.76
575.516	15212.28
575.877	15271.27
576.238	15305.16
576.599	15352.62
576.96	15412.96
577.32	15444.59
577.681	15578.6
578.042	15655.44
578.403	15635.32
578.763	15651.14
579.124	15691.82
579.485	15803.23
579.845	15847.75
580.206	15815.43
580.566	15785.15
580.927	15915.54
581.287	16030.57
581.648	15884.36
582.008	16079.15
582.368	16034.86
582.728	16144.46
583.089	16130.9
583.449	16238.02
583.809	16179.94
584.169	16257.45
584.529	16266.04
584.889	16365.93
585.249	16294.52
585.609	16254.52
585.969	16335.64
586.329	16376.55
586.688	16388.07
587.048	16531.8
587.408	16384.46
587.768	16420.84
588.127	16537.67
588.487	16451.12
588.846	16591.23
589.206	16512.59
589.565	16601.4
589.925	16601.17
590.284	16560.27
590.643	16633.94
591.003	16743.77
591.362	16735.63
591.721	16820.6
592.08	16787.38
592.44	16871.9
592.799	16843.65
593.158	16817.21
593.517	16801.62
593.876	16875.97
594.235	16967.04
594.593	16967.94
594.952	17053.14
595.311	16933.14
595.67	17066.47
596.029	17227.15
596.387	17075.51
596.746	17174.27
597.104	17044.78
597.463	17103.53
597.822	17196.86
598.18	17183.98
598.538	17152.12
598.897	17309.63
599.255	17157.09
599.613	17434.15
599.972	17381.94
600.33	17434.82
600.688	17444.09
601.046	17431.43
601.404	17452.9
601.762	17480.02
602.12	17634.14
602.478	17596.85
602.836	17567.93
603.194	17475.73
603.552	17605.44
603.91	17588.27
604.268	17691.77
604.625	17617.42
604.983	17693.8
605.341	17554.37
605.698	17737.41
606.056	17853.57
606.413	17822.16
606.771	17875.04
607.128	17913
607.485	17754.14
607.843	17792.1
608.2	18000.23
608.557	18028.03
608.914	17983.96
609.272	18061.47
609.629	18118.2
609.986	18089.27
610.343	18082.49
610.7	18254.69
611.057	18173.79
611.414	18138.31
611.771	18201.58
612.127	18345.76
612.484	18294.01
612.841	18414.23
613.198	18208.82
613.554	18223.5
613.911	18414.23
614.267	18410.17
614.624	18338.76
614.98	18359.09
615.337	18552.53
615.693	18490.62
616.05	18553.66
616.406	18590.27
616.762	18597.28
617.118	18500.11
617.475	18575.59
617.831	18604.28
618.187	18559.31
618.543	18595.25
618.899	18679.76
619.255	18646.09
619.611	18697.62
619.967	18743.72
620.323	18769.93
620.678	18889.25
621.034	18725.86
621.39	18701.46
621.746	18768.8
622.101	18886.99
622.457	18797.27
622.812	18820.32
623.168	18798.18
623.523	18900.32
623.879	18978.74
624.234	18830.04
624.589	18880.89
624.945	18817.39
625.3	18911.4
625.655	18909.14
626.01	18776.48
626.365	18859.42
626.72	18870.49
627.075	18895.8
627.43	18966.08
627.785	18821.45
628.14	18859.19
628.495	18890.38
628.85	18816.48
629.205	18813.32
629.559	18883.83
629.914	18870.27
630.269	18846.99
630.623	18781.91
630.978	18878.4
631.332	18868.68
631.687	18876.59
632.041	18831.85
632.396	18784.62
632.75	18752.98
633.104	18761.12
633.459	18716.6
633.813	18716.15
634.167	18669.37
634.521	18670.95
634.875	18729.93
635.229	18659.88
635.583	18651.97
635.937	18581.23
636.291	18520.45
636.645	18608.8
636.999	18547.56
637.352	18622.59
637.706	18491.75
638.06	18601.35
638.413	18428.7
638.767	18621.91
639.121	18538.75
639.474	18382.14
639.828	18310.06
640.181	18418.53
640.534	18360
640.888	18379.88
641.241	18288.13
641.594	18315.25
641.947	18411.3
642.301	18240
642.654	18284.07
643.007	18335.37
643.36	18238.64
643.713	18236.38
644.066	18275.48
644.419	18209.04
644.771	18124.52
645.124	18017.63
645.477	17953.45
645.83	17788.49
646.182	17787.13
646.535	17707.59
646.888	17724.53
647.24	17552.11
647.593	17690.86
647.945	17641.6
648.298	17577.42
648.65	17486.35
649.002	17442.96
649.355	17554.37
649.707	17550.98
650.059	17634.14
650.411	17916.39
650.763	17824.19
651.115	18006.33
651.467	17957.3
651.819	17977.18
652.171	17950.97
652.523	17926.56
652.875	17888.6
653.227	17739.9
653.578	17860.12
653.93	17873.46
654.282	17815.61
654.633	17800.01
654.985	17769.05
655.337	17779
655.688	17853.8
656.039	17981.93
656.391	17815.83
656.742	17786.91
657.094	17759.56
657.445	17846.79
657.796	17763.63
658.147	17743.29
658.498	17748.04
658.849	17822.61
659.2	17798.2
659.551	17659.9
659.902	17802.27
660.253	17855.38
660.604	17725.66
660.955	17684.99
661.306	17871.65
661.656	17757.53
662.007	17775.61
662.358	17670.98
662.708	17744.19
663.059	17778.09
663.409	17663.29
663.76	17776.74
664.11	17691.09
664.461	17693.57
664.811	17732.9
665.161	17742.16
665.511	17737.64
665.862	17689.96
666.212	17748.49
666.562	17635.04
666.912	17692.44
667.262	17627.14
667.612	17738.32
667.962	17703.29
668.312	17663.97
668.662	17762.05
669.011	17744.19
669.361	17724.08
669.711	17696.51
670.06	17692.22
670.41	17642.73
670.76	17710.07
671.109	17699.9
671.459	17612.22
671.808	17496.74
672.157	17683.63
672.507	17615.84
672.856	17601.83
673.205	17583.52
673.554	17687.25
673.904	17680.02
674.253	17642.05
674.602	17670.75
674.951	17429.85
675.3	17313.7
675.649	17544.88
675.998	17464.65
676.346	17585.78
676.695	17602.5
677.044	17421.04
677.393	17506.46
677.741	17563.41
678.09	17503.75
678.438	17396.63
678.787	17513.24
679.135	17478.66
679.484	17348.72
679.832	17460.81
680.181	17406.12
680.529	17434.37
680.877	17319.57
681.225	17416.97
681.573	17511.88
681.922	17260.37
682.27	17267.6
682.618	17279.8
682.966	17100.82
683.314	17334.94
683.661	17186.02
684.009	17130.43
684.357	17091.78
684.705	17092.69
685.053	17088.17
685.4	17053.82
685.748	16950.99
686.095	17024.21
686.443	16951.45
686.79	16980.15
687.138	16946.93
687.485	16939.7
687.832	16769.98
688.18	16863.09
688.527	16684.11
688.874	16805.01
689.221	16755.07
689.568	16730.89
689.915	16681.4
690.262	16622.19
690.609	16605.24
690.956	16575.41
691.303	16602.76
691.65	16367.73
691.997	16478.24
692.344	16443.21
692.69	16341.52
693.037	16333.16
693.383	16277.79
693.73	16249.32
694.077	16179.72
694.423	16262.88
694.769	16182.2
695.116	16080.06
695.462	16025.37
695.808	16020.62
696.155	16044.58
696.501	15907.18
696.847	15937.24
697.193	15770.24
697.539	15852.04
697.885	15784.47
698.231	15682.33
698.577	15781.53
698.923	15713.51
699.269	15719.16
699.614	15534.99
699.96	15464.93
700.306	15563.01
700.651	15451.37
700.997	15317.14
701.342	15369.12
701.688	15341.77
702.033	15215.45
702.379	15214.77
702.724	15229.68
703.069	15254.99
703.415	15136.13
703.76	15076.92
704.105	15072.85
704.45	15076.47
704.795	15040.08
705.14	15043.7
705.485	14960.09
705.83	14942.69
706.175	14949.69
706.52	14892.74
706.865	14844.61
707.209	14799.41
707.554	14762.13
707.899	14828.79
708.243	14737.72
708.588	14711.51
708.932	14640.55
709.277	14582.02
709.621	14555.58
709.966	14503.38
710.31	14470.61
710.654	14382.7
710.998	14467.44
711.342	14477.39
711.687	14436.71
712.031	14394.68
712.375	14433.77
712.719	14250.28
713.063	14286.88
713.407	14358.75
713.75	14308.8
714.094	14310.16
714.438	14205.76
714.782	14185.64
715.125	14091.86
715.469	14131.63
715.812	14027.91
716.156	13972.99
716.499	14048.25
716.843	13979.55
717.186	13905.2
717.53	13969.15
717.873	14069.04
718.216	14008.93
718.559	13974.12
718.902	13814.35
719.246	13885.09
719.589	13922.37
719.932	13806.44
720.275	13757.18
720.617	13821.36
720.96	13750.18
721.303	13794.24
721.646	13776.62
721.989	13726.45
722.331	13741.81
722.674	13732.1
723.016	13768.71
723.359	13689.61
723.701	13770.97
724.044	13619.33
724.386	13499.33
724.729	13598.31
725.071	13597.41
725.413	13544.53
725.755	13523.51
726.097	13570.74
726.439	13495.49
726.782	13442.39
727.124	13536.62
727.465	13405.1
727.807	13458.66
728.149	13407.81
728.491	13379.79
728.833	13450.97
729.175	13366
729.516	13336.4
729.858	13308.15
730.199	13511.76
730.541	13302.5
730.882	13318.77
731.224	13342.5
731.565	13306.57
731.906	13269.74
732.248	13252.56
732.589	13203.52
732.93	13137.76
733.271	13302.96
733.612	13281.94
733.953	13295.27
734.294	13242.39
734.635	13115.39
734.976	13199.23
735.317	13149.51
735.658	13064.09
735.999	13169.85
736.339	13079.01
736.68	13148.38
737.021	13123.75
737.361	13034.71
737.702	13126.69
738.042	13117.42
738.383	13057.09
738.723	13111.32
739.063	13048.72
739.404	13120.81
739.744	13048.72
740.084	13005.79
740.424	13060.02
740.764	12971.66
741.104	13061.61
741.444	13025.9
741.784	12972.34
742.124	13024.54
742.464	12986.58
742.804	12875.85
743.143	12875.4
743.483	12913.14
743.823	12839.46
744.162	12789.07
744.502	12883.31
744.841	12946.58
745.181	12856.19
745.52	12873.36
745.86	12885.34
746.199	12800.14
746.538	12737.77
746.877	12833.59
747.216	12831.56
747.556	12783.42
747.895	12755.63
748.234	12713.59
748.573	12719.47
748.911	12751.11
749.25	12700.03
749.589	12636.08
749.928	12624.78
750.267	12649.41
750.605	12692.58
750.944	12620.04
751.283	12660.71
751.621	12647.38
751.96	12491.9
752.298	12565.12
752.636	12609.64
752.975	12472.47
753.313	12590.66
753.651	12517.67
753.989	12500.04
754.327	12523.31
754.666	12446.93
755.004	12482.41
755.342	12466.37
755.679	12381.17
756.017	12377.33
756.355	12368.97
756.693	12250.1
757.031	12321.29
757.368	12218.24
