Data from tablewood_brown_FLMS001491_048.txt Node
Date: Tue Feb 07 11:10:31 GMT 2017
User: dcchb
Spectrometer: FLMS00149
Trigger mode: 0
Integration Time (sec): 2.000000E-2
Scans to average: 10
Electric dark correction enabled: true
Nonlinearity correction enabled: false
Boxcar width: 0
XAxis mode: Wavelengths
Number of Pixels in Spectrum: 2048
>>>>>Begin Spectral Data<<<<<
341.393	21.43
341.776	21.43
342.16	21.43
342.543	-77.55
342.927	-79.36
343.31	-69.87
343.693	-73.71
344.077	-72.36
344.46	-66.26
344.843	-45.24
345.226	-52.7
345.61	-19.25
345.993	-18.57
346.376	9.9
346.759	-0.95
347.142	32.95
347.525	36.57
347.908	60.52
348.291	70.24
348.674	96.23
349.057	112.5
349.44	136
349.823	147.07
350.206	173.29
350.588	213.51
350.971	209.67
351.354	219.84
351.737	234.98
352.119	244.24
352.502	244.24
352.884	281.98
353.267	282.89
353.65	287.63
354.032	296.45
354.414	291.48
354.797	336.45
355.179	326.95
355.562	332.6
355.944	340.74
356.326	347.07
356.709	341.87
357.091	339.84
357.473	347.97
357.855	348.2
358.238	332.38
358.62	332.83
359.002	346.84
359.384	352.72
359.766	352.49
360.148	363.11
360.53	339.16
360.912	324.47
361.294	349.78
361.676	334.19
362.057	343
362.439	328.99
362.821	332.15
363.203	342.55
363.584	340.06
363.966	332.15
364.348	318.82
364.729	350.46
365.111	333.73
365.493	330.34
365.874	354.3
366.256	316.33
366.637	323.34
367.019	342.32
367.4	351.13
367.781	333.06
368.163	332.83
368.544	330.34
368.925	320.4
369.306	332.15
369.688	335.99
370.069	318.14
370.45	330.8
370.831	315.43
371.212	354.52
371.593	315.88
371.974	335.99
372.355	325.37
372.736	332.38
373.117	370.12
373.498	327.41
373.879	339.16
374.26	306.16
374.641	309.33
375.021	335.54
375.402	345.49
375.783	331.7
376.163	351.81
376.544	347.52
376.925	358.37
377.305	342.55
377.686	328.76
378.066	358.59
378.447	361.53
378.827	343.9
379.208	337.35
379.588	340.06
379.968	347.07
380.349	358.14
380.729	354.07
381.109	368.54
381.489	365.82
381.87	375.77
382.25	375.54
382.63	375.77
383.01	366.95
383.39	373.28
383.77	378.7
384.15	358.59
384.53	387.74
384.91	392.94
385.29	373.28
385.67	380.29
386.049	405.6
386.429	383.9
386.809	399.95
387.189	392.94
387.568	370.57
387.948	395.2
388.328	411.25
388.707	395.88
389.087	396.33
389.466	422.77
389.846	409.89
390.225	398.14
390.605	412.38
390.984	408.08
391.363	420.51
391.743	426.16
392.122	416.9
392.501	410.12
392.881	426.61
393.26	411.02
393.639	432.26
394.018	424.13
394.397	437.46
394.776	431.81
395.155	440.85
395.534	460.96
395.913	453.51
396.292	453.05
396.671	460.28
397.05	474.97
397.429	462.09
397.808	465.71
398.186	472.71
398.565	460.51
398.944	459.15
399.323	450.12
399.701	468.87
400.08	475.65
400.458	494.18
400.837	505.26
401.215	483.11
401.594	520.17
401.972	494.41
402.351	494.18
402.729	524.01
403.107	532.82
403.486	516.55
403.864	514.75
404.242	513.39
404.62	502.54
404.999	525.37
405.377	529.44
405.755	519.72
406.133	535.08
406.511	544.12
406.889	535.76
407.267	533.05
407.645	550.45
408.023	549.77
408.401	557.46
408.779	555.2
409.156	590.9
409.534	589.55
409.912	575.99
410.29	599.72
410.667	585.93
411.045	590
411.422	596.1
411.8	620.73
412.178	622.09
412.555	620.96
412.933	620.96
413.31	627.96
413.687	610.34
414.065	629.55
414.442	648.75
414.819	659.6
415.197	649.66
415.574	657.34
415.951	665.7
416.328	692.82
416.705	667.96
417.082	696.66
417.46	703.22
417.837	689.66
418.214	685.59
418.591	697.11
418.967	688.75
419.344	700.96
419.721	708.64
420.098	728.07
420.475	716.77
420.852	735.31
421.228	740.05
421.605	761.52
421.982	722.42
422.358	748.86
422.735	755.19
423.111	738.92
423.488	763.55
423.864	789.09
424.241	743.21
424.617	787.06
424.994	749.54
425.37	796.09
425.746	787.73
426.123	809.88
426.499	820.5
426.875	801.07
427.251	813.5
427.627	835.64
428.003	851.69
428.379	832.03
428.756	851.91
429.132	874.96
429.507	859.37
429.883	861.86
430.259	868.86
430.635	886.49
431.011	884
431.387	903.66
431.763	922.19
432.138	909.76
432.514	938.01
432.89	944.11
433.265	967.84
433.641	983.43
434.016	984.11
434.392	994.06
434.767	991.57
435.143	994.06
435.518	1016.43
435.894	1039.25
436.269	1044.45
436.644	1069.76
437.02	1060.27
437.395	1041.96
437.77	1091.23
438.145	1080.61
438.52	1102.08
438.895	1101.4
439.271	1138.01
439.646	1125.35
440.021	1097.33
440.395	1130.78
440.77	1135.3
441.145	1146.82
441.52	1145.46
441.895	1192.92
442.27	1169.87
442.645	1166.93
443.019	1184.11
443.394	1200.83
443.769	1189.76
444.143	1213.26
444.518	1226.82
444.892	1238.34
445.267	1215.07
445.641	1252.58
446.016	1235.86
446.39	1248.74
446.764	1251.9
447.139	1253.48
447.513	1292.13
447.887	1289.64
448.262	1270.43
448.636	1294.84
449.01	1318.79
449.384	1324.44
449.758	1303.2
450.132	1346.14
450.506	1341.39
450.88	1355.63
451.254	1368.74
451.628	1365.57
452.002	1399.92
452.376	1399.02
452.75	1411.67
453.123	1379.58
453.497	1430.43
453.871	1420.03
454.244	1460.48
454.618	1466.36
454.992	1487.6
455.365	1501.39
455.739	1507.71
456.112	1537.77
456.486	1560.37
456.859	1565.57
457.232	1599.24
457.606	1601.05
457.979	1591.55
458.352	1635.39
458.725	1615.06
459.099	1665.45
459.472	1664.09
459.845	1715.84
460.218	1721.04
460.591	1761.27
460.964	1719.69
461.337	1765.79
461.71	1807.59
462.083	1847.37
462.456	1829.51
462.829	1841.04
463.201	1862.28
463.574	1906.57
463.947	1913.81
464.32	1946.12
464.692	1968.95
465.065	1994.48
465.438	2018.89
465.81	2009.4
466.183	2070.19
466.555	2111.54
466.928	2111.54
467.3	2124.87
467.672	2142.5
468.045	2200.13
468.417	2240.8
468.789	2257.98
469.161	2278.54
469.534	2306.34
469.906	2349.95
470.278	2415.94
470.65	2430.18
471.022	2473.56
471.394	2506.11
471.766	2560.57
472.138	2583.84
472.51	2623.39
472.882	2690.51
473.253	2723.73
473.625	2786.33
473.997	2836.72
474.369	2830.39
474.74	2888.47
475.112	2983.38
475.484	3013.21
475.855	3054.57
476.227	3105.41
476.598	3182.47
476.97	3244.84
477.341	3281
477.713	3378.4
478.084	3424.73
478.455	3523.48
478.827	3510.37
479.198	3639.86
479.569	3666.08
479.94	3791.72
480.311	3809.57
480.682	3896.58
481.053	4016.8
481.424	4076.01
481.795	4119.4
482.166	4155.55
482.537	4212.73
482.908	4368.66
483.279	4435.32
483.65	4490.46
484.021	4582.66
484.391	4653.85
484.762	4675.31
485.133	4803
485.503	4852.94
485.874	4955.53
486.244	5003.22
486.615	5095.19
486.985	5163.21
487.356	5260.38
487.726	5323.43
488.097	5409.76
488.467	5420.15
488.837	5555.97
489.207	5663.54
489.578	5699.92
489.948	5782.86
490.318	5855.62
490.688	5900.14
491.058	5999.57
491.428	6092
491.798	6118.44
492.168	6263.97
492.538	6309.62
492.908	6396.17
493.278	6427.59
493.648	6475.95
494.017	6576.96
494.387	6656.51
494.757	6709.39
495.126	6786.45
495.496	6799.78
495.866	6825.09
496.235	6973.56
496.605	6943.28
496.974	7094.69
497.344	7124.52
497.713	7112.99
498.082	7248.58
498.452	7383.72
498.821	7371.97
499.19	7378.07
499.559	7411.29
499.928	7479.08
500.298	7582.58
500.667	7652.86
501.036	7668.23
501.405	7671.62
501.774	7724.05
502.143	7824.84
502.512	7835.91
502.88	7932.18
503.249	7944.83
503.618	8029.58
503.987	8036.36
504.356	8124.04
504.724	8229.12
505.093	8236.8
505.462	8298.95
505.83	8341.21
506.199	8409.91
506.567	8548.66
506.936	8582.78
507.304	8642.22
507.672	8694.87
508.041	8760.86
508.409	8794.53
508.777	8822.1
509.145	8995.2
509.514	9033.84
509.882	9037.69
510.25	9034.07
510.618	9157.46
510.986	9232.03
511.354	9375.3
511.722	9409.65
512.09	9465.7
512.458	9527.16
512.826	9546.6
513.193	9668.18
513.561	9774.62
513.929	9812.58
514.297	9916.08
514.664	9998.56
515.032	10018.45
515.4	10154.72
515.767	10170.31
516.135	10236.07
516.502	10324.66
516.869	10427.03
517.237	10531.88
517.604	10519.68
517.972	10636.51
518.339	10802.84
518.706	10791.76
519.073	10862.04
519.44	10982.27
519.808	11036.96
520.175	11115.15
520.542	11226.33
520.909	11389.04
521.276	11323.05
521.643	11493.67
522.009	11600.78
522.376	11656.83
522.743	11798.29
523.11	11914.9
523.477	12016.82
523.843	12115.8
524.21	12189.69
524.577	12335.9
524.943	12360.76
525.31	12439.63
525.676	12623.13
526.043	12686.4
526.409	12749.68
526.776	12928.88
527.142	12920.3
527.508	13062.67
527.874	13130.23
528.241	13221.3
528.607	13223.11
528.973	13355.99
529.339	13386.72
529.705	13594.85
530.071	13720.5
530.437	13761.18
530.803	13840.05
531.169	13871.68
531.535	13917.56
531.901	14001.17
532.267	14093.15
532.632	14173.14
532.998	14266.7
533.364	14308.73
533.73	14398.45
534.095	14524.55
534.461	14525.68
534.826	14556.19
535.192	14734.71
535.557	14816.97
535.923	14793.92
536.288	14789.63
536.653	14949.17
537.019	14972.9
537.384	15036.85
537.749	15112.55
538.114	15130.18
538.479	15253.12
538.845	15226.9
539.21	15203.85
539.575	15344.19
539.94	15411.76
540.305	15512.77
540.67	15544.63
541.034	15676.61
541.399	15764.97
541.764	15687
542.129	15756.15
542.494	15867.11
542.858	15957.5
543.223	15907.79
543.587	16011.51
543.952	16025.3
544.316	16055.81
544.681	16048.12
545.045	16245.86
545.41	16321.34
545.774	16356.36
546.138	16310.94
546.503	16464.84
546.867	16508.45
547.231	16621.89
547.595	16646.07
547.959	16762.45
548.324	16722.46
548.688	16824.6
549.052	16912.06
549.416	16977.14
549.779	16994.31
550.143	17110.92
550.507	17300.75
550.871	17342.55
551.235	17318.15
551.599	17578.48
551.962	17523.11
552.326	17600.62
552.689	17692.15
553.053	17668.65
553.417	17781.41
553.78	18092.14
554.143	18061.4
554.507	18243.32
554.87	18262.75
555.234	18480.83
555.597	18492.13
555.96	18587.04
556.323	18676.3
556.686	18702.29
557.05	18916.97
557.413	19086.69
557.776	19104.77
558.139	19353.12
558.502	19467.02
558.865	19436.51
559.228	19674.24
559.59	19624.98
559.953	19798.08
560.316	19981.35
560.679	20004.18
561.041	20334.79
561.404	20336.15
561.767	20620.43
562.129	20501.57
562.492	20939.07
562.854	20965.51
563.217	21006.86
563.579	21100.65
563.941	21387.19
564.304	21592.38
564.666	21636.45
565.028	21857.91
565.39	21912.15
565.753	22140.62
566.115	22313.95
566.477	22400.05
566.839	22572.02
567.201	22741.28
567.563	22856.53
567.925	23132
568.287	23142.63
568.648	23311.44
569.01	23472.56
569.372	23745.77
569.734	23783.97
570.095	24000.23
570.457	24214.01
570.819	24258.08
571.18	24377.62
571.542	24557.73
571.903	24795.24
572.265	24907.55
572.626	25057.6
572.987	25118.62
573.349	25365.84
573.71	25484.71
574.071	25636.8
574.432	25789.34
574.794	25941.2
575.155	26106.16
575.516	26137.12
575.877	26354.07
576.238	26524.91
576.599	26716.32
576.96	26701.4
577.32	26887.61
577.681	27079.25
578.042	27125.8
578.403	27218.68
578.763	27243.54
579.124	27375.96
579.485	27528.5
579.845	27703.41
580.206	27748.61
580.566	27862.73
580.927	27978.21
581.287	28128.03
581.648	28117.64
582.008	28349.27
582.368	28315.6
582.728	28523.95
583.089	28524.18
583.449	28579.32
583.809	28764.17
584.169	28761.01
584.529	28794.91
584.889	29022.7
585.249	28988.35
585.609	28841.23
585.969	29140.89
586.329	29075.13
586.688	29119.87
587.048	29164.16
587.408	29245.52
587.768	29359.41
588.127	29242.8
588.487	29274.44
588.846	29487.54
589.206	29412.74
589.565	29415.68
589.925	29593.76
590.284	29533.64
590.643	29598.73
591.003	29801.21
591.362	29756.24
591.721	29702.45
592.08	29746.07
592.44	29828.78
592.799	29896.57
593.158	29867.19
593.517	29784.26
593.876	29866.97
594.235	29800.3
594.593	29749.91
594.952	29846.18
595.311	29963.01
595.67	29816.57
596.029	30103.57
596.387	30096.79
596.746	30191.93
597.104	30144.25
597.463	30184.25
597.822	30201.65
598.18	30219.5
598.538	30166.4
598.897	30271.7
599.255	30131.82
599.613	30637.57
599.972	30337.24
600.33	30442.32
600.688	30334.3
601.046	30471.02
601.404	30476.67
601.762	30534.97
602.12	30658.13
602.478	30626.95
602.836	30607.97
603.194	30536.1
603.552	30439.16
603.91	30529.55
604.268	30626.95
604.625	30523.67
604.983	30674.86
605.341	30544.01
605.698	30745.14
606.056	30868.98
606.413	30783.1
606.771	30925.7
607.128	30992.59
607.485	30833.27
607.843	30819.94
608.2	30956.88
608.557	31105.58
608.914	31025.58
609.272	31261.51
609.629	31179.25
609.986	31294.5
610.343	31048.86
610.7	31265.8
611.057	31320.72
611.414	31301.51
611.771	31376.08
612.127	31486.59
612.484	31406.14
612.841	31659.92
613.198	31453.82
613.554	31482.07
613.911	31555.51
614.267	31732.91
614.624	31572.23
614.98	31666.7
615.337	31800.7
615.693	31620.82
616.05	31739.69
616.406	31925.22
616.762	31778.11
617.118	31801.16
617.475	31790.76
617.831	31927.25
618.187	31959.12
618.543	32063.07
618.899	32215.61
619.255	32129.28
619.611	32113.92
619.967	32183.52
620.323	32270.52
620.678	32180.81
621.034	31982.17
621.39	32067.36
621.746	31946.24
622.101	32380.8
622.457	32027.82
622.812	32170.41
623.168	32202.05
623.523	32240.24
623.879	32297.19
624.234	32148.49
624.589	32291.54
624.945	32259.9
625.3	32322.95
625.655	32395.49
626.01	32314.36
626.365	32388.03
626.72	32395.49
627.075	32204.08
627.43	32273.69
627.785	32184.87
628.14	32270.52
628.495	32320.92
628.85	32350.97
629.205	32014.26
629.559	32349.84
629.914	32275.27
630.269	32278.66
630.623	31991.43
630.978	32101.49
631.332	32219.22
631.687	32218.09
632.041	32004.77
632.396	32067.59
632.75	31972.22
633.104	32074.14
633.459	31910.98
633.813	31842.96
634.167	31989.17
634.521	31870.31
634.875	31899.23
635.229	31860.36
635.583	31752.8
635.937	31707.15
636.291	31701.95
636.645	31716.86
636.999	31623.53
637.352	31666.02
637.706	31389.19
638.06	31663.31
638.413	31499.69
638.767	31489.07
639.121	31554.16
639.474	31341.28
639.828	31298.57
640.181	31291.11
640.534	31411.11
640.888	31271.23
641.241	31177.22
641.594	31249.31
641.947	31295.41
642.301	31281.4
642.654	31184
643.007	31199.14
643.36	31155.75
643.713	31157.56
644.066	31301.06
644.419	31006.37
644.771	30801.41
645.124	30508.31
645.477	30541.08
645.83	30270.8
646.182	30136.11
646.535	30150.13
646.888	30153.97
647.24	30109.22
647.593	30203.23
647.945	30168.66
648.298	30040.52
648.65	29971.37
649.002	29807.54
649.355	30013.18
649.707	30107.87
650.059	30101.54
650.411	30426.95
650.763	30450.23
651.115	30747.17
651.467	30613.62
651.819	30588.31
652.171	30695.42
652.523	30541.98
652.875	30670.34
653.227	30639.83
653.578	30772.03
653.93	30575.65
654.282	30461.08
654.633	30431.47
654.985	30473.96
655.337	30475.77
655.688	30431.93
656.039	30592.15
656.391	30363
656.742	30410.91
657.094	30433.73
657.445	30457.91
657.796	30432.83
658.147	30547.63
658.498	30422.43
658.849	30580.62
659.2	30409.55
659.551	30309.9
659.902	30506.05
660.253	30364.13
660.604	30460.85
660.955	30291.59
661.306	30420.4
661.656	30366.84
662.007	30280.07
662.358	30409.33
662.708	30385.6
663.059	30368.2
663.409	30175.89
663.76	30485.26
664.11	30271.03
664.461	30518.25
664.811	30419.72
665.161	30331.36
665.511	30294.53
665.862	30263.57
666.212	30482.09
666.562	30390.57
666.912	30395.77
667.262	30359.39
667.612	30347.18
667.962	30364.13
668.312	30359.84
668.662	30483.9
669.011	30298.6
669.361	30349.44
669.711	30239.39
670.06	30130.92
670.41	30139.05
670.76	29992.84
671.109	30136.34
671.459	30036.91
671.808	30015.44
672.157	30120.97
672.507	29873.52
672.856	29966.85
673.205	30014.54
673.554	30077.13
673.904	29830.81
674.253	30177.92
674.602	30051.37
674.951	29646.41
675.3	29453.19
675.649	30043.91
675.998	29793.98
676.346	29822.68
676.695	29889.34
677.044	29597.82
677.393	29808.89
677.741	29899.28
678.09	29777.93
678.438	29669.91
678.787	29799.4
679.135	29768.21
679.484	29496.13
679.832	29675.11
680.181	29494.1
680.529	29485.51
680.877	29381.11
681.225	29356.25
681.573	29494.32
681.922	29354.89
682.27	29176.59
682.618	29204.61
682.966	29192.64
683.314	29353.54
683.661	29093.66
684.009	28906.09
684.357	28946.54
684.705	28892.76
685.053	28868.13
685.4	28871.06
685.748	28626.78
686.095	28723.95
686.443	28519.43
686.79	28607.34
687.138	28508.36
687.485	28544.29
687.832	28416.16
688.18	28402.6
688.527	28321.25
688.874	28194.92
689.221	28160.8
689.568	28019.11
689.915	28041.93
690.262	27862.73
690.609	27868.6
690.956	27766.69
691.303	27719.23
691.65	27564.88
691.997	27641.04
692.344	27420.48
692.69	27287.38
693.037	27402.63
693.383	27127.61
693.73	27222.29
694.077	27021.62
694.423	27051.9
694.769	26925.8
695.116	26904.11
695.462	26909.98
695.808	26731.46
696.155	26816.2
696.501	26478.13
696.847	26494.18
697.193	26335.76
697.539	26474.97
697.885	26171.25
698.231	26226.61
698.577	26161.98
698.923	26023.45
699.269	25907.07
699.614	25843.35
699.96	25714.99
700.306	25730.81
700.651	25617.59
700.997	25488.1
701.342	25377.82
701.688	25406.75
702.033	25331.04
702.379	25230.48
702.724	25164.95
703.069	25173.08
703.415	24940.32
703.76	24923.37
704.105	24919.3
704.45	24859.87
704.795	24570.16
705.14	24635.24
705.485	24631.85
705.83	24465.98
706.175	24562.25
706.52	24371.75
706.865	24398.41
707.209	24342.82
707.554	24171.75
707.899	24215.37
708.243	24117.52
708.588	24097.86
708.932	23907.13
709.277	23892.44
709.621	23947.58
709.966	23734.02
710.31	23752.55
710.654	23608.15
710.998	23602.95
711.342	23617.64
711.687	23433.69
712.031	23456.06
712.375	23414.26
712.719	23384.43
713.063	23349.17
713.407	23463.07
713.75	23283.64
714.094	23320.25
714.438	23129.97
714.782	23235.73
715.125	23103.3
715.469	23097.2
715.812	23078.45
716.156	22821.28
716.499	22929.98
716.843	22822.86
717.186	22755.29
717.53	22892.46
717.873	22879.13
718.216	22958
718.559	22690.89
718.902	22637.33
719.246	22689.98
719.589	22538.12
719.932	22345.58
720.275	22550.33
720.617	22411.8
720.96	22466.71
721.303	22465.36
721.646	22374.06
721.989	22263.33
722.331	22372.25
722.674	22277.79
723.016	22340.84
723.359	22268.3
723.701	22341.07
724.044	22279.6
724.386	22164.12
724.729	22153.95
725.071	22157.57
725.413	22161.86
725.755	22174.52
726.097	22057.23
726.439	22060.39
726.782	22041.41
727.124	22215.42
727.465	21925.48
727.807	22078.47
728.149	22122.09
728.491	21950.11
728.833	22036.44
729.175	21921.42
729.516	21871.47
729.858	22019.27
730.199	21922.09
730.541	21874.86
730.882	21837.58
731.224	21846.16
731.565	21818.37
731.906	21854.07
732.248	21895.88
732.589	21858.82
732.93	21727.75
733.271	21728.88
733.612	21856.11
733.953	21725.71
734.294	21794.86
734.635	21640.52
734.976	21771.81
735.317	21692.49
735.658	21729.33
735.999	21573.4
736.339	21645.04
736.68	21763.91
737.021	21622.44
737.361	21568.66
737.702	21806.62
738.042	21700.4
738.383	21647.75
738.723	21699.27
739.063	21614.76
739.404	21692.72
739.744	21599.39
740.084	21566.62
740.424	21705.38
740.764	21488.88
741.104	21767.52
741.444	21593.29
741.784	21543.35
742.124	21596.23
742.464	21510.8
742.804	21558.49
743.143	21530.01
743.483	21525.72
743.823	21481.43
744.162	21457.7
744.502	21568.88
744.841	21357.14
745.181	21542.67
745.52	21473.07
745.86	21506.28
746.199	21430.13
746.538	21584.7
746.877	21615.89
747.216	21555.1
747.556	21390.36
747.895	21430.35
748.234	21482.1
748.573	21344.26
748.911	21497.25
749.25	21557.58
749.589	21365.72
749.928	21422.45
750.267	21462.67
750.605	21403.91
750.944	21298.38
751.283	21235.78
751.621	21288.44
751.96	21261.09
752.298	21263.58
752.636	21330.02
752.975	21168.21
753.313	21134.77
753.651	21284.37
753.989	21138.84
754.327	21138.61
754.666	21091.61
755.004	21111.72
755.342	21169.34
755.679	21136.8
756.017	20907.88
756.355	20997.82
