Data from tablewood_brown_FLMS001491_021.txt Node
Date: Tue Feb 07 11:10:13 GMT 2017
User: dcchb
Spectrometer: FLMS00149
Trigger mode: 0
Integration Time (sec): 2.000000E-2
Scans to average: 10
Electric dark correction enabled: true
Nonlinearity correction enabled: false
Boxcar width: 0
XAxis mode: Wavelengths
Number of Pixels in Spectrum: 2048
>>>>>Begin Spectral Data<<<<<
341.393	-7.7
341.776	-7.7
342.16	-7.7
342.543	-59.22
342.927	-51.31
343.31	-61.26
343.693	-65.32
344.077	-72.55
344.46	-49.96
344.843	-56.51
345.226	-62.61
345.61	-16.51
345.993	-12.22
346.376	-2.27
346.759	36.6
347.142	15.8
347.525	38.4
347.908	52.64
348.291	75.24
348.674	87.22
349.057	93.32
349.44	115.24
349.823	143.03
350.206	161.79
350.588	218.06
350.971	225.97
351.354	231.84
351.737	237.95
352.119	237.49
352.502	245.4
352.884	280.2
353.267	286.76
353.65	303.71
354.032	277.94
354.414	278.4
354.797	309.36
355.179	334.21
355.562	318.17
355.944	336.25
356.326	331.5
356.709	321.11
357.091	352.52
357.473	329.47
357.855	334.21
358.238	351.39
358.62	322.01
359.002	335.12
359.384	334.21
359.766	343.48
360.148	329.02
360.53	333.31
360.912	316.36
361.294	332.86
361.676	343.03
362.057	330.82
362.439	343.03
362.821	329.69
363.203	315.23
363.584	318.85
363.966	318.62
364.348	312.97
364.729	343.48
365.111	322.46
365.493	318.17
365.874	326.08
366.256	315.01
366.637	326.98
367.019	331.05
367.4	301.9
367.781	318.62
368.163	318.85
368.544	316.59
368.925	307.77
369.306	337.15
369.688	303.48
370.069	312.07
370.45	304.61
370.831	314.33
371.212	298.06
371.593	306.64
371.974	318.85
372.355	306.19
372.736	333.08
373.117	322.46
373.498	325.18
373.879	305.29
374.26	328.34
374.641	322.46
375.021	312.97
375.402	318.62
375.783	323.59
376.163	350.49
376.544	324.95
376.925	346.87
377.305	316.36
377.686	338.73
378.066	339.86
378.447	353.2
378.827	355.68
379.208	329.92
379.588	332.18
379.968	348.68
380.349	340.32
380.729	346.19
381.109	369.47
381.489	355.68
381.87	343.48
382.25	345.97
382.63	352.07
383.01	361.11
383.39	343.93
383.77	365.85
384.15	366.3
384.53	359.75
384.91	359.75
385.29	375.8
385.67	382.12
386.049	381.67
386.429	360.43
386.809	365.85
387.189	401.11
387.568	380.99
387.948	396.13
388.328	367.21
388.707	413.08
389.087	371.5
389.466	406.3
389.846	384.61
390.225	380.99
390.605	398.62
390.984	412.18
391.363	404.95
391.743	406.98
392.122	390.26
392.501	412.4
392.881	405.85
393.26	422.35
393.639	411.27
394.018	418.28
394.397	430.93
394.776	460.09
395.155	433.42
395.534	433.87
395.913	438.62
396.292	439.3
396.671	446.08
397.05	444.72
397.429	426.42
397.808	434.1
398.186	435.23
398.565	472.29
398.944	440.2
399.323	457.37
399.701	493.53
400.08	465.74
400.458	456.25
400.837	488.33
401.215	482.01
401.594	466.41
401.972	459.86
402.351	484.72
402.729	512.51
403.107	493.53
403.486	524.94
403.864	494.66
404.242	498.73
404.62	506.19
404.999	518.39
405.377	503.7
405.755	509.13
406.133	529.46
406.511	526.07
406.889	519.52
407.267	539.41
407.645	533.31
408.023	555
408.401	560.2
408.779	536.24
409.156	547.09
409.534	554.1
409.912	548.9
410.29	572.17
410.667	565.85
411.045	578.95
411.422	584.6
411.8	581.21
412.178	598.61
412.555	594.09
412.933	603.13
413.31	609.46
413.687	635.9
414.065	628.44
414.442	601.78
414.819	648.33
415.197	633.19
415.574	615.11
415.951	669.35
416.328	650.59
416.705	635.45
417.082	644.71
417.46	641.55
417.837	651.49
418.214	691.95
418.591	657.37
418.967	663.92
419.344	704.83
419.721	695.79
420.098	696.01
420.475	707.09
420.852	694.66
421.228	695.33
421.605	710.02
421.982	721.55
422.358	711.83
422.735	741.21
423.111	718.39
423.488	750.47
423.864	752.28
424.241	754.54
424.617	759.51
424.994	766.07
425.37	746.41
425.746	762.9
426.123	778.95
426.499	758.16
426.875	795.45
427.251	792.51
427.627	788.44
428.003	803.58
428.379	807.2
428.756	818.04
429.132	834.09
429.507	852.17
429.883	827.31
430.259	837.25
430.635	871.6
431.011	885.84
431.387	881.77
431.763	903.24
432.138	887.42
432.514	914.76
432.89	925.61
433.265	943.46
433.641	950.02
434.016	949.79
434.392	966.06
434.767	977.59
435.143	969
435.518	969.45
435.894	1001.99
436.269	996.12
436.644	1031.15
437.02	1041.99
437.395	1032.95
437.77	1053.29
438.145	1071.82
438.52	1076.57
438.895	1094.65
439.271	1107.08
439.646	1106.17
440.021	1118.6
440.395	1101.65
440.77	1119.5
441.145	1150.01
441.52	1153.4
441.895	1155.66
442.27	1159.05
442.645	1171.93
443.019	1177.36
443.394	1183.91
443.769	1175.32
444.143	1156.11
444.518	1190.92
444.892	1201.08
445.267	1193.85
445.641	1225.04
446.016	1210.35
446.39	1217.58
446.764	1226.39
447.139	1235.43
447.513	1260.52
447.887	1245.38
448.262	1262.33
448.636	1252.83
449.01	1257.13
449.384	1299.61
449.758	1289.67
450.132	1309.78
450.506	1309.78
450.88	1334.19
451.254	1315.66
451.628	1347.75
452.002	1328.99
452.376	1357.69
452.75	1366.05
453.123	1401.98
453.497	1376.9
453.871	1405.82
454.244	1427.97
454.618	1422.55
454.992	1451.25
455.365	1455.99
455.739	1490.57
456.112	1507.74
456.486	1533.28
456.859	1524.92
457.232	1553.84
457.606	1565.37
457.979	1538.7
458.352	1580.28
458.725	1615.08
459.099	1638.13
459.472	1663.22
459.845	1676.78
460.218	1689.66
460.591	1694.86
460.964	1710.45
461.337	1744.35
461.71	1775.98
462.083	1813.27
462.456	1826.15
462.829	1815.08
463.201	1840.16
463.574	1859.82
463.947	1861.86
464.32	1926.71
464.692	1928.07
465.065	1925.36
465.438	1975.98
465.81	2012.14
466.183	2039.93
466.555	2110.89
466.928	2065.47
467.3	2084.45
467.672	2141.62
468.045	2189.53
468.417	2185.69
468.789	2215.97
469.161	2264.11
469.534	2299.13
469.906	2310.66
470.278	2360.38
470.65	2373.71
471.022	2424.55
471.394	2504.1
471.766	2526.7
472.138	2534.38
472.51	2588.17
472.882	2619.58
473.253	2670.88
473.625	2722.63
473.997	2813.92
474.369	2805.11
474.74	2860.25
475.112	2902.96
475.484	2992.22
475.855	3031.32
476.227	3080.36
476.598	3141.6
476.97	3160.81
477.341	3271.31
477.713	3331.42
478.084	3366
478.455	3497.3
478.827	3498.65
479.198	3657.74
479.569	3589.5
479.94	3728.02
480.311	3775.25
480.682	3922.14
481.053	3974.34
481.424	4035.13
481.795	4052.53
482.166	4151.29
482.537	4212.3
482.908	4323.71
483.279	4353.77
483.65	4521
484.021	4563.71
484.391	4636.47
484.762	4676.25
485.133	4747.21
485.503	4790.14
485.874	4876.24
486.244	4995.56
486.615	5104.03
486.985	5124.82
487.356	5267.42
487.726	5282.11
488.097	5304.93
488.467	5384.25
488.837	5525.72
489.207	5570.91
489.578	5662.66
489.948	5760.51
490.318	5839.15
490.688	5876.89
491.058	5951.02
491.428	6002.99
491.798	6083.89
492.168	6237.56
492.538	6313.72
492.908	6380.61
493.278	6397.56
493.648	6444.11
494.017	6527.95
494.387	6589.42
494.757	6646.36
495.126	6689.53
495.496	6706.02
495.866	6851.33
496.235	6876.87
496.605	6951.89
496.974	7085
497.344	7073.47
497.713	7108.05
498.082	7155.73
498.452	7285.9
498.821	7331.77
499.19	7327.02
499.559	7408.83
499.928	7522.95
500.298	7529.28
500.667	7579.67
501.036	7516.4
501.405	7700.57
501.774	7685.89
502.143	7739.9
502.512	7811.08
502.88	7906.44
503.249	7933.11
503.618	8030.51
503.987	8064.63
504.356	8164.97
504.724	8197.28
505.093	8193.67
505.462	8216.72
505.83	8315.02
506.199	8387.79
506.567	8510.04
506.936	8526.77
507.304	8622.13
507.672	8724.28
508.041	8698.06
508.409	8800.88
508.777	8863.93
509.145	8890.37
509.514	8912.29
509.882	9075.45
510.25	9091.5
510.618	9177.82
510.986	9252.17
511.354	9286.3
511.722	9353.19
512.09	9435.22
512.458	9442
512.826	9606.51
513.193	9629.79
513.561	9705.27
513.929	9756.34
514.297	9896.45
514.664	9949.55
515.032	9980.06
515.4	10145.03
515.767	10161.07
516.135	10252.37
516.502	10184.35
516.869	10464.34
517.237	10415.76
517.604	10434.74
517.972	10659.59
518.339	10704.79
518.706	10682.42
519.073	10771.23
519.44	10871.56
519.808	10992.24
520.175	11020.71
520.542	11217.09
520.909	11331.89
521.276	11359.91
521.643	11437.65
522.009	11569.17
522.376	11731.65
522.743	11730.52
523.11	11896.17
523.477	11981.59
523.843	11966.22
524.21	12133.68
524.577	12256.39
524.943	12301.13
525.31	12406.21
525.676	12495.93
526.043	12608.02
526.409	12721.69
526.776	12878.74
527.142	12851.63
527.508	12996.71
527.874	13111.73
528.241	13253.42
528.607	13155.12
528.973	13348.11
529.339	13266.3
529.705	13485.73
530.071	13573.41
530.437	13623.36
530.803	13785.84
531.169	13867.87
531.535	13815.67
531.901	13937.02
532.267	13985.38
532.632	14136.56
532.998	14177.69
533.364	14198.48
533.73	14272.15
534.095	14444.35
534.461	14436.22
534.826	14651.8
535.192	14564.57
535.557	14745.59
535.923	14690.9
536.288	14776.55
536.653	14872.14
537.019	14861.06
537.384	14964.79
537.749	15001.4
538.114	15071
538.479	15141.73
538.845	15163.43
539.21	15198
539.575	15146.93
539.94	15236.42
540.305	15440.03
540.67	15339.7
541.034	15452.01
541.399	15491.33
541.764	15623.98
542.129	15652.46
542.494	15716.18
542.858	15804.32
543.223	15812.9
543.587	15947.36
543.952	15948.72
544.316	15980.58
544.681	15933.13
545.045	16074.37
545.41	16143.97
545.774	16223.74
546.138	16257.41
546.503	16180.13
546.867	16303.51
547.231	16483.62
547.595	16577.4
547.959	16654.69
548.324	16548.03
548.688	16714.8
549.052	16894.91
549.416	16807.91
549.779	16882.71
550.143	16954.34
550.507	17157.27
550.871	17190.04
551.235	17147.11
551.599	17359.76
551.962	17344.39
552.326	17409.25
552.689	17529.24
553.053	17636.13
553.417	17727.66
553.78	17906.41
554.143	17854.88
554.507	17993.64
554.87	18123.58
555.234	18371.25
555.597	18275.21
555.96	18269.79
556.323	18505.04
556.686	18626.84
557.05	18847.17
557.413	18856.44
557.776	18909.09
558.139	19069.99
558.502	19213.04
558.865	19288.07
559.228	19447.38
559.59	19579.13
559.953	19625.01
560.316	19875.17
560.679	19912.68
561.041	20128.04
561.404	20156.52
561.767	20457.08
562.129	20382.73
562.492	20633.34
562.854	20733.68
563.217	20857.97
563.579	20996.5
563.941	21168.02
564.304	21372.08
564.666	21505.86
565.028	21634.45
565.39	21713.09
565.753	21904.72
566.115	22081.21
566.477	22193.75
566.839	22324.14
567.201	22429.68
567.563	22643.91
567.925	22731.37
568.287	22900.85
568.648	22967.52
569.01	23314.18
569.372	23401.18
569.734	23473.04
570.095	23668.29
570.457	23880.94
570.819	24066.7
571.18	24194.83
571.542	24319.12
571.903	24393.92
572.265	24677.53
572.626	24685.44
572.987	24825.55
573.349	25076.16
573.71	25181.92
574.071	25358.64
574.432	25538.07
574.794	25708.69
575.155	25738.52
575.516	25801.79
575.877	26145.74
576.238	26205.62
576.599	26385.28
576.96	26383.7
577.32	26501.89
577.681	26657.14
578.042	26849.68
578.403	26906.62
578.763	27057.58
579.124	27094.41
579.485	27157.92
579.845	27396.78
580.206	27522.43
580.566	27660.5
580.927	27585.25
581.287	27779.14
581.648	27750.44
582.008	27994.5
582.368	27976.65
582.728	28108.4
583.089	28083.54
583.449	28205.57
583.809	28325.12
584.169	28318.56
584.529	28218.45
584.889	28488.95
585.249	28384.1
585.609	28331.67
585.969	28628.84
586.329	28631.32
586.688	28721.94
587.048	28710.42
587.408	28638.33
587.768	28677.88
588.127	28838.1
588.487	28843.97
588.846	28972.78
589.206	28825.89
589.565	28829.06
589.925	29124.42
590.284	29034.25
590.643	29238.09
591.003	29206.45
591.362	29281.25
591.721	29217.97
592.08	29329.84
592.44	29316.5
592.799	29379.78
593.158	29239.9
593.517	29269.95
593.876	29392.43
594.235	29308.14
594.593	29309.27
594.952	29435.82
595.311	29207.13
595.67	29578.64
596.029	29728.24
596.387	29569.38
596.746	29784.74
597.104	29580.23
597.463	29523.73
597.822	29804.63
598.18	29748.81
598.538	29564.86
598.897	29874.68
599.255	29580.9
599.613	29914.91
599.972	29918.75
600.33	29872.65
600.688	29816.15
601.046	29933.21
601.404	29862.25
601.762	29858.64
602.12	30112.64
602.478	30072.87
602.836	30121.68
603.194	29964.17
603.552	30121.23
603.91	29855.02
604.268	30097.95
604.625	30019.08
604.983	30200.55
605.341	30122.13
605.698	30203.94
606.056	30349.02
606.413	30363.48
606.771	30245.07
607.128	30366.42
607.485	30219.53
607.843	30163.49
608.2	30516.02
608.557	30452.29
608.914	30362.58
609.272	30658.61
609.629	30584.94
609.986	30756.24
610.343	30604.83
610.7	30732.29
611.057	30697.26
611.414	30626.53
611.771	30896.35
612.127	30800.08
612.484	30793.75
612.841	30873.98
613.198	30779.52
613.554	30836.69
613.911	31104.03
614.267	31085.27
614.624	31061.77
614.98	31039.85
615.337	31252.72
615.693	31287.07
616.05	31067.19
616.406	31270.12
616.762	31236.45
617.118	31222.89
617.475	31321.87
617.831	31431.02
618.187	31410.69
618.543	31300.41
618.899	31659.94
619.255	31624.92
619.611	31459.95
619.967	31585.82
620.323	31719.83
620.678	31420.85
621.034	31537.01
621.39	31501.53
621.746	31433.74
622.101	31837.11
622.457	31503.34
622.812	31657.91
623.168	31702.43
623.523	31690.68
623.879	31804.12
624.234	31544.24
624.589	31662.43
624.945	31685.25
625.3	31779.26
625.655	31642.32
626.01	31704.24
626.365	31736.78
626.72	31580.85
627.075	31728.42
627.43	31561.19
627.785	31512.38
628.14	31615.43
628.495	31703.33
628.85	31756.44
629.205	31516.9
629.559	31644.58
629.914	31555.77
630.269	31457.24
630.623	31552.15
630.978	31369.56
631.332	31512.15
631.687	31535.65
632.041	31364.13
632.396	31483.23
632.75	31374.08
633.104	31361.87
633.459	31276.68
633.813	31277.36
634.167	31241.2
634.521	31320.74
634.875	31260.86
635.229	31170.01
635.583	31048.44
635.937	31147.19
636.291	31022.67
636.645	31018.38
636.999	30857.93
637.352	30998.94
637.706	30739.52
638.06	30962.79
638.413	30688.67
638.767	30882.79
639.121	30845.5
639.474	30657.03
639.828	30682.12
640.181	30801.44
640.534	30703.13
640.888	30730.03
641.241	30537.94
641.594	30535.68
641.947	30686.64
642.301	30497.04
642.654	30549.92
643.007	30670.14
643.36	30531.84
643.713	30396.7
644.066	30546.08
644.419	30326.65
644.771	30170.49
645.124	29857.05
645.477	29860.44
645.83	29707.23
646.182	29716.49
646.535	29549.04
646.888	29511.3
647.24	29347.46
647.593	29513.33
647.945	29450.74
648.298	29301.81
648.65	29302.72
649.002	29328.03
649.355	29353.11
649.707	29384.07
650.059	29452.09
650.411	29859.77
650.763	29929.82
651.115	30143.37
651.467	29929.59
651.819	30094.34
652.171	29963.04
652.523	29962.36
652.875	29864.74
653.227	29881.01
653.578	30081.45
653.93	30017.28
654.282	29889.82
654.633	29742.71
654.985	29929.37
655.337	29969.37
655.688	29980.67
656.039	29867.68
656.391	29613.22
656.742	29774.8
657.094	29857.51
657.445	29801.69
657.796	29713.33
658.147	29791.74
658.498	29824.51
658.849	29866.55
659.2	29748.13
659.551	29535.03
659.902	29808.47
660.253	29801.91
660.604	29766.89
660.955	29412.77
661.306	29565.08
661.656	29613.9
662.007	29700.67
662.358	29646.44
662.708	29648.25
663.059	29730.28
663.409	29524.41
663.76	29695.25
664.11	29659.32
664.461	29698.41
664.811	29656.38
665.161	29632.2
665.511	29590.17
665.862	29683.05
666.212	29674.01
666.562	29706.78
666.912	29618.42
667.262	29570.96
667.612	29612.09
667.962	29603.28
668.312	29588.36
668.662	29581.81
669.011	29533.67
669.361	29552.88
669.711	29503.84
670.06	29432.43
670.41	29453.67
670.76	29462.04
671.109	29521.02
671.459	29469.49
671.808	29317.63
672.157	29433.79
672.507	29223.62
672.856	29332.1
673.205	29302.04
673.554	29312.66
673.904	29190.86
674.253	29307.69
674.602	29342.04
674.951	28852.56
675.3	28756.97
675.649	29147.02
675.998	29100.01
676.346	29151.76
676.695	29099.79
677.044	28991.54
677.393	28994.7
677.741	29092.1
678.09	28951.32
678.438	28966.23
678.787	28916.29
679.135	28931.65
679.484	28820.25
679.832	28823.18
680.181	28670.42
680.529	28709.74
680.877	28725.78
681.225	28564.21
681.573	28771.88
681.922	28562.62
682.27	28561.95
682.618	28555.85
682.966	28433.81
683.314	28432.46
683.661	28454.15
684.009	28089.87
684.357	28179.81
684.705	28212.13
685.053	28076.31
685.4	28143.43
685.748	28102.75
686.095	28000.61
686.443	27805.36
686.79	27804.23
687.138	27812.14
687.485	27860.04
687.832	27658.02
688.18	27707.96
688.527	27576.44
688.874	27540.96
689.221	27363.11
689.568	27426.16
689.915	27232.72
690.262	27180.29
690.609	27091.7
690.956	27051.25
691.303	27011.71
691.65	26927.19
691.997	26889.67
692.344	26730.36
692.69	26734.65
693.037	26737.14
693.383	26590.47
693.73	26542.79
694.077	26359.07
694.423	26488.55
694.769	26293.98
695.116	26215.34
695.462	26121.11
695.808	26067.78
696.155	26057.83
696.501	25840.66
696.847	25773.32
697.193	25627.56
697.539	25759.31
697.885	25565.19
698.231	25406.32
698.577	25431.86
698.923	25313.22
699.269	25243.16
699.614	25205.42
699.96	25147.12
700.306	25056.05
700.651	24922.95
700.997	24810.86
701.342	24763.85
701.688	24805.89
702.033	24716.4
702.379	24735.83
702.724	24504.2
703.069	24544.88
703.415	24254.94
703.76	24247.71
704.105	24254.04
704.45	24200.25
704.795	24077.09
705.14	23926.14
705.485	23898.79
705.83	23851.34
706.175	23827.38
706.52	23831.45
706.865	23727.27
707.209	23631.91
707.554	23511.01
707.899	23595.75
708.243	23441.63
708.588	23377.45
708.932	23260.62
709.277	23291.12
709.621	23251.8
709.966	23075.99
710.31	23226.27
710.654	22937.01
710.998	23006.84
711.342	23029.21
711.687	22878.71
712.031	22916.45
712.375	22774.75
712.719	22749.9
713.063	22781.76
713.407	22844.81
713.75	22579.51
714.094	22672.38
714.438	22480.07
714.782	22554.2
715.125	22405.27
715.469	22434.65
715.812	22384.03
716.156	22328.66
716.499	22214.77
716.843	22238.95
717.186	22237.14
717.53	22333.18
717.873	22266.75
718.216	22138.84
718.559	22139.52
718.902	21988.56
719.246	22076.69
719.589	22073.98
719.932	21943.36
720.275	22068.56
720.617	21874.21
720.96	21971.39
721.303	21819.98
721.646	21869.69
721.989	21801.9
722.331	21779.3
722.674	21747.66
723.016	21770.03
723.359	21778.62
723.701	21765.97
724.044	21564.39
724.386	21447.11
724.729	21661.11
725.071	21544.73
725.413	21520.55
725.755	21547.22
726.097	21379.99
726.439	21481.23
726.782	21438.29
727.124	21548.8
727.465	21478.74
727.807	21437.61
728.149	21489.14
728.491	21303.83
728.833	21403.72
729.175	21255.02
729.516	21318.3
729.858	21273.55
730.199	21308.8
730.541	21275.13
730.882	21242.59
731.224	21224.51
731.565	21094.12
731.906	21173.44
732.248	21169.15
732.589	21123.27
732.93	21077.62
733.271	21073.78
733.612	21069.94
733.953	21131.18
734.294	21058.42
734.635	20963.73
734.976	21217.73
735.317	20997.63
735.658	20996.95
735.999	21108.58
736.339	21076.49
736.68	21113.56
737.021	20952.66
737.361	20944.52
737.702	21051.18
738.042	21031.52
738.383	21029.26
738.723	21060.45
739.063	20960.56
739.404	21061.13
739.744	21060
740.084	20865.2
740.424	20887.12
740.764	20818.42
741.104	20925.99
741.444	20879.21
741.784	20887.12
742.124	20987.46
742.464	20873.34
742.804	20881.02
743.143	20854.8
743.483	20851.64
743.823	20773
744.162	20892.09
744.502	20852.77
744.841	20809.83
745.181	20854.13
745.52	20782.94
745.86	20802.83
746.199	20720.57
746.538	20731.19
746.877	20831.75
747.216	20815.26
747.556	20867.23
747.895	20729.38
748.234	20671.76
748.573	20693.45
748.911	20736.84
749.25	20659.33
749.589	20567.58
749.928	20667.01
750.267	20623.85
750.605	20607.13
750.944	20634.92
751.283	20554.93
751.621	20598.09
751.96	20477.87
752.298	20502.72
752.636	20530.97
752.975	20439.45
753.313	20375.72
753.651	20503.18
753.989	20275.38
754.327	20375.95
754.666	20209.85
755.004	20274.26
755.342	20360.35
755.679	20261.37
