Data from tablewood_brown_FLMS001491_002.txt Node
Date: Tue Feb 07 11:09:55 GMT 2017
User: dcchb
Spectrometer: FLMS00149
Trigger mode: 0
Integration Time (sec): 2.000000E-2
Scans to average: 10
Electric dark correction enabled: true
Nonlinearity correction enabled: false
Boxcar width: 0
XAxis mode: Wavelengths
Number of Pixels in Spectrum: 2048
>>>>>Begin Spectral Data<<<<<
341.393	-5.89
341.776	-5.89
342.16	-5.89
342.543	-62.61
342.927	-88.37
343.31	-70.97
343.693	-59
344.077	-67.58
344.46	-72.55
344.843	-40.24
345.226	-39.11
345.61	-30.75
345.993	-42.27
346.376	-9.96
346.759	8.8
347.142	42.7
347.525	45.63
347.908	70.27
348.291	71.4
348.674	94.22
349.057	99.42
349.44	125.18
349.823	149.81
350.206	171.51
350.588	188.23
350.971	206.08
351.354	208.57
351.737	242.69
352.119	265.06
352.502	259.19
352.884	277.94
353.267	265.29
353.65	305.29
354.032	295.12
354.414	310.94
354.797	308.23
355.179	311.39
355.562	313.88
355.944	344.61
356.326	321.56
356.709	344.38
357.091	343.93
357.473	373.31
357.855	336.93
358.238	343.71
358.62	336.7
359.002	356.13
359.384	357.49
359.766	338.73
360.148	338.51
360.53	372.86
360.912	333.76
361.294	362.69
361.676	329.02
362.057	345.06
362.439	359.52
362.821	350.03
363.203	332.18
363.584	340.99
363.966	328.56
364.348	349.81
364.729	329.47
365.111	325.4
365.493	317.72
365.874	321.33
366.256	325.4
366.637	330.37
367.019	305.29
367.4	342.12
367.781	332.63
368.163	323.59
368.544	317.04
368.925	312.07
369.306	330.15
369.688	324.95
370.069	353.65
370.45	339.19
370.831	331.05
371.212	359.3
371.593	352.97
371.974	337.38
372.355	315.91
372.736	334.21
373.117	338.51
373.498	351.39
373.879	336.02
374.26	369.02
374.641	353.65
375.021	322.46
375.402	330.37
375.783	331.95
376.163	368.11
376.544	350.71
376.925	349.36
377.305	351.16
377.686	359.75
378.066	355.23
378.447	362.69
378.827	349.13
379.208	377.38
379.588	369.24
379.968	356.59
380.349	373.54
380.729	376.7
381.109	362.46
381.489	379.64
381.87	386.87
382.25	378.51
382.63	370.15
383.01	360.43
383.39	384.38
383.77	394.55
384.15	369.02
384.53	396.13
384.91	402.46
385.29	390.48
385.67	385.51
386.049	400.2
386.429	385.29
386.809	403.14
387.189	410.37
387.568	410.14
387.948	416.25
388.328	405.85
388.707	401.33
389.087	434.32
389.466	407.43
389.846	418.96
390.225	435.23
390.605	436.58
390.984	416.02
391.363	429.81
391.743	422.35
392.122	443.14
392.501	458.5
392.881	444.95
393.26	467.77
393.639	471.39
394.018	449.69
394.397	484.72
394.776	446.53
395.155	455.34
395.534	442.46
395.913	478.39
396.292	464.83
396.671	485.62
397.05	484.04
397.429	464.83
397.808	491.27
398.186	478.39
398.565	506.87
398.944	501.22
399.323	486.75
399.701	496.47
400.08	499.86
400.458	501.44
400.837	541.44
401.215	508.22
401.594	532.85
401.972	521.55
402.351	534.66
402.729	538.73
403.107	531.27
403.486	565.39
403.864	526.98
404.242	539.18
404.62	558.84
404.999	555.45
405.377	542.8
405.755	567.88
406.133	587.99
406.511	560.42
406.889	587.77
407.267	591.38
407.645	597.48
408.023	582.8
408.401	587.77
408.779	606.98
409.156	608.33
409.534	587.09
409.912	604.26
410.29	650.59
410.667	640.87
411.045	659.18
411.422	647.2
411.8	664.15
412.178	670.93
412.555	669.35
412.933	669.35
413.31	672.28
413.687	677.71
414.065	698.05
414.442	682.23
414.819	688.56
415.197	714.32
415.574	719.06
415.951	754.99
416.328	739.18
416.705	721.55
417.082	730.59
417.46	756.58
417.837	758.84
418.214	756.35
418.591	762.45
418.967	758.16
419.344	758.84
419.721	783.69
420.098	763.81
420.475	764.03
420.852	780.3
421.228	806.74
421.605	808.78
421.982	829.79
422.358	809
422.735	811.94
423.111	816.01
423.488	825.05
423.864	823.02
424.241	838.61
424.617	851.71
424.994	856.46
425.37	867.08
425.746	874.09
426.123	899.4
426.499	869.34
426.875	906.85
427.251	899.85
427.627	946.4
428.003	905.05
428.379	911.6
428.756	926.97
429.132	947.31
429.507	945.72
429.883	958.83
430.259	1002.9
430.635	993.18
431.011	994.08
431.387	1020.98
431.763	1024.59
432.138	1048.55
432.514	1059.17
432.89	1058.72
433.265	1071.82
433.641	1087.19
434.016	1086.96
434.392	1107.53
434.767	1099.84
435.143	1119.5
435.518	1138.26
435.894	1150.24
436.269	1173.06
436.644	1153.63
437.02	1183.91
437.395	1204.47
437.77	1201.76
438.145	1214.42
438.52	1211.48
438.895	1230.01
439.271	1223.68
439.646	1299.61
440.021	1260.52
440.395	1266.85
440.77	1259.61
441.145	1247.41
441.52	1303
441.895	1298.26
442.27	1319.73
442.645	1321.31
443.019	1332.61
443.394	1319.5
443.769	1340.29
444.143	1354.07
444.518	1356.79
444.892	1355.66
445.267	1369.44
445.641	1402.43
446.016	1390.23
446.39	1407.86
446.764	1420.51
447.139	1435.88
447.513	1440.4
447.887	1455.99
448.262	1460.74
448.636	1445.82
449.01	1466.61
449.384	1443.34
449.758	1508.42
450.132	1486.05
450.506	1538.7
450.88	1507.29
451.254	1512.04
451.628	1538.48
452.002	1551.81
452.376	1544.35
452.75	1588.64
453.123	1601.98
453.497	1622.32
453.871	1621.41
454.244	1657.8
454.618	1645.82
454.992	1688.3
455.365	1693.73
455.739	1721.75
456.112	1722.43
456.486	1750.22
456.859	1737.57
457.232	1804.23
457.606	1788.87
457.979	1843.1
458.352	1857.34
458.725	1882.2
459.099	1878.35
459.472	1911.8
459.845	1932.59
460.218	1921.74
460.591	1956.09
460.964	1962.65
461.337	2001.06
461.71	2044.68
462.083	2070.44
462.456	2094.39
462.829	2077.45
463.201	2147.95
463.574	2152.25
463.947	2157.9
464.32	2196.09
464.692	2219.81
465.065	2231.11
465.438	2306.14
465.81	2305.46
466.183	2376.87
466.555	2384.56
466.928	2431.11
467.3	2373.93
467.672	2452.8
468.045	2532.8
468.417	2515.85
468.789	2529.86
469.161	2596.98
469.534	2608.28
469.906	2665
470.278	2703.64
470.65	2731.21
471.022	2782.29
471.394	2820.25
471.766	2857.99
472.138	2885.11
472.51	2950.87
472.882	2984.77
473.253	3036.52
473.625	3096.85
473.997	3175.95
474.369	3205.78
474.74	3237.41
475.112	3332.55
475.484	3363.51
475.855	3455.94
476.227	3466.34
476.598	3556.28
476.97	3657.74
477.341	3754.69
477.713	3800.56
478.084	3756.05
478.455	3913.78
478.827	3941.8
479.198	4067.22
479.569	4108.13
479.94	4204.62
480.311	4301.79
480.682	4375.24
481.053	4479.87
481.424	4546.98
481.795	4545.63
482.166	4685.74
482.537	4804.38
482.908	4868.33
483.279	4915.11
483.65	5024.71
484.021	5150.13
484.391	5171.15
484.762	5276.68
485.133	5343.12
485.503	5361.88
485.874	5514.42
486.244	5547.41
486.615	5652.94
486.985	5748.54
487.356	5838.02
487.726	5917.34
488.097	6014.74
488.467	6024.46
488.837	6177.68
489.207	6229.2
489.578	6369.99
489.948	6392.81
490.318	6541.28
490.688	6572.02
491.058	6663.99
491.428	6685.91
491.798	6771.33
492.168	6938.11
492.538	6965.23
492.908	7018.56
493.278	7134.04
493.648	7132.68
494.017	7227.59
494.387	7359.11
494.757	7398.44
495.126	7469.85
495.496	7500.58
495.866	7582.39
496.235	7712.1
496.605	7754.81
496.974	7762.27
497.344	7874.13
497.713	7891.76
498.082	7976.95
498.452	8066.67
498.821	8076.84
499.19	8188.02
499.559	8250.84
499.928	8284.29
500.298	8357.28
500.667	8409.03
501.036	8409.48
501.405	8504.62
501.774	8525.41
502.143	8574.68
502.512	8665.75
502.88	8728.12
503.249	8790.94
503.618	8838.85
503.987	8882.69
504.356	8955.91
504.724	8989.58
505.093	9081.55
505.462	9111.61
505.83	9182.8
506.199	9262.79
506.567	9410.59
506.936	9373.75
507.304	9566.51
507.672	9542.33
508.041	9619.85
508.409	9660.75
508.777	9807.86
509.145	9863.91
509.514	9872.04
509.882	9993.4
510.25	10034.98
510.618	10046.28
510.986	10179.61
511.354	10324.69
511.722	10316.78
512.09	10480.39
512.458	10522.87
512.826	10605.36
513.193	10666.15
513.561	10687.16
513.929	10750.89
514.297	10904.33
514.664	10985.01
515.032	11076.76
515.4	11165.12
515.767	11194.72
516.135	11240.82
516.502	11269.29
516.869	11460.93
517.237	11511.32
517.604	11541.83
517.972	11665.67
518.339	11732.11
518.706	11836.06
519.073	11842.61
519.44	11932.1
519.808	12095.94
520.175	12150.17
520.542	12313.79
520.909	12416.83
521.276	12479.43
521.643	12594.46
522.009	12727.11
522.376	12792.64
522.743	12919.19
523.11	12996.93
523.477	13083.26
523.843	13196.7
524.21	13417.26
524.577	13481.67
524.943	13529.35
525.31	13626.75
525.676	13758.04
526.043	13835.78
526.409	13963.46
526.776	14029.67
527.142	14125.72
527.508	14240.97
527.874	14339.27
528.241	14482.77
528.607	14479.15
528.973	14742.42
529.339	14715.08
529.705	14820.16
530.071	14914.4
530.437	15011.34
530.803	15234.84
531.169	15245.46
531.535	15259.92
531.901	15228.74
532.267	15408.62
532.632	15461.73
532.998	15488.17
533.364	15711.21
533.73	15756.86
534.095	15872.34
534.461	15878.66
534.826	16034.59
535.192	16078.21
535.557	16136.74
535.923	16103.29
536.288	16260.58
536.653	16313.46
537.019	16367.69
537.384	16502.38
537.749	16576.73
538.114	16478.65
538.479	16747.12
538.845	16692.88
539.21	16623.28
539.575	16873.89
539.94	16867.34
540.305	17001.8
540.67	16940.56
541.034	17015.36
541.399	17058.97
541.764	17183.94
542.129	17201.12
542.494	17316.14
542.858	17325.63
543.223	17407.44
543.587	17538.28
543.952	17547.32
544.316	17645.17
544.681	17583.93
545.045	17765.62
545.41	17827.54
545.774	17783.93
546.138	17860.76
546.503	18037.48
546.867	17930.14
547.231	18251.94
547.595	18207.42
547.959	18311.14
548.324	18249.45
548.688	18415.32
549.052	18460.07
549.416	18522.89
549.779	18583
550.143	18745.03
550.507	18859.83
550.871	18977.11
551.235	18952.26
551.599	19196.32
551.962	19192.7
552.326	19272.47
552.689	19441.06
553.053	19455.52
553.417	19411.45
553.78	19728.73
554.143	19708.85
554.507	19776.64
554.87	19942.96
555.234	20133.69
555.597	20086.01
555.96	20279.9
556.323	20366.46
556.686	20459.33
557.05	20657.97
557.413	20761.7
557.776	20796.05
558.139	20985.65
558.502	21160.11
558.865	21183.84
559.228	21485.07
559.59	21502.25
559.953	21536.37
560.316	21866.08
560.679	21935.68
561.041	22111.49
561.404	22202.34
561.767	22379.51
562.129	22412.96
562.492	22760.29
562.854	22811.82
563.217	22857.01
563.579	23085.48
563.941	23268.53
564.304	23416.55
564.666	23560.72
565.028	23786.48
565.39	23866.03
565.753	24047.49
566.115	24204.77
566.477	24374.94
566.839	24546.01
567.201	24745.32
567.563	24871.42
567.925	25014.7
568.287	25174.24
568.648	25304.41
569.01	25540.11
569.372	25717.5
569.734	25816.03
570.095	26037.95
570.457	26236.13
570.819	26315.68
571.18	26433.19
571.542	26798.38
571.903	26858.94
572.265	27020.52
572.626	27188.88
572.987	27309.32
573.349	27356.55
573.71	27758.58
574.071	27697.34
574.432	28006.26
574.794	28196.53
575.155	28150.88
575.516	28317.89
575.877	28502.06
576.238	28761.49
576.599	28991.54
576.96	29050.52
577.32	29110.86
577.681	29328.25
578.042	29427.01
578.403	29569.38
578.763	29688.24
579.124	29843.72
579.485	29961.46
579.845	30084.39
580.206	30198.51
580.566	30248
580.927	30345.85
581.287	30555.11
581.648	30384.27
582.008	30734.09
582.368	30659.07
582.728	30876.24
583.089	30765.28
583.449	30849.8
583.809	31108.55
584.169	31151.94
584.529	31050.92
584.889	31427.86
585.249	31165.49
585.609	31248.66
585.969	31589.89
586.329	31537.69
586.688	31548.99
587.048	31551.92
587.408	31511.02
587.768	31642.09
588.127	31594.86
588.487	31654.97
588.846	31897
589.206	31746.27
589.565	31800.73
589.925	32021.06
590.284	31948.3
590.643	32099.03
591.003	32087.05
591.362	32127.73
591.721	32131.34
592.08	32222.42
592.44	32309.42
592.799	32391.45
593.158	32359.59
593.517	32295.18
593.876	32395.52
594.235	32248.18
594.593	32306.48
594.952	32507.83
595.311	32401.62
595.67	32468.06
596.029	32695.85
596.387	32738.11
596.746	32732.01
597.104	32576.98
597.463	32568.17
597.822	32738.56
598.18	32573.82
598.538	32510.09
598.897	32771.33
599.255	32530.43
599.613	33026.91
599.972	32875.51
600.33	32975.16
600.688	32841.16
601.046	32993.47
601.404	32974.03
601.762	33105.78
602.12	33121.37
602.478	33119.79
602.836	33222.16
603.194	32985.33
603.552	33072.11
603.91	33019
604.268	33273.24
604.625	33061.49
604.983	33162.28
605.341	33105.33
605.698	33179.23
606.056	33354.82
606.413	33338.77
606.771	33398.43
607.128	33322.27
607.485	33289.96
607.843	33364.08
608.2	33605.2
608.557	33747.57
608.914	33461.48
609.272	33717.52
609.629	33647.46
609.986	33842.94
610.343	33578.31
610.7	33774.92
611.057	33839.77
611.414	33704.86
611.771	33870.28
612.127	33948.7
612.484	33949.38
612.841	34075.7
613.198	33988.24
613.554	33936.72
613.911	34215.36
614.267	34141.46
614.624	34046.77
614.98	34222.14
615.337	34308.91
615.693	34307.11
616.05	34261.01
616.406	34493.99
616.762	34420.32
617.118	34356.6
617.475	34440.66
617.831	34653.31
618.187	34512.3
618.543	34618.96
618.899	34787.55
619.255	34760.88
619.611	34602.69
619.967	34787.09
620.323	34806.08
620.678	34656.7
621.034	34668.9
621.39	34617.15
621.746	34676.36
622.101	35083.13
622.457	34771.5
622.812	34820.99
623.168	34917.49
623.523	34758.62
623.879	34999.07
624.234	34874.55
624.589	34860.09
624.945	34963.59
625.3	35003.13
625.655	34936.02
626.01	34896.7
626.365	34877.71
626.72	34888.79
627.075	34990.93
627.43	34858.05
627.785	34649.7
628.14	34858.05
628.495	34831.16
628.85	34735.34
629.205	34750.03
629.559	34728.56
629.914	34616.93
630.269	34827.54
630.623	34672.29
630.978	34656.25
631.332	34769.24
631.687	34675.46
632.041	34551.17
632.396	34763.82
632.75	34537.83
633.104	34521.11
633.459	34432.75
633.813	34407.89
634.167	34360.21
634.521	34340.33
634.875	34356.6
635.229	34277.5
635.583	34214.91
635.937	34317.95
636.291	34183.49
636.645	34170.39
636.999	34130.39
637.352	34210.39
637.706	34071.18
638.06	34237.28
638.413	34083.61
638.767	34112.76
639.121	33990.73
639.474	33765.65
639.828	33862.6
640.181	33859.66
640.534	33868.02
640.888	33767.69
641.241	33618.08
641.594	33707.12
641.947	33680.23
642.301	33703.51
642.654	33806.1
643.007	33687.46
643.36	33587.8
643.713	33601.81
644.066	33593.45
644.419	33444.53
644.771	33288.83
645.124	33020.59
645.477	32963.19
645.83	32643.65
646.182	32635.51
646.535	32539.92
646.888	32634.61
647.24	32429.42
647.593	32718.67
647.945	32581.95
648.298	32419.02
648.65	32398
649.002	32377.89
649.355	32415.18
649.707	32389.64
650.059	32572.01
650.411	32839.57
650.763	32817.43
651.115	33156.85
651.467	33070.98
651.819	33101.26
652.171	33027.14
652.523	32968.16
652.875	33069.85
653.227	32871.21
653.578	33088.38
653.93	33053.81
654.282	32941.94
654.633	32887.03
654.985	33028.04
655.337	32953.7
655.688	33043.64
656.039	33087.25
656.391	32757.54
656.742	32859.69
657.094	32929.74
657.445	33045.9
657.796	32872.79
658.147	32892
658.498	32794.15
658.849	32851.33
659.2	32883.87
659.551	32662.86
659.902	32903.75
660.253	32775.62
660.604	32853.36
660.955	32671.44
661.306	32920.93
661.656	32799.12
662.007	32808.61
662.358	32764.32
662.708	32858.56
663.059	32850.42
663.409	32676.19
663.76	32918.67
664.11	32846.81
664.461	32793.47
664.811	32845.68
665.161	32871.21
665.511	32606.81
665.862	32785.11
666.212	32772.23
666.562	32887.26
666.912	32791.67
667.262	32775.62
667.612	32748.28
667.962	32627.38
668.312	32576.3
668.662	32883.87
669.011	32732.23
669.361	32627.15
669.711	32684.32
670.06	32470.54
670.41	32551.9
670.76	32560.03
671.109	32571.56
671.459	32588.28
671.808	32635.74
672.157	32557.32
672.507	32332.24
672.856	32445.91
673.205	32390.32
673.554	32557.55
673.904	32294.05
674.253	32424.44
674.602	32324.56
674.951	31917.34
675.3	31710.34
675.649	32316.42
675.998	32353.71
676.346	32115.53
676.695	32283.2
677.044	32100.38
677.393	32145.58
677.741	32115.98
678.09	32049.76
678.438	32005.7
678.787	32115.3
679.135	31983.78
679.484	31707.17
679.832	31783.1
680.181	31728.87
680.529	31776.1
680.877	31790.34
681.225	31628.53
681.573	31867.85
681.922	31669.66
682.27	31567.97
682.618	31593.28
682.966	31473.73
683.314	31582.21
683.661	31404.36
684.009	31242.1
684.357	31334.76
684.705	31145.83
685.053	31188.32
685.4	30956.69
685.748	31012.73
686.095	30800.98
686.443	30780.65
686.79	30690.93
687.138	30744.04
687.485	30833.3
687.832	30658.39
688.18	30731.38
688.527	30462.24
688.874	30450.48
689.221	30328
689.568	30244.39
689.915	30234.9
690.262	30193.54
690.609	30133.43
690.956	30199.87
691.303	29928.01
691.65	29716.27
691.997	29718.98
692.344	29580.45
692.69	29664.06
693.037	29632.2
693.383	29323.96
693.73	29366.67
694.077	29163.96
694.423	29332.77
694.769	29117.19
695.116	28923.07
695.462	28930.07
695.808	28847.81
696.155	28897.53
696.501	28488.5
696.847	28691.21
697.193	28397.66
697.539	28507.94
697.885	28243.31
698.231	28088.74
698.577	28118.12
698.923	28100.94
699.269	27906.37
699.614	27778.46
699.96	27778.01
700.306	27767.39
700.651	27548.87
700.997	27581.18
701.342	27453.95
701.688	27475.2
702.033	27339.38
702.379	27308.42
702.724	27170.12
703.069	27306.16
703.415	26907.07
703.76	26993.63
704.105	26815.78
704.45	26792.05
704.795	26515.67
705.14	26601.55
705.485	26462.79
705.83	26376.69
706.175	26472.51
706.52	26390.93
706.865	26166.53
707.209	26207.66
707.554	26055.8
707.899	26160.2
708.243	26032.07
708.588	25868.23
708.932	25686.99
709.277	25729.25
709.621	25623.94
709.966	25498.3
710.31	25614
710.654	25324.07
710.998	25405.65
711.342	25322.71
711.687	25300.79
712.031	25213.33
712.375	25115.71
712.719	25248.81
713.063	25178.53
713.407	25164.07
713.75	25126.56
714.094	25152.09
714.438	24920.23
714.782	24997.07
715.125	24822.38
715.469	24816.28
715.812	24740.58
716.156	24567.25
716.499	24641.82
716.843	24583.52
717.186	24566.12
717.53	24566.12
717.873	24583.52
718.216	24389.85
718.559	24383.3
718.902	24278.22
719.246	24203.19
719.589	24333.81
719.932	24196.19
720.275	24137.88
720.617	24210.65
720.96	24226.92
721.303	24144.44
721.646	24234.83
721.989	23975.85
722.331	24007.94
722.674	24007.94
723.016	24037.55
723.359	24092.46
723.701	23953.71
724.044	23935.4
724.386	23815.4
724.729	23974.04
725.071	23890.43
725.413	23807.95
725.755	23875.29
726.097	23723.66
726.439	23794.61
726.782	23700.38
727.124	23817.66
727.465	23677.56
727.807	23628.74
728.149	23651.79
728.491	23646.14
728.833	23721.85
729.175	23635.52
729.516	23545.58
729.858	23544.9
730.199	23622.19
730.541	23560.95
730.882	23529.08
731.224	23567.95
731.565	23473.04
731.906	23430.56
732.248	23518.24
732.589	23310.56
732.93	23382.87
733.271	23360.73
733.612	23369.99
733.953	23386.94
734.294	23423.32
734.635	23339.26
734.976	23372.7
735.317	23378.81
735.658	23374.96
735.999	23331.8
736.339	23360.5
736.68	23414.29
737.021	23313.27
737.361	23280.73
737.702	23504.45
738.042	23311.24
738.383	23417
738.723	23543.1
739.063	23322.31
739.404	23404.34
739.744	23301.75
740.084	23291.12
740.424	23294.74
740.764	23279.83
741.104	23491.35
741.444	23297.68
741.784	23247.28
742.124	23326.6
742.464	23362.08
742.804	23351.24
743.143	23246.61
743.483	23252.71
743.823	23154.63
744.162	23173.39
744.502	23271.92
744.841	23137
745.181	23224.69
745.52	23072.83
745.86	23286.15
746.199	23182.65
746.538	23176.78
746.877	23265.14
747.216	23229.43
747.556	23209.55
747.895	23217.91
748.234	23198.47
748.573	23195.08
748.911	23216.1
749.25	23178.81
749.589	23073.28
749.928	23113.05
750.267	23231.24
750.605	23104.69
750.944	23059.04
751.283	22974.52
751.621	23193.73
751.96	22953.96
752.298	23097.46
752.636	23116.67
752.975	22991.47
753.313	22946.95
753.651	23054.52
753.989	22928.42
754.327	22864.47
754.666	22831.93
755.004	22809.78
755.342	22811.59
755.679	22757.35
