Data from tablewood_brown_FLMS001491_024.txt Node
Date: Tue Feb 07 11:10:14 GMT 2017
User: dcchb
Spectrometer: FLMS00149
Trigger mode: 0
Integration Time (sec): 2.000000E-2
Scans to average: 10
Electric dark correction enabled: true
Nonlinearity correction enabled: false
Boxcar width: 0
XAxis mode: Wavelengths
Number of Pixels in Spectrum: 2048
>>>>>Begin Spectral Data<<<<<
341.393	-10.32
341.776	-10.32
342.16	-10.32
342.543	-63.2
342.927	-68.85
343.31	-66.59
343.693	-75.63
344.077	-67.5
344.46	-63.66
344.843	-59.81
345.226	-27.27
345.61	-26.37
345.993	-18.23
346.376	-6.48
346.759	-3.32
347.142	30.35
347.525	60.63
347.908	57.24
348.291	71.48
348.674	92.05
349.057	103.12
349.44	124.14
349.823	136.79
350.206	147.86
350.588	190.12
350.971	197.81
351.354	199.16
351.737	215.43
352.119	246.39
352.502	257.46
352.884	278.48
353.267	290.91
353.65	288.2
354.032	297.01
354.414	324.36
354.797	314.41
355.179	297.24
355.562	319.16
355.944	306.96
356.326	337.01
356.709	332.04
357.091	337.69
357.473	343.56
357.855	331.81
358.238	352.83
358.62	338.82
359.002	332.94
359.384	350.57
359.766	348.08
360.148	341.98
360.53	333.17
360.912	324.36
361.294	336.33
361.676	338.14
362.057	332.94
362.439	339.72
362.821	309.44
363.203	318.93
363.584	327.75
363.966	337.69
364.348	315.99
364.729	314.86
365.111	330.91
365.493	333.85
365.874	321.87
366.256	299.27
366.637	332.72
367.019	306.96
367.4	318.25
367.781	319.84
368.163	330.01
368.544	319.38
368.925	309.67
369.306	337.24
369.688	301.98
370.069	310.8
370.45	323.9
370.831	305.15
371.212	322.32
371.593	327.97
371.974	322.32
372.355	335.88
372.736	315.99
373.117	337.69
373.498	332.49
373.879	309.67
374.26	310.57
374.641	344.69
375.021	318.71
375.402	312.15
375.783	341.53
376.163	334.98
376.544	336.11
376.925	329.1
377.305	326.39
377.686	332.49
378.066	347.18
378.447	338.59
378.827	332.27
379.208	333.85
379.588	337.69
379.968	333.4
380.349	354.19
380.729	349.21
381.109	336.78
381.489	343.34
381.87	331.81
382.25	358.25
382.63	359.61
383.01	380.85
383.39	362.32
383.77	363.45
384.15	366.39
384.53	373.17
384.91	381.3
385.29	362.55
385.67	380.4
386.049	393.51
386.429	376.33
386.809	382.21
387.189	368.42
387.568	385.15
387.948	393.96
388.328	376.56
388.707	384.02
389.087	366.16
389.466	404.58
389.846	389.44
390.225	396.44
390.605	381.53
390.984	406.16
391.363	369.78
391.743	417.01
392.122	409.1
392.501	411.59
392.881	426.95
393.26	435.31
393.639	413.17
394.018	427.86
394.397	423.79
394.776	415.88
395.155	435.54
395.534	433.96
395.913	419.04
396.292	452.26
396.671	435.09
397.05	440.74
397.429	431.25
397.808	443.67
398.186	450
398.565	441.41
398.944	436.9
399.323	447.29
399.701	413.39
400.08	441.64
400.458	471.02
400.837	485.48
401.215	478.48
401.594	504.24
401.972	493.16
402.351	476.22
402.729	490.45
403.107	502.88
403.486	486.16
403.864	486.84
404.242	484.8
404.62	503.33
404.999	507.18
405.377	531.36
405.755	525.25
406.133	525.93
406.511	502.2
406.889	517.57
407.267	531.81
407.645	522.77
408.023	534.97
408.401	533.84
408.779	565.48
409.156	544.24
409.534	551.92
409.912	560.51
410.29	594.63
410.667	585.59
411.045	574.97
411.422	585.37
411.8	583.78
412.178	601.86
412.555	619.94
412.933	602.31
413.31	605.48
413.687	587.85
414.065	615.65
414.442	628.75
414.819	627.85
415.197	610.9
415.574	645.7
415.951	644.12
416.328	669.88
416.705	652.26
417.082	675.76
417.46	681.18
417.837	683.67
418.214	643.9
418.591	671.24
418.967	667.17
419.344	692.71
419.721	673.05
420.098	671.01
420.475	689.32
420.852	682.09
421.228	693.61
421.605	700.39
421.982	718.92
422.358	726.83
422.735	715.98
423.111	727.74
423.488	731.35
423.864	746.27
424.241	755.98
424.617	744.01
424.994	758.92
425.37	769.54
425.746	762.76
426.123	749.88
426.499	793.72
426.875	792.14
427.251	807.28
427.627	801.18
428.003	808.41
428.379	828.07
428.756	833.04
429.132	816.09
429.507	833.27
429.883	841.63
430.259	847.51
430.635	859.26
431.011	888.18
431.387	899.48
431.763	906.04
432.138	908.75
432.514	904.45
432.89	912.36
433.265	936.32
433.641	933.61
434.016	946.49
434.392	941.74
434.767	987.62
435.143	990.55
435.518	992.81
435.894	1013.38
436.269	1027.16
436.644	1018.12
437.02	1035.52
437.395	1038.91
437.77	1046.82
438.145	1068.29
438.52	1053.6
438.895	1077.56
439.271	1069.2
439.646	1101.28
440.021	1104.67
440.395	1109.19
440.77	1077.78
441.145	1117.56
441.52	1132.47
441.895	1129.53
442.27	1153.94
442.645	1167.72
443.019	1180.6
443.394	1172.47
443.769	1194.84
444.143	1181.28
444.518	1193.94
444.892	1168.18
445.267	1210.66
445.641	1179.02
446.016	1226.25
446.39	1235.29
446.764	1211.34
447.139	1207.04
447.513	1243.2
447.887	1231.68
448.262	1254.05
448.636	1268.74
449.01	1274.39
449.384	1297.66
449.758	1279.58
450.132	1309.87
450.506	1324.78
450.88	1348.96
451.254	1324.56
451.628	1329.98
452.002	1325.91
452.376	1355.52
452.75	1358.23
453.123	1388.28
453.497	1402.29
453.871	1420.82
454.244	1430.54
454.618	1463.99
454.992	1437.77
455.365	1460.37
455.739	1499.24
456.112	1527.49
456.486	1515.29
456.859	1536.75
457.232	1599.58
457.606	1551.67
457.979	1561.39
458.352	1605
458.725	1614.27
459.099	1636.19
459.472	1632.57
459.845	1661.95
460.218	1669.41
460.591	1717.99
460.964	1666.02
461.337	1764.32
461.71	1738.78
462.083	1797.54
462.456	1814.26
462.829	1822.85
463.201	1889.29
463.574	1847.48
463.947	1905.33
464.32	1925.44
464.692	1920.02
465.065	1933.35
465.438	1956.18
465.81	1996.4
466.183	2005.89
466.555	2058.1
466.928	2089.06
467.3	2101.26
467.672	2135.38
468.045	2192.56
468.417	2184.87
468.789	2209.05
469.161	2270.07
469.534	2262.38
469.906	2323.4
470.278	2354.13
470.65	2371.53
471.022	2445.88
471.394	2498.31
471.766	2489.95
472.138	2539.21
472.51	2615.37
472.882	2649.49
473.253	2656.95
473.625	2728.81
473.997	2782.6
474.369	2833.89
474.74	2856.04
475.112	2898.75
475.484	2971.07
475.855	3075.47
476.227	3034.34
476.598	3171.74
476.97	3207.44
477.341	3308.01
477.713	3308.91
478.084	3337.61
478.455	3442.01
478.827	3508.68
479.198	3631.39
479.569	3616.47
479.94	3700.99
480.311	3799.74
480.682	3890.36
481.053	3971.27
481.424	4049.68
481.795	4114.54
482.166	4161.77
482.537	4207.42
482.908	4324.48
483.279	4411.48
483.65	4463.68
484.021	4546.39
484.391	4642.89
484.762	4665.03
485.133	4729.21
485.503	4848.3
485.874	4888.08
486.244	4992.26
486.615	5032.25
486.985	5149.54
487.356	5262.98
487.726	5320.38
488.097	5448.97
488.467	5394.28
488.837	5541.85
489.207	5603.31
489.578	5714.95
489.948	5713.59
490.318	5782.52
490.688	5864.1
491.058	5945.68
491.428	6017.09
491.798	6114.94
492.168	6228.83
492.538	6241.94
492.908	6276.06
493.278	6455.95
493.648	6408.04
494.017	6549.95
494.387	6533.46
494.757	6642.83
495.126	6685.09
495.496	6721.93
495.866	6847.35
496.235	6938.65
496.605	6997.85
496.974	6996.72
497.344	7028.59
497.713	7123.05
498.082	7176.15
498.452	7289.82
498.821	7300.9
499.19	7285.75
499.559	7409.82
499.928	7425.64
500.298	7462.93
500.667	7589.48
501.036	7615.24
501.405	7617.95
501.774	7690.72
502.143	7782.24
502.512	7877.38
502.88	7950.14
503.249	7929.13
503.618	7990.14
503.987	8026.53
504.356	8115.79
504.724	8144.04
505.093	8192.85
505.462	8242.79
505.83	8353.52
506.199	8375.67
506.567	8498.15
506.936	8508.32
507.304	8641.65
507.672	8596.91
508.041	8673.06
508.409	8778.82
508.777	8802.55
509.145	8912.83
509.514	8910.34
509.882	9067.63
510.25	9121.64
510.618	9215.42
510.986	9189.21
511.354	9192.82
511.722	9404.12
512.09	9442.31
512.458	9435.08
512.826	9553.72
513.193	9651.57
513.561	9756.42
513.929	9827.61
514.297	9852.01
514.664	9953.48
515.032	10066.25
515.4	10031.9
515.767	10172.91
516.135	10201.84
516.502	10233.93
516.869	10452.45
517.237	10479.8
517.604	10490.42
517.972	10588.72
518.339	10753.01
518.706	10756.62
519.073	10796.85
519.44	10948.48
519.808	11085.88
520.175	11088.82
520.542	11227.12
520.909	11298.08
521.276	11335.59
521.643	11454.46
522.009	11515.47
522.376	11630.5
522.743	11802.47
523.11	11856.71
523.477	11965.63
523.843	12038.62
524.21	12115.23
524.577	12289.24
524.943	12345.51
525.31	12414.43
525.676	12494.66
526.043	12549.8
526.409	12653.3
526.776	12847.87
527.142	12912.27
527.508	12941.2
527.874	13110.69
528.241	13119.5
528.607	13225.49
528.973	13319.49
529.339	13353.17
529.705	13462.09
530.071	13667.28
530.437	13688.3
530.803	13814.62
531.169	13880.16
531.535	13847.39
531.901	13894.39
532.267	13988.63
532.632	14036.99
532.998	14181.62
533.364	14264.78
533.73	14265.01
534.095	14405.34
534.461	14450.76
534.826	14567.37
535.192	14648.05
535.557	14669.29
535.923	14689.85
536.288	14778.44
536.653	14885.33
537.019	14883.97
537.384	14970.3
537.749	14997.19
538.114	15091.2
538.479	15052.33
538.845	15217.07
539.21	15163.74
539.575	15230.63
539.94	15279.22
540.305	15339.55
540.67	15389.95
541.034	15542.26
541.399	15542.49
541.764	15557.63
542.129	15711.07
542.494	15724.85
542.858	15763.05
543.223	15812.76
543.587	15881.23
543.952	15839.43
544.316	15929.6
544.681	15929.37
545.045	16025.41
545.41	16094.56
545.774	16283.48
546.138	16236.03
546.503	16306.08
546.867	16385.18
547.231	16480.09
547.595	16466.53
547.959	16556.92
548.324	16661.1
548.688	16658.62
549.052	16800.31
549.416	16831.94
549.779	16918.72
550.143	16969.57
550.507	17122.78
550.871	17140.86
551.235	17099.51
551.599	17352.16
551.962	17379.73
552.326	17398.03
552.689	17591.02
553.053	17478.93
553.417	17681.19
553.78	17988.3
554.143	18007.05
554.507	18007.51
554.87	18124.11
555.234	18264.22
555.597	18296.76
555.96	18387.16
556.323	18512.58
556.686	18586.02
557.05	18704.21
557.413	18835.51
557.776	18983.98
558.139	19040.02
558.502	19055.84
558.865	19199.11
559.228	19428.26
559.59	19547.13
559.953	19778.08
560.316	19888.81
560.679	19979.21
561.041	20117.51
561.404	20235.47
561.767	20398.86
562.129	20404.05
562.492	20705.29
562.854	20794.55
563.217	20811.05
563.579	20945.73
563.941	21089.01
564.304	21310.7
564.666	21538.71
565.028	21558.83
565.39	21815.09
565.753	21950.68
566.115	22040.4
566.477	22164.01
566.839	22333.72
567.201	22529.42
567.563	22633.83
567.925	22854.84
568.287	22973.7
568.648	22973.7
569.01	23134.15
569.372	23446.46
569.734	23397.42
570.095	23695.04
570.457	23830.86
570.819	24018.42
571.18	24073.56
571.542	24334.57
571.903	24534.11
572.265	24681.91
572.626	24683.94
572.987	24845.97
573.349	25028.79
573.71	25152.4
574.071	25332.29
574.432	25525.5
574.794	25730.02
575.155	25815.66
575.516	25864.7
575.877	26072.38
576.238	26140.63
576.599	26410.9
576.96	26412.26
577.32	26559.6
577.681	26703.55
578.042	26920.27
578.403	26873.49
578.763	26962.75
579.124	27112.58
579.485	27137.44
579.845	27508.73
580.206	27430.99
580.566	27553.92
580.927	27586.46
581.287	27853.35
581.648	27644.09
582.008	28102.61
582.368	27949.84
582.728	28092.21
583.089	28185.09
583.449	28082.5
583.809	28281.36
584.169	28333.11
584.529	28311.19
584.889	28521.13
585.249	28472.77
585.609	28423.73
585.969	28606.55
586.329	28551.64
586.688	28693.55
587.048	28664.18
587.408	28761.57
587.768	28722.25
588.127	28769.03
588.487	28835.92
588.846	28983.49
589.206	28837.28
589.565	28880.67
589.925	29162.47
590.284	29012.64
590.643	29140.1
591.003	29159.08
591.362	29207.44
591.721	29226.42
592.08	29262.58
592.44	29284.05
592.799	29291.05
593.158	29250.6
593.517	29338.73
593.876	29402.46
594.235	29306.42
594.593	29359.98
594.952	29508.9
595.311	29388.68
595.67	29417.15
596.029	29655.56
596.387	29595.22
596.746	29763.58
597.104	29565.17
597.463	29653.75
597.822	29764.49
598.18	29722.9
598.538	29640.2
598.897	29873.18
599.255	29519.07
599.613	30092.61
599.972	29826.41
600.33	29925.16
600.688	29761.77
601.046	29978.04
601.404	30056.91
601.762	30016
602.12	30143.91
602.478	30102.56
602.836	30118.15
603.194	30090.35
603.552	30053.97
603.91	30057.13
604.268	30265.72
604.625	30081.99
604.983	30123.8
605.341	30053.97
605.698	30317.69
606.056	30373.74
606.413	30295.09
606.771	30279.05
607.128	30281.08
607.485	30057.36
607.843	30271.82
608.2	30458.03
608.557	30508.87
608.914	30472.49
609.272	30590.9
609.629	30647.85
609.986	30786.83
610.343	30459.61
610.7	30850.56
611.057	30683.56
611.414	30696.21
611.771	30863.67
612.127	30889.88
612.484	30875.87
612.841	30967.84
613.198	30890.11
613.554	30818.7
613.911	31117.67
614.267	31016.2
614.624	31028.41
614.98	31074.28
615.337	31188.18
615.693	31154.73
616.05	31156.31
616.406	31370.32
616.762	31071.57
617.118	31229.31
617.475	31253.03
617.831	31328.51
618.187	31411.22
618.543	31322.18
618.899	31618.22
619.255	31459.13
619.611	31556.98
619.967	31589.75
620.323	31690.99
620.678	31402.63
621.034	31520.15
621.39	31548.62
621.746	31414.84
622.101	31729.63
622.457	31480.6
622.812	31671.78
623.168	31705
623.523	31678.33
623.879	31806.69
624.234	31627.94
624.589	31691.67
624.945	31755.17
625.3	31819.35
625.655	31740.7
626.01	31763.76
626.365	31754.49
626.72	31603.99
627.075	31730.54
627.43	31705.45
627.785	31669.07
628.14	31709.29
628.495	31714.04
628.85	31599.92
629.205	31491.45
629.559	31758.11
629.914	31534.61
630.269	31490.32
630.623	31434.27
630.978	31418.91
631.332	31578.45
631.687	31546.81
632.041	31463.65
632.396	31541.84
632.75	31305.69
633.104	31450.54
633.459	31286.03
633.813	31225.69
634.167	31222.75
634.521	31180.27
634.875	31314.05
635.229	31191.57
635.583	31163.77
635.937	31051.23
636.291	31138.46
636.645	31161.96
636.999	31015.53
637.352	31020.72
637.706	30801.07
638.06	30841.29
638.413	30832.71
638.767	30808.98
639.121	30796.77
639.474	30604.69
639.828	30784.57
640.181	30573.5
640.534	30658.7
640.888	30690.56
641.241	30553.62
641.594	30631.36
641.947	30712.26
642.301	30610.11
642.654	30571.02
643.007	30506.61
643.36	30515.43
643.713	30454.86
644.066	30484.24
644.419	30304.13
644.771	30127.87
645.124	29903.92
645.477	29917.02
645.83	29749.8
646.182	29597.26
646.535	29532.4
646.888	29529.24
647.24	29478.62
647.593	29531.27
647.945	29447.66
648.298	29439.75
648.65	29345.97
649.002	29250.15
649.355	29420.31
649.707	29241.56
650.059	29453.53
650.411	29727.65
650.763	29800.19
651.115	30166.96
651.467	30014.42
651.819	30134.87
652.171	29972.62
652.523	29909.79
652.875	29929.45
653.227	29688.33
653.578	30016.91
653.93	29920.19
654.282	29883.8
654.633	29738.72
654.985	29789.57
655.337	29936.91
655.688	29892.17
656.039	29958.38
656.391	29668.22
656.742	29575.56
657.094	29815.11
657.445	29837.7
657.796	29727.88
658.147	29690.36
658.498	29678.61
658.849	29762
659.2	29802.68
659.551	29717.26
659.902	29839.06
660.253	29662.57
660.604	29747.99
660.955	29589.12
661.306	29733.3
661.656	29613.76
662.007	29601.1
662.358	29642.23
662.708	29765.39
663.059	29646.75
663.409	29465.06
663.76	29675.67
664.11	29625.05
664.461	29626.41
664.811	29720.19
665.161	29692.62
665.511	29666.86
665.862	29635.68
666.212	29627.99
666.562	29712.74
666.912	29738.5
667.262	29607.43
667.612	29560.42
667.962	29650.59
668.312	29512.29
668.662	29750.47
669.011	29630.48
669.361	29504.15
669.711	29436.58
670.06	29489.46
670.41	29413.99
670.76	29458.96
671.109	29360.43
671.459	29525.62
671.808	29413.76
672.157	29413.76
672.507	29298.28
672.856	29330.82
673.205	29333.08
673.554	29273.2
673.904	29281.79
674.253	29254.89
674.602	29180.77
674.951	28861.23
675.3	28578.98
675.649	29247.21
675.998	29061
676.346	29075.46
676.695	29089.02
677.044	28909.37
677.393	29063.71
677.741	29036.82
678.09	28933.1
678.438	28953.43
678.787	29041.11
679.135	28984.39
679.484	28903.94
679.832	28784.17
680.181	28586.66
680.529	28775.36
680.877	28714.8
681.225	28786.66
681.573	28814.23
681.922	28528.36
682.27	28461.7
682.618	28411.53
682.966	28350.51
683.314	28542.82
683.661	28338.99
684.009	28338.76
684.357	28197.52
684.705	28146.22
685.053	28077.3
685.4	28161.14
685.748	27919.79
686.095	28082.27
686.443	27887.7
686.79	27837.08
687.138	27870.07
687.485	27800.47
687.832	27733.35
688.18	27740.36
688.527	27427.6
688.874	27487.26
689.221	27475.28
689.568	27243.65
689.915	27187.38
690.262	27256.53
690.609	27167.72
690.956	27030.32
691.303	26958.46
691.65	26843.88
691.997	26913.49
692.344	26729.31
692.69	26716.2
693.037	26662.42
693.383	26422.2
693.73	26627.39
694.077	26367.96
694.423	26344.91
694.769	26281.41
695.116	26157.8
695.462	26172.94
695.808	26085.03
696.155	25985.15
696.501	25883.68
696.847	25789.22
697.193	25651.15
697.539	25754.87
697.885	25586.97
698.231	25422
698.577	25402.79
698.923	25317.82
699.269	25320.53
699.614	25090.94
699.96	25101.56
700.306	25081.45
700.651	25013.65
700.997	24892.07
701.342	24883.94
701.688	24888.91
702.033	24636.48
702.379	24594.68
702.724	24566.43
703.069	24638.97
703.415	24254.8
703.76	24368.02
704.105	24335.93
704.45	24260.68
704.795	24054.81
705.14	23940.46
705.485	23888.71
705.83	23789.05
706.175	23746.11
706.52	23784.3
706.865	23649.17
707.209	23685.1
707.554	23593.12
707.899	23648.49
708.243	23488.04
708.588	23355.84
708.932	23276.07
709.277	23238.1
709.621	23283.53
709.966	23088.96
710.31	23124.89
710.654	22870.43
710.998	23069.07
711.342	23045.11
711.687	22868.17
712.031	22909.52
712.375	22728.74
712.719	22929.86
713.063	22721.51
713.407	22813.71
713.75	22612.58
714.094	22680.38
714.438	22565.8
714.782	22587.27
715.125	22520.83
715.469	22484.9
715.812	22385.7
716.156	22383.89
716.499	22294.4
716.843	22349.99
717.186	22170.56
717.53	22280.84
717.873	22340.73
718.216	22259.15
718.559	22090.56
718.902	22010.34
719.246	22096.89
719.589	22010.57
719.932	21907.07
720.275	21862.55
720.617	21935.09
720.96	21880.85
721.303	21873.62
721.646	21851.02
721.989	21720.63
722.331	21837.01
722.674	21704.13
723.016	21713.62
723.359	21588.43
723.701	21743.91
724.044	21546.62
724.386	21489.45
724.729	21740.29
725.071	21521.54
725.413	21550.69
725.755	21451.03
726.097	21388.66
726.439	21368.32
726.782	21406.74
727.124	21571.25
727.465	21416.46
727.807	21419.62
728.149	21442.9
728.491	21286.97
728.833	21276.35
729.175	21409.45
729.516	21300.3
729.858	21225.95
730.199	21343.01
730.541	21242.45
730.882	21159.97
731.224	21276.12
731.565	21147.09
731.906	21104.83
732.248	21278.83
732.589	21164.71
732.93	21009.24
733.271	21162.68
733.612	21095.34
733.953	21092.85
734.294	21039.29
734.635	21025.73
734.976	21076.58
735.317	21075.67
735.658	20999.07
735.999	20959.97
736.339	21009.46
736.68	21096.24
737.021	21024.6
737.361	20904.38
737.702	21075.9
738.042	21058.27
738.383	21014.43
738.723	21077.71
739.063	21065.05
739.404	21051.49
739.744	20959.75
740.084	20935.79
740.424	20952.29
740.764	20936.24
741.104	21047.65
741.444	20863.02
741.784	20842.69
742.124	20948.45
742.464	20946.64
742.804	20886.75
743.143	20902.8
743.483	20877.04
743.823	20785.96
744.162	20898.73
744.502	20906.41
744.841	20769.69
745.181	20891.95
745.52	20797.26
745.86	20811.27
746.199	20790.71
746.538	20762.69
746.877	20756.36
747.216	20757.72
747.556	20750.49
747.895	20810.82
748.234	20695.8
748.573	20710.49
748.911	20708.23
749.25	20686.76
749.589	20609.25
749.928	20607.21
750.267	20683.37
750.605	20642.01
750.944	20644.73
751.283	20515.46
751.621	20519.53
751.96	20470.27
752.298	20462.13
752.636	20519.08
752.975	20406.31
753.313	20387.56
753.651	20463.94
753.989	20462.81
754.327	20331.74
754.666	20202.7
755.004	20290.84
755.342	20250.39
755.679	20380.33
