Data from tablewood_brown_FLMS001491_055.txt Node
Date: Tue Feb 07 11:10:42 GMT 2017
User: dcchb
Spectrometer: FLMS00149
Trigger mode: 0
Integration Time (sec): 2.000000E-2
Scans to average: 10
Electric dark correction enabled: true
Nonlinearity correction enabled: false
Boxcar width: 0
XAxis mode: Wavelengths
Number of Pixels in Spectrum: 2048
>>>>>Begin Spectral Data<<<<<
341.393	-18.74
341.776	-18.74
342.16	-18.74
342.543	-46.09
342.927	-56.03
343.31	-80.44
343.693	-75.69
344.077	-55.58
344.46	-56.48
344.843	-68.01
345.226	-19.87
345.61	-28.69
345.993	-14
346.376	2.95
346.759	23.52
347.142	14.03
347.525	42.05
347.908	50.41
348.291	84.08
348.674	81.14
349.057	100.58
349.44	134.02
349.823	142.84
350.206	153.46
350.588	209.73
350.971	226.67
351.354	231.42
351.737	249.73
352.119	248.82
352.502	270.29
352.884	278.42
353.267	273.45
353.65	300.12
354.032	317.97
354.414	305.32
354.797	337.86
355.179	332.43
355.562	325.88
355.944	354.13
356.326	353.23
356.709	351.64
357.091	354.13
357.473	351.19
357.855	341.93
358.238	362.72
358.62	337.18
359.002	347.8
359.384	354.58
359.766	355.94
360.148	331.98
360.53	365.65
360.912	342.6
361.294	354.13
361.676	325.66
362.057	359.78
362.439	348.25
362.821	344.19
363.203	338.31
363.584	337.18
363.966	357.74
364.348	329.05
364.729	333.11
365.111	329.05
365.493	343.06
365.874	327.46
366.256	341.02
366.637	328.59
367.019	325.88
367.4	345.32
367.781	343.51
368.163	347.35
368.544	329.05
368.925	331.08
369.306	347.35
369.688	325.43
370.069	331.98
370.45	333.11
370.831	353.9
371.212	337.63
371.593	330.17
371.974	318.42
372.355	353.9
372.736	339.67
373.117	339.44
373.498	338.76
373.879	338.08
374.26	328.82
374.641	378.99
375.021	315.03
375.402	360
375.783	337.86
376.163	355.71
376.544	365.43
376.925	362.94
377.305	352.77
377.686	371.98
378.066	364.3
378.447	352.1
378.827	364.52
379.208	362.94
379.588	376.73
379.968	368.14
380.349	355.49
380.729	373.79
381.109	387.35
381.489	371.76
381.87	383.96
382.25	374.92
382.63	393.45
383.01	377.86
383.39	383.28
383.77	374.24
384.15	390.51
384.53	392.77
384.91	386.44
385.29	416.5
385.67	391.19
386.049	417.4
386.429	411.3
386.809	425.99
387.189	403.85
387.568	404.98
387.948	411.08
388.328	423.51
388.707	423.28
389.087	417.4
389.466	445.43
389.846	421.7
390.225	425.09
390.605	432.77
390.984	442.49
391.363	433.22
391.743	422.38
392.122	447.69
392.501	455.6
392.881	462.37
393.26	461.92
393.639	456.27
394.018	492.43
394.397	479.78
394.776	468.02
395.155	474.58
395.534	484.97
395.913	480
396.292	505.31
396.671	503.28
397.05	498.31
397.429	505.76
397.808	496.95
398.186	517.74
398.565	518.42
398.944	507.12
399.323	524.29
399.701	514.8
400.08	519.32
400.458	538.08
400.837	526.33
401.215	544.41
401.594	533.11
401.972	548.93
402.351	537.18
402.729	557.51
403.107	547.8
403.486	573.33
403.864	567.91
404.242	571.07
404.62	585.76
404.999	574.69
405.377	590.96
405.755	579.89
406.133	594.8
406.511	625.08
406.889	603.84
407.267	623.5
407.645	626.21
408.023	646.78
408.401	625.53
408.779	619.88
409.156	648.36
409.534	633.9
409.912	650.84
410.29	674.35
410.667	674.35
411.045	668.02
411.422	686.32
411.8	710.5
412.178	723.16
412.555	712.09
412.933	698.07
413.31	742.59
413.687	717.74
414.065	719.09
414.442	753.67
414.819	740.56
415.197	760.67
415.574	756.83
415.951	757.28
416.328	780.56
416.705	766.77
417.082	770.16
417.46	774.46
417.837	800.22
418.214	793.44
418.591	805.19
418.967	804.74
419.344	830.27
419.721	821.46
420.098	818.52
420.475	830.73
420.852	823.95
421.228	836.83
421.605	851.52
421.982	871.18
422.358	873.44
422.735	880.22
423.111	868.92
423.488	909.37
423.864	894.45
424.241	932.87
424.617	904.85
424.994	909.37
425.37	909.14
425.746	916.83
426.123	942.81
426.499	941.68
426.875	947.33
427.251	983.94
427.627	974.68
428.003	1002.93
428.379	1018.52
428.756	1006.54
429.132	1028.46
429.507	1053.77
429.883	1067.1
430.259	1080.44
430.635	1058.52
431.011	1065.97
431.387	1117.27
431.763	1118.4
432.138	1125.63
432.514	1166.76
432.89	1129.48
433.265	1157.5
433.641	1164.5
434.016	1195.69
434.392	1193.2
434.767	1212.19
435.143	1228.23
435.518	1241.56
435.894	1247.89
436.269	1233.88
436.644	1274.78
437.02	1279.75
437.395	1293.31
437.77	1302.13
438.145	1312.07
438.52	1335.12
438.895	1367.44
439.271	1346.65
439.646	1400.88
440.021	1406.76
440.395	1398.4
440.77	1384.61
441.145	1437.94
441.52	1456.02
441.895	1444.5
442.27	1463.25
442.645	1472.97
443.019	1469.58
443.394	1484.27
443.769	1499.18
444.143	1469.35
444.518	1538.73
444.892	1499.86
445.267	1509.35
445.641	1528.34
446.016	1511.16
446.39	1557.26
446.764	1585.28
447.139	1575.34
447.513	1622.8
447.887	1591.61
448.262	1613.98
448.636	1617.37
449.01	1623.47
449.384	1632.97
449.758	1638.62
450.132	1667.09
450.506	1682.68
450.88	1698.73
451.254	1703.7
451.628	1723.58
452.002	1743.7
452.376	1764.26
452.75	1766.07
453.123	1761.1
453.497	1812.17
453.871	1804.71
454.244	1891.04
454.618	1838.16
454.992	1889.68
455.365	1888.33
455.739	1930.36
456.112	1942.56
456.486	1988.44
456.859	1984.14
457.232	2045.38
457.606	2023.01
457.979	2056.01
458.352	2097.81
458.725	2107.98
459.099	2126.06
459.472	2141.43
459.845	2170.13
460.218	2185.95
460.591	2206.06
460.964	2269.33
461.337	2281.31
461.71	2331.25
462.083	2375.77
462.456	2381.65
462.829	2369.44
463.201	2396.34
463.574	2443.34
463.947	2486.73
464.32	2512.49
464.692	2551.59
465.065	2541.87
465.438	2575.99
465.81	2628.42
466.183	2675.65
466.555	2708.64
466.928	2736.67
467.3	2755.65
467.672	2776.66
468.045	2841.3
468.417	2895.08
468.789	2929.2
469.161	2974.63
469.534	2990.67
469.906	3055.3
470.278	3114.28
470.65	3166.03
471.022	3208.29
471.394	3281.51
471.766	3314.96
472.138	3368.74
472.51	3472.92
472.882	3502.07
473.253	3513.14
473.625	3645.34
473.997	3667.71
474.369	3675.4
474.74	3754.72
475.112	3830.2
475.484	3867.03
475.855	3991.1
476.227	4010.53
476.598	4165.55
476.97	4190.86
477.341	4280.13
477.713	4377.53
478.084	4436.06
478.455	4551.76
478.827	4601.48
479.198	4744.97
479.569	4760.57
479.94	4923.05
480.311	4927.79
480.682	5105.19
481.053	5222.48
481.424	5310.83
481.795	5368.69
482.166	5437.39
482.537	5545.18
482.908	5632.41
483.279	5704.95
483.65	5846.64
484.021	5999.86
484.391	6044.15
484.762	6111.27
485.133	6200.08
485.503	6339.96
485.874	6472.61
486.244	6496.34
486.615	6646.17
486.985	6728.65
487.356	6807.29
487.726	6877.12
488.097	7074.4
488.467	7103.78
488.837	7263.78
489.207	7340.61
489.578	7447.28
489.948	7567.72
490.318	7670.55
490.688	7708.06
491.058	7831.45
491.428	7916.64
491.798	8024.21
492.168	8193.25
492.538	8188.5
492.908	8244.09
493.278	8433.24
493.648	8454.71
494.017	8557.76
494.387	8616.06
494.757	8736.28
495.126	8814.02
495.496	8778.99
495.866	8993.68
496.235	9023.05
496.605	9113.45
496.974	9173.78
497.344	9324.97
497.713	9353.89
498.082	9450.39
498.452	9536.49
498.821	9599.31
499.19	9627.56
499.559	9700.78
499.928	9807.44
500.298	9861.22
500.667	10043.37
501.036	10029.81
501.405	10042.24
501.774	10161.55
502.143	10245.17
502.512	10352.51
502.88	10403.81
503.249	10397.93
503.618	10452.85
503.987	10619.62
504.356	10642.67
504.724	10763.12
505.093	10753.4
505.462	10886.96
505.83	10980.97
506.199	11081.76
506.567	11158.14
506.936	11099.38
507.304	11393.16
507.672	11421.86
508.041	11465.25
508.409	11518.81
508.777	11595.64
509.145	11699.59
509.514	11805.58
509.882	11863.43
510.25	11946.59
510.618	12041.51
510.986	12093.26
511.354	12187.26
511.722	12254.16
512.09	12387.71
512.458	12459.57
512.826	12545
513.193	12769.4
513.561	12746.57
513.929	12916.74
514.297	13073.34
514.664	13228.59
515.032	13158.99
515.4	13353.79
515.767	13467
516.135	13488.25
516.502	13443.73
516.869	13781.12
517.237	13772.99
517.604	13838.52
517.972	13968.23
518.339	14092.98
518.706	14193.54
519.073	14395.79
519.44	14332.07
519.808	14455.45
520.175	14569.35
520.542	14747.42
520.909	14913.29
521.276	14869.91
521.643	15041.88
522.009	15218.37
522.376	15293.4
522.743	15433.96
523.11	15574.75
523.477	15748.53
523.843	15842.99
524.21	16027.39
524.577	16132.02
524.943	16253.15
525.31	16350.77
525.676	16486.13
526.043	16549.64
526.409	16735.85
526.776	16956.63
527.142	16927.93
527.508	17073.92
527.874	17375.15
528.241	17407.01
528.607	17355.49
528.973	17688.14
529.339	17672.32
529.705	17879.54
530.071	18000.9
530.437	18066.88
530.803	18135.81
531.169	18331.96
531.535	18268.46
531.901	18388.23
532.267	18531.73
532.632	18639.3
532.998	18717.94
533.364	18802.01
533.73	18893.3
534.095	19051.72
534.461	19015.11
534.826	19216.23
535.192	19264.14
535.557	19464.36
535.923	19364.93
536.288	19598.59
536.653	19576.9
537.019	19560.86
537.384	19750
537.749	19770.57
538.114	19926.72
538.479	19878.81
538.845	20104.34
539.21	20092.37
539.575	20149.09
539.94	20230.22
540.305	20342.98
540.67	20351.34
541.034	20426.37
541.399	20567.16
541.764	20637.21
542.129	20612.13
542.494	20712.46
542.858	20839.92
543.223	20881.72
543.587	21045.34
543.952	21104.09
544.316	21116.75
544.681	21130.31
545.045	21236.29
545.41	21461.14
545.774	21446.91
546.138	21502.95
546.503	21573.23
546.867	21565.32
547.231	21826.11
547.595	21914.47
547.959	21926.44
548.324	21885.77
548.688	22042.6
549.052	22180.67
549.416	22274.23
549.779	22310.16
550.143	22352.42
550.507	22564.62
550.871	22643.26
551.235	22642.36
551.599	22771.17
551.962	22969.13
552.326	22985.62
552.689	23009.58
553.053	23106.07
553.417	23284.37
553.78	23510.13
554.143	23614.31
554.507	23724.59
554.87	23828.99
555.234	24030.12
555.597	23989.44
555.96	24193.28
556.323	24276.89
556.686	24452.93
557.05	24677.56
557.413	24669.42
557.776	24753.26
558.139	24996.42
558.502	25153.03
558.865	25183.08
559.228	25429.63
559.59	25538.33
559.953	25691.09
560.316	26090.4
560.679	26091.31
561.041	26328.81
561.404	26493.78
561.767	26644.51
562.129	26746.66
562.492	27058.74
562.854	27023.26
563.217	27155.91
563.579	27365.17
563.941	27587.54
564.304	27620.98
564.666	27976.91
565.028	27993.18
565.39	28224.58
565.753	28350.68
566.115	28595.19
566.477	28808.75
566.839	29002.19
567.201	29221.17
567.563	29279.47
567.925	29648.95
568.287	29658.9
568.648	29853.01
569.01	30086.45
569.372	30285.55
569.734	30355.37
570.095	30652.99
570.457	30833.1
570.819	31027.45
571.18	31209.81
571.542	31303.6
571.903	31647.32
572.265	31727.09
572.626	31856.13
572.987	32037.82
573.349	32204.59
573.71	32392.38
574.071	32663.11
574.432	32788.53
574.794	33143.32
575.155	33184.68
575.516	33237.78
575.877	33536.31
576.238	33555.52
576.599	33771.33
576.96	33860.37
577.32	33955.96
577.681	34114.15
578.042	34240.24
578.403	34420.58
578.763	34485.44
579.124	34660.8
579.485	34818.99
579.845	34993.67
580.206	35076.38
580.566	35224.62
580.927	35244.29
581.287	35470.49
581.648	35380.55
582.008	35632.75
582.368	35637.5
582.728	35815.8
583.089	35747.32
583.449	35910.03
583.809	36007.43
584.169	36067.54
584.529	35950.93
584.889	36380.98
585.249	36194.32
585.609	36156.13
585.969	36394.76
586.329	36274.77
586.688	36468.43
587.048	36582.33
587.408	36500.52
587.768	36425.5
588.127	36581.88
588.487	36565.15
588.846	36884.69
589.206	36610.12
589.565	36754.3
589.925	36954.75
590.284	36839.95
590.643	36840.63
591.003	36964.24
591.362	37161.07
591.721	37037.68
592.08	37115.65
592.44	37195.19
592.799	37272.48
593.158	37379.14
593.517	37234.74
593.876	37290.11
594.235	37198.58
594.593	37262.31
594.952	37298.92
595.311	37270.67
595.67	37423.21
596.029	37474.73
596.387	37586.37
596.746	37651.45
597.104	37532.81
597.463	37554.51
597.822	37649.65
598.18	37577.56
598.538	37593.6
598.897	37821.84
599.255	37537.78
599.613	38035.17
599.972	37688.51
600.33	37885.35
600.688	37753.82
601.046	37926.25
601.404	38072.46
601.762	37952.46
602.12	38308.39
602.478	38187.94
602.836	38229.29
603.194	38192.68
603.552	38133.7
603.91	38073.14
604.268	38152.01
604.625	38160.37
604.983	38354.94
605.341	38281.27
605.698	38309.97
606.056	38305.9
606.413	38307.93
606.771	38443.3
607.128	38570.3
607.485	38399
607.843	38671.99
608.2	38604.2
608.557	38753.57
608.914	38699.56
609.272	38874.92
609.629	38804.64
609.986	38900.46
610.343	38725.1
610.7	39001.7
611.057	39057.07
611.414	38932.32
611.771	38952.44
612.127	39084.18
612.484	39086.9
612.841	39191.98
613.198	39225.65
613.554	39226.1
613.911	39361.92
614.267	39371.18
614.624	39325.99
614.98	39329.6
615.337	39647.56
615.693	39300.22
616.05	39513.55
616.406	39757.39
616.762	39576.83
617.118	39565.98
617.475	39603.49
617.831	39621.8
618.187	39677.84
618.543	39678.97
618.899	40028.11
619.255	39968.91
619.611	39754.9
619.967	39934.33
620.323	40214.55
620.678	39933.43
621.034	39855.69
621.39	39917.61
621.746	39768.91
622.101	40307.2
622.457	39975.91
622.812	40098.17
623.168	40151.95
623.523	40004.39
623.879	40111.05
624.234	40026.53
624.589	40252.06
624.945	40154.44
625.3	40140.2
625.655	40181.78
626.01	40192.18
626.365	40126.87
626.72	40043.26
627.075	40102.91
627.43	40016.14
627.785	40037.61
628.14	39968
628.495	39987.21
628.85	39867.44
629.205	39890.04
629.559	40136.81
629.914	39788.8
630.269	39974.56
630.623	39799.87
630.978	39738.86
631.332	39948.79
631.687	39942.69
632.041	39747.9
632.396	39777.95
632.75	39630.61
633.104	39705.41
633.459	39433.33
633.813	39602.36
634.167	39607.79
634.521	39511.97
634.875	39705.86
635.229	39542.48
635.583	39339.77
635.937	39375.93
636.291	39334.12
636.645	39422.93
636.999	39182.94
637.352	39323.73
637.706	39118.99
638.06	39271.75
638.413	39110.62
638.767	39021.59
639.121	39005.09
639.474	38845.55
639.828	38880.35
640.181	38854.59
640.534	38900.01
640.888	38766.45
641.241	38630.64
641.594	38713.8
641.947	38729.39
642.301	38676.96
642.654	38761.93
643.007	38675.83
643.36	38610.52
643.713	38479
644.066	38644.87
644.419	38460.92
644.771	38323.53
645.124	38019.35
645.477	37935.51
645.83	37787.72
646.182	37579.37
646.535	37319.48
646.888	37513.6
647.24	37300.05
647.593	37374.62
647.945	37347.28
648.298	37161.75
648.65	37189.09
649.002	37205.59
649.355	37238.36
649.707	37201.3
650.059	37303.67
650.411	37760.15
650.763	37775.52
651.115	38145.45
651.467	38130.54
651.819	38013.7
652.171	37861.62
652.523	37837.66
652.875	37842.18
653.227	37699.14
653.578	37971.67
653.93	37866.82
654.282	37729.64
654.633	37582.98
654.985	37727.84
655.337	37810.09
655.688	37825.91
656.039	37736.42
656.391	37658.46
656.742	37683.32
657.094	37681.51
657.445	37716.08
657.796	37591.34
658.147	37525.13
658.498	37668.4
658.849	37489.42
659.2	37545.47
659.551	37589.53
659.902	37660.94
660.253	37463.89
660.604	37671.11
660.955	37399.48
661.306	37582.08
661.656	37560.83
662.007	37389.09
662.358	37480.61
662.708	37406.71
663.059	37348.18
663.409	37230.9
663.76	37519.48
664.11	37426.15
664.461	37481.29
664.811	37373.27
665.161	37415.75
665.511	37379.14
665.862	37568.29
666.212	37563.09
666.562	37533.72
666.912	37370.33
667.262	37212.37
667.612	37272.03
667.962	37422.08
668.312	37312.25
668.662	37401.29
669.011	37398.13
669.361	37226.15
669.711	37260.96
670.06	37105.25
670.41	37237.45
670.76	37204.23
671.109	37183.44
671.459	37111.13
671.808	37047.4
672.157	37320.61
672.507	36831.36
672.856	36987.52
673.205	37124.01
673.554	37089.89
673.904	37097.34
674.253	37078.36
674.602	37069.32
674.951	36496.23
675.3	36322.67
675.649	36956.1
675.998	36854.19
676.346	36901.64
676.695	37014.18
677.044	36666.39
677.393	36683.12
677.741	36763.34
678.09	36739.84
678.438	36532.61
678.787	36551.82
679.135	36606.74
679.484	36315.44
679.832	36535.32
680.181	36235.9
680.529	36419.62
680.877	36494.87
681.225	36270.7
681.573	36419.4
681.922	36183.92
682.27	35961.78
682.618	36120.65
682.966	35882.91
683.314	35975.79
683.661	35884.27
684.009	35662.81
684.357	35689.7
684.705	35652.18
685.053	35785.06
685.4	35684.05
685.748	35431.17
686.095	35416.48
686.443	35223.04
686.79	35189.37
687.138	35197.96
687.485	35238.64
687.832	34994.57
688.18	35084.52
688.527	34921.36
688.874	34847.01
689.221	34792.09
689.568	34715.49
689.915	34478.88
690.262	34553.23
690.609	34511.65
690.956	34361.6
691.303	34237.31
691.65	34113.92
691.997	34159.57
692.344	33905.79
692.69	33969.97
693.037	34003.87
693.383	33810.2
693.73	33688.85
694.077	33542.18
694.423	33488.85
694.769	33394.62
695.116	33370.21
695.462	33210.44
695.808	33083.89
696.155	33129.09
696.501	32895.19
696.847	32849.77
697.193	32534.07
697.539	32586.95
697.885	32406.17
698.231	32311.93
698.577	32272.84
698.923	32232.39
699.269	32068.32
699.614	31897.93
699.96	31828.56
700.306	31856.13
700.651	31697.49
700.997	31584.04
701.342	31516.93
701.688	31401
702.033	31255.69
702.379	31300.89
702.724	31087.33
703.069	31250.72
703.415	30836.04
703.76	30836.04
704.105	30832.88
704.45	30836.72
704.795	30609.15
705.14	30478.31
705.485	30461.81
705.83	30354.24
706.175	30418.65
706.52	30299.56
706.865	30162.38
707.209	30116.96
707.554	29964.2
707.899	30083.97
708.243	29846.24
708.588	29714.04
708.932	29603.98
709.277	29543.64
709.621	29646.01
709.966	29493.93
710.31	29501.61
710.654	29238.12
710.998	29291.67
711.342	29347.94
711.687	29111.34
712.031	29091.45
712.375	28976.43
712.719	29075.18
713.063	28945.92
713.407	29056.88
713.75	28694.85
714.094	28759.94
714.438	28659.37
714.782	28757
715.125	28551.13
715.469	28627.74
715.812	28537.57
716.156	28319.5
716.499	28444.01
716.843	28371.47
717.186	28165.38
717.53	28290.12
717.873	28367.18
718.216	28233.62
718.559	28175.77
718.902	28016.45
719.246	28159.5
719.589	27950.92
719.932	27871.82
720.275	27861.43
720.617	27818.04
720.96	27893.52
721.303	27919.96
721.646	27850.81
721.989	27693.07
722.331	27722
722.674	27647.2
723.016	27767.87
723.359	27618.95
723.701	27693.07
724.044	27485.17
724.386	27303.03
724.729	27526.07
725.071	27436.81
725.413	27351.84
725.755	27345.28
726.097	27289.24
726.439	27179.41
726.782	27215.12
727.124	27339.18
727.465	27181.67
727.807	27160.66
728.149	27093.09
728.491	27173.08
728.833	27144.84
729.175	27010.15
729.516	27085.18
729.858	27067.78
730.199	27115.91
730.541	26960.44
730.882	26919.98
731.224	27077.04
731.565	26774.68
731.906	26846.31
732.248	26954.56
732.589	26907.78
732.93	26801.57
733.271	26875.24
733.612	26868.23
733.953	26808.12
734.294	26784.39
734.635	26587.56
734.976	26742.36
735.317	26714.57
735.658	26540.56
735.999	26724.74
736.339	26581.91
736.68	26654.45
737.021	26451.07
737.361	26455.59
737.702	26630.27
738.042	26461.24
738.383	26480.67
738.723	26714.34
739.063	26487
739.404	26648.35
739.744	26472.09
740.084	26429.38
740.424	26461.24
740.764	26410.85
741.104	26477.74
741.444	26257.63
741.784	26364.07
742.124	26505.98
742.464	26390.51
742.804	26223.28
743.143	26252.88
743.483	26318.42
743.823	26134.24
744.162	26227.57
744.502	26193.45
744.841	26217.4
745.181	26258.98
745.52	26392.31
745.86	26310.51
746.199	26242.49
746.538	26128.14
746.877	26387.57
747.216	26242.49
747.556	26047.92
747.895	26100.57
748.234	26156.84
748.573	26048.59
748.911	26090.4
749.25	26074.13
749.589	25924.98
749.928	25917.52
750.267	25984.64
750.605	25934.25
750.944	25900.12
751.283	25835.72
751.621	25946.9
751.96	25723.41
752.298	25844.76
752.636	25802.95
752.975	25637.31
753.313	25551.43
753.651	25663.75
753.989	25555.73
754.327	25493.36
754.666	25308.28
755.004	25515.5
