Data from tablewood_dark_bookshelf_FLMS001491_00080.txt Node
Date: Wed Feb 08 14:15:37 GMT 2017
User: dcchb
Spectrometer: FLMS00149
Trigger mode: 0
Integration Time (sec): 2.000000E-2
Scans to average: 10
Electric dark correction enabled: true
Nonlinearity correction enabled: false
Boxcar width: 0
XAxis mode: Wavelengths
Number of Pixels in Spectrum: 2048
>>>>>Begin Spectral Data<<<<<
341.393	-20.52
341.776	-20.52
342.16	-20.52
342.543	-68.66
342.927	-73.63
343.31	-64.81
343.693	-51.03
344.077	-61.42
344.46	-70.69
344.843	-48.32
345.226	-45.61
345.61	-43.8
345.993	-25.04
346.376	-4.25
346.759	14.05
347.142	23.09
347.525	48.63
347.908	47.95
348.291	85.46
348.674	89.76
349.057	106.03
349.44	131.79
349.823	151.9
350.206	160.04
350.588	183.31
350.971	183.99
351.354	228.28
351.737	230.09
352.119	260.15
352.502	249.75
352.884	265.57
353.267	248.85
353.65	289.07
354.032	277.55
354.414	319.13
354.797	282.97
355.179	308.51
355.562	289.75
355.944	321.16
356.326	321.62
356.709	307.15
357.091	327.04
357.473	325.46
357.855	347.6
358.238	329.98
358.62	364.33
359.002	337.43
359.384	342.41
359.766	335.63
360.148	334.5
360.53	353.03
360.912	336.3
361.294	339.02
361.676	312.58
362.057	312.58
362.439	306.47
362.821	329.07
363.203	322.29
363.584	316.42
363.966	308.96
364.348	347.6
364.729	323.42
365.111	317.77
365.493	317.1
365.874	329.98
366.256	322.29
366.637	318.68
367.019	326.14
367.4	306.47
367.781	338.56
368.163	329.07
368.544	333.14
368.925	314.61
369.306	316.87
369.688	308.96
370.069	318.23
370.45	315.06
370.831	347.83
371.212	331.79
371.593	299.7
371.974	325.23
372.355	332.24
372.736	313.48
373.117	335.85
373.498	328.17
373.879	311.45
374.26	299.7
374.641	326.14
375.021	324.1
375.402	330.88
375.783	327.49
376.163	342.41
376.544	336.3
376.925	317.1
377.305	340.15
377.686	361.84
378.066	372.46
378.447	354.61
378.827	359.58
379.208	328.4
379.588	356.42
379.968	355.97
380.349	356.42
380.729	335.63
381.109	367.94
381.489	371.11
381.87	353.71
382.25	365.68
382.63	370.88
383.01	364.33
383.39	363.65
383.77	384.44
384.15	372.69
384.53	376.98
384.91	389.41
385.29	377.21
385.67	376.3
386.049	380.15
386.429	391.44
386.809	377.21
387.189	399.81
387.568	403.65
387.948	387.6
388.328	403.87
388.707	377.66
389.087	398
389.466	391.9
389.846	411.33
390.225	423.31
390.605	398.45
390.984	416.75
391.363	416.3
391.743	410.88
392.122	430.09
392.501	419.01
392.881	426.7
393.26	425.12
393.639	433.7
394.018	420.82
394.397	417.21
394.776	451.56
395.155	446.81
395.534	460.14
395.913	428.28
396.292	441.84
396.671	458.56
397.05	464.21
397.429	453.59
397.808	461.5
398.186	468.73
398.565	463.98
398.944	494.49
399.323	471.67
399.701	471.89
400.08	478.67
400.458	455.62
400.837	469.41
401.215	487.94
401.594	465.34
401.972	502.18
402.351	496.07
402.729	493.14
403.107	506.24
403.486	504.44
403.864	534.94
404.242	503.98
404.62	513.25
404.999	496.75
405.377	525.68
405.755	520.03
406.133	543.76
406.511	534.94
406.889	534.94
407.267	561.16
407.645	557.32
408.023	563.19
408.401	572
408.779	573.13
409.156	562.29
409.534	577.65
409.912	574.04
410.29	570.87
410.667	560.71
411.045	589.41
411.422	582.4
411.8	608.84
412.178	575.85
412.555	625.79
412.933	615.62
413.31	649.52
413.687	643.87
414.065	639.35
414.442	649.29
414.819	658.1
415.197	673.7
415.574	638.67
415.951	681.15
416.328	664.43
416.705	675.5
417.082	687.71
417.46	685.45
417.837	679.35
418.214	677.31
418.591	687.26
418.967	717.76
419.344	699.01
419.721	692.45
420.098	729.51
420.475	715.28
420.852	744.2
421.228	729.29
421.605	734.71
421.982	746.01
422.358	764.32
422.735	754.37
423.111	746.69
423.488	770.42
423.864	769.29
424.241	781.72
424.617	809.06
424.994	799.12
425.37	787.37
425.746	808.16
426.123	794.15
426.499	818.78
426.875	824.2
427.251	834.14
427.627	844.09
428.003	868.27
428.379	854.94
428.756	865.78
429.132	889.96
429.507	903.07
429.883	889.74
430.259	924.09
430.635	909.85
431.011	888.61
431.387	948.27
431.763	955.05
432.138	967.47
432.514	961.82
432.89	996.63
433.265	1007.7
433.641	1012.45
434.016	990.98
434.392	1029.39
434.767	1044.08
435.143	1033.24
435.518	1060.35
435.894	1066.46
436.269	1055.83
436.644	1059.68
437.02	1089.51
437.395	1074.14
437.77	1086.12
438.145	1110.3
438.52	1122.72
438.895	1123.85
439.271	1129.05
439.646	1172.89
440.021	1150.07
440.395	1151.2
440.77	1160.92
441.145	1176.28
441.52	1195.72
441.895	1206.11
442.27	1213.57
442.645	1223.29
443.019	1225.55
443.394	1219.45
443.769	1224.42
444.143	1241.59
444.518	1269.84
444.892	1239.78
445.267	1255.38
445.641	1286.79
446.016	1278.2
446.39	1260.35
446.764	1284.53
447.139	1319.78
447.513	1309.39
447.887	1325.43
448.262	1309.61
448.636	1367.46
449.01	1358.65
449.384	1336.73
449.758	1355.03
450.132	1400.91
450.506	1365.43
450.88	1390.51
451.254	1392.32
451.628	1410.85
452.002	1414.24
452.376	1421.02
452.75	1486.1
453.123	1474.58
453.497	1482.49
453.871	1491.08
454.244	1516.61
454.618	1489.95
454.992	1552.77
455.365	1546.89
455.739	1572.88
456.112	1567.91
456.486	1581.92
456.859	1617.17
457.232	1638.87
457.606	1638.64
457.979	1675.93
458.352	1689.49
458.725	1720.68
459.099	1736.04
459.472	1750.28
459.845	1782.14
460.218	1803.38
460.591	1814.68
460.964	1801.58
461.337	1828.24
461.71	1885.87
462.083	1867.34
462.456	1918.86
462.829	1895.59
463.201	1940.33
463.574	1959.99
463.947	1963.38
464.32	2007.22
464.692	2004.06
465.065	2054.9
465.438	2095.58
465.81	2095.35
466.183	2126.77
466.555	2172.41
466.928	2166.77
467.3	2159.76
467.672	2192.98
468.045	2268.68
468.417	2272.3
468.789	2278.85
469.161	2273.2
469.534	2372.64
469.906	2394.1
470.278	2389.58
470.65	2466.87
471.022	2475.91
471.394	2535.57
471.766	2546.64
472.138	2603.59
472.51	2578.28
472.882	2641.33
473.253	2678.39
473.625	2727.2
473.997	2789.8
474.369	2795.22
474.74	2837.26
475.112	2892.4
475.484	2944.82
475.855	2956.8
476.227	2980.3
476.598	3073.18
476.97	3065.05
477.341	3143.24
477.713	3168.09
478.084	3221.43
478.455	3308.43
478.827	3312.95
479.198	3401.31
479.569	3431.14
479.94	3514.53
480.311	3541.19
480.682	3604.47
481.053	3640.62
481.424	3683.11
481.795	3746.84
482.166	3794.74
482.537	3850.34
482.908	3921.3
483.279	3982.54
483.65	4072.03
484.021	4145.02
484.391	4168.07
484.762	4254.62
485.133	4271.12
485.503	4284.68
485.874	4397.44
486.244	4460.72
486.615	4507.95
486.985	4571.67
487.356	4634.72
487.726	4663.42
488.097	4765.79
488.467	4783.19
488.837	4917.43
489.207	4903.64
489.578	4963.75
489.948	5065.45
490.318	5087.59
490.688	5124.65
491.058	5186.57
491.428	5274.03
491.798	5300.69
492.168	5392.67
492.538	5410.52
492.908	5496.17
493.278	5526.9
493.648	5596.51
494.017	5629.05
494.387	5692.1
494.757	5761.92
495.126	5793.79
495.496	5803.05
495.866	5862.26
496.235	5951.98
496.605	6015.25
496.974	6043.05
497.344	6107.68
497.713	6112.88
498.082	6200.11
498.452	6234.68
498.821	6249.14
499.19	6243.27
499.559	6281.46
499.928	6321.23
500.298	6386.09
500.667	6466.54
501.036	6519.64
501.405	6561
501.774	6561.68
502.143	6585.86
502.512	6675.57
502.88	6691.17
503.249	6729.81
503.618	6767.77
503.987	6844.83
504.356	6859.3
504.724	6981.1
505.093	6975
505.462	6939.07
505.83	7011.16
506.199	7141.55
506.567	7193.3
506.936	7212.51
507.304	7309.68
507.672	7326.4
508.041	7330.47
508.409	7432.39
508.777	7504.48
509.145	7535.89
509.514	7588.77
509.882	7639.16
510.25	7621.54
510.618	7746.28
510.986	7720.52
511.354	7809.1
511.722	7887.97
512.09	7953.05
512.458	7979.95
512.826	8025.82
513.193	8085.03
513.561	8119.15
513.929	8226.72
514.297	8270.11
514.664	8347.85
515.032	8380.84
515.4	8422.19
515.767	8498.8
516.135	8592.58
516.502	8530.89
516.869	8681.17
517.237	8751.9
517.604	8691.11
517.972	8786.48
518.339	8879.36
518.706	8923.65
519.073	9002.52
519.44	9059.92
519.808	9076.41
520.175	9132.46
520.542	9320.25
520.909	9301.27
521.276	9275.05
521.643	9387.14
522.009	9505.33
522.376	9603.86
522.743	9616.74
523.11	9747.36
523.477	9779.22
523.843	9880.69
524.21	10006.56
524.577	10002.49
524.943	10144.86
525.31	10149.83
525.676	10249.26
526.043	10305.99
526.409	10386.44
526.776	10472.99
527.142	10523.38
527.508	10587.33
527.874	10718.63
528.241	10745.07
528.607	10769.25
528.973	10876.14
529.339	10917.72
529.705	11000.66
530.071	11086.3
530.437	11148.22
530.803	11259.18
531.169	11264.38
531.535	11326.98
531.901	11352.74
532.267	11415.34
532.632	11537.59
532.998	11506.63
533.364	11611.71
533.73	11723.8
534.095	11763.35
534.461	11783.24
534.826	11928.99
535.192	11930.8
535.557	11936.45
535.923	12017.35
536.288	12063.45
536.653	12093.74
537.019	12138.48
537.384	12187.07
537.749	12325.82
538.114	12291.92
538.479	12370.11
538.845	12452.82
539.21	12420.28
539.575	12523.1
539.94	12555.42
540.305	12706.37
540.67	12614.17
541.034	12646.04
541.399	12641.97
541.764	12744.79
542.129	12822.08
542.494	12863.43
542.858	12943.2
543.223	12923.54
543.587	13047.61
543.952	13022.98
544.316	13091.68
544.681	13065.24
545.045	13161.96
545.41	13295.96
545.774	13256.19
546.138	13332.12
546.503	13382.52
546.867	13406.47
547.231	13540.7
547.595	13460.93
547.959	13612.57
548.324	13623.41
548.688	13683.75
549.052	13704.09
549.416	13744.31
549.779	13744.99
550.143	13742.96
550.507	13921.26
550.871	13933.91
551.235	13879.9
551.599	14077.41
551.962	14120.8
552.326	14119.22
552.689	14237.18
553.053	14169.61
553.417	14265.66
553.78	14423.62
554.143	14453.9
554.507	14535.25
554.87	14580.45
555.234	14708.81
555.597	14618.87
555.96	14693.22
556.323	14784.51
556.686	14820.22
557.05	14923.49
557.413	15013.43
557.776	15031.51
558.139	15168.68
558.502	15202.35
558.865	15270.38
559.228	15348.57
559.59	15438.28
559.953	15486.19
560.316	15522.35
560.679	15589.24
561.041	15749.91
561.404	15767.54
561.767	15900.19
562.129	15896.8
562.492	16013.18
562.854	15994.88
563.217	16072.61
563.579	16217.24
563.941	16321.87
564.304	16388.76
564.666	16528.42
565.028	16542.43
565.39	16615.65
565.753	16672.6
566.115	16729.55
566.477	16838.24
566.839	16969.54
567.201	17094.96
567.563	17121.63
567.925	17277.78
568.287	17238.46
568.648	17285.69
569.01	17445.46
569.372	17529.98
569.734	17484.55
570.095	17615.17
570.457	17803.42
570.819	17808.39
571.18	17890.87
571.542	17883.87
571.903	18039.79
572.265	18046.57
572.626	18139.23
572.987	18151.66
573.349	18183.75
573.71	18232.11
574.071	18421.03
574.432	18479.56
574.794	18609.5
575.155	18620.12
575.516	18563.4
575.877	18706.22
576.238	18856.95
576.599	18938.98
576.96	18825.08
577.32	18935.82
577.681	19081.35
578.042	19091.52
578.403	19082.25
578.763	19199.09
579.124	19288.8
579.485	19305.98
579.845	19409.48
580.206	19463.03
580.566	19366.09
580.927	19441.79
581.287	19634.78
581.648	19623.48
582.008	19721.33
582.368	19694.89
582.728	19747.55
583.089	19689.02
583.449	19708
583.809	19795.91
584.169	19893.98
584.529	19834.78
584.889	20045.39
585.249	19910.93
585.609	19913.42
585.969	20026.63
586.329	20019.18
586.688	20070.93
587.048	20056.46
587.408	20140.3
587.768	20125.61
588.127	20119.29
588.487	20114.09
588.846	20258.04
589.206	20222.11
589.565	20244.93
589.925	20251.26
590.284	20315.21
590.643	20406.29
591.003	20432.5
591.362	20516.79
591.721	20519.05
592.08	20419.39
592.44	20544.59
592.799	20583.68
593.158	20608.77
593.517	20698.93
593.876	20638.6
594.235	20635.43
594.593	20710.01
594.952	20772.6
595.311	20679.5
595.67	20781.19
596.029	20872.94
596.387	20922.2
596.746	21002.65
597.104	20933.28
597.463	20836.56
597.822	21093.5
598.18	20882.88
598.538	20956.55
598.897	21055.99
599.255	21016.21
599.613	21271.8
599.972	21225.92
600.33	21257.79
600.688	21234.06
601.046	21324
601.404	21404.23
601.762	21398.8
602.12	21476.77
602.478	21371.68
602.836	21378.01
603.194	21432.25
603.552	21442.64
603.91	21450.1
604.268	21453.72
604.625	21485.35
604.983	21585.46
605.341	21584.11
605.698	21578.46
606.056	21629.3
606.413	21599.02
606.771	21752.92
607.128	21883.08
607.485	21796.98
607.843	21799.47
608.2	21903.65
608.557	21917.66
608.914	21824.33
609.272	22074.26
609.629	21953.82
609.986	22151.55
610.343	22049.86
610.7	22156.52
611.057	22132.79
611.414	22153.36
611.771	22170.76
612.127	22309.96
612.484	22296.41
612.841	22347.03
613.198	22213.7
613.554	22278.1
613.911	22489.62
614.267	22352.67
614.624	22357.19
614.98	22408.49
615.337	22519.9
615.693	22595.83
616.05	22527.36
616.406	22669.95
616.762	22621.59
617.118	22527.81
617.475	22633.35
617.831	22674.93
618.187	22717.41
618.543	22712.21
618.899	22773.23
619.255	22830.85
619.611	22826.56
619.967	22915.82
620.323	22940
620.678	22862.49
621.034	22736.85
621.39	22772.32
621.746	22745.66
622.101	22955.82
622.457	22950.63
622.812	22887.12
623.168	23006.22
623.523	22961.92
623.879	23012.09
624.234	22804.64
624.589	22960.57
624.945	22801.93
625.3	22950.17
625.655	22964.18
626.01	22992.88
626.365	22869.5
626.72	22958.99
627.075	22987.69
627.43	22978.2
627.785	22919.21
628.14	22939.1
628.495	23008.25
628.85	22933.9
629.205	22956.5
629.559	23068.36
629.914	22883.51
630.269	22966.22
630.623	22829.05
630.978	22799.44
631.332	22922.15
631.687	22883.96
632.041	22867.01
632.396	22824.53
632.75	22805.54
633.104	22846.22
633.459	22761.7
633.813	22754.7
634.167	22813.45
634.521	22659.79
634.875	22784.08
635.229	22570.3
635.583	22497.3
635.937	22585.21
636.291	22537.3
636.645	22576.17
636.999	22535.95
637.352	22673.12
637.706	22465.44
638.06	22614.14
638.413	22540.92
638.767	22485.55
639.121	22479
639.474	22201.49
639.828	22320.81
640.181	22386.12
640.534	22374.14
640.888	22267.25
641.241	22207.14
641.594	22234.49
641.947	22300.47
642.301	22229.06
642.654	22185
643.007	22213.02
643.36	22194.71
643.713	22144.32
644.066	22274.48
644.419	22009.86
644.771	22053.93
645.124	21772.13
645.477	21607.84
645.83	21532.36
646.182	21437.67
646.535	21357.67
646.888	21437.44
647.24	21368.75
647.593	21415.98
647.945	21420.5
648.298	21259.37
648.65	21244.68
649.002	21267.05
649.355	21352.02
649.707	21227.51
650.059	21429.99
650.411	21693.03
650.763	21653.71
651.115	21848.28
651.467	21850.54
651.819	21768.28
652.171	21880.37
652.523	21774.16
652.875	21754.95
653.227	21636.54
653.578	21823.88
653.93	21692.35
654.282	21635.63
654.633	21554.5
654.985	21547.95
655.337	21693.71
655.688	21646.48
656.039	21681.96
656.391	21521.96
656.742	21546.59
657.094	21548.63
657.445	21679.25
657.796	21585.01
658.147	21618.01
658.498	21573.49
658.849	21569.64
659.2	21487.39
659.551	21402.42
659.902	21582.53
660.253	21536.88
660.604	21538.01
660.955	21432.25
661.306	21520.61
661.656	21524.45
662.007	21460.95
662.358	21499.36
662.708	21462.98
663.059	21420.5
663.409	21316.09
663.76	21504.56
664.11	21442.42
664.461	21506.14
664.811	21549.08
665.161	21568.06
665.511	21418.46
665.862	21418.69
666.212	21501.17
666.562	21489.42
666.912	21442.87
667.262	21457.56
667.612	21502.3
667.962	21446.26
668.312	21512.92
668.662	21519.93
669.011	21473.6
669.361	21416.65
669.711	21335.98
670.06	21429.76
670.41	21355.19
670.76	21299.82
671.109	21374.85
671.459	21330.33
671.808	21339.14
672.157	21438.12
672.507	21240.61
672.856	21241.74
673.205	21286.49
673.554	21343.21
673.904	21149.99
674.253	21345.24
674.602	21291.23
674.951	20898.02
675.3	20909.78
675.649	21320.16
675.998	21188.64
676.346	21147.28
676.695	21281.29
677.044	21157.68
677.393	21155.42
677.741	21215.08
678.09	21131.92
678.438	21052.37
678.787	21097.34
679.135	21158.58
679.484	20983.67
679.832	21023.44
680.181	20925.14
680.529	21002.43
680.877	21045.36
681.225	20939.38
681.573	21008.98
681.922	20830
682.27	20875.65
682.618	20898.02
682.966	20867.74
683.314	20764.47
683.661	20797.91
684.009	20721.31
684.357	20569.22
684.705	20682.89
685.053	20591.37
685.4	20616.9
685.748	20505.49
686.095	20581.87
686.443	20538.26
686.79	20466.17
687.138	20456.68
687.485	20489
687.832	20311.37
688.18	20410.81
688.527	20243.58
688.874	20267.08
689.221	20254.43
689.568	20134.65
689.915	20028.67
690.262	20029.8
690.609	20013.08
690.956	19964.49
691.303	20005.39
691.65	19805.85
691.997	19819.41
692.344	19712.52
692.69	19681.33
693.037	19743.7
693.383	19523.6
693.73	19678.4
694.077	19567.66
694.423	19564.95
694.769	19392.3
695.116	19488.57
695.462	19422.81
695.808	19387.56
696.155	19344.84
696.501	19087.68
696.847	19272.08
697.193	19084.51
697.539	19212.19
697.885	18999.54
698.231	18991.41
698.577	19032.08
698.923	19006.77
699.269	18816.27
699.614	18698.99
699.96	18724.3
700.306	18816.72
700.651	18696.05
700.997	18635.71
701.342	18621.47
701.688	18555.49
702.033	18597.52
702.379	18532.66
702.724	18420.57
703.069	18494.92
703.415	18215.61
703.76	18230.3
704.105	18192.11
704.45	18145.55
704.795	18120.92
705.14	18026.69
705.485	18059
705.83	17938.78
706.175	17909.63
706.52	17826.24
706.865	17770.87
707.209	17858.78
707.554	17774.26
707.899	17728.16
708.243	17748.28
708.588	17718.67
708.932	17603.87
709.277	17736.3
709.621	17579.24
709.966	17503.31
710.31	17525.01
710.654	17345.8
710.998	17373.14
711.342	17408.62
711.687	17411.34
712.031	17356.2
712.375	17216.54
712.719	17281.62
713.063	17241.62
713.407	17373.82
713.75	17252.7
714.094	17198.01
714.438	17119.59
714.782	17148.52
715.125	16964.79
715.469	16979.03
715.812	16930.22
716.156	16851.35
716.499	16870.79
716.843	16960.95
717.186	16787.85
717.53	16861.97
717.873	16896.77
718.216	16851.12
718.559	16743.33
718.902	16620.17
719.246	16725.25
719.589	16696.55
719.932	16579.72
720.275	16592.37
720.617	16623.79
720.96	16542.21
721.303	16577.91
721.646	16559.15
721.989	16540.17
722.331	16518.93
722.674	16430.12
723.016	16465.37
723.359	16441.42
723.701	16340.18
724.044	16349.89
724.386	16273.74
724.729	16395.09
725.071	16377.92
725.413	16313.06
725.755	16242.55
726.097	16236
726.439	16133.18
726.782	16175.44
727.124	16191.71
727.465	16095.44
727.807	16171.14
728.149	16088.43
728.491	16016.12
728.833	16068.09
729.175	16017.93
729.516	16062.44
729.858	15950.81
730.199	16016.34
730.541	15875.33
730.882	15957.14
731.224	16040.52
731.565	15860.87
731.906	15876.46
732.248	15954.88
732.589	15941.09
732.93	15753.98
733.271	15855.44
733.612	15875.56
733.953	15940.19
734.294	15806.63
734.635	15663.59
734.976	15765.05
735.317	15758.72
735.658	15698.16
735.999	15728.89
736.339	15629.69
736.68	15768.89
737.021	15616.81
737.361	15598.28
737.702	15692.74
738.042	15653.64
738.383	15617.48
738.723	15668.78
739.063	15550.59
739.404	15540.42
739.744	15567.99
740.084	15526.41
740.424	15564.15
740.764	15439.86
741.104	15585.85
741.444	15478.73
741.784	15377.49
742.124	15536.13
742.464	15465.4
742.804	15406.87
743.143	15442.8
743.483	15319.19
743.823	15310.83
744.162	15371.39
744.502	15344.05
744.841	15234.44
745.181	15325.29
745.52	15255.69
745.86	15314.44
746.199	15266.76
746.538	15221.56
746.877	15268.79
747.216	15311.5
747.556	15211.85
747.895	15270.15
748.234	15129.59
748.573	15161.23
748.911	15250.49
749.25	15184.5
749.589	15147.44
749.928	15089.82
750.267	15055.24
750.605	15156.25
750.944	15026.09
751.283	14899.54
751.621	14928.24
751.96	14911.06
752.298	14930.5
752.636	14988.8
752.975	14855.7
753.313	14811.63
753.651	14856.6
753.989	14740.45
754.327	14699.99
754.666	14742.48
755.004	14763.04
755.342	14745.19
755.679	14573.22
756.017	14575.7
756.355	14641.92
