Data from tablewood_brown_FLMS001491_069.txt Node
Date: Tue Feb 07 11:10:51 GMT 2017
User: dcchb
Spectrometer: FLMS00149
Trigger mode: 0
Integration Time (sec): 2.000000E-2
Scans to average: 10
Electric dark correction enabled: true
Nonlinearity correction enabled: false
Boxcar width: 0
XAxis mode: Wavelengths
Number of Pixels in Spectrum: 2048
>>>>>Begin Spectral Data<<<<<
341.393	0.34
341.776	0.34
342.16	0.34
342.543	-55.93
342.927	-63.84
343.31	-60.22
343.693	-45.99
344.077	-75.82
344.46	-76.27
344.843	-48.93
345.226	-43.05
345.61	-38.98
345.993	-18.64
346.376	6.89
346.759	13.45
347.142	11.19
347.525	71.3
347.908	57.96
348.291	73.78
348.674	87.34
349.057	85.99
349.44	116.04
349.823	148.13
350.206	167.57
350.588	197.17
350.971	194.23
351.354	218.41
351.737	259.32
352.119	269.03
352.502	239.43
352.884	263.83
353.267	269.26
353.65	278.3
354.032	308.58
354.414	316.94
354.797	330.27
355.179	306.55
355.562	319.65
355.944	335.25
356.326	349.71
356.709	337.51
357.091	361.01
357.473	346.32
357.855	343.83
358.238	345.19
358.62	349.26
359.002	342.93
359.384	346.77
359.766	329.82
360.148	355.13
360.53	341.57
360.912	347.45
361.294	338.64
361.676	320.78
362.057	345.41
362.439	338.18
362.821	354.68
363.203	347.22
363.584	338.86
363.966	335.02
364.348	322.82
364.729	327.11
365.111	320.78
365.493	330.5
365.874	326.21
366.256	329.6
366.637	316.49
367.019	324.4
367.4	321.46
367.781	316.26
368.163	327.79
368.544	320.56
368.925	327.11
369.306	337.73
369.688	315.36
370.069	318.3
370.45	326.66
370.831	305.19
371.212	328.69
371.593	324.17
371.974	333.89
372.355	331.63
372.736	346.32
373.117	344.51
373.498	322.14
373.879	317.84
374.26	331.86
374.641	333.89
375.021	314.68
375.402	338.18
375.783	341.8
376.163	351.06
376.544	346.09
376.925	342.25
377.305	349.03
377.686	345.41
378.066	328.47
378.447	348.8
378.827	341.57
379.208	342.48
379.588	335.47
379.968	354.68
380.349	369.59
380.729	355.13
381.109	344.96
381.489	343.83
381.87	365.3
382.25	366.21
382.63	346.32
383.01	367.56
383.39	377.96
383.77	363.04
384.15	379.54
384.53	369.59
384.91	354.68
385.29	374.34
385.67	360.1
386.049	367.33
386.429	375.47
386.809	412.98
387.189	404.85
387.568	386.09
387.948	403.49
388.328	404.17
388.707	401.91
389.087	372.76
389.466	422.47
389.846	413.66
390.225	414.79
390.605	417.28
390.984	398.07
391.363	433.1
391.743	420.89
392.122	441.68
392.501	414.79
392.881	428.35
393.26	414.34
393.639	431.97
394.018	445.75
394.397	451.17
394.776	433.32
395.155	442.59
395.534	424.96
395.913	440.55
396.292	448.91
396.671	464.51
397.05	452.98
397.429	453.43
397.808	469.03
398.186	472.42
398.565	466.54
398.944	477.61
399.323	471.74
399.701	481.23
400.08	463.83
400.458	482.13
400.837	490.72
401.215	504.28
401.594	474
401.972	500.44
402.351	515.13
402.729	504.73
403.107	489.59
403.486	487.33
403.864	520.78
404.242	521.68
404.62	516.26
404.999	559.42
405.377	558.52
405.755	527.56
406.133	549.25
406.511	548.8
406.889	563.71
407.267	543.38
407.645	581.57
408.023	580.66
408.401	580.21
408.779	581.34
409.156	580.89
409.534	591.51
409.912	593.09
410.29	600.55
410.667	605.75
411.045	619.31
411.422	594
411.8	610.94
412.178	611.85
412.555	612.53
412.933	635.58
413.31	661.11
413.687	645.29
414.065	660.89
414.442	660.66
414.819	664.28
415.197	681.68
415.574	661.34
415.951	673.77
416.328	683.26
416.705	678.74
417.082	675.58
417.46	702.69
417.837	695.69
418.214	725.97
418.591	693.2
418.967	719.87
419.344	730.04
419.721	737.04
420.098	730.72
420.475	727.1
420.852	725.52
421.228	768.23
421.605	758.06
421.982	760.54
422.358	759.87
422.735	768.91
423.111	790.15
423.488	781.56
423.864	792.18
424.241	790.6
424.617	798.06
424.994	779.98
425.37	838.96
425.746	823.14
426.123	829.7
426.499	813.42
426.875	815.46
427.251	853.2
427.627	868.79
428.003	862.46
428.379	854.33
428.756	881.67
429.132	892.97
429.507	880.09
429.883	911.05
430.259	905.63
430.635	903.82
431.011	937.49
431.387	966.19
431.763	955.57
432.138	939.07
432.514	968.68
432.89	977.94
433.265	998.05
433.641	987.66
434.016	1002.35
434.392	1019.75
434.767	1037.15
435.143	1049.12
435.518	1060.42
435.894	1045.74
436.269	1066.75
436.644	1074.21
437.02	1098.16
437.395	1098.62
437.77	1122.34
438.145	1120.54
438.52	1120.08
438.895	1137.94
439.271	1143.81
439.646	1184.71
440.021	1178.61
440.395	1172.29
440.77	1184.94
441.145	1196.24
441.52	1205.28
441.895	1228.56
442.27	1227.2
442.645	1227.65
443.019	1243.7
443.394	1222.45
443.769	1233.53
444.143	1269.68
444.518	1232.17
444.892	1292.96
445.267	1294.99
445.641	1260.42
446.016	1290.7
446.39	1298.84
446.764	1325.95
447.139	1325.05
447.513	1315.11
447.887	1313.98
448.262	1324.82
448.636	1356.01
449.01	1387.42
449.384	1398.49
449.758	1384.94
450.132	1424.48
450.506	1415.89
450.88	1419.06
451.254	1415.44
451.628	1447.53
452.002	1468.55
452.376	1468.77
452.75	1469.68
453.123	1494.09
453.497	1488.89
453.871	1558.26
454.244	1531.37
454.618	1570.92
454.992	1597.81
455.365	1578.83
455.739	1598.26
456.112	1609.34
456.486	1619.73
456.859	1646.4
457.232	1691.59
457.606	1666.06
457.979	1706.28
458.352	1727.53
458.725	1725.94
459.099	1732.27
459.472	1792.16
459.845	1814.3
460.218	1798.71
460.591	1834.19
460.964	1848.65
461.337	1866.96
461.71	1904.92
462.083	1940.4
462.456	1911.7
462.829	1947.41
463.201	1970.91
463.574	2002.77
463.947	2022.88
464.32	2095.65
464.692	2099.72
465.065	2116.44
465.438	2139.72
465.81	2187.4
466.183	2177.91
466.555	2202.31
466.928	2239.83
467.3	2250.68
467.672	2287.96
468.045	2345.14
468.417	2375.64
468.789	2396.43
469.161	2455.19
469.534	2471.91
469.906	2528.63
470.278	2505.36
470.65	2571.8
471.022	2615.64
471.394	2656.54
471.766	2694.51
472.138	2694.73
472.51	2797.33
472.882	2858.57
473.253	2883.2
473.625	2925.46
473.997	2976.76
474.369	3035.06
474.74	3092.69
475.112	3117.77
475.484	3238.9
475.855	3273.02
476.227	3280.48
476.598	3415.39
476.97	3439.57
477.341	3524.31
477.713	3599.11
478.084	3612
478.455	3713.01
478.827	3788.94
479.198	3892.21
479.569	3942.38
479.94	4042.27
480.311	4111.19
480.682	4215.82
481.053	4280.68
481.424	4370.17
481.795	4433.67
482.166	4499.66
482.537	4558.19
482.908	4684.28
483.279	4701.01
483.65	4831.17
484.021	4942.81
484.391	4975.35
484.762	5046.53
485.133	5082.69
485.503	5212.41
485.874	5314.1
486.244	5402.23
486.615	5477.26
486.985	5530.36
487.356	5633.41
487.726	5684.71
488.097	5800.41
488.467	5818.49
488.837	5992.72
489.207	6052.16
489.578	6072.72
489.948	6222.77
490.318	6300.29
490.688	6276.11
491.058	6393.84
491.428	6533.5
491.798	6596.55
492.168	6759.26
492.538	6776.43
492.908	6827.28
493.278	6925.35
493.648	6951.57
494.017	7088.29
494.387	7076.09
494.757	7237.44
495.126	7289.64
495.496	7333.93
495.866	7363.08
496.235	7462.29
496.605	7521.95
496.974	7576.64
497.344	7614.83
497.713	7705
498.082	7747.71
498.452	7822.73
498.821	7866.12
499.19	7947.7
499.559	8020.69
499.928	8073.57
500.298	8111.31
500.667	8221.14
501.036	8216.62
501.405	8303.4
501.774	8344.53
502.143	8436.73
502.512	8526.22
502.88	8603.05
503.249	8573.67
503.618	8659.09
503.987	8639.43
504.356	8823.38
504.724	8832.88
505.093	8916.71
505.462	8893.21
505.83	9012.76
506.199	9142.25
506.567	9225.18
506.936	9256.14
507.304	9342.92
507.672	9449.36
508.041	9415.91
508.409	9516.25
508.777	9600.09
509.145	9651.16
509.514	9685.73
509.882	9859.29
510.25	9843.02
510.618	9952.85
510.986	9969.12
511.354	10158.94
511.722	10154.42
512.09	10273.52
512.458	10347.64
512.826	10465.6
513.193	10511.7
513.561	10574.52
513.929	10604.58
514.297	10738.81
514.664	10850.22
515.032	10862.88
515.4	11004.57
515.767	11052.03
516.135	11139.93
516.502	11061.29
516.869	11311.23
517.237	11379.47
517.604	11390.1
517.972	11534.5
518.339	11565.68
518.706	11676.64
519.073	11824.43
519.44	11949.18
519.808	12036.86
520.175	11990.08
520.542	12230.53
520.909	12260.81
521.276	12289.96
521.643	12515.94
522.009	12542.38
522.376	12657.63
522.743	12797.06
523.11	12819.89
523.477	13051.97
523.843	13118.19
524.21	13218.3
524.577	13358.63
524.943	13386.65
525.31	13556.82
525.676	13683.6
526.043	13728.57
526.409	13849.69
526.776	13977.6
527.142	14091.72
527.508	14187.54
527.874	14314.31
528.241	14385.5
528.607	14443.35
528.973	14579.84
529.339	14622.33
529.705	14701.42
530.071	14863.9
530.437	14938.25
530.803	15082.65
531.169	15214.63
531.535	15110.9
531.901	15281.75
532.267	15280.39
532.632	15427.73
532.998	15482.19
533.364	15559.03
533.73	15622.3
534.095	15774.39
534.461	15879.02
534.826	15906.81
535.192	15956.08
535.557	16097.09
535.923	16216.64
536.288	16128.05
536.653	16282.62
537.019	16206.01
537.384	16452.11
537.749	16393.81
538.114	16508.83
538.479	16521.71
538.845	16525.55
539.21	16591.32
539.575	16672.22
539.94	16795.38
540.305	16733.01
540.67	16922.15
541.034	16999.21
541.399	17088.7
541.764	17036.28
542.129	17095.48
542.494	17170.73
542.858	17198.08
543.223	17319.88
543.587	17479.65
543.952	17369.37
544.316	17540.67
544.681	17524.85
545.045	17664.06
545.41	17709.03
545.774	17742.47
546.138	17751.06
546.503	17881.22
546.867	17916.25
547.231	18003.93
547.595	17996.02
547.959	18251.84
548.324	18208.22
548.688	18226.53
549.052	18425.84
549.416	18432.62
549.779	18571.15
550.143	18559.17
550.507	18722.11
550.871	18862.44
551.235	18873.52
551.599	19011.82
551.962	19039.61
552.326	19094.07
552.689	19258.82
553.053	19240.29
553.417	19355.76
553.78	19610.22
554.143	19737.22
554.507	19797.11
554.87	19829.87
555.234	20056.76
555.597	20075.97
555.96	20148.51
556.323	20266.7
556.686	20276.64
557.05	20434.83
557.413	20631.66
557.776	20751.88
558.139	20843.41
558.502	20952.1
558.865	21174.92
559.228	21288.37
559.59	21369.04
559.953	21455.37
560.316	21844.96
560.679	21861.46
561.041	22032.08
561.404	22213.31
561.767	22410.6
562.129	22378.51
562.492	22612.17
562.854	22710.48
563.217	22733.98
563.579	23046.29
563.941	23125.38
564.304	23323.12
564.666	23544.8
565.028	23592.04
565.39	23700.96
565.753	24011.01
566.115	24162.19
566.477	24260.27
566.839	24407.15
567.201	24638.34
567.563	24776.18
567.925	24949.29
568.287	25102.5
568.648	25160.81
569.01	25281.71
569.372	25749.49
569.734	25622.94
570.095	25949.49
570.457	26010.95
570.819	26261.34
571.18	26421.79
571.542	26638.73
571.903	26723.03
572.265	26884.15
572.626	27060.64
572.987	27163.92
573.349	27345.38
573.71	27532.27
574.071	27682.32
574.432	27871.24
574.794	28201.63
575.155	28373.83
575.516	28248.64
575.877	28412.25
576.238	28647.5
576.599	28741.96
576.96	28947.37
577.32	29092.91
577.681	29238.89
578.042	29381.71
578.403	29558.43
578.763	29628.03
579.124	29731.31
579.485	29856.05
579.845	30142.37
580.206	30057.18
580.566	30119.77
580.927	30195.25
581.287	30387.79
581.648	30404.51
582.008	30702.58
582.368	30643.15
582.728	30763.15
583.089	30804.27
583.449	30870.71
583.809	30864.84
584.169	31048.56
584.529	30930.6
584.889	31215.11
585.249	31199.97
585.609	31033.65
585.969	31363.81
586.329	31414.43
586.688	31426.18
587.048	31404.71
587.408	31477.93
587.768	31484.03
588.127	31670.69
588.487	31465.73
588.846	31768.77
589.206	31531.26
589.565	31644.48
589.925	31869.33
590.284	31805.83
590.643	31828.65
591.003	31904.36
591.362	31979.61
591.721	32077.01
592.08	32046.95
592.44	32105.71
592.799	32082.89
593.158	32171.47
593.517	32166.05
593.876	32157.91
594.235	32180.28
594.593	32278.36
594.952	32259.38
595.311	32373.73
595.67	32396.1
596.029	32610.1
596.387	32508.18
596.746	32592.7
597.104	32382.31
597.463	32567.17
597.822	32613.72
598.18	32502.99
598.538	32538.69
598.897	32738.46
599.255	32627.28
599.613	32961.28
599.972	32719.03
600.33	32743.66
600.688	32619.37
601.046	32903.88
601.404	32955.4
601.762	32887.84
602.12	32940.04
602.478	32975.74
602.836	32971.22
603.194	32947.04
603.552	32897.55
603.91	32877.89
604.268	33174.16
604.625	32983.2
604.983	33112.46
605.341	33055.74
605.698	33267.26
606.056	33199.69
606.413	33238.11
606.771	33274.27
607.128	33390.42
607.485	33232.69
607.843	33258
608.2	33332.8
608.557	33447.14
608.914	33402.62
609.272	33706.12
609.629	33697.76
609.986	33737.08
610.343	33727.14
610.7	33829.05
611.057	33671.77
611.414	33775.5
611.771	33738.21
612.127	33929.39
612.484	33685.78
612.841	34027.69
613.198	33852.78
613.554	33881.03
613.911	34090.06
614.267	34059.1
614.624	34144.07
614.98	34326.44
615.337	34332.77
615.693	34208.93
616.05	34200.12
616.406	34470.39
616.762	34287.57
617.118	34394.24
617.475	34255.26
617.831	34396.95
618.187	34356.5
618.543	34457.29
618.899	34697.73
619.255	34479.21
619.611	34600.79
619.967	34633.78
620.323	34603.27
620.678	34619.99
621.034	34543.16
621.39	34526.21
621.746	34497.29
622.101	35054.33
622.457	34730.95
622.812	34826.32
623.168	34867.67
623.523	34868.12
623.879	34952.19
624.234	34635.81
624.589	34850.72
624.945	34903.83
625.3	34898.18
625.655	34827.67
626.01	34863.6
626.365	34843.04
626.72	34823.38
627.075	34796.26
627.43	34872.64
627.785	34714
628.14	34852.76
628.495	34745.64
628.85	34692.31
629.205	34703.16
629.559	34818.86
629.914	34576.83
630.269	34719.2
630.623	34597.17
630.978	34597.17
631.332	34694.57
631.687	34751.52
632.041	34602.59
632.396	34657.05
632.75	34446.21
633.104	34489.83
633.459	34393.78
633.813	34401.02
634.167	34350.85
634.521	34362.83
634.875	34447.12
635.229	34363.73
635.583	34223.39
635.937	34224.3
636.291	34104.53
636.645	34100.91
636.999	34062.04
637.352	34251.87
637.706	33907.24
638.06	34090.74
638.413	34050.97
638.767	33916.06
639.121	33995.83
639.474	33826.34
639.828	33913.8
640.181	33731.66
640.534	33786.12
640.888	33739.56
641.241	33657.76
641.594	33642.17
641.947	33598.55
642.301	33570.53
642.654	33671.09
643.007	33627.03
643.36	33622.05
643.713	33490.31
644.066	33655.95
644.419	33365.56
644.771	33305.9
645.124	32980.04
645.477	32980.71
645.83	32776.43
646.182	32639.48
646.535	32583.89
646.888	32475.64
647.24	32301.64
647.593	32634.28
647.945	32429.32
648.298	32244.69
648.65	32352.03
649.002	32051.47
649.355	32371.47
649.707	32255.54
650.059	32557.9
650.411	32828.63
650.763	32949.3
651.115	33219.13
651.467	33019.81
651.819	33067.27
652.171	33005.12
652.523	33012.13
652.875	32888.51
653.227	32844.22
653.578	33115.4
653.93	32984.33
654.282	32842.64
654.633	32817.1
654.985	32996.08
655.337	32851.45
655.688	32921.96
656.039	32959.25
656.391	32666.15
656.742	32843.09
657.094	32834.73
657.445	33016.87
657.796	32860.49
658.147	32813.49
658.498	32822.75
658.849	32798.8
659.2	32888.29
659.551	32765.81
659.902	32804.45
660.253	32834.5
660.604	32764.68
660.955	32692.13
661.306	32772.36
661.656	32694.39
662.007	32685.58
662.358	32759.03
662.708	32738.69
663.059	32686.49
663.409	32563.32
663.76	32817.56
664.11	32714.73
664.461	32716.31
664.811	32650.33
665.161	32589.54
665.511	32608.75
665.862	32692.13
666.212	32676.09
666.562	32673.38
666.912	32693.72
667.262	32663.21
667.612	32653.04
667.962	32648.75
668.312	32693.26
668.662	32714.06
669.011	32709.08
669.361	32648.52
669.711	32602.42
670.06	32472.25
670.41	32437.23
670.76	32430.9
671.109	32497.34
671.459	32541.86
671.808	32352.93
672.157	32379.6
672.507	32253.73
672.856	32266.84
673.205	32363.56
673.554	32370.56
673.904	32258.47
674.253	32337.79
674.602	32310.9
674.951	31817.36
675.3	31766.06
675.649	32104.35
675.998	32143.67
676.346	32155.65
676.695	32204.24
677.044	32019.61
677.393	32098.7
677.741	32121.3
678.09	32014.86
678.438	32020.74
678.787	31948.88
679.135	32025.71
679.484	31724.7
679.832	32049.67
680.181	31792.05
680.529	31818.71
680.877	31731.48
681.225	31652.39
681.573	31798.37
681.922	31578.49
682.27	31503.92
682.618	31534.2
682.966	31422.11
683.314	31464.6
683.661	31380.98
684.009	31289.23
684.357	31221.44
684.705	31114.1
685.053	31039.75
685.4	31023.25
685.748	30917.49
686.095	30856.48
686.443	30800.89
686.79	30863.03
687.138	30839.53
687.485	30783.48
687.832	30576.48
688.18	30617.61
688.527	30474.34
688.874	30441.35
689.221	30276.38
689.568	30261.24
689.915	30200.22
690.262	30173.1
690.609	30181.92
690.956	30027.35
691.303	30040.45
691.65	29762.95
691.997	29771.53
692.344	29483.41
692.69	29517.53
693.037	29642.5
693.383	29312.79
693.73	29369.51
694.077	29211.55
694.423	29222.62
694.769	29114.6
695.116	29011.1
695.462	28974.27
695.808	28920.93
696.155	28870.31
696.501	28716.65
696.847	28711.67
697.193	28466.03
697.539	28560.94
697.885	28355.75
698.231	28249.09
698.577	28264.91
698.923	28167.28
699.269	27931.13
699.614	27944.69
699.96	27837.8
700.306	27842.54
700.651	27748.31
700.997	27563.91
701.342	27584.7
701.688	27437.36
702.033	27348.32
702.379	27354.87
702.724	27238.04
703.069	27304.48
703.415	26956.47
703.76	27149
704.105	26963.92
704.45	26848.22
704.795	26756.25
705.14	26579.98
705.485	26531.62
705.83	26414.33
706.175	26514.22
706.52	26403.03
706.865	26265.86
707.209	26200.78
707.554	26117.84
707.899	26152.65
708.243	26013.21
708.588	25957.85
708.932	25782.71
709.277	25848.92
709.621	25835.82
709.966	25634.92
710.31	25740
710.654	25512.21
710.998	25541.81
711.342	25557.86
711.687	25429.27
712.031	25357.86
712.375	25259.11
712.719	25281.48
713.063	25272.89
713.407	25180.24
713.75	25128.72
714.094	25078.55
714.438	24946.58
714.782	24939.8
715.125	24909.74
715.469	24870.65
715.812	24802.62
716.156	24737.99
716.499	24627.94
716.843	24772.12
717.186	24565.79
717.53	24722.63
717.873	24691.89
718.216	24594.72
718.559	24474.95
718.902	24395.86
719.246	24440.83
719.589	24328.51
719.932	24265.24
720.275	24338.46
720.617	24289.64
720.96	24264.11
721.303	24284.67
721.646	24213.26
721.989	24104.79
722.331	24230.89
722.674	24123.55
723.016	24198.35
723.359	24116.32
723.701	24117.9
724.044	23998.58
724.386	23912.48
724.729	24041.06
725.071	24020.05
725.413	23956.77
725.755	23808.75
726.097	23832.71
726.439	23823.22
726.782	23882.2
727.124	23853.05
727.465	23707.06
727.807	23800.39
728.149	23697.57
728.491	23774.63
728.833	23766.72
729.175	23656.44
729.516	23597.01
729.858	23690.79
730.199	23657.57
730.541	23611.24
730.882	23581.19
731.224	23599.72
731.565	23523.11
731.906	23545.26
732.248	23586.39
732.589	23340.74
732.93	23444.92
733.271	23486.05
733.612	23511.59
733.953	23549.55
734.294	23388.65
734.635	23436.78
734.976	23505.03
735.317	23510.46
735.658	23390.68
735.999	23382.32
736.339	23398.14
736.68	23524.01
737.021	23310.23
737.361	23253.29
737.702	23467.29
738.042	23375.09
738.383	23337.58
738.723	23436.78
739.063	23284.47
739.404	23377.35
739.744	23284.7
740.084	23194.31
740.424	23404.24
740.764	23246.96
741.104	23358.59
741.444	23191.14
741.784	23197.47
742.124	23340.74
742.464	23217.36
742.804	23203.8
743.143	23157.47
743.483	23232.72
743.823	23059.62
744.162	23086.96
744.502	23247.64
744.841	23055.1
745.181	23217.81
745.52	23071.37
745.86	23120.18
746.199	23193.4
746.538	23060.52
746.877	23173.29
747.216	23145.49
747.556	23108.88
747.895	23139.17
748.234	23031.15
748.573	22945.27
748.911	22998.15
749.25	23006.29
749.589	22874.77
749.928	22884.03
750.267	23035.89
750.605	23029.34
750.944	22869.12
751.283	22871.38
751.621	22976.23
751.96	22785.05
752.298	22831.15
752.636	22753.64
752.975	22701.89
753.313	22605.62
753.651	22714.54
753.989	22571.27
754.327	22555.68
754.666	22519.29
755.004	22585.73
755.342	22632.06
755.679	22533.76
