Data from tablewood_dark_bookshelf_FLMS001491_00044.txt Node
Date: Wed Feb 08 14:14:48 GMT 2017
User: dcchb
Spectrometer: FLMS00149
Trigger mode: 0
Integration Time (sec): 2.000000E-2
Scans to average: 10
Electric dark correction enabled: true
Nonlinearity correction enabled: false
Boxcar width: 0
XAxis mode: Wavelengths
Number of Pixels in Spectrum: 2048
>>>>>Begin Spectral Data<<<<<
341.393	7.6
341.776	7.6
342.16	7.6
342.543	-45.06
342.927	-54.09
343.31	-65.17
343.693	-70.37
344.077	-57.03
344.46	-42.8
344.843	-47.99
345.226	-49.57
345.61	-38.95
345.993	-20.65
346.376	-3.47
346.759	-3.93
347.142	22.29
347.525	27.71
347.908	58.44
348.291	82.17
348.674	107.94
349.057	101.38
349.44	118.56
349.823	148.84
350.206	161.94
350.588	183.19
350.971	217.54
351.354	222.73
351.737	217.99
352.119	235.39
352.502	240.13
352.884	260.02
353.267	277.65
353.65	280.36
354.032	275.84
354.414	276.74
354.797	291.43
355.179	295.73
355.562	310.42
355.944	308.61
356.326	314.94
356.709	325.1
357.091	330.98
357.473	326.69
357.855	337.31
358.238	347.7
358.62	322.62
359.002	319.45
359.384	329.85
359.766	337.76
360.148	329.4
360.53	334.14
360.912	335.05
361.294	333.92
361.676	337.31
362.057	320.36
362.439	322.62
362.821	313.58
363.203	314.71
363.584	327.59
363.966	298.44
364.348	312.22
364.729	336.4
365.111	306.12
365.493	340.47
365.874	332.56
366.256	309.51
366.637	306.35
367.019	309.51
367.4	316.07
367.781	303.86
368.163	316.52
368.544	319
368.925	294.37
369.306	321.71
369.688	304.99
370.069	302.28
370.45	290.3
370.831	301.83
371.212	328.72
371.593	313.81
371.974	313.13
372.355	319.68
372.736	322.39
373.117	288.95
373.498	308.16
373.879	320.13
374.26	335.05
374.641	310.19
375.021	311.09
375.402	321.71
375.783	301.15
376.163	335.95
376.544	334.6
376.925	307.48
377.305	313.13
377.686	320.58
378.066	304.99
378.447	312
378.827	330.08
379.208	339.79
379.588	347.25
379.968	343.41
380.349	312.22
380.729	317.2
381.109	320.36
381.489	322.84
381.87	325.56
382.25	339.79
382.63	308.61
383.01	344.99
383.39	347.02
383.77	342.28
384.15	346.12
384.53	369.17
384.91	365.78
385.29	350.19
385.67	352.67
386.049	375.95
386.429	353.13
386.809	353.13
387.189	370.08
387.568	351.09
387.948	349.28
388.328	373.46
388.707	359.23
389.087	362.17
389.466	384.99
389.846	366.23
390.225	351.32
390.605	359.23
390.984	340.47
391.363	385.89
391.743	377.31
392.122	379.34
392.501	368.49
392.881	378.21
393.26	357.87
393.639	372.79
394.018	371.66
394.397	382.96
394.776	400.13
395.155	402.62
395.534	387.7
395.913	401.03
396.292	400.58
396.671	405.1
397.05	411.66
397.429	402.39
397.808	401.94
398.186	395.61
398.565	403.97
398.944	400.81
399.323	422.05
399.701	421.37
400.08	403.07
400.458	425.21
400.837	424.54
401.215	417.98
401.594	417.76
401.972	428.15
402.351	439.45
402.729	416.4
403.107	454.37
403.486	431.77
403.864	432.22
404.242	449.62
404.62	445.33
404.999	452.56
405.377	443.52
405.755	455.5
406.133	480.81
406.511	440.81
406.889	440.36
407.267	449.39
407.645	471.09
408.023	465.67
408.401	460.02
408.779	479.45
409.156	478.55
409.534	477.19
409.912	481.94
410.29	486.23
410.667	503.63
411.045	497.53
411.422	484.42
411.8	484.42
412.178	508.38
412.555	526.23
412.933	519.22
413.31	521.48
413.687	534.36
414.065	528.49
414.442	526.23
414.819	546.79
415.197	542.5
415.574	566
415.951	537.75
416.328	559.45
416.705	537.98
417.082	537.98
417.46	549.28
417.837	558.09
418.214	560.13
418.591	566.68
418.967	566.91
419.344	572.78
419.721	588.37
420.098	579.56
420.475	598.32
420.852	605.32
421.228	603.29
421.605	593.35
421.982	590.18
422.358	618.88
422.735	609.84
423.111	621.14
423.488	619.56
423.864	638.99
424.241	610.52
424.617	633.8
424.994	650.75
425.37	646.45
425.746	651.88
426.123	668.6
426.499	648.03
426.875	660.91
427.251	661.82
427.627	694.59
428.003	680.12
428.379	682.84
428.756	694.36
429.132	711.99
429.507	719.22
429.883	732.1
430.259	721.93
430.635	719.22
431.011	721.03
431.387	757.18
431.763	762.16
432.138	752.66
432.514	750.4
432.89	766.67
433.265	783.62
433.641	779.33
434.016	794.92
434.392	788.82
434.767	801.93
435.143	800.35
435.518	821.59
435.894	814.36
436.269	832.66
436.644	870.17
437.02	862.94
437.395	840.8
437.77	866.11
438.145	853
438.52	863.17
438.895	877.18
439.271	889.61
439.646	883.96
440.021	888.93
440.395	910.63
440.77	910.17
441.145	902.49
441.52	956.05
441.895	944.07
442.27	944.3
442.645	934.35
443.019	957.63
443.394	967.57
443.769	951.08
444.143	939.33
444.518	979.1
444.892	988.14
445.267	962.83
445.641	989.72
446.016	1012.32
446.39	972.09
446.764	1004.86
447.139	1017.52
447.513	1021.81
447.887	989.27
448.262	1025.88
448.636	1019.32
449.01	1034.92
449.384	1073.33
449.758	1064.07
450.132	1063.39
450.506	1063.16
450.88	1072.43
451.254	1092.32
451.628	1095.71
452.002	1087.34
452.376	1111.98
452.75	1097.97
453.123	1109.04
453.497	1140.22
453.871	1169.38
454.244	1175.7
454.618	1170.73
454.992	1164.86
455.365	1185.65
455.739	1208.47
456.112	1248.02
456.486	1229.49
456.859	1238.53
457.232	1264.06
457.606	1247.34
457.979	1270.39
458.352	1320.11
458.725	1331.18
459.099	1314.46
459.472	1325.08
459.845	1346.77
460.218	1357.62
460.591	1382.7
460.964	1380.67
461.337	1369.82
461.71	1461.8
462.083	1441.23
462.456	1465.87
462.829	1470.39
463.201	1488.69
463.574	1522.59
463.947	1488.01
464.32	1522.59
464.692	1538.86
465.065	1556.26
465.438	1575.69
465.81	1615.92
466.183	1610.95
466.555	1650.95
466.928	1618.63
467.3	1648.91
467.672	1666.31
468.045	1695.01
468.417	1685.97
468.789	1717.16
469.161	1740.43
469.534	1822.69
469.906	1802.35
470.278	1812.3
470.65	1831.96
471.022	1872.86
471.394	1909.02
471.766	1918.73
472.138	1916.7
472.51	1970.48
472.882	2019.3
473.253	2000.77
473.625	2034.89
473.997	2112.63
474.369	2078.5
474.74	2106.75
475.112	2183.81
475.484	2182.46
475.855	2242.57
476.227	2250.25
476.598	2287.31
476.97	2328.22
477.341	2364.82
477.713	2391.94
478.084	2403.69
478.455	2437.37
478.827	2498.15
479.198	2584.25
479.569	2592.39
479.94	2618.6
480.311	2661.09
480.682	2680.97
481.053	2741.31
481.424	2811.59
481.795	2790.58
482.166	2856.56
482.537	2913.28
482.908	2929.56
483.279	2992.15
483.65	3075.54
484.021	3101.98
484.391	3139.72
484.762	3132.49
485.133	3164.35
485.503	3247.06
485.874	3299.49
486.244	3299.72
486.615	3393.5
486.985	3437.11
487.356	3452.25
487.726	3519.37
488.097	3574.74
488.467	3579.93
488.837	3633.72
489.207	3681.4
489.578	3736.77
489.948	3779.48
490.318	3806.82
490.688	3815.86
491.058	3874.39
491.428	3931.56
491.798	3970.43
492.168	4056.53
492.538	4090.88
492.908	4120.48
493.278	4200.93
493.648	4226.92
494.017	4197.54
494.387	4279.8
494.757	4333.36
495.126	4354.38
495.496	4383.3
495.866	4400.48
496.235	4470.53
496.605	4499.01
496.974	4530.42
497.344	4570.64
497.713	4567.03
498.082	4623.3
498.452	4694.26
498.821	4666.46
499.19	4742.39
499.559	4759.11
499.928	4733.35
500.298	4834.14
500.667	4851.54
501.036	4860.35
501.405	4913.46
501.774	4913.68
502.143	4970.86
502.512	4970.41
502.88	5043.62
503.249	5061.48
503.618	5086.79
503.987	5150.74
504.356	5162.72
504.724	5180.34
505.093	5204.07
505.462	5189.16
505.83	5295.37
506.199	5311.19
506.567	5350.96
506.936	5376.05
507.304	5444.07
507.672	5523.61
508.041	5488.58
508.409	5549.15
508.777	5563.38
509.145	5666.66
509.514	5695.81
509.882	5694
510.25	5731.06
510.618	5776.03
510.986	5806.09
511.354	5860.78
511.722	5910.49
512.09	5999.76
512.458	5927.89
512.826	5994.79
513.193	6015.58
513.561	6057.84
513.929	6108.46
514.297	6150.26
514.664	6224.38
515.032	6200.66
515.4	6264.16
515.767	6290.37
516.135	6318.39
516.502	6356.58
516.869	6388.45
517.237	6482
517.604	6470.93
517.972	6579.18
518.339	6652.17
518.706	6641.32
519.073	6666.41
519.44	6723.81
519.808	6814.43
520.175	6815.33
520.542	6904.37
520.909	6887.64
521.276	6960.64
521.643	7022.78
522.009	7031.82
522.376	7116.11
522.743	7181.87
523.11	7184.81
523.477	7333.06
523.843	7351.59
524.21	7441.3
524.577	7511.81
524.943	7519.27
525.31	7581.18
525.676	7614.63
526.043	7765.59
526.409	7762.65
526.776	7807.62
527.142	7857.79
527.508	7850.33
527.874	7992.93
528.241	8029.76
528.607	8055.97
528.973	8134.39
529.339	8097.56
529.705	8181.4
530.071	8240.15
530.437	8286.7
530.803	8422.74
531.169	8382.29
531.535	8395.63
531.901	8450.99
532.267	8457.77
532.632	8511.1
532.998	8571.44
533.364	8643.53
533.73	8685.11
534.095	8740.93
534.461	8854.15
534.826	8851.66
535.192	8852.56
535.557	8927.59
535.923	8948.38
536.288	8954.03
536.653	8965.1
537.019	9042.39
537.384	9020.24
537.749	9100.92
538.114	9163.52
538.479	9139.34
538.845	9172.1
539.21	9129.39
539.575	9250.29
539.94	9237.41
540.305	9310.86
540.67	9396.5
541.034	9375.71
541.399	9375.94
541.764	9458.2
542.129	9399.89
542.494	9483.06
542.858	9507.69
543.223	9567.12
543.587	9638.31
543.952	9632.2
544.316	9688.02
544.681	9605.99
545.045	9700.45
545.41	9834.46
545.774	9787
546.138	9802.6
546.503	9852.54
546.867	9914.91
547.231	9984.51
547.595	9931.63
547.959	9975.47
548.324	9982.7
548.688	10033.78
549.052	10105.86
549.416	10145.19
549.779	10101.57
550.143	10150.38
550.507	10163.72
550.871	10242.13
551.235	10231.96
551.599	10312.19
551.962	10357.38
552.326	10405.74
552.689	10422.01
553.053	10409.13
553.417	10509.47
553.78	10571.16
554.143	10551.95
554.507	10662.23
554.87	10673.53
555.234	10805.73
555.597	10719.63
555.96	10779.74
556.323	10842.57
556.686	10885.5
557.05	10918.27
557.413	10957.14
557.776	10930.25
558.139	11111.26
558.502	11076.69
558.865	11110.58
559.228	11207.08
559.59	11184.03
559.953	11264.7
560.316	11298.38
560.679	11389.9
561.041	11419.5
561.404	11522.55
561.767	11563.45
562.129	11569.78
562.492	11705.82
562.854	11752.15
563.217	11686.61
563.579	11862.65
563.941	11910.11
564.304	11988.53
564.666	12007.74
565.028	12103.33
565.39	12035.08
565.753	12091.35
566.115	12222.42
566.477	12325.24
566.839	12306.03
567.201	12410.89
567.563	12360.04
567.925	12484.56
568.287	12447.05
568.648	12619.92
569.01	12598.68
569.372	12731.78
569.734	12764.78
570.095	12821.05
570.457	12911.44
570.819	12864.89
571.18	12936.3
571.542	13015.17
571.903	13019.01
572.265	13111.43
572.626	13131.32
572.987	13152.79
573.349	13299.9
573.71	13272.79
574.071	13301.49
574.432	13423.29
574.794	13496.51
575.155	13491.54
575.516	13437.75
575.877	13618.99
576.238	13601.82
576.599	13641.14
576.96	13634.58
577.32	13737.86
577.681	13669.84
578.042	13831.87
578.403	13874.13
578.763	13919.32
579.124	13890.17
579.485	14070.28
579.845	14050.17
580.206	13993.45
580.566	14101.24
580.927	14097.17
581.287	14237.28
581.648	14144.63
582.008	14295.58
582.368	14193.44
582.728	14306.88
583.089	14275.92
583.449	14314.57
583.809	14301.46
584.169	14382.36
584.529	14343.49
584.889	14497.84
585.249	14397.73
585.609	14412.42
585.969	14551.62
586.329	14529.93
586.688	14586.2
587.048	14532.87
587.408	14542.81
587.768	14463.94
588.127	14577.84
588.487	14593.66
588.846	14691.51
589.206	14609.47
589.565	14676.59
589.925	14690.15
590.284	14672.07
590.643	14793.2
591.003	14778.06
591.362	14871.39
591.721	14796.81
592.08	14784.39
592.44	14911.61
592.799	14859.41
593.158	14911.61
593.517	14943.48
593.876	14989.35
594.235	15017.6
594.593	14958.39
594.952	15062.8
595.311	15016.24
595.67	14980.09
596.029	15142.34
596.387	15059.18
596.746	15085.85
597.104	15091.95
597.463	15105.73
597.822	15256.92
598.18	15258.95
598.538	15124.94
598.897	15279.74
599.255	15106.41
599.613	15434.09
599.972	15279.97
600.33	15323.35
600.688	15285.62
601.046	15335.33
601.404	15429.34
601.762	15414.43
602.12	15465.05
602.478	15512.28
602.836	15565.38
603.194	15319.74
603.552	15473.41
603.91	15434.09
604.268	15483.8
604.625	15519.96
604.983	15566.29
605.341	15498.26
605.698	15519.28
606.056	15629.56
606.413	15660.75
606.771	15721.76
607.128	15794.98
607.485	15627.53
607.843	15650.8
608.2	15802.89
608.557	15869.55
608.914	15801.31
609.272	15823.91
609.629	15907.75
609.986	15941.64
610.343	15971.25
610.7	15992.26
611.057	15983
611.414	15998.59
611.771	16077.46
612.127	16084.01
612.484	16049.66
612.841	16132.15
613.198	16098.93
613.554	16110.9
613.911	16192.03
614.267	16237.91
614.624	16209.66
614.98	16220.05
615.337	16379.82
615.693	16244.46
616.05	16255.08
616.406	16271.35
616.762	16341.63
617.118	16292.14
617.475	16292.14
617.831	16426.83
618.187	16339.37
618.543	16309.54
618.899	16430.9
619.255	16447.17
619.611	16418.24
619.967	16500.05
620.323	16513.38
620.678	16498.46
621.034	16420.73
621.39	16366.26
621.746	16332.37
622.101	16649.19
622.457	16510.89
622.812	16569.42
623.168	16603.32
623.523	16565.36
623.879	16598.12
624.234	16463.66
624.589	16545.92
624.945	16554.96
625.3	16695.97
625.655	16560.61
626.01	16621.63
626.365	16573.72
626.72	16593.83
627.075	16575.52
627.43	16568.75
627.785	16477.22
628.14	16586.37
628.495	16589.08
628.85	16568.75
629.205	16479.26
629.559	16665.92
629.914	16491.91
630.269	16431.57
630.623	16518.12
630.978	16457.11
631.332	16419.6
631.687	16593.15
632.041	16359.26
632.396	16511.57
632.75	16454.4
633.104	16474.96
633.459	16450.78
633.813	16316.1
634.167	16378.47
634.521	16386.15
634.875	16358.36
635.229	16306.38
635.583	16242.2
635.937	16336.66
636.291	16364.23
636.645	16362.2
636.999	16295.08
637.352	16308.64
637.706	16225.48
638.06	16160.62
638.413	16234.52
638.767	16162.2
639.121	16171.47
639.474	16144.58
639.828	16106.38
640.181	16070.68
640.534	16090.34
640.888	16023.45
641.241	16028.65
641.594	16060.96
641.947	16063.9
642.301	16002.21
642.654	15989.78
643.007	16099.6
643.36	15961.76
643.713	16003.56
644.066	16073.62
644.419	16010.12
644.771	15943
645.124	15808.77
645.477	15754.76
645.83	15673.4
646.182	15591.37
646.535	15446.29
646.888	15444.48
647.24	15398.83
647.593	15354.77
647.945	15367.65
648.298	15330.13
648.65	15244.03
649.002	15301.21
649.355	15294.88
649.707	15315.44
650.059	15431.6
650.411	15637.7
650.763	15627.98
651.115	15801.31
651.467	15815.32
651.819	15722.21
652.171	15723.34
652.523	15636.11
652.875	15718.37
653.227	15604.93
653.578	15743.91
653.93	15698.03
654.282	15592.05
654.633	15543.69
654.985	15631.14
655.337	15632.72
655.688	15595.44
656.039	15586.4
656.391	15527.64
656.742	15526.74
657.094	15588.66
657.445	15649.67
657.796	15535.55
658.147	15532.84
658.498	15544.14
658.849	15601.76
659.2	15486.97
659.551	15477.7
659.902	15597.02
660.253	15543.24
660.604	15557.7
660.955	15460.75
661.306	15538.26
661.656	15503.24
662.007	15591.14
662.358	15453.07
662.708	15535.33
663.059	15430.02
663.409	15488.1
663.76	15586.85
664.11	15524.25
664.461	15479.73
664.811	15552.05
665.161	15509.56
665.511	15459.17
665.862	15527.87
666.212	15580.75
666.562	15552.73
666.912	15514.76
667.262	15425.05
667.612	15515.21
667.962	15448.32
668.312	15375.78
668.662	15458.72
669.011	15524.48
669.361	15480.86
669.711	15474.54
670.06	15438.38
670.41	15467.53
670.76	15466.4
671.109	15419.4
671.459	15415.1
671.808	15419.85
672.157	15478.15
672.507	15314.31
672.856	15415.33
673.205	15308.67
673.554	15414.43
673.904	15358.38
674.253	15467.08
674.602	15432.28
674.951	15149.12
675.3	15117.71
675.649	15297.14
675.998	15320.64
676.346	15345.5
676.695	15383.69
677.044	15284.71
677.393	15340.98
677.741	15335.33
678.09	15328.1
678.438	15243.81
678.787	15227.09
679.135	15238.38
679.484	15153.42
679.832	15252.4
680.181	15064.83
680.529	15232.51
680.877	15180.99
681.225	15144.6
681.573	15288.1
681.922	15202.91
682.27	15173.98
682.618	15062.12
682.966	15051.27
683.314	15083.36
683.661	15001.33
684.009	14870.94
684.357	14782.13
684.705	14879.3
685.053	14849.24
685.4	14854.67
685.748	14828
686.095	14732.64
686.443	14767.66
686.79	14769.92
687.138	14688.79
687.485	14715.91
687.832	14608.8
688.18	14674.78
688.527	14583.03
688.874	14589.14
689.221	14562.24
689.568	14538.06
689.915	14555.01
690.262	14580.77
690.609	14535.35
690.956	14393.44
691.303	14444.06
691.65	14283.83
691.997	14366.32
692.344	14195.7
692.69	14183.5
693.037	14241.12
693.383	14147.57
693.73	14112.99
694.077	14029.15
694.423	14093.78
694.769	14089.04
695.116	14056.72
695.462	14022.37
695.808	13954.35
696.155	14006.33
696.501	13850.62
696.847	13873.9
697.193	13757.52
697.539	13790.06
697.885	13745.99
698.231	13711.19
698.577	13684.3
698.923	13697.86
699.269	13623.74
699.614	13535.38
699.96	13527.47
700.306	13537.19
700.651	13497.41
700.997	13396.4
701.342	13448.15
701.688	13369.06
702.033	13330.64
702.379	13252.9
702.724	13210.87
703.069	13316.18
703.415	13170.19
703.76	13045.67
704.105	13068.5
704.45	13027.37
704.795	12892.91
705.14	12973.13
705.485	12979.01
705.83	12897.43
706.175	12890.42
706.52	12849.97
706.865	12827.37
707.209	12793.93
707.554	12754.83
707.899	12846.36
708.243	12740.37
708.588	12729.07
708.932	12656.31
709.277	12648.17
709.621	12699.02
709.966	12613.37
710.31	12599.36
710.654	12515.29
710.998	12560.94
711.342	12502.86
711.687	12530.66
712.031	12431.23
712.375	12453.83
712.719	12391.45
713.063	12377.89
713.407	12492.69
713.75	12309.65
714.094	12312.59
714.438	12264.9
714.782	12292.25
715.125	12355.52
715.469	12267.16
715.812	12193.27
716.156	12207.5
716.499	12187.84
716.843	12211.12
717.186	12192.36
717.53	12155.98
717.873	12242.31
718.216	12116.43
718.559	12068.3
718.902	12012.03
719.246	11998.7
719.589	12015.42
719.932	12003.44
720.275	11946.72
720.617	12017.68
720.96	11939.04
721.303	11898.81
721.646	11978.58
721.989	11809.77
722.331	11899.49
722.674	11938.13
723.016	11928.64
723.359	11859.49
723.701	11811.36
724.044	11862.43
724.386	11756.67
724.729	11798.7
725.071	11755.31
725.413	11760.96
725.755	11738.36
726.097	11751.92
726.439	11656.33
726.782	11654.52
727.124	11640.29
727.465	11621.76
727.807	11590.12
728.149	11602.32
728.491	11614.3
728.833	11623.11
729.175	11574.07
729.516	11465.83
729.858	11607.52
730.199	11583.11
730.541	11555.77
730.882	11559.61
731.224	11594.86
731.565	11527.52
731.906	11487.3
732.248	11554.41
732.589	11510.57
732.93	11435.32
733.271	11417.69
733.612	11543.34
733.953	11484.13
734.294	11500.4
734.635	11384.93
734.976	11445.72
735.317	11383.34
735.658	11427.86
735.999	11396
736.339	11353.29
736.68	11453.4
737.021	11394.19
737.361	11378.83
737.702	11346.96
738.042	11373.63
738.383	11380.86
738.723	11421.54
739.063	11376.57
739.404	11365.04
739.744	11349.45
740.084	11323.69
740.424	11373.63
740.764	11301.54
741.104	11334.53
741.444	11242.11
741.784	11247.08
742.124	11347.64
742.464	11328.43
742.804	11248.43
743.143	11239.85
743.483	11266.06
743.823	11222.45
744.162	11210.69
744.502	11211.37
744.841	11249.11
745.181	11294.76
745.52	11183.12
745.86	11160.98
746.199	11184.25
746.538	11216.57
746.877	11268.77
747.216	11210.24
747.556	11081.66
747.895	11220.41
748.234	11101.54
748.573	11139.51
748.911	11064.48
749.25	11117.14
749.589	11138.15
749.928	11158.49
750.267	11115.56
750.605	11003.69
750.944	11046.4
751.283	11081.88
751.621	11013.64
751.96	10988.1
752.298	10990.81
752.636	11029.68
752.975	10989.23
753.313	10847.99
753.651	11071.04
753.989	10836.24
754.327	10883.92
754.666	10909.23
755.004	10849.57
755.342	10862.45
755.679	10815.68
756.017	10806.86
756.355	10785.62
756.693	10779.52
757.031	10863.81
757.368	10800.08
757.706	10768.22
758.044	10713.98
758.381	10705.17
