Data from tablewood_brown_FLMS001491_031.txt Node
Date: Tue Feb 07 11:10:22 GMT 2017
User: dcchb
Spectrometer: FLMS00149
Trigger mode: 0
Integration Time (sec): 2.000000E-2
Scans to average: 10
Electric dark correction enabled: true
Nonlinearity correction enabled: false
Boxcar width: 0
XAxis mode: Wavelengths
Number of Pixels in Spectrum: 2048
>>>>>Begin Spectral Data<<<<<
341.393	-9.66
341.776	-9.66
342.16	-9.66
342.543	-56.44
342.927	-92.14
343.31	-64.35
343.693	-61.41
344.077	-51.47
344.46	-53.5
344.843	-49.89
345.226	-53.28
345.61	-20.73
345.993	-31.36
346.376	-6.05
346.759	14.75
347.142	14.52
347.525	6.84
347.908	61.07
348.291	72.37
348.674	91.58
349.057	130.9
349.44	148.98
349.823	136.78
350.206	171.35
350.588	201.41
350.971	201.63
351.354	219.49
351.737	246.6
352.119	254.74
352.502	284.12
352.884	256.09
353.267	269.88
353.65	279.6
354.032	303.33
354.414	322.99
354.797	304.23
355.179	318.69
355.562	329.09
355.944	354.4
356.326	348.07
356.709	324.79
357.091	344
357.473	346.71
357.855	346.26
358.238	360.05
358.62	348.97
359.002	353.72
359.384	354.4
359.766	377
360.148	343.78
360.53	356.21
360.912	337
361.294	337.45
361.676	334.06
362.057	340.16
362.439	362.98
362.821	332.7
363.203	344.91
363.584	334.28
363.966	324.12
364.348	345.58
364.729	322.99
365.111	308.3
365.493	323.44
365.874	325.25
366.256	338.58
366.637	321.4
367.019	340.61
367.4	345.36
367.781	331.8
368.163	351.91
368.544	335.19
368.925	331.12
369.306	338.13
369.688	312.14
370.069	340.61
370.45	342.42
370.831	330.44
371.212	352.36
371.593	345.81
371.974	328.18
372.355	352.82
372.736	324.12
373.117	332.48
373.498	315.75
373.879	321.18
374.26	326.15
374.641	315.75
375.021	345.36
375.402	322.08
375.783	336.54
376.163	353.27
376.544	361.85
376.925	367.5
377.305	345.36
377.686	345.36
378.066	367.73
378.447	358.24
378.827	346.26
379.208	353.49
379.588	375.87
379.968	357.11
380.349	364.11
380.729	382.65
381.109	360.5
381.489	376.09
381.87	375.87
382.25	366.15
382.63	392.59
383.01	382.19
383.39	395.07
383.77	389.88
384.15	390.33
384.53	378.8
384.91	404.34
385.29	389.2
385.67	401.85
386.049	386.49
386.429	396.88
386.809	399.59
387.189	411.57
387.568	406.37
387.948	431.01
388.328	418.8
388.707	398.69
389.087	410.67
389.466	427.62
389.846	405.92
390.225	405.24
390.605	426.71
390.984	410.89
391.363	423.77
391.743	423.32
392.122	432.81
392.501	447.28
392.881	473.94
393.26	454.06
393.639	444.79
394.018	445.47
394.397	452.02
394.776	454.51
395.155	448.63
395.534	441.63
395.913	464.9
396.292	484.11
396.671	481.17
397.05	487.05
397.429	489.76
397.808	482.3
398.186	487.5
398.565	469.87
398.944	481.63
399.323	505.58
399.701	529.99
400.08	521.17
400.458	509.42
400.837	513.72
401.215	503.77
401.594	522.3
401.972	520.27
402.351	505.58
402.729	535.64
403.107	536.54
403.486	531.34
403.864	528.18
404.242	548.52
404.62	522.53
404.999	549.19
405.377	576.09
405.755	573.6
406.133	559.59
406.511	583.77
406.889	597.33
407.267	585.35
407.645	596.88
408.023	589.19
408.401	606.14
408.779	581.28
409.156	606.82
409.534	640.94
409.912	628.29
410.29	622.86
410.667	626.71
411.045	649.08
411.422	658.8
411.8	639.81
412.178	657.67
412.555	667.16
412.933	668.51
413.31	671.68
413.687	700.83
414.065	692.69
414.442	700.83
414.819	680.49
415.197	717.78
415.574	727.49
415.951	722.52
416.328	705.8
416.705	710.77
417.082	724.11
417.46	742.86
417.837	753.26
418.214	732.01
418.591	755.29
418.967	765.69
419.344	755.97
419.721	776.99
420.098	771.79
420.475	763.2
420.852	765.69
421.228	805.46
421.605	793.03
421.982	827.61
422.358	799.13
422.735	827.61
423.111	802.52
423.488	836.64
423.864	839.58
424.241	854.5
424.617	881.39
424.994	841.84
425.37	860.6
425.746	884.33
426.123	882.97
426.499	873.71
426.875	887.26
427.251	892.69
427.627	906.02
428.003	950.77
428.379	927.04
428.756	945.79
429.132	941.73
429.507	960.94
429.883	966.13
430.259	989.18
430.635	994.61
431.011	986.7
431.387	1016.98
431.763	1014.49
432.138	1018.79
432.514	1020.82
432.89	1031.22
433.265	1071.89
433.641	1073.47
434.016	1088.39
434.392	1097.65
434.767	1103.08
435.143	1101.04
435.518	1136.3
435.894	1129.52
436.269	1157.09
436.644	1169.07
437.02	1198.44
437.395	1202.51
437.77	1204.32
438.145	1226.01
438.52	1226.92
438.895	1214.04
439.271	1220.82
439.646	1277.76
440.021	1270.76
440.395	1281.6
440.77	1268.27
441.145	1300.59
441.52	1314.37
441.895	1311.21
442.27	1295.84
442.645	1345.33
443.019	1341.04
443.394	1331.32
443.769	1345.11
444.143	1324.77
444.518	1377.87
444.892	1393.01
445.267	1358.21
445.641	1388.49
446.016	1381.04
446.39	1407.25
446.764	1433.92
447.139	1417.42
447.513	1414.26
447.887	1454.93
448.262	1451.32
448.636	1475.27
449.01	1469.17
449.384	1478.66
449.758	1508.72
450.132	1518.89
450.506	1531.77
450.88	1534.48
451.254	1546
451.628	1525.44
452.002	1548.49
452.376	1557.3
452.75	1598.43
453.123	1600.69
453.497	1638.21
453.871	1639.34
454.244	1651.09
454.618	1664.65
454.992	1674.59
455.365	1684.98
455.739	1762.27
456.112	1733.8
456.486	1748.94
456.859	1794.59
457.232	1800.69
457.606	1816.51
457.979	1819.44
458.352	1888.59
458.725	1868.03
459.099	1895.83
459.472	1963.62
459.845	1936.05
460.218	1982.6
460.591	1971.3
460.964	2017.18
461.337	2051.53
461.71	2074.35
462.083	2094.46
462.456	2080.45
462.829	2093.11
463.201	2145.31
463.574	2147.12
463.947	2200
464.32	2243.39
464.692	2279.77
465.065	2282.03
465.438	2299.43
465.81	2349.37
466.183	2376.72
466.555	2387.34
466.928	2428.24
467.3	2464.4
467.672	2505.53
468.045	2580.78
468.417	2566.54
468.789	2595.02
469.161	2606.99
469.534	2685.18
469.906	2716.6
470.278	2728.8
470.65	2764.05
471.022	2858.74
471.394	2907.1
471.766	2937.38
472.138	2992.52
472.51	3022.12
472.882	3105.51
473.253	3123.59
473.625	3187.09
473.997	3258.5
474.369	3275.45
474.74	3312.51
475.112	3387.99
475.484	3469.12
475.855	3536.23
476.227	3553.86
476.598	3673.41
476.97	3723.12
477.341	3794.08
477.713	3890.58
478.084	3888.99
478.455	3986.84
478.827	4028.43
479.198	4220.06
479.569	4215.99
479.94	4376.44
480.311	4404.23
480.682	4516.1
481.053	4582.31
481.424	4630.67
481.795	4698.01
482.166	4861.85
482.537	4892.36
482.908	4982.98
483.279	5102.75
483.65	5133.03
484.021	5220.94
484.391	5329.41
484.762	5321.72
485.133	5461.61
485.503	5550.65
485.874	5656.86
486.244	5713.13
486.615	5834.93
486.985	5892.56
487.356	6006.68
487.726	6099.11
488.097	6209.84
488.467	6284.19
488.837	6356.73
489.207	6446.44
489.578	6543.39
489.948	6673.33
490.318	6732.53
490.688	6744.06
491.058	6831.06
491.428	6935.24
491.798	7090.94
492.168	7167.33
492.538	7197.16
492.908	7305.63
493.278	7416.81
493.648	7383.82
494.017	7542.01
494.387	7652.28
494.757	7639.86
495.126	7750.36
495.496	7727.76
495.866	7825.39
496.235	7980.19
496.605	7996
496.974	8054.76
497.344	8118.71
497.713	8186.96
498.082	8284.58
498.452	8375.66
498.821	8372.94
499.19	8415.43
499.559	8512.38
499.928	8623.56
500.298	8658.59
500.667	8737.45
501.036	8711.47
501.405	8855.19
501.774	8903.1
502.143	8949.65
502.512	9037.33
502.88	9123.88
503.249	9128.18
503.618	9152.13
503.987	9285.69
504.356	9355.29
504.724	9337.21
505.093	9512.57
505.462	9503.99
505.83	9643.64
506.199	9572.23
506.567	9733.59
506.936	9777.88
507.304	9880.47
507.672	9880.93
508.041	9928.38
508.409	10061.49
508.777	10220.13
509.145	10253.35
509.514	10309.16
509.882	10370.41
510.25	10429.39
510.618	10522.49
510.986	10581.02
511.354	10581.25
511.722	10804.07
512.09	10787.8
512.458	10937.17
512.826	11082.25
513.193	11096.94
513.561	11164.28
513.929	11241.12
514.297	11366.76
514.664	11449.02
515.032	11557.04
515.4	11588.68
515.767	11632.52
516.135	11736.47
516.502	11725.4
516.869	11952.74
517.237	11970.14
517.604	12009.01
517.972	12124.48
518.339	12281.77
518.706	12273.86
519.073	12427.07
519.44	12499.84
519.808	12669.33
520.175	12691.25
520.542	12909.1
520.909	12910
521.276	12972.14
521.643	13019.38
522.009	13167.62
522.376	13331.46
522.743	13439.48
523.11	13536.2
523.477	13658.68
523.843	13854.38
524.21	13930.76
524.577	14029.52
524.943	14109.06
525.31	14220.02
525.676	14439.45
526.043	14419.79
526.409	14536.62
526.776	14723.06
527.142	14715.15
527.508	14835.37
527.874	14984.75
528.241	14979.55
528.607	15186.1
528.973	15309.03
529.339	15312.65
529.705	15427.22
530.071	15505.86
530.437	15672.64
530.803	15744.73
531.169	15850.04
531.535	15918.06
531.901	15965.51
532.267	16023.36
532.632	16188.11
532.998	16147.43
533.364	16365.5
533.73	16411.6
534.095	16484.14
534.461	16551.94
534.826	16659.05
535.192	16757.13
535.557	16877.58
535.923	16863.57
536.288	16955.32
536.653	17025.37
537.019	17099.72
537.384	17193.05
537.749	17237.57
538.114	17323.44
538.479	17331.13
538.845	17460.39
539.21	17379.94
539.575	17550.1
539.94	17548.52
540.305	17673.72
540.67	17735.18
541.034	17747.39
541.399	17942.86
541.764	17882.52
542.129	18084.33
542.494	18014.5
542.858	18057.43
543.223	18121.84
543.587	18211.1
543.952	18226.47
544.316	18346.69
544.681	18294.04
545.045	18400.48
545.41	18600.92
545.774	18657.65
546.138	18693.58
546.503	18694.71
546.867	18755.5
547.231	19009.5
547.595	19059.44
547.959	19080.91
548.324	19071.87
548.688	19092.89
549.052	19202.49
549.416	19249.27
549.779	19296.05
550.143	19426.44
550.507	19608.13
550.871	19705.98
551.235	19690.16
551.599	19830.27
551.962	19883.15
552.326	20007.21
552.689	20171.73
553.053	20103.71
553.417	20231.84
553.78	20524.71
554.143	20414.43
554.507	20630.47
554.87	20738.49
555.234	20980.52
555.597	20969.22
555.96	21015.32
556.323	21140.07
556.686	21190.69
557.05	21446.95
557.413	21498.7
557.776	21607.17
558.139	21923.1
558.502	21994.28
558.865	22015.07
559.228	22287.38
559.59	22341.16
559.953	22404.67
560.316	22717.2
560.679	22767.37
561.041	22920.36
561.404	23162.16
561.767	23233.57
562.129	23371.19
562.492	23471.3
562.854	23642.15
563.217	23692.99
563.579	23870.62
563.941	24098.41
564.304	24275.8
564.666	24516.25
565.028	24585.85
565.39	24727.99
565.753	24990.13
566.115	25023.58
566.477	25226.96
566.839	25441.65
567.201	25609.1
567.563	25750.79
567.925	25958.47
568.287	26001.86
568.648	26143.78
569.01	26428.06
569.372	26639.36
569.734	26610.43
570.095	26945.34
570.457	27022.4
570.819	27259.23
571.18	27318.43
571.542	27523.4
571.903	27593.91
572.265	27934.24
572.626	27978.53
572.987	28209.48
573.349	28384.39
573.71	28511.4
574.071	28776.25
574.432	28984.83
574.794	29110.48
575.155	29244.49
575.516	29211.27
575.877	29324.03
576.238	29506.85
576.599	29751.59
576.96	29964.69
577.32	29960.4
577.681	30247.85
578.042	30308.41
578.403	30565.13
578.763	30482.42
579.124	30665.01
579.485	30771.68
579.845	31093.48
580.206	30971.45
580.566	31077.88
580.927	31157.88
581.287	31481.94
581.648	31374.82
582.008	31547.48
582.368	31495.73
582.728	31747.92
583.089	31763.06
583.449	31771.2
583.809	31775.49
584.169	31858.2
584.529	31967.58
584.889	32156.5
585.249	32142.94
585.609	32072.66
585.969	32302.94
586.329	32130.96
586.688	32362.37
587.048	32384.52
587.408	32271.07
587.768	32321.24
588.127	32491.18
588.487	32451.63
588.846	32699.31
589.206	32479.2
589.565	32622.25
589.925	32876.25
590.284	32650.5
590.643	32867.44
591.003	32846.42
591.362	32952.41
591.721	32934.56
592.08	33055.46
592.44	33035.57
592.799	33084.16
593.158	32974.78
593.517	33063.59
593.876	33172.29
594.235	33071.28
594.593	33072.41
594.952	33219.97
595.311	33085.06
595.67	33207.54
596.029	33432.62
596.387	33382.23
596.746	33531.83
597.104	33214.55
597.463	33415.22
597.822	33524.15
598.18	33285.28
598.538	33436.47
598.897	33704.71
599.255	33280.76
599.613	33879.84
599.972	33533.64
600.33	33674.43
600.688	33515.79
601.046	33695.44
601.404	33808.21
601.762	33756.68
602.12	33947.64
602.478	34015.43
602.836	33939.5
603.194	33808.89
603.552	33801.43
603.91	33727.53
604.268	34013.17
604.625	33934.53
604.983	34056.56
605.341	33860.18
605.698	34049.56
606.056	34231.47
606.413	34071.7
606.771	34264.47
607.128	34186.5
607.485	34088.43
607.843	34137.01
608.2	34259.72
608.557	34471.92
608.914	34231.7
609.272	34419.72
609.629	34415.65
609.986	34477.57
610.343	34277.57
610.7	34680.73
611.057	34605.93
611.414	34525.25
611.771	34687.28
612.127	34746.94
612.484	34777.9
612.841	34873.94
613.198	34776.09
613.554	34878.69
613.911	35017.67
614.267	34872.59
614.624	34942.41
614.98	35087.04
615.337	35144.67
615.693	35030.77
616.05	35103.99
616.406	35346.92
616.762	35164.33
617.118	35234.16
617.475	35057.67
617.831	35242.75
618.187	35234.84
618.543	35335.62
618.899	35472.8
619.255	35423.98
619.611	35401.16
619.967	35505.34
620.323	35597.99
620.678	35425.79
621.034	35402.06
621.39	35395.06
621.746	35288.85
622.101	35761.38
622.457	35379.24
622.812	35573.81
623.168	35626.92
623.523	35619.91
623.879	35670.08
624.234	35504.66
624.589	35626.69
624.945	35652.68
625.3	35726.8
625.655	35816.06
626.01	35685.45
626.365	35730.42
626.72	35571.78
627.075	35656.07
627.43	35565.45
627.785	35616.52
628.14	35738.1
628.495	35565.68
628.85	35635.28
629.205	35413.14
629.559	35710.98
629.914	35461.5
630.269	35400.03
630.623	35440.93
630.978	35376.3
631.332	35511.44
631.687	35553.7
632.041	35442.29
632.396	35460.59
632.75	35279.58
633.104	35383.53
633.459	35231.9
633.813	35212.24
634.167	35169.08
634.521	35278.68
634.875	35224.22
635.229	35223.76
635.583	34880.27
635.937	34873.26
636.291	35010.21
636.645	34883.66
636.999	34682.31
637.352	34868.29
637.706	34691.12
638.06	34878.01
638.413	34829.88
638.767	34608.86
639.121	34731.35
639.474	34529.77
639.828	34577.9
640.181	34634.17
640.534	34705.58
640.888	34628.52
641.241	34271.47
641.594	34374.97
641.947	34548.3
642.301	34301.53
642.654	34346.27
643.007	34367.74
643.36	34353.05
643.713	34262.21
644.066	34363.9
644.419	34080.52
644.771	33968.43
645.124	33850.24
645.477	33631.04
645.83	33428.56
646.182	33386.07
646.535	33275.34
646.888	33340.65
647.24	33137.04
647.593	33440.08
647.945	33273.08
648.298	33155.57
648.65	33022.69
649.002	33042.35
649.355	33114.21
649.707	32969.13
650.059	33060.88
650.411	33510.14
650.763	33591.94
651.115	33992.16
651.467	33654.54
651.819	33874.87
652.171	33725.05
652.523	33711.49
652.875	33685.5
653.227	33561.21
653.578	33844.59
653.93	33612.05
654.282	33560.08
654.633	33491.15
654.985	33664.93
655.337	33545.39
655.688	33637.14
656.039	33731.82
656.391	33365.96
656.742	33554.43
657.094	33519.63
657.445	33550.81
657.796	33502.68
658.147	33540.64
658.498	33518.95
658.849	33569.34
659.2	33591.04
659.551	33466.97
659.902	33695.67
660.253	33645.5
660.604	33523.47
660.955	33377.71
661.306	33551.26
661.656	33447.76
662.007	33454.54
662.358	33365.28
662.708	33492.28
663.059	33399.86
663.409	33136.13
663.76	33385.17
664.11	33402.79
664.461	33452.51
664.811	33425.17
665.161	33347.2
665.511	33398.95
665.862	33359.63
666.212	33616.35
666.562	33468.1
666.912	33241.22
667.262	33347.2
667.612	33214.1
667.962	33309.46
668.312	33286.64
668.662	33484.37
669.011	33394.88
669.361	33259.75
669.711	33388.78
670.06	33313.08
670.41	33213.19
670.76	33199.86
671.109	33160.09
671.459	33158.28
671.808	33017.95
672.157	33172.74
672.507	33011.62
672.856	33071.05
673.205	32936.59
673.554	33008.68
673.904	32876.48
674.253	33151.95
674.602	32912.41
674.951	32510.39
675.3	32403.95
675.649	32907.44
675.998	32765.97
676.346	32762.36
676.695	32927.78
677.044	32638.29
677.393	32774.79
677.741	32821.57
678.09	32733.43
678.438	32590.61
678.787	32593.1
679.135	32599.43
679.484	32382.03
679.832	32584.74
680.181	32352.65
680.529	32445.76
680.877	32311.07
681.225	32285.76
681.573	32405.08
681.922	32368.47
682.27	32307.68
682.618	32083.96
682.966	32259.77
683.314	32122.38
683.661	32066.56
684.009	31813.23
684.357	31769.39
684.705	31799.9
685.053	31858.65
685.4	31751.76
685.748	31549.06
686.095	31595.16
686.443	31483.97
686.79	31374.15
687.138	31318.56
687.485	31342.96
687.832	31218.44
688.18	31338.67
688.527	31114.27
688.874	31133.48
689.221	31057.09
689.568	30825.23
689.915	30749.08
690.262	30982.29
690.609	30767.16
690.956	30752.47
691.303	30497.33
691.65	30399.94
691.997	30445.58
692.344	30162.2
692.69	30100.06
693.037	30125.14
693.383	29757.24
693.73	29982.77
694.077	29725.38
694.423	29838.14
694.769	29736
695.116	29618.49
695.462	29486.74
695.808	29412.16
696.155	29355.44
696.501	29263.24
696.847	29214.43
697.193	28972.4
697.539	29117.93
697.885	28801.56
698.231	28774.44
698.577	28696.7
698.923	28719.98
699.269	28562.92
699.614	28417.61
699.96	28319.76
700.306	28247.9
700.651	28121.12
700.997	28118.41
701.342	28011.52
701.688	28024.18
702.033	27976.95
702.379	27823.73
702.724	27754.81
703.069	27712.32
703.415	27414.48
703.76	27452.67
704.105	27485.89
704.45	27358.89
704.795	27159.57
705.14	27080.93
705.485	27144.65
705.83	27058.55
706.175	27055.84
706.52	27019.46
706.865	26806.36
707.209	26807.49
707.554	26745.12
707.899	26791.44
708.243	26528.4
708.588	26422.41
708.932	26235.98
709.277	26352.81
709.621	26366.59
709.966	26130.89
710.31	26207.95
710.654	26074.85
710.998	25922.54
711.342	25838.47
711.687	25883.44
712.031	25755.09
712.375	25673.05
712.719	25821.07
713.063	25707.63
713.407	25731.36
713.75	25658.14
714.094	25571.59
714.438	25405.72
714.782	25487.3
715.125	25360.97
715.469	25431.03
715.812	25341.76
716.156	25261.54
716.499	25162.56
716.843	25306.51
717.186	24991.04
717.53	25146.51
717.873	24991.04
718.216	25091.37
718.559	24934.77
718.902	24850.02
719.246	24952.17
719.589	24895.22
719.932	24817.26
720.275	24936.58
720.617	24815.9
720.96	24769.8
721.303	24682.35
721.646	24696.58
721.989	24623.59
722.331	24744.94
722.674	24467.89
723.016	24621.1
723.359	24483.71
723.701	24566.87
724.044	24365.29
724.386	24280.32
724.729	24396.25
725.071	24367.33
725.413	24348.12
725.755	24361.22
726.097	24219.08
726.439	24251.85
726.782	24205.3
727.124	24302.69
727.465	24238.52
727.807	24173.88
728.149	24104.73
728.491	24121.68
728.833	24148.12
729.175	24181.34
729.516	24148.57
729.858	24065.86
730.199	24055.24
730.541	23998.97
730.882	23992.42
731.224	24064.73
731.565	23850.95
731.906	23902.03
732.248	23912.65
732.589	23794.23
732.93	23715.37
733.271	23884.17
733.612	23921.46
733.953	23825.19
734.294	23827.9
734.635	23767.79
734.976	23827.68
735.317	23822.71
735.658	23695.93
735.999	23732.77
736.339	23740.68
736.68	23838.07
737.021	23723.27
737.361	23683.28
737.702	23769.6
738.042	23848.24
738.383	23718.3
738.723	23725.31
739.063	23744.97
739.404	23729.83
739.744	23713.33
740.084	23533
740.424	23626.33
740.764	23593.33
741.104	23744.06
741.444	23687.34
741.784	23509.95
742.124	23756.04
742.464	23577.29
742.804	23473.79
743.143	23554.47
743.483	23565.31
743.823	23474.69
744.162	23565.54
744.502	23601.02
744.841	23587.46
745.181	23541.13
745.52	23427.69
745.86	23488.7
746.199	23521.02
746.538	23481.92
746.877	23555.6
747.216	23584.07
747.556	23540.45
747.895	23466.33
748.234	23416.84
748.573	23431.53
748.911	23379.1
749.25	23301.59
749.589	23292.55
749.928	23389.27
750.267	23339.78
750.605	23431.53
750.944	23386.11
751.283	23154.93
751.621	23302.95
751.96	23114.7
752.298	23196.73
752.636	23204.19
752.975	23098.66
753.313	22990.64
753.651	23118.54
753.989	22978.66
754.327	22943.86
754.666	22834.26
755.004	22826.12
755.342	23024.08
