Data from tablewood_dark_bookshelf_FLMS001491_00099.txt Node
Date: Wed Feb 08 14:16:02 GMT 2017
User: dcchb
Spectrometer: FLMS00149
Trigger mode: 0
Integration Time (sec): 2.000000E-2
Scans to average: 10
Electric dark correction enabled: true
Nonlinearity correction enabled: false
Boxcar width: 0
XAxis mode: Wavelengths
Number of Pixels in Spectrum: 2048
>>>>>Begin Spectral Data<<<<<
341.393	-3.47
341.776	-3.47
342.16	-3.47
342.543	-54.32
342.927	-62
343.31	-80.99
343.693	-82.12
344.077	-62.91
344.46	-69.69
344.843	-44.83
345.226	-31.72
345.61	-28.56
345.993	3.08
346.376	-3.25
346.759	-1.89
347.142	27.94
347.525	48.28
347.908	57.31
348.291	57.54
348.674	108.16
349.057	103.64
349.44	140.48
349.823	134.83
350.206	162.17
350.588	194.71
350.971	194.49
351.354	189.97
351.737	228.84
352.119	222.96
352.502	237.2
352.884	249.4
353.267	276.29
353.65	282.39
354.032	275.16
354.414	301.38
354.797	295.95
355.179	305.9
355.562	309.96
355.944	312.68
356.326	324.43
356.709	341.38
357.091	325.1
357.473	334.14
357.855	338.66
358.238	320.36
358.62	319.68
359.002	314.03
359.384	350.64
359.766	328.27
360.148	320.13
360.53	328.49
360.912	332.34
361.294	325.1
361.676	310.87
362.057	312.68
362.439	331.21
362.821	321.04
363.203	305.44
363.584	325.78
363.966	295.95
364.348	327.59
364.729	297.76
365.111	315.16
365.493	303.86
365.874	315.16
366.256	312.68
366.637	318.78
367.019	305.44
367.4	306.12
367.781	318.1
368.163	315.39
368.544	312
368.925	312.68
369.306	308.16
369.688	319.91
370.069	322.62
370.45	314.71
370.831	311.55
371.212	287.59
371.593	312.22
371.974	293.69
372.355	333.24
372.736	319.45
373.117	325.78
373.498	322.39
373.879	312
374.26	303.41
374.641	316.52
375.021	304.54
375.402	326.91
375.783	304.31
376.163	334.6
376.544	332.11
376.925	313.58
377.305	336.18
377.686	324.43
378.066	329.62
378.447	365.1
378.827	336.86
379.208	363.52
379.588	349.51
379.968	347.7
380.349	338.66
380.729	344.31
381.109	339.34
381.489	347.93
381.87	340.25
382.25	348.15
382.63	339.12
383.01	353.8
383.39	352.22
383.77	342.96
384.15	371.43
384.53	373.92
384.91	345.89
385.29	369.4
385.67	355.39
386.049	378.21
386.429	371.2
386.809	354.71
387.189	349.06
387.568	368.72
387.948	372.11
388.328	394.93
388.707	397.19
389.087	381.15
389.466	368.04
389.846	381.6
390.225	389.06
390.605	370.3
390.984	384.31
391.363	394.93
391.743	391.77
392.122	400.58
392.501	395.84
392.881	399
393.26	394.71
393.639	414.14
394.018	395.84
394.397	420.02
394.776	390.87
395.155	396.06
395.534	402.39
395.913	412.33
396.292	413.24
396.671	415.5
397.05	424.76
397.429	430.19
397.808	431.32
398.186	420.47
398.565	434.03
398.944	437.42
399.323	435.61
399.701	443.75
400.08	447.14
400.458	440.58
400.837	445.55
401.215	454.59
401.594	447.81
401.972	440.36
402.351	445.1
402.729	466.8
403.107	446.23
403.486	468.83
403.864	481.26
404.242	458.89
404.62	477.64
404.999	443.75
405.377	470.64
405.755	480.58
406.133	479.9
406.511	496.4
406.889	492.78
407.267	485.1
407.645	508.6
408.023	516.74
408.401	481.94
408.779	525.55
409.156	516.96
409.534	522.16
409.912	544.08
410.29	539.79
410.667	530.07
411.045	538.66
411.422	548.15
411.8	565.1
412.178	555.83
412.555	554.02
412.933	554.25
413.31	571.2
413.687	581.14
414.065	592.67
414.442	549.51
414.819	576.62
415.197	563.06
415.574	583.63
415.951	591.99
416.328	601.48
416.705	579.79
417.082	589.96
417.46	599.45
417.837	599.67
418.214	622.27
418.591	599
418.967	626.11
419.344	643.51
419.721	642.38
420.098	646
420.475	618.2
420.852	660.69
421.228	653.01
421.605	643.97
421.982	620.46
422.358	674.25
422.735	664.76
423.111	662.04
423.488	685.77
423.864	672.67
424.241	693.23
424.617	708.6
424.994	707.47
425.37	699.33
425.746	725.09
426.123	721.25
426.499	704.3
426.875	734.36
427.251	751.31
427.627	731.65
428.003	748.82
428.379	744.75
428.756	766
429.132	773.45
429.507	781.59
429.883	794.02
430.259	799.44
430.635	803.06
431.011	789.5
431.387	809.39
431.763	855.26
432.138	820.46
432.514	814.81
432.89	840.35
433.265	844.19
433.641	863.4
434.016	848.03
434.392	872.43
434.767	921.47
435.143	889.16
435.518	881.47
435.894	910.85
436.269	901.59
436.644	913.11
437.02	948.59
437.395	927.57
437.77	941.13
438.145	958.53
438.52	971.42
438.895	981.36
439.271	966.67
439.646	991.08
440.021	989.04
440.395	982.26
440.77	1002.83
441.145	1002.37
441.52	1028.81
441.895	1017.97
442.27	1038.53
442.645	1044.18
443.019	1055.93
443.394	1029.04
443.769	1063.84
444.143	1057.74
444.518	1065.42
444.892	1076.95
445.267	1075.82
445.641	1086.67
446.016	1089.15
446.39	1100.9
446.764	1118.08
447.139	1119.89
447.513	1113.11
447.887	1125.08
448.262	1120.34
448.636	1164.4
449.01	1150.17
449.384	1143.16
449.758	1150.62
450.132	1195.59
450.506	1179.09
450.88	1191.3
451.254	1187.68
451.628	1211.63
452.002	1215.48
452.376	1247.34
452.75	1255.7
453.123	1261.35
453.497	1278.98
453.871	1256.83
454.244	1294.34
454.618	1291.41
454.992	1309.94
455.365	1290.73
455.739	1338.19
456.112	1351.52
456.486	1342.25
456.859	1372.31
457.232	1405.3
457.606	1398.07
457.979	1399.43
458.352	1445.98
458.725	1459.54
459.099	1457.96
459.472	1475.81
459.845	1485.98
460.218	1515.13
460.591	1532.98
460.964	1509.25
461.337	1558.97
461.71	1608.91
462.083	1599.65
462.456	1613.88
462.829	1588.35
463.201	1631.28
463.574	1672.64
463.947	1671.06
464.32	1703.37
464.692	1711.06
465.065	1695.92
465.438	1729.14
465.81	1779.08
466.183	1813.2
466.555	1812.75
466.928	1806.87
467.3	1845.97
467.672	1852.52
468.045	1919.64
468.417	1913.76
468.789	1902.92
469.161	1945.85
469.534	1938.85
469.906	2011.16
470.278	1997.6
470.65	2051.61
471.022	2067.88
471.394	2115.11
471.766	2134.55
472.138	2148.56
472.51	2158.28
472.882	2213.64
473.253	2212.29
473.625	2243.92
473.997	2271.27
474.369	2330.93
474.74	2381.77
475.112	2389.68
475.484	2419.96
475.855	2494.76
476.227	2475.1
476.598	2579.28
476.97	2556.91
477.341	2586.51
477.713	2637.81
478.084	2663.12
478.455	2746.28
478.827	2764.81
479.198	2843.46
479.569	2839.16
479.94	2920.29
480.311	2972.27
480.682	2977.24
481.053	3049.33
481.424	3134.75
481.795	3124.13
482.166	3195.54
482.537	3220.85
482.908	3288.87
483.279	3319.15
483.65	3356.21
484.021	3437.56
484.391	3475.98
484.762	3482.99
485.133	3536.32
485.503	3567.51
485.874	3652.47
486.244	3680.72
486.615	3750.55
486.985	3772.02
487.356	3870.1
487.726	3896.99
488.097	3976.76
488.467	3963.65
488.837	4051.11
489.207	4042.07
489.578	4121.16
489.948	4203.65
490.318	4233.25
490.688	4307.82
491.058	4324.1
491.428	4357.99
491.798	4406.35
492.168	4531.77
492.538	4543.98
492.908	4584.88
493.278	4664.43
493.648	4601.6
494.017	4698.1
494.387	4763.41
494.757	4835.04
495.126	4802.73
495.496	4843.18
495.866	4858.54
496.235	4939.9
496.605	4949.39
496.974	4984.19
497.344	5018.77
497.713	5026
498.082	5124.07
498.452	5181.25
498.821	5211.53
499.19	5201.81
499.559	5280.23
499.928	5298.76
500.298	5345.99
500.667	5367.68
501.036	5362.49
501.405	5481.58
501.774	5478.87
502.143	5465.76
502.512	5476.38
502.88	5560.22
503.249	5608.58
503.618	5640.67
503.987	5664.85
504.356	5700.33
504.724	5704.17
505.093	5732.19
505.462	5744.62
505.83	5847.22
506.199	5937.61
506.567	5956.14
506.936	5947.56
507.304	6058.51
507.672	6013.32
508.041	6145.74
508.409	6158.85
508.777	6193.88
509.145	6225.74
509.514	6256.47
509.882	6317.94
510.25	6351.61
510.618	6396.36
510.986	6397.94
511.354	6447.66
511.722	6539.63
512.09	6589.35
512.458	6534.88
512.826	6671.6
513.193	6688.55
513.561	6749.57
513.929	6798.61
514.297	6823.01
514.664	6887.87
515.032	6941.65
515.4	6974.87
515.767	7040.41
516.135	7067.53
516.502	7043.8
516.869	7135.32
517.237	7222.32
517.604	7196.11
517.972	7270.01
518.339	7333.28
518.706	7334.19
519.073	7362.89
519.44	7468.87
519.808	7536.89
520.175	7528.08
520.542	7563.11
520.909	7703.67
521.276	7702.99
521.643	7815.75
522.009	7837.9
522.376	7859.82
522.743	7953.15
523.11	8043.32
523.477	8137.1
523.843	8158.57
524.21	8211.9
524.577	8225.46
524.943	8361.28
525.31	8426.59
525.676	8478.79
526.043	8590.42
526.409	8578.45
526.776	8691.44
527.142	8715.39
527.508	8747.26
527.874	8824.32
528.241	8886.69
528.607	8840.59
528.973	9060.02
529.339	8988.61
529.705	9110.18
530.071	9175.27
530.437	9219.56
530.803	9268.37
531.169	9278.54
531.535	9263.63
531.901	9363.06
532.267	9426.56
532.632	9584.97
532.998	9585.88
533.364	9557.63
533.73	9594.92
534.095	9685.99
534.461	9718.53
534.826	9824.97
535.192	9766.66
535.557	9885.53
535.923	9937.28
536.288	9886.66
536.653	9981.35
537.019	9956.04
537.384	10081.68
537.749	10138.63
538.114	10112.19
538.479	10090.05
538.845	10167.33
539.21	10171.17
539.575	10206.43
539.94	10289.14
540.305	10328.91
540.67	10366.65
541.034	10373.43
541.399	10408.68
541.764	10506.31
542.129	10538.17
542.494	10584.04
542.858	10570.03
543.223	10653.87
543.587	10746.53
543.952	10718.96
544.316	10712.18
544.681	10737.26
545.045	10794.43
545.41	10874.88
545.774	10898.16
546.138	10916.46
546.503	10951.27
546.867	10958.05
547.231	11028.1
547.595	11142.45
547.959	11122.11
548.324	11072.17
548.688	11173.18
549.052	11181.77
549.416	11257.25
549.779	11285.04
550.143	11357.58
550.507	11405.72
550.871	11435.55
551.235	11464.92
551.599	11528.88
551.962	11631.93
552.326	11638.93
552.689	11551.93
553.053	11681.42
553.417	11757.35
553.78	11912.82
554.143	11914.63
554.507	11873.05
554.87	11906.27
555.234	12055.19
555.597	12022.65
555.96	12059.71
556.323	12152.59
556.686	12195.3
557.05	12239.59
557.413	12280.95
557.776	12378.57
558.139	12413.6
558.502	12340.16
558.865	12534.73
559.228	12570.21
559.59	12548.96
559.953	12644.33
560.316	12828.05
560.679	12814.04
561.041	12902.85
561.404	13015.62
561.767	13086.35
562.129	13022.4
562.492	13145.33
562.854	13117.99
563.217	13174.26
563.579	13191.88
563.941	13375.16
564.304	13440.69
564.666	13532.21
565.028	13505.55
565.39	13529.5
565.753	13673.91
566.115	13726.11
566.477	13823.73
566.839	13906.22
567.201	13998.87
567.563	14024.86
567.925	14057.62
568.287	14103.73
568.648	14187.34
569.01	14235.93
569.372	14359.76
569.734	14375.81
570.095	14426.43
570.457	14512.53
570.819	14571.74
571.18	14630.49
571.542	14692.86
571.903	14755.23
572.265	14754.56
572.626	14848.34
572.987	14901.9
573.349	15013.53
573.71	15183.47
574.071	15121.33
574.432	15212.17
574.794	15350.02
575.155	15347.53
575.516	15411.94
575.877	15461.2
576.238	15490.13
576.599	15529.22
576.96	15688.32
577.32	15604.25
577.681	15682.21
578.042	15754.3
578.403	15823.23
578.763	15804.92
579.124	15832.95
579.485	15981.42
579.845	16045.14
580.206	16060.74
580.566	16097.57
580.927	16172.82
581.287	16173.95
581.648	16144.8
582.008	16282.2
582.368	16261.86
582.728	16423.21
583.089	16317.45
583.449	16459.14
583.809	16389.54
584.169	16532.59
584.529	16548.86
584.889	16732.81
585.249	16591.8
585.609	16571.91
585.969	16698.23
586.329	16718.35
586.688	16812.35
587.048	16779.59
587.408	16575.75
587.768	16797.89
588.127	16733.03
588.487	16890.77
588.846	17008.51
589.206	16782.52
589.565	16954.27
589.925	16989.75
590.284	16999.92
590.643	17067.49
591.003	17074.27
591.362	17165.34
591.721	17133.7
592.08	17239.69
592.44	17345.67
592.799	17331.21
593.158	17317.43
593.517	17313.81
593.876	17431.1
594.235	17349.97
594.593	17467.93
594.952	17490.98
595.311	17432.9
595.67	17485.56
596.029	17561.04
596.387	17712.9
596.746	17679
597.104	17582.5
597.463	17615.05
597.822	17672.44
598.18	17784.31
598.538	17611.88
598.897	17744.08
599.255	17639.68
599.613	17894.81
599.972	17782.95
600.33	17957.86
600.688	17857.98
601.046	17942.49
601.404	18143.39
601.762	18087.58
602.12	18144.97
602.478	18127.8
602.836	18059.33
603.194	18034.47
603.552	18150.4
603.91	18097.52
604.268	18217.52
604.625	18189.27
604.983	18227.91
605.341	18130.29
605.698	18271.75
606.056	18349.04
606.413	18350.17
606.771	18408.24
607.128	18496.15
607.485	18398.53
607.843	18475.81
608.2	18587.45
608.557	18591.29
608.914	18527.79
609.272	18729.14
609.629	18647.11
609.986	18686.43
610.343	18641.01
610.7	18837.16
611.057	18875.58
611.414	18728.01
611.771	18853.43
612.127	18809.36
612.484	18825.18
612.841	18989.92
613.198	18892.98
613.554	18992.64
613.911	19035.35
614.267	19005.74
614.624	18928.23
614.98	19100.66
615.337	19180.88
615.693	19110.15
616.05	19099.53
616.406	19231.73
616.762	19121.22
617.118	19077.61
617.475	19177.49
617.831	19229.69
618.187	19315.11
618.543	19237.6
618.899	19332.97
619.255	19346.98
619.611	19363.93
619.967	19448.67
620.323	19477.37
620.678	19379.29
621.034	19360.31
621.39	19377.71
621.746	19405.73
622.101	19496.58
622.457	19419.74
622.812	19490.7
623.168	19556.69
623.523	19458.61
623.879	19681.43
624.234	19496.13
624.589	19500.65
624.945	19523.7
625.3	19602.11
625.655	19555.11
626.01	19576.58
626.365	19586.29
626.72	19541.77
627.075	19553.98
627.43	19595.56
627.785	19562.79
628.14	19539.51
628.495	19560.08
628.85	19545.39
629.205	19452.74
629.559	19600.08
629.914	19469.46
630.269	19576.35
630.623	19461.1
630.978	19416.81
631.332	19594.43
631.687	19478.27
632.041	19404.6
632.396	19512.62
632.75	19449.35
633.104	19486.63
633.459	19322.57
633.813	19423.13
634.167	19421.33
634.521	19438.73
634.875	19414.09
635.229	19383.13
635.583	19288.22
635.937	19334.1
636.291	19323.93
636.645	19213.2
636.999	19309.69
637.352	19282.8
637.706	19173.65
638.06	19317.15
638.413	19140.88
638.767	19090.26
639.121	19198.96
639.474	19147.89
639.828	19108.11
640.181	19098.17
640.534	19047.1
640.888	19103.37
641.241	18954.67
641.594	18950.83
641.947	19036.93
642.301	18912.41
642.654	18982.47
643.007	19036.02
643.36	18909.7
643.713	19002.35
644.066	19051.62
644.419	18962.13
644.771	18712.19
645.124	18566.66
645.477	18647.79
645.83	18556.49
646.182	18480.33
646.535	18366.66
646.888	18359.43
647.24	18244.18
647.593	18445.76
647.945	18287.8
648.298	18165.77
648.65	18169.16
649.002	18190.4
649.355	18345.65
649.707	18250.73
650.059	18283.95
650.411	18528.24
650.763	18443.27
651.115	18786.77
651.467	18663.38
651.819	18716.03
652.171	18704.06
652.523	18679.2
652.875	18603.27
653.227	18545.64
653.578	18710.16
653.93	18603.27
654.282	18519.2
654.633	18403.5
654.985	18498.64
655.337	18540.9
655.688	18458.86
656.039	18584.51
656.391	18416.15
656.742	18573.21
657.094	18472.65
657.445	18576.38
657.796	18455.02
658.147	18505.64
658.498	18446.89
658.849	18518.07
659.2	18533.21
659.551	18430.84
659.902	18447.79
660.253	18416.61
660.604	18475.14
660.955	18287.57
661.306	18396.95
661.656	18534.57
662.007	18430.39
662.358	18423.61
662.708	18363.95
663.059	18408.92
663.409	18398.3
663.76	18375.93
664.11	18426.1
664.461	18473.55
664.811	18481.92
665.161	18503.61
665.511	18372.09
665.862	18478.98
666.212	18457.96
666.562	18498.19
666.912	18357.85
667.262	18504.51
667.612	18422.71
667.962	18348.36
668.312	18271.98
668.662	18548.35
669.011	18454.35
669.361	18430.39
669.711	18481.24
670.06	18365.99
670.41	18431.3
670.76	18292.54
671.109	18421.58
671.459	18346.78
671.808	18391.3
672.157	18395.14
672.507	18338.64
672.856	18347.68
673.205	18375.7
673.554	18407.34
673.904	18292.32
674.253	18475.81
674.602	18472.65
674.951	18030.18
675.3	18136.84
675.649	18362.37
675.998	18353.1
676.346	18223.16
676.695	18322.82
677.044	18187.23
677.393	18223.84
677.741	18363.95
678.09	18156.73
678.438	18162.83
678.787	18351.07
679.135	18314.01
679.484	18118.08
679.832	18159.21
680.181	18075.37
680.529	18213.9
680.877	18214.13
681.225	18059.1
681.573	18251.86
681.922	18107.24
682.27	18001.48
682.618	18005.77
682.966	18107.01
683.314	17970.06
683.661	18057.97
684.009	17842.61
684.357	17931.87
684.705	17790.63
685.053	17885.32
685.4	17787.02
685.748	17784.08
686.095	17762.61
686.443	17679.22
686.79	17688.04
687.138	17711.99
687.485	17733.01
687.832	17694.82
688.18	17660.47
688.527	17611.43
688.874	17587.7
689.221	17537.08
689.568	17532.79
689.915	17572.11
690.262	17470.87
690.609	17410.3
690.956	17325.79
691.303	17327.14
691.65	17273.13
691.997	17211.89
692.344	17170.31
692.69	17197.88
693.037	17140.48
693.383	17083.08
693.73	17013.03
694.077	16933.03
694.423	16911.79
694.769	17011.9
695.116	16914.27
695.462	16740.27
695.808	16819.36
696.155	16856.42
696.501	16669.31
696.847	16646.26
697.193	16593.83
697.539	16716.09
697.885	16541.18
698.231	16450.56
698.577	16455.53
698.923	16435.64
699.269	16394.74
699.614	16273.39
699.96	16324.46
700.306	16301.18
700.651	16219.15
700.997	16074.97
701.342	16084.46
701.688	16131.92
702.033	16114.29
702.379	16088.31
702.724	16065.71
703.069	16011.02
703.415	15841.76
703.76	15927.63
704.105	15794.3
704.45	15806.05
704.795	15670.01
705.14	15697.81
705.485	15650.35
705.83	15745.49
706.175	15715.89
706.52	15648.09
706.865	15570.35
707.209	15564.25
707.554	15447.19
707.899	15551.14
708.243	15448.1
708.588	15441.32
708.932	15298.27
709.277	15369
709.621	15333.75
709.966	15220.98
710.31	15246.29
710.654	15081.78
710.998	15122.46
711.342	15211.49
711.687	15150.93
712.031	15061.67
712.375	15063.47
712.719	15060.54
713.063	15075.9
713.407	15070.25
713.75	15028.67
714.094	15017.37
714.438	14867.55
714.782	14894.21
715.125	14861.22
715.469	14961.56
715.812	14862.35
716.156	14835.23
716.499	14715.69
716.843	14729.92
717.186	14678.4
717.53	14764.27
717.873	14745.97
718.216	14674.11
718.559	14559.98
718.902	14621.9
719.246	14596.14
719.589	14492.87
719.932	14498.74
720.275	14525.18
720.617	14463.49
720.96	14552.3
721.303	14448.57
721.646	14572.87
721.989	14410.16
722.331	14490.16
722.674	14428.69
723.016	14339.43
723.359	14419.2
723.701	14346.43
724.044	14332.65
724.386	14279.77
724.729	14383.27
725.071	14322.48
725.413	14281.8
725.755	14259.65
726.097	14261.24
726.439	14144.4
726.782	14209.94
727.124	14269.14
727.465	14226.66
727.807	14207
728.149	14279.77
728.491	14121.35
728.833	14204.51
729.175	14048.81
729.516	14063.05
729.858	14054.23
730.199	14201.12
730.541	14043.61
730.882	14039.32
731.224	14084.06
731.565	14059.66
731.906	14030.51
732.248	14082.03
732.589	13939.66
732.93	13838.42
733.271	13923.39
733.612	13991.19
733.953	13989.6
734.294	13997.74
734.635	13970.85
734.976	13986.89
735.317	13929.72
735.658	13877.74
735.999	13880.23
736.339	13932.43
736.68	13911.41
737.021	13844.97
737.361	13761.14
737.702	13864.86
738.042	13880.68
738.383	13850.4
738.723	13863.96
739.063	13757.07
739.404	13756.16
739.744	13751.19
740.084	13783.28
740.424	13813.34
740.764	13773.56
741.104	13813.34
741.444	13673.45
741.784	13708.26
742.124	13683.17
742.464	13743.28
742.804	13748.03
743.143	13710.74
743.483	13720.23
743.823	13639.33
744.162	13673.91
744.502	13724.3
744.841	13661.02
745.181	13736.5
745.52	13619.44
745.86	13609.27
746.199	13586.45
746.538	13607.92
746.877	13613.34
747.216	13564.08
747.556	13614.47
747.895	13535.15
748.234	13584.87
748.573	13496.28
748.911	13507.13
749.25	13390.07
749.589	13441.37
749.928	13412.67
750.267	13495.15
750.605	13431.88
750.944	13490.63
751.283	13384.2
751.621	13498.09
751.96	13344.2
752.298	13335.61
752.636	13361.15
752.975	13285.89
753.313	13316.85
753.651	13315.27
753.989	13211.55
754.327	13239.34
754.666	13213.35
755.004	13214.71
755.342	13272.79
755.679	13191.43
756.017	13135.62
756.355	13101.04
756.693	13132.68
757.031	13098.1
757.368	13014.71
