Data from tablewood_dark_bookshelf_FLMS001491_00046.txt Node
Date: Wed Feb 08 14:14:48 GMT 2017
User: dcchb
Spectrometer: FLMS00149
Trigger mode: 0
Integration Time (sec): 2.000000E-2
Scans to average: 10
Electric dark correction enabled: true
Nonlinearity correction enabled: false
Boxcar width: 0
XAxis mode: Wavelengths
Number of Pixels in Spectrum: 2048
>>>>>Begin Spectral Data<<<<<
341.393	-27.36
341.776	-27.36
342.16	-27.36
342.543	-46.11
342.927	-68.71
343.31	-56.51
343.693	-63.52
344.077	-80.46
344.46	-49.05
344.843	-45.89
345.226	-33.91
345.61	-41.37
345.993	-32.1
346.376	1.12
346.759	-5.44
347.142	18.74
347.525	43.37
347.908	55.13
348.291	64.39
348.674	103.71
349.057	121.79
349.44	120.43
349.823	126.08
350.206	144.84
350.588	176.03
350.971	199.98
351.354	192.3
351.737	219.19
352.119	226.65
352.502	237.27
352.884	265.97
353.267	261.22
353.65	270.26
354.032	272.52
354.414	293.54
354.797	321.56
355.179	300.77
355.562	303.03
355.944	315.68
356.326	318.62
356.709	310.94
357.091	315.68
357.473	358.62
357.855	340.32
358.238	323.37
358.62	319.07
359.002	338.06
359.384	320.2
359.766	322.69
360.148	325.63
360.53	347.55
360.912	318.85
361.294	311.62
361.676	325.63
362.057	324.05
362.439	323.37
362.821	311.62
363.203	312.07
363.584	303.93
363.966	325.4
364.348	316.36
364.729	317.49
365.111	300.77
365.493	302.8
365.874	299.86
366.256	304.16
366.637	304.16
367.019	313.88
367.4	309.58
367.781	304.61
368.163	291.05
368.544	300.32
368.925	306.64
369.306	319.3
369.688	303.71
370.069	284.95
370.45	307.1
370.831	305.51
371.212	312.29
371.593	321.56
371.974	294.67
372.355	319.3
372.736	324.27
373.117	308.23
373.498	313.88
373.879	316.36
374.26	320.88
374.641	303.03
375.021	290.6
375.402	320.43
375.783	308.68
376.163	309.13
376.544	326.08
376.925	327.89
377.305	289.92
377.686	330.15
378.066	328.79
378.447	322.24
378.827	326.3
379.208	328.11
379.588	335.57
379.968	339.41
380.349	309.58
380.729	318.85
381.109	333.99
381.489	326.76
381.87	332.63
382.25	338.28
382.63	327.66
383.01	334.89
383.39	343.93
383.77	337.6
384.15	342.35
384.53	351.16
384.91	343.25
385.29	360.43
385.67	338.73
386.049	339.86
386.429	340.32
386.809	337.83
387.189	348.23
387.568	362.24
387.948	372.63
388.328	359.75
388.707	376.02
389.087	368.34
389.466	372.86
389.846	365.63
390.225	345.97
390.605	354.55
390.984	355.68
391.363	344.38
391.743	376.25
392.122	378.28
392.501	374.44
392.881	393.65
393.26	383.03
393.639	378.73
394.018	394.33
394.397	376.7
394.776	396.13
395.155	373.31
395.534	370.82
395.913	379.41
396.292	394.1
396.671	400.2
397.05	392.07
397.429	402.91
397.808	397.72
398.186	382.8
398.565	416.02
398.944	424.16
399.323	406.3
399.701	420.09
400.08	428.9
400.458	411.73
400.837	402.46
401.215	439.97
401.594	416.92
401.972	426.42
402.351	425.51
402.729	425.74
403.107	421.9
403.486	463.48
403.864	459.18
404.242	430.71
404.62	421.67
404.999	446.98
405.377	432.06
405.755	434.55
406.133	449.92
406.511	463.93
406.889	454.21
407.267	454.44
407.645	485.4
408.023	470.03
408.401	455.79
408.779	465.96
409.156	477.26
409.534	472.06
409.912	491.05
410.29	491.27
410.667	511.61
411.045	496.02
411.422	494.89
411.8	502.12
412.178	505.28
412.555	498.28
412.933	505.51
413.31	503.93
413.687	507.09
414.065	540.76
414.442	536.69
414.819	526.75
415.197	528.11
415.574	537.37
415.951	566.07
416.328	534.21
416.705	554.55
417.082	548.67
417.46	573.53
417.837	566.75
418.214	562
418.591	571.72
418.967	561.55
419.344	579.41
419.721	591.16
420.098	602.91
420.475	607.2
420.852	590.03
421.228	585.06
421.605	599.29
421.982	608.56
422.358	614.21
422.735	604.04
423.111	595.9
423.488	607.88
423.864	624.83
424.241	616.01
424.617	625.28
424.994	653.98
425.37	639.29
425.746	658.5
426.123	650.36
426.499	628.9
426.875	642.23
427.251	665.05
427.627	678.16
428.003	678.39
428.379	693.07
428.756	665.05
429.132	676.35
429.507	721.55
429.883	695.79
430.259	717.26
430.635	725.16
431.011	699.85
431.387	748.44
431.763	726.29
432.138	757.03
432.514	787.08
432.89	761.32
433.265	782.56
433.641	798.83
434.016	804.26
434.392	790.02
434.767	828.89
435.143	800.42
435.518	825.5
435.894	813.07
436.269	813.52
436.644	833.41
437.02	842.9
437.395	843.13
437.77	864.14
438.145	870.47
438.52	878.83
438.895	874.99
439.271	895.33
439.646	898.49
440.021	907.76
440.395	907.31
440.77	905.95
441.145	914.09
441.52	934.42
441.895	915.22
442.27	900.75
442.645	910.02
443.019	938.94
443.394	944.82
443.769	952.96
444.143	953.18
444.518	964.48
444.892	956.57
445.267	974.42
445.641	972.39
446.016	1004.25
446.39	975.33
446.764	985.72
447.139	979.4
447.513	1030.47
447.887	1047.42
448.262	1015.78
448.636	1024.37
449.01	1021.65
449.384	1048.55
449.758	1050.81
450.132	1065.49
450.506	1056
450.88	1061.2
451.254	1060.97
451.628	1078.15
452.002	1088.77
452.376	1116.57
452.75	1098.49
453.123	1111.37
453.497	1153.85
453.871	1143.68
454.244	1163.12
454.618	1151.59
454.992	1168.09
455.365	1196.34
455.739	1209.9
456.112	1201.08
456.486	1213.29
456.859	1242.21
457.232	1279.95
457.606	1246.28
457.979	1272.49
458.352	1293.51
458.725	1330.35
459.099	1304.36
459.472	1333.74
459.845	1320.63
460.218	1362.21
460.591	1362.66
460.964	1378.48
461.337	1388.42
461.71	1410.8
462.083	1435.88
462.456	1445.6
462.829	1429.55
463.201	1489.66
463.574	1457.35
463.947	1495.09
464.32	1513.17
464.692	1532.37
465.065	1544.58
465.438	1571.24
465.81	1588.19
466.183	1588.64
466.555	1641.98
466.928	1641.98
467.3	1649.43
467.672	1674.52
468.045	1719.94
468.417	1720.17
468.789	1721.97
469.161	1726.04
469.534	1776.21
469.906	1797.68
470.278	1820.05
470.65	1821.18
471.022	1837.45
471.394	1862.99
471.766	1914.96
472.138	1934.4
472.51	1974.62
472.882	2009.88
473.253	1973.95
473.625	2041.74
473.997	2081.06
474.369	2096.43
474.74	2092.36
475.112	2175.3
475.484	2199.02
475.855	2203.77
476.227	2219.36
476.598	2273.6
476.97	2306.82
477.341	2330.09
477.713	2393.6
478.084	2399.24
478.455	2442.41
478.827	2509.98
479.198	2525.12
479.569	2528.28
479.94	2617.54
480.311	2649.63
480.682	2724.89
481.053	2749.29
481.424	2829.97
481.795	2806.47
482.166	2836.3
482.537	2850.98
482.908	2937.31
483.279	2917.65
483.65	3045.78
484.021	3076.29
484.391	3108.83
484.762	3135.72
485.133	3202.16
485.503	3271.31
485.874	3263.85
486.244	3255.27
486.615	3379.56
486.985	3389.05
487.356	3464.08
487.726	3511.76
488.097	3568.25
488.467	3561.25
488.837	3655.48
489.207	3670.17
489.578	3696.61
489.948	3771.41
490.318	3841.01
490.688	3827
491.058	3888.47
491.428	3921.69
491.798	3957.4
492.168	4015.47
492.538	4071.74
492.908	4109.71
493.278	4177.28
493.648	4140.67
494.017	4211.17
494.387	4242.36
494.757	4286.65
495.126	4358.29
495.496	4347.44
495.866	4404.16
496.235	4461.56
496.605	4505.63
496.974	4495.23
497.344	4521.22
497.713	4555.57
498.082	4599.41
498.452	4661.56
498.821	4657.26
499.19	4667.43
499.559	4733.19
499.928	4796.02
500.298	4825.17
500.667	4800.76
501.036	4874.89
501.405	4927.31
501.774	4935.22
502.143	4975.9
502.512	4985.17
502.88	5014.09
503.249	5064.94
503.618	5076.69
503.987	5134.77
504.356	5118.72
504.724	5193.52
505.093	5167.53
505.462	5216.12
505.83	5280.98
506.199	5307.19
506.567	5361.43
506.936	5392.84
507.304	5465.83
507.672	5483.91
508.041	5544.25
508.409	5528.88
508.777	5590.12
509.145	5611.36
509.514	5603.91
509.882	5678.25
510.25	5692.27
510.618	5754.86
510.986	5784.01
511.354	5811.81
511.722	5854.07
512.09	5937.91
512.458	5960.06
512.826	5978.81
513.193	6042.09
513.561	6018.13
513.929	6122.99
514.297	6148.52
514.664	6223.33
515.032	6185.81
515.4	6302.65
515.767	6330.67
516.135	6332.02
516.502	6303.32
516.869	6456.77
517.237	6471.91
517.604	6459.93
517.972	6535.86
518.339	6573.37
518.706	6586.93
519.073	6645.69
519.44	6727.72
519.808	6782.86
520.175	6743.09
520.542	6940.82
520.909	6928.62
521.276	6936.53
521.643	7012.46
522.009	7101.27
522.376	7100.14
522.743	7118.44
523.11	7263.07
523.477	7329.06
523.843	7406.57
524.21	7451.77
524.577	7499.22
524.943	7500.35
525.31	7590.07
525.676	7643.4
526.043	7684.3
526.409	7749.61
526.776	7788.26
527.142	7824.41
527.508	7909.16
527.874	7902.38
528.241	7993.67
528.607	7951.64
528.973	8089.04
529.339	8134.91
529.705	8188.92
530.071	8324.29
530.437	8290.39
530.803	8343.95
531.169	8421.01
531.535	8388.69
531.901	8371.97
532.267	8484.96
532.632	8579.42
532.998	8578.97
533.364	8624.84
533.73	8675.01
534.095	8756.37
534.461	8754.56
534.826	8784.61
535.192	8813.31
535.557	8948
535.923	8890.83
536.288	8924.27
536.653	9023.48
537.019	8974.21
537.384	9046.75
537.749	9116.58
538.114	9091.05
538.479	9155.9
538.845	9149.58
539.21	9168.56
539.575	9228.44
539.94	9289.69
540.305	9300.76
540.67	9317.26
541.034	9349.8
541.399	9410.59
541.764	9392.06
542.129	9449
542.494	9490.36
542.858	9538.04
543.223	9570.36
543.587	9628.66
543.952	9566.74
544.316	9647.87
544.681	9653.52
545.045	9699.84
545.41	9700.97
545.774	9749.33
546.138	9763.12
546.503	9803.8
546.867	9832.04
547.231	9931.7
547.595	9978.25
547.959	9912.04
548.324	10004.92
548.688	10079.04
549.052	10159.27
549.416	10090.12
549.779	10087.18
550.143	10159.49
550.507	10196.55
550.871	10264.12
551.235	10244.46
551.599	10353.16
551.962	10383.67
552.326	10372.37
552.689	10453.5
553.053	10377.79
553.417	10479.03
553.78	10608.97
554.143	10546.6
554.507	10588.86
554.87	10629.31
555.234	10751.34
555.597	10754.05
555.96	10789.31
556.323	10810.1
556.686	10803.32
557.05	10888.29
557.413	10985.23
557.776	10981.84
558.139	11093.71
558.502	11140.71
558.865	11137.09
559.228	11283.31
559.59	11221.61
559.953	11250.09
560.316	11433.36
560.679	11344.77
561.041	11390.87
561.404	11558.1
561.767	11566.69
562.129	11566.91
562.492	11717.64
562.854	11734.82
563.217	11718.55
563.579	11785.66
563.941	11920.58
564.304	11977.52
564.666	12001.93
565.028	12039.44
565.39	12102.04
565.753	12148.37
566.115	12156.28
566.477	12292.09
566.839	12302.71
567.201	12394.46
567.563	12426.78
567.925	12455.7
568.287	12452.09
568.648	12573.89
569.01	12693.66
569.372	12661.8
569.734	12671.74
570.095	12777.73
570.457	12909.02
570.819	12909.02
571.18	12878.07
571.542	13052.98
571.903	13117.38
572.265	13083.03
572.626	13145.63
572.987	13165.29
573.349	13222.01
573.71	13309.01
574.071	13356.7
574.432	13433.53
574.794	13511.27
575.155	13539.06
575.516	13492.96
575.877	13600.76
576.238	13557.37
576.599	13666.75
576.96	13719.17
577.32	13737.48
577.681	13775.22
578.042	13789.45
578.403	13827.87
578.763	13883.46
579.124	13912.39
579.485	13937.02
579.845	14021.76
580.206	14050.46
580.566	14038.03
580.927	14076.9
581.287	14184.25
581.648	14075.77
582.008	14239.39
582.368	14229.67
582.728	14322.1
583.089	14258.82
583.449	14260.63
583.809	14304.69
584.169	14391.25
584.529	14378.14
584.889	14499.49
585.249	14466.27
585.609	14424.92
585.969	14618.58
586.329	14533.39
586.688	14487.51
587.048	14489.1
587.408	14516.89
587.768	14538.81
588.127	14561.18
588.487	14535.42
588.846	14633.73
589.206	14588.08
589.565	14567.06
589.925	14705.81
590.284	14633.95
590.643	14710.56
591.003	14798.24
591.362	14759.15
591.721	14767.73
592.08	14791.91
592.44	14880.95
592.799	14937.45
593.158	14835.3
593.517	14850.89
593.876	14922.31
594.235	14976.54
594.593	14986.03
594.952	14937.22
595.311	14980.61
595.67	15012.25
596.029	15124.33
596.387	15157.55
596.746	15172.02
597.104	15105.8
597.463	15128.63
597.822	15254.95
598.18	15140.6
598.538	15124.79
598.897	15319.58
599.255	15141.73
599.613	15419.47
599.972	15264.67
600.33	15420.37
600.688	15279.36
601.046	15332.01
601.404	15416.3
601.762	15396.87
602.12	15464.66
602.478	15440.03
602.836	15555.28
603.194	15422.41
603.552	15375.85
603.91	15389.86
604.268	15522.06
604.625	15447.04
604.983	15555.28
605.341	15426.02
605.698	15591.21
606.056	15622.63
606.413	15581.72
606.771	15751.89
607.128	15660.37
607.485	15759.57
607.843	15701.04
608.2	15791.89
608.557	15826.01
608.914	15796.63
609.272	15876.18
609.629	15877.99
609.986	15976.74
610.343	15830.76
610.7	15999.79
611.057	15951.88
611.414	15991.88
611.771	15951.2
612.127	16123.63
612.484	16096.51
612.841	16177.64
613.198	16122.73
613.554	16038.43
613.911	16170.86
614.267	16151.65
614.624	16135.83
614.98	16201.37
615.337	16302.61
615.693	16247.02
616.05	16216.06
616.406	16314.59
616.762	16320.69
617.118	16293.57
617.475	16316.39
617.831	16293.57
618.187	16403.4
618.543	16411.98
618.899	16518.42
619.255	16351.87
619.611	16414.7
619.967	16441.59
620.323	16466.67
620.678	16426.22
621.034	16362.49
621.39	16403.85
621.746	16491.76
622.101	16639.1
622.457	16504.64
622.812	16546.67
623.168	16554.58
623.523	16494.02
623.879	16605.88
624.234	16449.5
624.589	16542.38
624.945	16542.15
625.3	16567.23
625.655	16512.55
626.01	16629.61
626.365	16604.07
626.72	16581.47
627.075	16597.06
627.43	16533.79
627.785	16541.02
628.14	16544.64
628.495	16644.75
628.85	16620.11
629.205	16424.41
629.559	16568.14
629.914	16453.79
630.269	16409.5
630.623	16443.17
630.978	16467.8
631.332	16446.33
631.687	16511.19
632.041	16374.02
632.396	16482.72
632.75	16416.73
633.104	16415.15
633.459	16370.18
633.813	16359.1
634.167	16357.75
634.521	16339.22
634.875	16414.92
635.229	16372.66
635.583	16293.57
635.937	16345.32
636.291	16296.28
636.645	16358.43
636.999	16262.61
637.352	16275.04
637.706	16110.75
638.06	16269.39
638.413	16253.8
638.767	16075.95
639.121	16226.23
639.474	16071.65
639.828	16102.84
640.181	16031.88
640.534	16221.03
640.888	16043.41
641.241	16008.15
641.594	16059.9
641.947	16101.26
642.301	16039.56
642.654	16025.55
643.007	16081.37
643.36	16045.21
643.713	15957.98
644.066	16036.63
644.419	15992.56
644.771	15965.22
645.124	15803.41
645.477	15756.41
645.83	15538.56
646.182	15530.42
646.535	15454.49
646.888	15473.25
647.24	15360.49
647.593	15362.52
647.945	15357.77
648.298	15225.57
648.65	15260.83
649.002	15220.6
649.355	15330.88
649.707	15363.65
650.059	15383.31
650.411	15558.9
650.763	15594.6
651.115	15838.44
651.467	15750.31
651.819	15780.36
652.171	15689.29
652.523	15619.01
652.875	15616.75
653.227	15593.02
653.578	15741.94
653.93	15695.84
654.282	15576.98
654.633	15556.41
654.985	15615.85
655.337	15584.43
655.688	15585.34
656.039	15635.51
656.391	15462.18
656.742	15547.37
657.094	15549.86
657.445	15526.58
657.796	15574.27
658.147	15504.44
658.498	15606.81
658.849	15512.8
659.2	15588.05
659.551	15483.87
659.902	15549.86
660.253	15539.69
660.604	15648.84
660.955	15489.3
661.306	15445.91
661.656	15616.75
662.007	15539.24
662.358	15503.98
662.708	15561.61
663.059	15551.89
663.409	15492.91
663.76	15520.26
664.11	15490.43
664.461	15534.94
664.811	15466.92
665.161	15538.79
665.511	15475.51
665.862	15483.65
666.212	15473.7
666.562	15523.19
666.912	15445
667.262	15421.95
667.612	15460.82
667.962	15485.68
668.312	15482.06
668.662	15529.52
669.011	15521.61
669.361	15437.77
669.711	15542.85
670.06	15458.79
670.41	15432.35
670.76	15395.74
671.109	15462.86
671.459	15380.6
671.808	15378.11
672.157	15454.49
672.507	15382.18
672.856	15404.78
673.205	15265.35
673.554	15356.42
673.904	15353.71
674.253	15430.77
674.602	15364.78
674.951	15242.3
675.3	15079.36
675.649	15373.14
675.998	15271.9
676.346	15288.17
676.695	15267.61
677.044	15259.25
677.393	15254.95
677.741	15317.1
678.09	15239.81
678.438	15214.28
678.787	15264.22
679.135	15184.45
679.484	15195.52
679.832	15365.68
680.181	15064.22
680.529	15155.29
680.877	15074.62
681.225	15097.89
681.573	15253.37
681.922	15116.88
682.27	15076.43
682.618	15036.65
682.966	15041.62
683.314	15013.15
683.661	15089.08
684.009	14871.91
684.357	14840.05
684.705	14898.13
685.053	14884.34
685.4	14759.6
685.748	14813.61
686.095	14808.18
686.443	14668.53
686.79	14732.93
687.138	14666.94
687.485	14677.79
687.832	14660.84
688.18	14774.74
688.527	14534.74
688.874	14622.65
689.221	14504.46
689.568	14575.2
689.915	14533.62
690.262	14586.49
690.609	14496.55
690.956	14465.14
691.303	14451.58
691.65	14281.87
691.997	14354.41
692.344	14184.7
692.69	14263.34
693.037	14221.98
693.383	14102.21
693.73	14142.21
694.077	14110.58
694.423	14112.38
694.769	13947.87
695.116	14032.39
695.462	13997.58
695.808	13901.32
696.155	14022.89
696.501	13853.41
696.847	13821.09
697.193	13733.64
697.539	13886.17
697.885	13624.71
698.231	13624.49
698.577	13666.29
698.923	13605.73
699.269	13539.97
699.614	13476.24
699.96	13557.82
700.306	13567.99
700.651	13488.9
700.997	13419.07
701.342	13365.06
701.688	13367.54
702.033	13266.3
702.379	13270.15
702.724	13246.19
703.069	13276.47
703.415	13087.55
703.76	13059.98
704.105	13153.54
704.45	13011.85
704.795	12994.9
705.14	12921
705.485	13017.72
705.83	12956.71
706.175	12917.39
706.52	12929.36
706.865	12793.32
707.209	12809.82
707.554	12792.87
707.899	12937.05
708.243	12700.67
708.588	12806.88
708.932	12650.95
709.277	12679.65
709.621	12686.66
709.966	12550.62
710.31	12601.91
710.654	12502.93
710.998	12587.68
711.342	12595.36
711.687	12545.64
712.031	12482.6
712.375	12426.78
712.719	12355.59
713.063	12488.25
713.407	12433.78
713.75	12362.15
714.094	12421.13
714.438	12234.92
714.782	12337.29
715.125	12308.81
715.469	12245.54
715.812	12161.25
716.156	12097.29
716.499	12158.76
716.843	12140.46
717.186	12204.41
717.53	12197.18
717.873	12143.85
718.216	12147.24
718.559	12087.8
718.902	12006.22
719.246	12068.14
719.589	12017.97
719.932	11982.04
720.275	11845.78
720.617	11868.83
720.96	11996.73
721.303	11896.85
721.646	11889.62
721.989	11888.03
722.331	11901.14
722.674	11836.28
723.016	11900.92
723.359	11838.54
723.701	11869.5
724.044	11827.47
724.386	11771.43
724.729	11793.12
725.071	11769.62
725.413	11794.25
725.755	11790.64
726.097	11705.44
726.439	11689.85
726.782	11626.8
727.124	11619.34
727.465	11666.8
727.807	11664.31
728.149	11676.97
728.491	11546.57
728.833	11590.19
729.175	11596.52
729.516	11571.43
729.858	11553.81
730.199	11546.8
730.541	11521.72
730.882	11514.94
731.224	11568.72
731.565	11482.4
731.906	11577.31
732.248	11545.9
732.589	11483.07
732.93	11409.18
733.271	11491.89
733.612	11507.93
733.953	11473.13
734.294	11453.47
734.635	11447.14
734.976	11493.02
735.317	11377.31
735.658	11390.19
735.999	11455.05
736.339	11371.89
736.68	11363.3
737.021	11412.57
737.361	11387.03
737.702	11365.56
738.042	11375.96
738.383	11323.08
738.723	11444.88
739.063	11309.97
739.404	11416.18
739.744	11342.74
740.084	11275.4
740.424	11284.66
740.764	11354.49
741.104	11345.22
741.444	11341.38
741.784	11277.88
742.124	11272.23
742.464	11177.09
742.804	11217.09
743.143	11252.12
743.483	11279.69
743.823	11225
744.162	11258.67
744.502	11278.79
744.841	11246.02
745.181	11223.19
745.52	11112.01
745.86	11218.9
746.199	11214.83
746.538	11189.75
746.877	11107.94
747.216	11147.72
747.556	11141.61
747.895	11158.11
748.234	11055.97
748.573	11152.91
748.911	11171.9
749.25	11090.99
749.589	11025.01
749.928	11055.74
750.267	11099.13
750.605	11042.63
750.944	11047.38
751.283	10959.92
751.621	11053.48
751.96	10994.05
752.298	10980.26
752.636	11049.41
752.975	10947.04
753.313	10871.56
753.651	10988.85
753.989	10945.69
754.327	10911.11
754.666	10833.83
755.004	10830.66
755.342	10854.84
755.679	10878.34
756.017	10766.71
756.355	10850.55
756.693	10775.97
757.031	10814.62
757.368	10784.79
757.706	10792.02
