Data from tablewood_dark_bookshelf_FLMS001491_00078.txt Node
Date: Wed Feb 08 14:15:37 GMT 2017
User: dcchb
Spectrometer: FLMS00149
Trigger mode: 0
Integration Time (sec): 2.000000E-2
Scans to average: 10
Electric dark correction enabled: true
Nonlinearity correction enabled: false
Boxcar width: 0
XAxis mode: Wavelengths
Number of Pixels in Spectrum: 2048
>>>>>Begin Spectral Data<<<<<
341.393	-26.28
341.776	-26.28
342.16	-26.28
342.543	-58.37
342.927	-75.1
343.31	-71.93
343.693	-67.64
344.077	-36.68
344.46	-73.97
344.843	-75.1
345.226	-59.73
345.61	-28.09
345.993	-19.28
346.376	1.74
346.759	22.08
347.142	27.27
347.525	51.91
347.908	54.17
348.291	67.05
348.674	96.88
349.057	111.34
349.44	117.89
349.823	147.72
350.206	157.44
350.588	164.67
350.971	202.41
351.354	230.66
351.737	248.96
352.119	243.76
352.502	246.7
352.884	245.57
353.267	263.2
353.65	278.34
354.032	306.14
354.414	305.68
354.797	306.36
355.179	311.79
355.562	325.8
355.944	325.8
356.326	328.51
356.709	326.25
357.091	326.93
357.473	355.4
357.855	330.09
358.238	318.79
358.62	355.17
359.002	329.64
359.384	337.1
359.766	342.07
360.148	344.1
360.53	341.39
360.912	338.68
361.294	328.28
361.676	336.19
362.057	338
362.439	330.32
362.821	330.77
363.203	327.15
363.584	341.39
363.966	339.58
364.348	347.49
364.729	330.32
365.111	329.86
365.493	326.02
365.874	333.71
366.256	326.47
366.637	305.91
367.019	309.3
367.4	305.46
367.781	305.68
368.163	314.05
368.544	312.24
368.925	322.86
369.306	324.21
369.688	300.49
370.069	320.6
370.45	312.92
370.831	312.92
371.212	336.19
371.593	336.19
371.974	329.19
372.355	306.59
372.736	323.54
373.117	326.47
373.498	328.73
373.879	339.13
374.26	339.13
374.641	331.45
375.021	326.93
375.402	330.32
375.783	330.09
376.163	364.44
376.544	344.55
376.925	333.93
377.305	350.65
377.686	349.52
378.066	352.91
378.447	351.11
378.827	362.86
379.208	341.39
379.588	357.21
379.968	378
380.349	358.34
380.729	345.01
381.109	370.54
381.489	345.23
381.87	366.02
382.25	375.74
382.63	375.51
383.01	380.48
383.39	381.39
383.77	389.75
384.15	366.02
384.53	385.91
384.91	362.63
385.29	387.04
385.67	389.3
386.049	393.14
386.429	396.76
386.809	382.29
387.189	376.19
387.568	384.33
387.948	387.49
388.328	378.45
388.707	398.79
389.087	406.25
389.466	406.02
389.846	432.01
390.225	412.8
390.605	420.03
390.984	406.7
391.363	409.41
391.743	414.16
392.122	435.4
392.501	419.35
392.881	443.31
393.26	441.5
393.639	434.49
394.018	459.8
394.397	459.8
394.776	433.14
395.155	444.44
395.534	433.59
395.913	447.6
396.292	446.25
396.671	457.32
397.05	481.72
397.429	460.26
397.808	478.11
398.186	485.57
398.565	466.13
398.944	461.84
399.323	473.59
399.701	485.11
400.08	465.45
400.458	510.88
400.837	508.84
401.215	460.26
401.594	500.03
401.972	498.67
402.351	480.59
402.729	491.89
403.107	511.1
403.486	514.72
403.864	531.44
404.242	521.5
404.62	501.61
404.999	533.02
405.377	552.46
405.755	525.57
406.133	526.92
406.511	528.96
406.889	548.62
407.267	567.15
407.645	533.02
408.023	542.74
408.401	559.91
408.779	565.11
409.156	572.34
409.534	561.5
409.912	582.06
410.29	593.13
410.667	605.11
411.045	600.59
411.422	613.92
411.8	608.95
412.178	618.9
412.555	619.57
412.933	611.89
413.31	629.29
413.687	648.27
414.065	627.26
414.442	657.31
414.819	650.31
415.197	643.98
415.574	664.32
415.951	683.3
416.328	662.51
416.705	665.67
417.082	691.89
417.46	716.52
417.837	700.25
418.214	670.42
418.591	714.03
418.967	726.92
419.344	682.4
419.721	714.49
420.098	702.51
420.475	720.59
420.852	737.76
421.228	734.15
421.605	752.9
421.982	759.46
422.358	757.42
422.735	756.97
423.111	762.62
423.488	770.98
423.864	801.94
424.241	796.29
424.617	794.03
424.994	807.14
425.37	827.03
425.746	799.23
426.123	814.6
426.499	828.16
426.875	834.48
427.251	861.83
427.627	856.18
428.003	861.38
428.379	873.13
428.756	873.35
429.132	885.1
429.507	881.26
429.883	916.29
430.259	928.72
430.635	928.04
431.011	949.96
431.387	952.22
431.763	959.45
432.138	938.44
432.514	979.56
432.89	960.36
433.265	997.19
433.641	1014.14
434.016	1020.24
434.392	1035.16
434.767	1025.21
435.143	1050.3
435.518	1045.1
435.894	1065.66
436.269	1067.7
436.644	1057.08
437.02	1090.97
437.395	1089.84
437.77	1100.92
438.145	1110.86
438.52	1119.67
438.895	1144.53
439.271	1164.87
439.646	1174.59
440.021	1188.37
440.395	1184.76
440.77	1180.69
441.145	1199.45
441.52	1205.77
441.895	1203.29
442.27	1194.25
442.645	1202.61
443.019	1253.91
443.394	1221.82
443.769	1247.35
444.143	1207.81
444.518	1251.65
444.892	1236.73
445.267	1259.56
445.641	1273.57
446.016	1304.75
446.39	1290.74
446.764	1299.78
447.139	1278.77
447.513	1304.98
447.887	1342.94
448.262	1332.78
448.636	1326.9
449.01	1333.91
449.384	1377.29
449.758	1348.37
450.132	1396.05
450.506	1361.48
450.88	1410.06
451.254	1388.37
451.628	1433.11
452.002	1439.89
452.376	1459.78
452.75	1454.35
453.123	1491.19
453.497	1469.95
453.871	1505.65
454.244	1543.17
454.618	1514.92
454.992	1553.79
455.365	1552.66
455.739	1593.33
456.112	1635.37
456.486	1622.71
456.859	1619.1
457.232	1642.37
457.606	1646.21
457.979	1681.02
458.352	1697.29
458.725	1735.93
459.099	1742.48
459.472	1780.22
459.845	1770.5
460.218	1754.91
460.591	1827.68
460.964	1826.77
461.337	1860.9
461.71	1868.58
462.083	1904.74
462.456	1939.77
462.829	1923.72
463.201	1968.47
463.574	1982.25
463.947	1964.85
464.32	2038.97
464.692	2034.23
465.065	2028.35
465.438	2092.3
465.81	2113.77
466.183	2113.77
466.555	2156.48
466.928	2161.91
467.3	2212.75
467.672	2244.16
468.045	2248.68
468.417	2267.21
468.789	2262.92
469.161	2316.03
469.534	2379.75
469.906	2385.18
470.278	2404.16
470.65	2434.89
471.022	2495.23
471.394	2524.16
471.766	2532.29
472.138	2571.16
472.51	2638.05
472.882	2660.65
473.253	2700.2
473.625	2698.62
473.997	2753.3
474.369	2768.67
474.74	2818.39
475.112	2836.69
475.484	2907.42
475.855	2974.31
476.227	2975.67
476.598	3049.57
476.97	3087.98
477.341	3165.95
477.713	3156.46
478.084	3184.7
478.455	3299.73
478.827	3328.2
479.198	3412.95
479.569	3388.99
479.94	3510.57
480.311	3535.66
480.682	3598.48
481.053	3684.8
481.424	3719.38
481.795	3782.43
482.166	3825.37
482.537	3877.57
482.908	3962.31
483.279	3964.8
483.65	4031.91
484.021	4119.14
484.391	4118.47
484.762	4205.24
485.133	4228.29
485.503	4323.88
485.874	4409.98
486.244	4442.75
486.615	4461.28
486.985	4536.76
487.356	4618.11
487.726	4701.95
488.097	4769.75
488.467	4785.11
488.837	4919.35
489.207	4911.21
489.578	5001.61
489.948	5020.36
490.318	5083.64
490.688	5098.55
491.058	5197.98
491.428	5284.08
491.798	5278.21
492.168	5408.6
492.538	5414.02
492.908	5492.89
493.278	5569.73
493.648	5590.06
494.017	5639.56
494.387	5698.54
494.757	5758.87
495.126	5830.96
495.496	5813.56
495.866	5889.72
496.235	5957.51
496.605	6021.24
496.974	5991.64
497.344	6079.32
497.713	6110.96
498.082	6190.28
498.452	6203.83
498.821	6244.51
499.19	6287.67
499.559	6324.06
499.928	6397.73
500.298	6398.86
500.667	6498.06
501.036	6501
501.405	6559.53
501.774	6638.62
502.143	6616.93
502.512	6672.3
502.88	6780.54
503.249	6760.2
503.618	6841.56
503.987	6869.13
504.356	6881.56
504.724	7014.66
505.093	6951.39
505.462	7026.41
505.83	6994.32
506.199	7116.8
506.567	7226.63
506.936	7184.6
507.304	7293.07
507.672	7349.34
508.041	7353.86
508.409	7432.95
508.777	7477.7
509.145	7508.66
509.514	7596.34
509.882	7658.03
510.25	7652.38
510.618	7703.46
510.986	7754.75
511.354	7793.62
511.722	7875.65
512.09	7983.9
512.458	8006.72
512.826	8043.56
513.193	8124.91
513.561	8109.77
513.929	8189.54
514.297	8259.15
514.664	8358.58
515.032	8444
515.4	8457.11
515.767	8481.29
516.135	8568.97
516.502	8512.02
516.869	8706.59
517.237	8743.43
517.604	8679.25
517.972	8840.83
518.339	8845.35
518.706	8939.81
519.073	8928.96
519.44	8993.82
519.808	9168.95
520.175	9168.5
520.542	9225.68
520.909	9310.19
521.276	9280.59
521.643	9502.5
522.009	9526.91
522.376	9604.2
522.743	9579.11
523.11	9726.68
523.477	9825.66
523.843	9850.29
524.21	9953.34
524.577	9974.58
524.943	10090.29
525.31	10159.66
525.676	10329.6
526.043	10394.23
526.409	10426.1
526.776	10515.59
527.142	10506.32
527.508	10604.62
527.874	10656.37
528.241	10757.61
528.607	10766.65
528.973	10920.09
529.339	10909.47
529.705	11054.33
530.071	11085.51
530.437	11144.95
530.803	11279.41
531.169	11277.37
531.535	11327.54
531.901	11367.31
532.267	11433.98
532.632	11541.55
532.998	11529.57
533.364	11581.77
533.73	11671.71
534.095	11723.24
534.461	11749.9
534.826	11899.5
535.192	11979.28
535.557	12027.18
535.923	11987.64
536.288	11994.19
536.653	12113.28
537.019	12122.32
537.384	12187.63
537.749	12224.92
538.114	12319.61
538.479	12254.97
538.845	12456.55
539.21	12394.41
539.575	12471.92
539.94	12560.28
540.305	12621.29
540.67	12624.46
541.034	12688.41
541.399	12766.6
541.764	12728.18
542.129	12808.41
542.494	12901.74
542.858	12827.16
543.223	12984.67
543.587	13007.72
543.952	12999.81
544.316	13176.98
544.681	13131.56
545.045	13137.66
545.41	13201.39
545.774	13329.3
546.138	13316.87
546.503	13405.68
546.867	13404.1
547.231	13596.63
547.595	13565.22
547.959	13598.89
548.324	13615.39
548.688	13645.9
549.052	13751.21
549.416	13747.59
549.779	13781.94
550.143	13800.47
550.507	13940.35
550.871	13984.19
551.235	13998.21
551.599	14054.48
551.962	14141.93
552.326	14197.3
552.689	14230.06
553.053	14191.19
553.417	14314.58
553.78	14523.62
554.143	14451.75
554.507	14441.58
554.87	14626.21
555.234	14707.79
555.597	14687.9
555.96	14744.4
556.323	14836.83
556.686	14877.5
557.05	14988.46
557.413	15031.17
557.776	15138.97
558.139	15220.32
558.502	15187.1
558.865	15142.81
559.228	15305.52
559.59	15435.68
559.953	15396.59
560.316	15581.67
560.679	15649.01
561.041	15716.58
561.404	15748.44
561.767	15950.02
562.129	15816.69
562.492	16018.49
562.854	16062.33
563.217	16178.26
563.579	16137.81
563.941	16339.16
564.304	16436.33
564.666	16420.97
565.028	16565.82
565.39	16609.66
565.753	16692.15
566.115	16733.95
566.477	16941.4
566.839	16971.01
567.201	17144.56
567.563	17075.64
567.925	17210.55
568.287	17271.79
568.648	17315.63
569.01	17475.63
569.372	17596.75
569.734	17532.12
570.095	17676.98
570.457	17766.02
570.819	17817.09
571.18	17836.3
571.542	17984.54
571.903	17974.82
572.265	18053.69
572.626	18190.86
572.987	18194.93
573.349	18269.05
573.71	18333.01
574.071	18434.7
574.432	18509.27
574.794	18662.04
575.155	18578.2
575.516	18790.4
575.877	18753.33
576.238	18886.89
576.599	18951.75
576.96	18952.88
577.32	18950.39
577.681	19049.82
578.042	19110.16
578.403	19214.57
578.763	19087.56
579.124	19345.18
579.485	19220.44
579.845	19402.81
580.206	19408.23
580.566	19506.99
580.927	19418.18
581.287	19601.9
581.648	19551.73
582.008	19724.38
582.368	19638.06
582.728	19725.06
583.089	19717.15
583.449	19822.23
583.809	19855.23
584.169	19921.67
584.529	19855.68
584.889	20019.97
585.249	19894.77
585.609	19852.06
585.969	20112.85
586.329	19992.4
586.688	20082.79
587.048	20015.67
587.408	20137.25
587.768	20122.56
588.127	20163.24
588.487	19996.24
588.846	20289.57
589.206	20207.08
589.565	20237.59
589.925	20309.68
590.284	20290.47
590.643	20334.99
591.003	20474.42
591.362	20529.33
591.721	20486.17
592.08	20466.06
592.44	20585.6
592.799	20632.83
593.158	20560.52
593.517	20556.23
593.876	20564.13
594.235	20666.05
594.593	20643.68
594.952	20696.33
595.311	20666.28
595.67	20800.29
596.029	20907.63
596.387	20956.67
596.746	20976.33
597.104	20961.64
597.463	21027.63
597.822	21026.5
598.18	20950.11
598.538	20869.66
598.897	21239.37
599.255	20942.88
599.613	21355.07
599.972	21203.21
600.33	21294.06
600.688	21202.31
601.046	21322.31
601.404	21355.3
601.762	21360.72
602.12	21456.31
602.478	21426.94
602.836	21465.81
603.194	21421.51
603.552	21377.67
603.91	21476.2
604.268	21544
604.625	21448.63
604.983	21617.21
605.341	21488.18
605.698	21637.33
606.056	21669.64
606.413	21710.32
606.771	21796.42
607.128	21859.69
607.485	21805.01
607.843	21813.14
608.2	21946.92
608.557	21960.93
608.914	21904.21
609.272	22076.86
609.629	21991.89
609.986	22127.94
610.343	21961.16
610.7	22270.76
611.057	22179.69
611.414	22158.89
611.771	22229.4
612.127	22317.99
612.484	22222.62
612.841	22284.99
613.198	22216.52
613.554	22259.01
613.911	22400.24
614.267	22459.68
614.624	22435.05
614.98	22373.35
615.337	22504.87
615.693	22504.2
616.05	22487.93
616.406	22614.93
616.762	22505.33
617.118	22618.32
617.475	22712.78
617.831	22680.01
618.187	22741.93
618.543	22804.3
618.899	22913
619.255	22848.82
619.611	22866.45
619.967	22933.56
620.323	23000
620.678	22823.74
621.034	22865.54
621.39	22856.05
621.746	22826.45
622.101	23083.16
622.457	22820.8
622.812	22986.22
623.168	23016.73
623.523	22965.65
623.879	23089.27
624.234	22916.61
624.589	22901.25
624.945	22946.44
625.3	22953.68
625.655	22994.35
626.01	22988.03
626.365	22869.61
626.72	22913.9
627.075	22904.41
627.43	23016.05
627.785	22869.61
628.14	23000.23
628.495	23076.16
628.85	22937.41
629.205	22941.47
629.559	23131.52
629.914	22964.98
630.269	22934.92
630.623	22962.72
630.978	22899.67
631.332	22900.34
631.687	22887.46
632.041	22947.35
632.396	22882.27
632.75	22775.38
633.104	22830.97
633.459	22797.07
633.813	22748.26
634.167	22725.66
634.521	22755.04
634.875	22768.6
635.229	22778.54
635.583	22649.28
635.937	22615.38
636.291	22532.22
636.645	22586.91
636.999	22526.34
637.352	22616.06
637.706	22488.38
638.06	22629.62
638.413	22462.84
638.767	22468.27
639.121	22465.55
639.474	22263.98
639.828	22299.68
640.181	22403.86
640.534	22336.97
640.888	22367.93
641.241	22179.91
641.594	22290.42
641.947	22314.82
642.301	22218.55
642.654	22215.84
643.007	22254.26
643.36	22149.86
643.713	22099.24
644.066	22172.45
644.419	22044.55
644.771	21995.74
645.124	21833.71
645.477	21688.85
645.83	21641.62
646.182	21491.79
646.535	21471.23
646.888	21513.49
647.24	21302.42
647.593	21423.55
647.945	21513.26
648.298	21293.61
648.65	21241.86
649.002	21133.61
649.355	21294.74
649.707	21215.87
650.059	21366.83
650.411	21652.69
650.763	21520.27
651.115	21929.75
651.467	21778.34
651.819	21819.02
652.171	21689.75
652.523	21702.86
652.875	21694.05
653.227	21689.3
653.578	21829.19
653.93	21667.83
654.282	21544.45
654.633	21543.09
654.985	21645.01
655.337	21618.57
655.688	21624.45
656.039	21694.5
656.391	21460.16
656.742	21555.07
657.094	21511.91
657.445	21678.68
657.796	21527.5
658.147	21538.8
658.498	21555.29
658.849	21591.45
659.2	21581.28
659.551	21428.07
659.902	21581.73
660.253	21454.73
660.604	21594.16
660.955	21498.12
661.306	21594.16
661.656	21511.23
662.007	21512.81
662.358	21486.37
662.708	21528.18
663.059	21404.11
663.409	21383.32
663.76	21531.34
664.11	21499.25
664.461	21412.93
664.811	21506.26
665.161	21494.28
665.511	21415.86
665.862	21397.11
666.212	21567.72
666.562	21476.65
666.912	21468.74
667.262	21443.66
667.612	21398.46
667.962	21457.9
668.312	21482.08
668.662	21636.42
669.011	21419.71
669.361	21381.29
669.711	21374.51
670.06	21337
670.41	21338.8
670.76	21293.61
671.109	21420.38
671.459	21303.78
671.808	21360.05
672.157	21359.14
672.507	21221.74
672.856	21241.86
673.205	21264.23
673.554	21322.08
673.904	21302.19
674.253	21339.26
674.602	21336.09
674.951	20982.2
675.3	20926.84
675.649	21186.26
675.998	21293.83
676.346	21200.5
676.695	21318.46
677.044	21063.78
677.393	21191.46
677.741	21210.67
678.09	21074.63
678.438	21022.65
678.787	21085.25
679.135	21103.78
679.484	21011.81
679.832	21048.19
680.181	20904.01
680.529	20956.89
680.877	21014.52
681.225	20865.37
681.573	21021.07
681.922	20849.55
682.27	20897.91
682.618	20836.44
682.966	20746.28
683.314	20898.59
683.661	20688.42
684.009	20699.72
684.357	20699.27
684.705	20677.8
685.053	20751.02
685.4	20605.26
685.748	20562.55
686.095	20579.5
686.443	20466.96
686.79	20482.33
687.138	20482.1
687.485	20433.74
687.832	20301.32
688.18	20356.23
688.527	20304.71
688.874	20231.94
689.221	20167.53
689.568	20219.51
689.915	20041.44
690.262	20151.04
690.609	20111.72
690.956	19961.21
691.303	19972.51
691.65	19768.45
691.997	19847.09
692.344	19783.59
692.69	19746.08
693.037	19788.79
693.383	19620.66
693.73	19712.18
694.077	19344.05
694.423	19503.82
694.769	19493.43
695.116	19474.45
695.462	19468.57
695.808	19350.61
696.155	19466.76
696.501	19196.49
696.847	19294.11
697.193	19090.73
697.539	19247.11
697.885	18999.88
698.231	18980.45
698.577	18928.47
698.923	18982.03
699.269	18828.13
699.614	18823.16
699.96	18795.82
700.306	18763.96
700.651	18612.77
700.997	18570.97
701.342	18549.5
701.688	18569.84
702.033	18505.88
702.379	18538.2
702.724	18392.89
703.069	18454.59
703.415	18252.1
703.76	18267.92
704.105	18228.15
704.45	18093.01
704.795	18104.31
705.14	18050.08
705.485	18068.61
705.83	17932.57
706.175	18011.66
706.52	17875.39
706.865	17805.11
707.209	17862.51
707.554	17750.88
707.899	17780.7
708.243	17762.85
708.588	17653.02
708.932	17645.34
709.277	17553.82
709.621	17651.89
709.966	17552.46
710.31	17539.58
710.654	17343.88
710.998	17446.7
711.342	17417.55
711.687	17342.75
712.031	17367.61
712.375	17215.75
712.719	17320.15
713.063	17295.75
713.407	17216.65
713.75	17164.22
714.094	17136.43
714.438	17015.08
714.782	17033.15
715.125	16971.46
715.469	17078.8
715.812	16981.86
716.156	16825.02
716.499	16906.83
716.843	16907.73
717.186	16799.71
717.53	16939.82
717.873	16958.35
718.216	16856.66
718.559	16716.78
718.902	16672.94
719.246	16679.49
719.589	16648.08
719.932	16593.17
720.275	16597.01
720.617	16615.54
720.96	16633.62
721.303	16563.56
721.646	16645.59
721.989	16510.68
722.331	16486.73
722.674	16502.09
723.016	16478.14
723.359	16401.08
723.701	16400.4
724.044	16376.67
724.386	16242.67
724.729	16480.4
725.071	16295.09
725.413	16231.82
725.755	16317.69
726.097	16265.04
726.439	16058.94
726.782	16113.4
727.124	16164.48
727.465	16110.47
727.807	16143.91
728.149	16029.79
728.491	16092.39
728.833	16111.14
729.175	16073.86
729.516	15931.71
729.858	16102.1
730.199	15983.92
730.541	15978.27
730.882	16009.23
731.224	16052.84
731.565	15840.64
731.906	15885.39
732.248	15903.69
732.589	15871.83
732.93	15822.79
733.271	15827.31
733.612	15915.22
733.953	15993.86
734.294	15811.49
734.635	15758.39
734.976	15880.19
735.317	15766.52
735.658	15808.78
735.999	15772.17
736.339	15691.49
736.68	15824.82
737.021	15737.14
737.361	15662.34
737.702	15750.48
738.042	15706.18
738.383	15637.71
738.723	15626.41
739.063	15611.04
739.404	15577.82
739.744	15554.32
740.084	15491.5
740.424	15527.43
740.764	15518.62
741.104	15609.91
741.444	15480.43
741.784	15447.21
742.124	15438.62
742.464	15411.73
742.804	15357.49
743.143	15357.04
743.483	15336.48
743.823	15378.96
744.162	15301
744.502	15361.56
744.841	15227.33
745.181	15330.83
745.52	15265.29
745.86	15316.81
746.199	15236.82
746.538	15252.18
746.877	15323.59
747.216	15221.45
747.556	15196.59
747.895	15154.11
748.234	15127.67
748.573	15082.47
748.911	15129.02
749.25	15132.19
749.589	15108.68
749.928	15131.28
750.267	15094
750.605	15032.53
750.944	15012.64
751.283	15032.98
751.621	15013.32
751.96	14963.83
752.298	14980.1
752.636	14921.12
752.975	14842.03
753.313	14797.28
753.651	14915.24
753.989	14719.99
754.327	14783.72
754.666	14676.15
755.004	14694.68
755.342	14641.8
755.679	14612.65
756.017	14602.26
756.355	14677.28
