Data from tablewood_dark_bookshelf_FLMS001491_00055.txt Node
Date: Wed Feb 08 14:15:04 GMT 2017
User: dcchb
Spectrometer: FLMS00149
Trigger mode: 0
Integration Time (sec): 2.000000E-2
Scans to average: 10
Electric dark correction enabled: true
Nonlinearity correction enabled: false
Boxcar width: 0
XAxis mode: Wavelengths
Number of Pixels in Spectrum: 2048
>>>>>Begin Spectral Data<<<<<
341.393	1.62
341.776	1.62
342.16	1.62
342.543	-62.55
342.927	-65.94
343.31	-76.79
343.693	-53.97
344.077	-55.78
344.46	-58.26
344.843	-42.89
345.226	-52.84
345.61	-27.53
345.993	-17.13
346.376	5.92
346.759	23.32
347.142	24.45
347.525	27.61
347.908	51.79
348.291	65.58
348.674	83.43
349.057	103.09
349.44	110.77
349.823	123.65
350.206	178.12
350.588	172.24
350.971	206.14
351.354	201.17
351.737	249.53
352.119	230.54
352.502	260.15
352.884	255.4
353.267	267.38
353.65	265.12
354.032	291.11
354.414	288.85
354.797	321.84
355.179	313.03
355.562	332.24
355.944	307.83
356.326	309.19
356.709	316.42
357.091	327.04
357.473	345.12
357.855	349.86
358.238	320.49
358.62	319.13
359.002	318.68
359.384	328.4
359.766	350.32
360.148	313.25
360.53	350.77
360.912	333.37
361.294	330.43
361.676	325.68
362.057	340.37
362.439	326.36
362.821	309.41
363.203	319.36
363.584	298.57
363.966	320.94
364.348	331.79
364.729	288.17
365.111	314.16
365.493	327.94
365.874	311.22
366.256	310.99
366.637	298.57
367.019	299.02
367.4	304.22
367.781	305.8
368.163	314.16
368.544	313.25
368.925	335.63
369.306	313.03
369.688	316.42
370.069	313.93
370.45	303.09
370.831	326.36
371.212	323.2
371.593	314.84
371.974	320.26
372.355	329.75
372.736	322.97
373.117	312.8
373.498	303.76
373.879	308.96
374.26	311.9
374.641	337.66
375.021	305.57
375.402	331.79
375.783	306.02
376.163	351.67
376.544	320.26
376.925	334.95
377.305	356.64
377.686	334.27
378.066	324.1
378.447	334.95
378.827	320.49
379.208	342.18
379.588	338.34
379.968	340.82
380.349	345.57
380.729	356.42
381.109	351.22
381.489	336.98
381.87	366.81
382.25	348.96
382.63	360.71
383.01	343.54
383.39	358.68
383.77	374.27
384.15	348.96
384.53	374.72
384.91	376.3
385.29	370.2
385.67	358.9
386.049	367.49
386.429	376.98
386.809	352.12
387.189	396.64
387.568	369.3
387.948	397.55
388.328	359.81
388.707	371.78
389.087	381.5
389.466	381.5
389.846	395.06
390.225	400.94
390.605	401.39
390.984	392.57
391.363	431.9
391.743	394.38
392.122	382.86
392.501	389.64
392.881	410.65
393.26	414.27
393.639	415.85
394.018	393.25
394.397	430.54
394.776	405.46
395.155	411.33
395.534	392.57
395.913	422.18
396.292	409.75
396.671	444.55
397.05	426.92
397.429	445
397.808	423.99
398.186	422.4
398.565	440.26
398.944	423.53
399.323	451.78
399.701	454.04
400.08	451.78
400.458	427.38
400.837	451.78
401.215	466.47
401.594	456.3
401.972	469.63
402.351	459.01
402.729	483.19
403.107	465.11
403.486	481.39
403.864	461.5
404.242	480.48
404.62	489.3
404.999	466.47
405.377	483.42
405.755	479.13
406.133	499.69
406.511	474.15
406.889	499.24
407.267	499.92
407.645	517.54
408.023	499.69
408.401	523.64
408.779	517.54
409.156	536.53
409.534	533.59
409.912	552.34
410.29	533.14
410.667	522.74
411.045	532.23
411.422	524.32
411.8	561.61
412.178	556.41
412.555	537.88
412.933	590.99
413.31	563.64
413.687	590.54
414.065	571.1
414.442	576.52
414.819	576.98
415.197	589.63
415.574	618.11
415.951	611.55
416.328	601.61
416.705	609.07
417.082	614.72
417.46	599.57
417.837	621.49
418.214	616.07
418.591	635.28
418.967	623.3
419.344	633.92
419.721	659.69
420.098	641.38
420.475	678.22
420.852	675.28
421.228	649.06
421.605	660.82
421.982	650.19
422.358	689.74
422.735	684.09
423.111	714.6
423.488	715.05
423.864	688.39
424.241	713.02
424.617	691.32
424.994	713.7
425.37	722.28
425.746	696.75
426.123	739.68
426.499	727.25
426.875	743.07
427.251	742.17
427.627	762.28
428.003	771.1
428.379	791.89
428.756	795.5
429.132	800.25
429.507	794.6
429.883	809.74
430.259	817.87
430.635	828.95
431.011	811.09
431.387	822.39
431.763	847.93
432.138	844.54
432.514	878.44
432.89	866.23
433.265	867.82
433.641	913.69
434.016	895.39
434.392	903.75
434.767	915.72
435.143	915.05
435.518	925.89
435.894	943.07
436.269	929.28
436.644	944.2
437.02	964.31
437.395	953.92
437.77	981.26
438.145	975.61
438.52	1001.6
438.895	1003.41
439.271	983.97
439.646	1030.07
440.021	1039.56
440.395	1026.46
440.77	1036.4
441.145	1062.39
441.52	1033.46
441.895	1051.31
442.27	1063.74
442.645	1070.97
443.019	1090.86
443.394	1093.57
443.769	1082.05
444.143	1083.63
444.518	1111.2
444.892	1122.05
445.267	1126.34
445.641	1127.02
446.016	1141.26
446.39	1130.86
446.764	1141.03
447.139	1143.06
447.513	1172.67
447.887	1145.77
448.262	1180.12
448.636	1204.53
449.01	1176.51
449.384	1189.84
449.758	1211.08
450.132	1220.35
450.506	1208.15
450.88	1210.41
451.254	1234.13
451.628	1237.07
452.002	1236.39
452.376	1285.43
452.75	1278.65
453.123	1285.66
453.497	1327.69
453.871	1315.26
454.244	1318.2
454.618	1339.22
454.992	1321.59
455.365	1343.28
455.739	1372.89
456.112	1416.28
456.486	1407.01
456.859	1423.96
457.232	1435.94
457.606	1453.34
457.979	1453.79
458.352	1505.99
458.725	1465.54
459.099	1519.78
459.472	1528.82
459.845	1546.67
460.218	1571.3
460.591	1559.1
460.964	1573.33
461.337	1624.86
461.71	1642.26
462.083	1666.44
462.456	1673.22
462.829	1673.44
463.201	1700.79
463.574	1710.05
463.947	1689.26
464.32	1736.72
464.692	1777.62
465.065	1810.62
465.438	1771.52
465.81	1827.56
466.183	1862.14
466.555	1879.31
466.928	1868.02
467.3	1908.24
467.672	1934.23
468.045	1997.96
468.417	1951.63
468.789	1984.62
469.161	2018.52
469.534	2030.05
469.906	2059.65
470.278	2127.44
470.65	2134.22
471.022	2150.95
471.394	2195.69
471.766	2240.66
472.138	2238.18
472.51	2310.26
472.882	2355.91
473.253	2351.84
473.625	2362.01
473.997	2443.14
474.369	2424.84
474.74	2433.2
475.112	2460.77
475.484	2534.21
475.855	2587.77
476.227	2619.41
476.598	2643.59
476.97	2658.73
477.341	2701.67
477.713	2761.33
478.084	2825.73
478.455	2850.59
478.827	2874.32
479.198	2958.61
479.569	2938.27
479.94	3039.28
480.311	3072.05
480.682	3118.38
481.053	3162.9
481.424	3227.3
481.795	3257.58
482.166	3301.65
482.537	3368.77
482.908	3411.25
483.279	3465.71
483.65	3509.55
484.021	3583.68
484.391	3626.16
484.762	3637.46
485.133	3687.18
485.503	3755.42
485.874	3823.44
486.244	3825.7
486.615	3889.88
486.985	3961.52
487.356	4036.55
487.726	4097.56
488.097	4131.01
488.467	4124.68
488.837	4238.35
489.207	4283.55
489.578	4357.22
489.948	4363.77
490.318	4404.9
490.688	4409.42
491.058	4493.03
491.428	4563.99
491.798	4588.17
492.168	4690.31
492.538	4708.62
492.908	4807.15
493.278	4860.03
493.648	4820.71
494.017	4886.47
494.387	4928.95
494.757	4956.97
495.126	5014.83
495.496	5071.77
495.866	5105.67
496.235	5131.21
496.605	5175.95
496.974	5195.16
497.344	5251.2
497.713	5284.2
498.082	5350.64
498.452	5396.74
498.821	5402.16
499.19	5433.57
499.559	5486.45
499.928	5531.42
500.298	5596.51
500.667	5654.13
501.036	5672.89
501.405	5679.22
501.774	5713.34
502.143	5761.92
502.512	5784.98
502.88	5848.25
503.249	5886.44
503.618	5886.89
503.987	5926.21
504.356	6010.96
504.724	6021.8
505.093	6066.78
505.462	6092.31
505.83	6126.21
506.199	6156.72
506.567	6263.83
506.936	6249.37
507.304	6284.85
507.672	6350.38
508.041	6396.26
508.409	6452.98
508.777	6510.61
509.145	6548.57
509.514	6582.47
509.882	6582.92
510.25	6677.38
510.618	6608.68
510.986	6680.77
511.354	6739.53
511.722	6831.28
512.09	6871.5
512.458	6884.16
512.826	6946.07
513.193	6975.23
513.561	6997.82
513.929	7090.48
514.297	7141.1
514.664	7214.99
515.032	7290.92
515.4	7269.23
515.767	7380.41
516.135	7356.23
516.502	7413.63
516.869	7434.2
517.237	7543.35
517.604	7516.45
517.972	7660.41
518.339	7655.43
518.706	7662.21
519.073	7792.15
519.44	7832.38
519.808	7882.55
520.175	7902.21
520.542	7966.84
520.909	8073.95
521.276	8063.79
521.643	8148.3
522.009	8188.98
522.376	8270.11
522.743	8305.13
523.11	8384.68
523.477	8494.96
523.843	8459.48
524.21	8640.95
524.577	8671.23
524.943	8749.19
525.31	8768.17
525.676	8854.72
526.043	8865.57
526.409	8898.79
526.776	9046.36
527.142	9120.93
527.508	9145.34
527.874	9316.18
528.241	9297.65
528.607	9280.02
528.973	9366.8
529.339	9443.18
529.705	9505.56
530.071	9586.91
530.437	9623.97
530.803	9665.78
531.169	9695.15
531.535	9685.44
531.901	9843.17
532.267	9826.22
532.632	9902.61
532.998	10002.49
533.364	9985.99
533.73	10066.22
534.095	10156.84
534.461	10182.37
534.826	10200.9
535.192	10298.53
535.557	10327.68
535.923	10291.3
536.288	10363.16
536.653	10482.03
537.019	10388.47
537.384	10471.18
537.749	10505.98
538.114	10550.27
538.479	10626.66
538.845	10635.92
539.21	10654
539.575	10672.76
539.94	10748.46
540.305	10805.63
540.67	10843.83
541.034	10835.24
541.399	11016.02
541.764	10930.83
542.129	11028.68
542.494	11002.01
542.858	11062.8
543.223	11174.21
543.587	11122.24
543.952	11171.73
544.316	11192.52
544.681	11216.7
545.045	11250.82
545.41	11362
545.774	11384.6
546.138	11419.86
546.503	11435.22
546.867	11468.44
547.231	11606.29
547.595	11624.6
547.959	11618.27
548.324	11609.91
548.688	11697.14
549.052	11873.18
549.416	11701.2
549.779	11803.35
550.143	11729.45
550.507	11948.65
550.871	11973.06
551.235	11884.93
551.599	11978.48
551.962	12006.51
552.326	12112.94
552.689	12208.53
553.053	12132.15
553.417	12192.26
553.78	12347.06
554.143	12330.57
554.507	12432.26
554.87	12442.88
555.234	12531.01
555.597	12528.98
555.96	12526.49
556.323	12653.72
556.686	12670.22
557.05	12773.49
557.413	12863.88
557.776	12888.29
558.139	12936.2
558.502	12937.78
558.865	13005.12
559.228	13155.85
559.59	13163.09
559.953	13239.92
560.316	13350.43
560.679	13430.2
561.041	13517.43
561.404	13565.56
561.767	13598.1
562.129	13619.12
562.492	13748.38
562.854	13730.75
563.217	13753.13
563.579	13839.23
563.941	13984.76
564.304	14005.32
564.666	14012.1
565.028	14176.62
565.39	14209.84
565.753	14202.38
566.115	14362.15
566.477	14409.83
566.839	14515.59
567.201	14528.47
567.563	14544.52
567.925	14683.27
568.287	14732.08
568.648	14781.57
569.01	14858.86
569.372	14921.68
569.734	14936.37
570.095	15083.94
570.457	15216.14
570.819	15198.06
571.18	15199.42
571.542	15327.1
571.903	15398.06
572.265	15485.28
572.626	15429.02
572.987	15501.33
573.349	15663.13
573.71	15733.87
574.071	15759.85
574.432	15784.26
574.794	15942.67
575.155	16023.58
575.516	15903.8
575.877	16024.48
576.238	16160.75
576.599	16126.85
576.96	16210.01
577.32	16266.96
577.681	16403.45
578.042	16420.4
578.403	16378.14
578.763	16452.04
579.124	16506.05
579.485	16615.88
579.845	16784.01
580.206	16667.85
580.566	16708.08
580.927	16758.7
581.287	16947.62
581.648	16827.4
582.008	16875.08
582.368	16883.21
582.728	17063.1
583.089	17010.44
583.449	17041.63
583.809	17108.29
584.169	17148.29
584.529	17127.5
584.889	17306.93
585.249	17220.83
585.609	17155.3
585.969	17361.62
586.329	17227.16
586.688	17423.54
587.048	17456.98
587.408	17415.18
587.768	17419.47
588.127	17386.25
588.487	17486.14
588.846	17566.59
589.206	17416.08
589.565	17499.7
589.925	17657.21
590.284	17598
590.643	17719.12
591.003	17728.62
591.362	17746.69
591.721	17769.97
592.08	17834.15
592.44	17861.27
592.799	17955.05
593.158	17852
593.517	17981.26
593.876	17977.42
594.235	17930.42
594.593	18105.56
594.952	18028.49
595.311	18041.6
595.67	18070.08
596.029	18354.59
596.387	18291.54
596.746	18311.65
597.104	18267.58
597.463	18247.7
597.822	18331.54
598.18	18258.77
598.538	18363.18
598.897	18418.99
599.255	18320.01
599.613	18544.87
599.972	18410.18
600.33	18547.58
600.688	18498.31
601.046	18596.84
601.404	18840.9
601.762	18625.32
602.12	18717.97
602.478	18805.88
602.836	18808.59
603.194	18736.27
603.552	18724.3
603.91	18704.86
604.268	18891.3
604.625	18767.23
604.983	18942.14
605.341	18823.05
605.698	18907.12
606.056	19007.23
606.413	18968.36
606.771	19042.03
607.128	19135.58
607.485	19008.36
607.843	19070.95
608.2	19164.51
608.557	19293.55
608.914	19206.32
609.272	19227.56
609.629	19323.83
609.986	19386.65
610.343	19407.22
610.7	19417.61
611.057	19508
611.414	19425.29
611.771	19526.99
612.127	19499.19
612.484	19551.62
612.841	19535.8
613.198	19596.82
613.554	19602.92
613.911	19614.44
614.267	19730.37
614.624	19715.91
614.98	19713.42
615.337	19770.14
615.693	19696.25
616.05	19818.73
616.406	19915
616.762	19715
617.118	19826.19
617.475	19869.35
617.831	20004.49
618.187	19921.55
618.543	19932.85
618.899	20143.02
619.255	19951.16
619.611	19959.29
619.967	20039.52
620.323	20143.92
620.678	20090.59
621.034	19983.25
621.39	20012.4
621.746	20045.17
622.101	20297.14
622.457	20118.84
622.812	20217.82
623.168	20180.3
623.523	20170.13
623.879	20241.77
624.234	20233.41
624.589	20176.91
624.945	20207.65
625.3	20156.35
625.655	20265.05
626.01	20207.87
626.365	20212.62
626.72	20252.84
627.075	20143.92
627.43	20184.6
627.785	20129.23
628.14	20227.99
628.495	20204.93
628.85	20199.96
629.205	20173.52
629.559	20306.18
629.914	20092.4
630.269	20195.9
630.623	20158.16
630.978	20128.1
631.332	20183.24
631.687	20320.86
632.041	20050.81
632.396	20216.46
632.75	20010.59
633.104	20090.14
633.459	19981.89
633.813	20054.43
634.167	20088.33
634.521	19923.59
634.875	20055.33
635.229	19918.16
635.583	19866.41
635.937	19856.24
636.291	19873.42
636.645	19905.73
636.999	19900.76
637.352	19905.51
637.706	19813.76
638.06	19829.8
638.413	19802.23
638.767	19821.44
639.121	19711.16
639.474	19698.51
639.828	19669.13
640.181	19717.26
640.534	19631.84
640.888	19646.98
641.241	19537.61
641.594	19647.89
641.947	19698.06
642.301	19573.76
642.654	19661.9
643.007	19559.98
643.36	19540.09
643.713	19520.66
644.066	19623.48
644.419	19523.14
644.771	19424.84
645.124	19315.24
645.477	19181.23
645.83	19011.07
646.182	18896.95
646.535	18912.09
646.888	18835.03
647.24	18916.83
647.593	18901.69
647.945	18791.64
648.298	18717.97
648.65	18729.95
649.002	18730.17
649.355	18791.64
649.707	18748.48
650.059	18926.1
650.411	19122.7
650.763	19112.08
651.115	19393.66
651.467	19291.96
651.819	19231.4
652.171	19208.35
652.523	19169.26
652.875	19183.72
653.227	19180.33
653.578	19241.34
653.93	19124.74
654.282	19155.02
654.633	19011.29
654.985	19076.15
655.337	19150.73
655.688	19054.46
656.039	19208.58
656.391	19065.3
656.742	19060.33
657.094	19112.31
657.445	19168.8
657.796	19146.43
658.147	19065.08
658.498	19025.3
658.849	19079.09
659.2	19033.89
659.551	18930.62
659.902	19028.24
660.253	18986.89
660.604	19065.53
660.955	18993.89
661.306	19066.43
661.656	19001.8
662.007	18999.77
662.358	19044.51
662.708	19023.95
663.059	19039.32
663.409	18923.16
663.76	19152.99
664.11	18993.89
664.461	19034.57
664.811	19054.46
665.161	19001.12
665.511	18928.13
665.862	19004.06
666.212	19112.99
666.562	19046.32
666.912	19017.85
667.262	19072.76
667.612	18943.5
667.962	19103.27
668.312	19025.76
668.662	19141.69
669.011	19057.62
669.361	19081.57
669.711	19027.34
670.06	19031.18
670.41	18935.59
670.76	18892.43
671.109	19023.5
671.459	18932.2
671.808	18957.06
672.157	18959.77
672.507	18830.28
672.856	18959.54
673.205	18858.53
673.554	18940.79
673.904	18821.92
674.253	18943.05
674.602	18851.3
674.951	18678.42
675.3	18442.72
675.649	18823.05
675.998	18810.85
676.346	18941.24
676.695	18941.01
677.044	18856.27
677.393	18821.24
677.741	18892.43
678.09	18920.22
678.438	18771.75
678.787	18761.58
679.135	18803.84
679.484	18705.99
679.832	18812.66
680.181	18693.56
680.529	18599.55
680.877	18693.34
681.225	18554.36
681.573	18700.79
681.922	18565.43
682.27	18550.97
682.618	18554.36
682.966	18545.09
683.314	18571.98
683.661	18626.9
684.009	18430.29
684.357	18339.9
684.705	18258.32
685.053	18491.08
685.4	18379.9
685.748	18240.69
686.095	18239.34
686.443	18200.47
686.79	18208.6
687.138	18208.15
687.485	18137.87
687.832	18141.03
688.18	18163.86
688.527	18002.28
688.874	18027.14
689.221	18032.11
689.568	17912.79
689.915	17967.71
690.262	17900.59
690.609	17884.32
690.956	17780.14
691.303	17781.5
691.65	17730.2
691.997	17713.25
692.344	17602.97
692.69	17592.57
693.037	17677.54
693.383	17462.63
693.73	17547.6
694.077	17486.59
694.423	17399.81
694.769	17294.05
695.116	17293.82
695.462	17350.32
695.808	17298.57
696.155	17210.89
696.501	17167.05
696.847	17133.38
697.193	17035.07
697.539	17156.88
697.885	17031.46
698.231	17012.02
698.577	16957.34
698.923	16904.23
699.269	16912.59
699.614	16744.91
699.96	16826.72
700.306	16765.93
700.651	16668.08
700.997	16581.08
701.342	16478.93
701.688	16574.75
702.033	16496.33
702.379	16543.34
702.724	16385.37
703.069	16548.99
703.415	16281.2
703.76	16312.61
704.105	16252.04
704.45	16243.91
704.795	16191.71
705.14	16133.18
705.485	16050.47
705.83	16021.32
706.175	16067.19
706.52	15945.61
706.865	15957.14
707.209	15976.57
707.554	15971.83
707.899	15900.42
708.243	15806.18
708.588	15799.17
708.932	15720.31
709.277	15742.68
709.621	15716.47
709.966	15636.47
710.31	15760.53
710.654	15528.45
710.998	15620.87
711.342	15478.05
711.687	15547.2
712.031	15467.88
712.375	15470.6
712.719	15416.13
713.063	15421.56
713.407	15472.63
713.75	15365.51
714.094	15412.52
714.438	15357.38
714.782	15300.21
715.125	15252.52
715.469	15210.26
715.812	15167.1
716.156	15152.19
716.499	15062.47
716.843	15190.83
717.186	15014.79
717.53	15145.18
717.873	15090.49
718.216	15055.47
718.559	14936.82
718.902	14942.47
719.246	14989.25
719.589	14973.43
719.932	14933.66
720.275	14871.97
720.617	14827.9
720.96	14817.96
721.303	14868.35
721.646	14884.62
721.989	14783.38
722.331	14790.39
722.674	14848.01
723.016	14876.26
723.359	14840.56
723.701	14805.08
724.044	14642.37
724.386	14641.24
724.729	14717.4
725.071	14705.64
725.413	14603.05
725.755	14659.09
726.097	14619.32
726.439	14642.14
726.782	14541.81
727.124	14646.89
727.465	14539.55
727.807	14565.31
728.149	14445.31
728.491	14561.02
728.833	14495.93
729.175	14467.68
729.516	14448.7
729.858	14454.13
730.199	14425.43
730.541	14425.65
730.882	14431.75
731.224	14414.58
731.565	14397.63
731.906	14351.3
732.248	14454.8
732.589	14390.17
732.93	14233.11
733.271	14299.33
733.612	14331.87
733.953	14299.1
734.294	14197.41
734.635	14277.63
734.976	14359.44
735.317	14236.05
735.658	14269.5
735.999	14319.89
736.339	14325.77
736.68	14292.32
737.021	14234.47
737.361	14165.77
737.702	14246.22
738.042	14198.99
738.383	14258.42
738.723	14216.17
739.063	14264.98
739.404	14182.72
739.744	14229.27
740.084	14229.5
740.424	14059.56
740.764	14089.62
741.104	14238.76
741.444	14139.78
741.784	14070.41
742.124	14090.97
742.464	14069.95
742.804	14074.02
743.143	14010.97
743.483	14070.86
743.823	13967.81
744.162	13990.86
744.502	13968.04
744.841	13924.2
745.181	14031.76
745.52	14019.33
745.86	14057.53
746.199	13961.48
746.538	13949.96
746.877	14082.16
747.216	13988.38
747.556	14000.8
747.895	13944.31
748.234	13883.52
748.573	13875.61
748.911	13933.46
749.25	13933.91
749.589	13784.99
749.928	13870.19
750.267	13900.69
750.605	13813.46
750.944	13871.77
751.283	13773.24
751.621	13816.85
751.96	13771.21
752.298	13782.96
752.636	13802.84
752.975	13692.56
753.313	13743.41
753.651	13747.7
753.989	13696.18
754.327	13707.48
754.666	13611.66
755.004	13579.12
755.342	13557.65
755.679	13559.91
756.017	13481.27
756.355	13506.58
756.693	13506.35
757.031	13491.44
