Data from tablewood_dark_bookshelf_FLMS001491_00025.txt Node
Date: Wed Feb 08 14:14:05 GMT 2017
User: dcchb
Spectrometer: FLMS00149
Trigger mode: 0
Integration Time (sec): 2.000000E-2
Scans to average: 10
Electric dark correction enabled: true
Nonlinearity correction enabled: false
Boxcar width: 0
XAxis mode: Wavelengths
Number of Pixels in Spectrum: 2048
>>>>>Begin Spectral Data<<<<<
341.393	-4.83
341.776	-4.83
342.16	-4.83
342.543	-52.29
342.927	-57.71
343.31	-69.24
343.693	-80.53
344.077	-45.28
344.46	-69.24
344.843	-62.23
345.226	-48.9
345.61	-33.53
345.993	-16.81
346.376	-2.8
346.759	-7.09
347.142	16.41
347.525	56.18
347.908	82.4
348.291	74.94
348.674	86.69
349.057	119.01
349.44	118.78
349.823	149.52
350.206	163.07
350.588	205.79
350.971	207.59
351.354	213.92
351.737	228.84
352.119	254.82
352.502	255.73
352.884	246.91
353.267	282.39
353.65	311.55
354.032	288.95
354.414	303.18
354.797	320.13
355.179	326.23
355.562	309.06
355.944	300.47
356.326	318.32
356.709	337.53
357.091	322.17
357.473	322.39
357.855	334.14
358.238	351.77
358.62	312.68
359.002	346.12
359.384	336.63
359.766	308.61
360.148	318.32
360.53	331.21
360.912	319
361.294	335.5
361.676	321.04
362.057	310.42
362.439	341.83
362.821	317.42
363.203	340.47
363.584	333.01
363.966	336.86
364.348	303.18
364.729	309.51
365.111	314.26
365.493	330.98
365.874	315.16
366.256	306.35
366.637	299.12
367.019	320.81
367.4	312.22
367.781	321.26
368.163	331.43
368.544	304.99
368.925	310.19
369.306	323.3
369.688	313.81
370.069	320.36
370.45	333.69
370.831	312.9
371.212	310.64
371.593	324.43
371.974	307.7
372.355	305.67
372.736	333.01
373.117	321.04
373.498	335.05
373.879	312.68
374.26	325.33
374.641	305.44
375.021	319
375.402	345.67
375.783	307.03
376.163	349.96
376.544	332.56
376.925	334.6
377.305	318.55
377.686	321.04
378.066	333.92
378.447	323.52
378.827	328.72
379.208	341.38
379.588	318.55
379.968	321.26
380.349	330.3
380.729	321.04
381.109	326.91
381.489	354.71
381.87	341.38
382.25	354.03
382.63	348.38
383.01	350.64
383.39	350.87
383.77	347.25
384.15	354.71
384.53	352.45
384.91	354.48
385.29	363.52
385.67	362.39
386.049	359.68
386.429	370.98
386.809	351.77
387.189	359.45
387.568	352
387.948	361.71
388.328	356.52
388.707	364.2
389.087	374.59
389.466	384.09
389.846	383.41
390.225	389.28
390.605	389.28
390.984	375.27
391.363	392.67
391.743	368.95
392.122	384.09
392.501	396.51
392.881	375.5
393.26	376.63
393.639	397.19
394.018	398.77
394.397	404.42
394.776	392.22
395.155	399.45
395.534	382.28
395.913	401.03
396.292	395.16
396.671	392.67
397.05	423.63
397.429	403.07
397.808	405.1
398.186	419.79
398.565	418.44
398.944	387.7
399.323	411.43
399.701	413.46
400.08	415.95
400.458	426.57
400.837	434.71
401.215	426.12
401.594	444.65
401.972	413.92
402.351	436.51
402.729	426.12
403.107	457.08
403.486	420.24
403.864	445.33
404.242	468.6
404.62	448.27
404.999	445.78
405.377	464.76
405.755	457.3
406.133	454.14
406.511	468.15
406.889	461.6
407.267	457.3
407.645	472.22
408.023	467.93
408.401	468.15
408.779	465.89
409.156	465.67
409.534	474.48
409.912	491.88
410.29	488.26
410.667	500.02
411.045	502.27
411.422	496.17
411.8	528.49
412.178	492.56
412.555	503.4
412.933	496.85
413.31	514.03
413.687	542.27
414.065	518.09
414.442	526.46
414.819	529.62
415.197	544.53
415.574	553.8
415.951	543.86
416.328	560.58
416.705	563.74
417.082	537.98
417.46	540.24
417.837	566.91
418.214	582.5
418.591	573.69
418.967	574.82
419.344	566.91
419.721	593.8
420.098	596.74
420.475	591.54
420.852	585.89
421.228	578.66
421.605	619.11
421.982	594.93
422.358	610.75
422.735	629.5
423.111	622.5
423.488	625.89
423.864	619.56
424.241	635.38
424.617	627.7
424.994	627.92
425.37	636.96
425.746	651.42
426.123	635.6
426.499	663.4
426.875	671.31
427.251	650.29
427.627	660.69
428.003	655.72
428.379	672.44
428.756	687.81
429.132	671.54
429.507	689.39
429.883	698.88
430.259	721.48
430.635	697.07
431.011	721.93
431.387	744.08
431.763	760.57
432.138	735.04
432.514	747.92
432.89	759.44
433.265	782.27
433.641	789.5
434.016	775.49
434.392	782.49
434.767	793.57
435.143	797.41
435.518	818.42
435.894	810.52
436.269	837.86
436.644	829.95
437.02	848.03
437.395	825.88
437.77	849.61
438.145	872.21
438.52	884.86
438.895	841.7
439.271	869.72
439.646	893.68
440.021	890.29
440.395	878.76
440.77	870.85
441.145	877.63
441.52	908.82
441.895	894.13
442.27	919.21
442.645	924.18
443.019	949.72
443.394	915.15
443.769	922.83
444.143	912.89
444.518	945.43
444.892	913.79
445.267	953.34
445.641	937.74
446.016	959.89
446.39	983.84
446.764	949.49
447.139	965.31
447.513	964.41
447.887	987.91
448.262	974.8
448.636	971.42
449.01	1000.57
449.384	1007.12
449.758	1001.92
450.132	1002.37
450.506	1031.07
450.88	1036.05
451.254	1048.7
451.628	1037.85
452.002	1051.86
452.376	1072.43
452.75	1069.94
453.123	1091.64
453.497	1095.48
453.871	1086.21
454.244	1093.45
454.618	1105.87
454.992	1147.68
455.365	1132.31
455.739	1154.46
456.112	1168.02
456.486	1174.35
456.859	1197.17
457.232	1182.48
457.606	1227
457.979	1217.51
458.352	1239.88
458.725	1240.79
459.099	1282.59
459.472	1283.5
459.845	1257.06
460.218	1294.12
460.591	1314.68
460.964	1288.24
461.337	1310.39
461.71	1333.44
462.083	1388.13
462.456	1384.06
462.829	1351.07
463.201	1393.55
463.574	1388.13
463.947	1418.64
464.32	1431.97
464.692	1455.47
465.065	1445.75
465.438	1497.95
465.81	1511.74
466.183	1491.63
466.555	1554.9
466.928	1555.13
467.3	1543.15
467.672	1572.76
468.045	1602.81
468.417	1617.5
468.789	1611.85
469.161	1656.14
469.534	1653.88
469.906	1693.43
470.278	1700.89
470.65	1739.76
471.022	1725.29
471.394	1760.09
471.766	1809.36
472.138	1803.26
472.51	1849.13
472.882	1843.26
473.253	1886.65
473.625	1896.14
473.997	1901.79
474.369	1963.71
474.74	1980.65
475.112	1998.73
475.484	2052.52
475.855	2031.5
476.227	2077.6
476.598	2125.51
476.97	2143.14
477.341	2179.52
477.713	2232.62
478.084	2245.28
478.455	2277.6
478.827	2280.31
479.198	2343.81
479.569	2361.21
479.94	2439.4
480.311	2425.61
480.682	2471.04
481.053	2533.41
481.424	2555.33
481.795	2593.52
482.166	2638.04
482.537	2684.14
482.908	2687.08
483.279	2713.97
483.65	2782.67
484.021	2838.71
484.391	2836.45
484.762	2897.47
485.133	2868.31
485.503	2939.05
485.874	3019.72
486.244	3032.38
486.615	3094.75
486.985	3080.96
487.356	3181.07
487.726	3186.05
488.097	3302.2
488.467	3234.41
488.837	3322.09
489.207	3337
489.578	3387.17
489.948	3412.93
490.318	3445.25
490.688	3497.9
491.058	3546.26
491.428	3584.23
491.798	3656.99
492.168	3682.98
492.538	3728.4
492.908	3748.74
493.278	3764.79
493.648	3801.17
494.017	3832.13
494.387	3876.2
494.757	3885.91
495.126	3946.93
495.496	3971.56
495.866	3980.6
496.235	3998.91
496.605	4055.18
496.974	4077.32
497.344	4060.15
497.713	4154.61
498.082	4141.05
498.452	4241.16
498.821	4271.67
499.19	4273.02
499.559	4247.94
499.928	4357.54
500.298	4336.52
500.667	4399.57
501.036	4385.56
501.405	4438.89
501.774	4441.61
502.143	4510.53
502.512	4508.72
502.88	4557.08
503.249	4545.11
503.618	4562.28
503.987	4621.26
504.356	4667.14
504.724	4692
505.093	4673.46
505.462	4696.29
505.83	4718.21
506.199	4810.41
506.567	4879.33
506.936	4838.88
507.304	4930.18
507.672	4953.68
508.041	4875.04
508.409	4957.98
508.777	5011.76
509.145	5037.75
509.514	5055.6
509.882	5114.58
510.25	5118.88
510.618	5140.12
510.986	5168.59
511.354	5263.51
511.722	5304.63
512.09	5323.84
512.458	5335.59
512.826	5391.64
513.193	5432.99
513.561	5476.83
513.929	5447.23
514.297	5519.09
514.664	5596.83
515.032	5597.28
515.4	5678.64
515.767	5638.64
516.135	5681.8
516.502	5728.13
516.869	5790.95
517.237	5798.86
517.604	5782.14
517.972	5833.89
518.339	5889.93
518.706	5945.3
519.073	6011.51
519.44	6022.13
519.808	6060.09
520.175	6091.51
520.542	6119.08
520.909	6213.99
521.276	6260.09
521.643	6278.62
522.009	6331.73
522.376	6369.92
522.743	6407.88
523.11	6435.68
523.477	6522.46
523.843	6563.81
524.21	6608.78
524.577	6657.82
524.943	6704.15
525.31	6740.75
525.676	6808.78
526.043	6902.56
526.409	6896.01
526.776	6967.19
527.142	7035.89
527.508	7063.68
527.874	7106.85
528.241	7133.96
528.607	7191.14
528.973	7188.88
529.339	7199.5
529.705	7318.82
530.071	7380.06
530.437	7391.13
530.803	7422.77
531.169	7415.99
531.535	7518.36
531.901	7533.95
532.267	7607.62
532.632	7639.04
532.998	7686.04
533.364	7753.61
533.73	7726.04
534.095	7789.31
534.461	7785.47
534.826	7874.96
535.192	7905.92
535.557	7954.73
535.923	7933.04
536.288	7961.97
536.653	8015.75
537.019	8000.61
537.384	7992.7
537.749	8138.01
538.114	8110.21
538.479	8138.23
538.845	8277.89
539.21	8143.43
539.575	8185.91
539.94	8221.85
540.305	8328.06
540.67	8283.77
541.034	8388.4
541.399	8385.91
541.764	8444.89
542.129	8452.12
542.494	8470.2
542.858	8477.43
543.223	8595.62
543.587	8572.35
543.952	8564.21
544.316	8634.04
544.681	8654.38
545.045	8776.18
545.41	8746.58
545.774	8770.76
546.138	8833.58
546.503	8800.36
546.867	8747.71
547.231	8889.63
547.595	8941.15
547.959	8953.13
548.324	8986.8
548.688	8974.14
549.052	9052.33
549.416	9052.56
549.779	9113.8
550.143	9086.46
550.507	9185.66
550.871	9168.71
551.235	9150.41
551.599	9277.19
551.962	9280.8
552.326	9343.17
552.689	9384.53
553.053	9334.13
553.417	9374.36
553.78	9479.89
554.143	9510.4
554.507	9551.98
554.87	9623.84
555.234	9626.55
555.597	9640.79
555.96	9664.75
556.323	9723.28
556.686	9756.72
557.05	9845.53
557.413	9896.6
557.776	9881.01
558.139	9937.28
558.502	10039.43
558.865	10042.59
559.228	10128.46
559.59	10151.51
559.953	10162.13
560.316	10352.64
560.679	10303.37
561.041	10324.39
561.404	10447.78
561.767	10486.19
562.129	10465.85
562.492	10543.59
562.854	10574.55
563.217	10530.03
563.579	10588.56
563.941	10710.14
564.304	10796.24
564.666	10866.52
565.028	10926.41
565.39	10950.14
565.753	11025.84
566.115	11056.57
566.477	11025.39
566.839	11125.05
567.201	11173.18
567.563	11278.04
567.925	11337.02
568.287	11327.3
568.648	11398.26
569.01	11450.69
569.372	11484.36
569.734	11507.41
570.095	11590.34
570.457	11627.86
570.819	11737.46
571.18	11730.45
571.542	11838.25
571.903	11807.29
572.265	11898.13
572.626	11944.23
572.987	12015.87
573.349	11998.24
573.71	12127.96
574.071	12128.18
574.432	12182.19
574.794	12279.82
575.155	12387.61
575.516	12323.88
575.877	12397.56
576.238	12403.43
576.599	12499.7
576.96	12414.5
577.32	12548.74
577.681	12529.76
578.042	12653.37
578.403	12643.2
578.763	12620.37
579.124	12707.6
579.485	12805.91
579.845	12839.8
580.206	12767.72
580.566	12804.55
580.927	12859.69
581.287	12928.39
581.648	12956.86
582.008	13006.58
582.368	13028.95
582.728	13087.25
583.089	13071.89
583.449	13144.88
583.809	13098.78
584.169	13206.12
584.529	13119.8
584.889	13331.99
585.249	13214.48
585.609	13195.5
585.969	13325.67
586.329	13299.23
586.688	13358.21
587.048	13324.99
587.408	13321.82
587.768	13349.62
588.127	13331.77
588.487	13395.95
588.846	13497.64
589.206	13482.05
589.565	13426.68
589.925	13488.15
590.284	13473.91
590.643	13620.35
591.003	13598.2
591.362	13637.97
591.721	13670.52
592.08	13717.29
592.44	13650.63
592.799	13757.97
593.158	13702.61
593.517	13687.69
593.876	13771.08
594.235	13723.85
594.593	13768.37
594.952	13845.88
595.311	13787.35
595.67	13881.81
596.029	13928.81
596.387	13920.68
596.746	14012.65
597.104	13916.39
597.463	14018.3
597.822	14068.02
598.18	14002.94
598.538	13999.55
598.897	14017.63
599.255	13947.8
599.613	14276.83
599.972	14131.97
600.33	14229.82
600.688	14149.6
601.046	14218.3
601.404	14285.42
601.762	14189.15
602.12	14391.63
602.478	14338.52
602.836	14451.51
603.194	14317.28
603.552	14485.64
603.91	14392.31
604.268	14522.7
604.625	14412.19
604.983	14470.04
605.341	14343.27
605.698	14473.21
606.056	14534.22
606.413	14558.63
606.771	14571.28
607.128	14627.55
607.485	14566.31
607.843	14622.13
608.2	14621.23
608.557	14655.8
608.914	14677.72
609.272	14706.2
609.629	14835.68
609.986	14805.85
610.343	14696.48
610.7	14831.62
611.057	14888.56
611.414	14851.5
611.771	14880.2
612.127	14976.24
612.484	14955
612.841	15051.95
613.198	14927.21
613.554	14964.72
613.911	15112.06
614.267	15158.84
614.624	15051.04
614.98	15083.81
615.337	15103.47
615.693	15127.65
616.05	15172.17
616.406	15189.35
616.762	15154.09
617.118	15251.72
617.475	15196.58
617.831	15293.07
618.187	15266.86
618.543	15230.02
618.899	15258.5
619.255	15305.5
619.611	15331.04
619.967	15380.08
620.323	15350.25
620.678	15345.27
621.034	15391.15
621.39	15369
621.746	15365.16
622.101	15458.94
622.457	15317.7
622.812	15449
623.168	15513.18
623.523	15486.51
623.879	15544.37
624.234	15416.69
624.589	15443.13
624.945	15501.65
625.3	15497.59
625.655	15490.58
626.01	15480.64
626.365	15479.51
626.72	15478.38
627.075	15524.48
627.43	15515.89
627.785	15429.79
628.14	15489.45
628.495	15483.8
628.85	15477.02
629.205	15369.45
629.559	15454.2
629.914	15379.62
630.269	15466.18
630.623	15385.27
630.978	15342.11
631.332	15430.92
631.687	15498.04
632.041	15383.47
632.396	15397.7
632.75	15315.22
633.104	15385.5
633.459	15269.34
633.813	15301.66
634.167	15250.36
634.521	15323.13
634.875	15355.67
635.229	15276.35
635.583	15246.97
635.937	15224.37
636.291	15259.4
636.645	15268.21
636.999	15197.26
637.352	15213.53
637.706	15200.87
638.06	15220.98
638.413	15172.85
638.767	15037.49
639.121	15183.47
639.474	14966.75
639.828	15185.05
640.181	15158.84
640.534	15156.13
640.888	15020.99
641.241	15063.7
641.594	14976.02
641.947	15063.25
642.301	15043.36
642.654	15098.28
643.007	14936.92
643.36	15006.53
643.713	14945.06
644.066	15006.98
644.419	14995
644.771	14716.14
645.124	14694.22
645.477	14642.92
645.83	14605.63
646.182	14517.73
646.535	14525.64
646.888	14557.05
647.24	14477.5
647.593	14566.76
647.945	14470.04
648.298	14431.4
648.65	14372.64
649.002	14333.1
649.355	14447.9
649.707	14465.98
650.059	14419.65
650.411	14653.09
650.763	14653.99
651.115	14832.07
651.467	14807.89
651.819	14768.11
652.171	14692.86
652.523	14678.85
652.875	14700.32
653.227	14661
653.578	14767.89
653.93	14640.89
654.282	14616.93
654.633	14644.95
654.985	14655.12
655.337	14769.02
655.688	14707.78
656.039	14773.09
656.391	14587.1
656.742	14593.66
657.094	14641.34
657.445	14662.58
657.796	14637.27
658.147	14576.93
658.498	14552.98
658.849	14653.54
659.2	14658.06
659.551	14681.56
659.902	14733.77
660.253	14672.52
660.604	14665.07
660.955	14573.54
661.306	14608.57
661.656	14637.72
662.007	14623.71
662.358	14602.24
662.708	14578.97
663.059	14586.65
663.409	14505.97
663.76	14588.68
664.11	14603.83
664.461	14605.63
664.811	14592.98
665.161	14620.32
665.511	14533.32
665.862	14529.25
666.212	14639.53
666.562	14568.8
666.912	14638.17
667.262	14578.06
667.612	14633.65
667.962	14598.63
668.312	14583.49
668.662	14636.37
669.011	14592.53
669.361	14624.62
669.711	14603.15
670.06	14553.88
670.41	14524.05
670.76	14522.7
671.109	14549.82
671.459	14506.65
671.808	14460.78
672.157	14564.05
672.507	14528.35
672.856	14469.14
673.205	14543.04
673.554	14491.96
673.904	14503.04
674.253	14628.23
674.602	14457.61
674.951	14334.23
675.3	14305.98
675.649	14426.65
675.998	14471.17
676.346	14472.08
676.695	14534.22
677.044	14446.77
677.393	14457.84
677.741	14459.65
678.09	14450.16
678.438	14471.17
678.787	14455.35
679.135	14499.42
679.484	14350.05
679.832	14432.98
680.181	14337.39
680.529	14376.03
680.877	14277.05
681.225	14220.11
681.573	14387.11
681.922	14300.1
682.27	14217.17
682.618	14224.63
682.966	14204.97
683.314	14280.67
683.661	14085.65
684.009	14129.71
684.357	14139.43
684.705	14077.51
685.053	14087.23
685.4	14074.35
685.748	13943.5
686.095	14001.81
686.443	13950.28
686.79	13938.31
687.138	13991.64
687.485	13957.06
687.832	13968.36
688.18	13920.91
688.527	13879.1
688.874	13848.59
689.221	13827.35
689.568	13769.72
689.915	13818.76
690.262	13752.77
690.609	13663.28
690.956	13709.39
691.303	13652.44
691.65	13582.83
691.997	13603.17
692.344	13547.81
692.69	13547.81
693.037	13606.56
693.383	13461.26
693.73	13410.86
694.077	13447.7
694.423	13383.97
694.769	13373.57
695.116	13370.19
695.462	13227.14
695.808	13280.92
696.155	13187.82
696.501	13176.74
696.847	13241.83
697.193	13124.32
697.539	13147.37
697.885	13133.36
698.231	13012.91
698.577	13095.84
698.923	13095.39
699.269	13023.53
699.614	12874.38
699.96	12812.23
700.306	12893.59
700.651	12785.57
700.997	12773.82
701.342	12710.32
701.688	12732.69
702.033	12765.91
702.379	12667.15
702.724	12746.7
703.069	12646.14
703.415	12541.73
703.76	12524.33
704.105	12539.7
704.45	12494.5
704.795	12461.51
705.14	12412.02
705.485	12463.09
705.83	12248.63
706.175	12307.61
706.52	12356.88
706.865	12221.97
707.209	12252.93
707.554	12227.84
707.899	12240.05
708.243	12187.17
708.588	12163.89
708.932	12140.16
709.277	12067.17
709.621	12013.16
709.966	12028.53
710.31	12070.78
710.654	12003.44
710.998	11992.37
711.342	11996.21
711.687	12004.12
712.031	11914.63
712.375	11954.18
712.719	11943.56
713.063	11846.38
713.407	11862.88
713.75	11853.84
714.094	11852.48
714.438	11797.8
714.782	11767.06
715.125	11760.51
715.469	11753.05
715.812	11743.79
716.156	11619.95
716.499	11651.81
716.843	11657.46
717.186	11590.57
717.53	11658.14
717.873	11676.67
718.216	11638.03
718.559	11562.78
718.902	11515.32
719.246	11527.75
719.589	11539.72
719.932	11508.09
720.275	11514.41
720.617	11417.24
720.96	11511.25
721.303	11422.89
721.646	11474.87
721.989	11372.95
722.331	11463.79
722.674	11443.68
723.016	11464.7
723.359	11401.2
723.701	11395.1
724.044	11333.63
724.386	11316.45
724.729	11416.79
725.071	11304.7
725.413	11321.2
725.755	11246.4
726.097	11257.7
726.439	11290.24
726.782	11288.88
727.124	11268.55
727.465	11214.31
727.807	11214.08
728.149	11173.18
728.491	11159.62
728.833	11183.35
729.175	11186.51
729.516	11125.72
729.858	11216.34
730.199	11216.57
730.541	11134.31
730.882	11146.29
731.224	11127.76
731.565	11068.32
731.906	11104.26
732.248	11080.08
732.589	11028.1
732.93	11023.35
733.271	11023.58
733.612	11012.28
733.953	11016.57
734.294	11029
734.635	10998.27
734.976	11052.96
735.317	11083.01
735.658	11025.39
735.999	10998.72
736.339	10972.06
736.68	10979.97
737.021	11030.81
737.361	10988.33
737.702	10993.98
738.042	10916.92
738.383	10913.3
738.723	10946.97
739.063	10921.89
739.404	10934.54
739.744	10880.08
740.084	10910.14
740.424	10877.6
740.764	10825.62
741.104	10917.82
741.444	10957.14
741.784	10835.56
742.124	10819.29
742.464	10864.71
742.804	10831.72
743.143	10858.61
743.483	10916.92
743.823	10784.26
744.162	10836.69
744.502	10836.01
744.841	10699.97
745.181	10826.52
745.52	10774.1
745.86	10890.7
746.199	10763.7
746.538	10785.39
746.877	10809.8
747.216	10740.65
747.556	10735.68
747.895	10792.63
748.234	10740.88
748.573	10720.31
748.911	10734.77
749.25	10779.97
749.589	10654.78
749.928	10689.8
750.267	10760.76
750.605	10666.98
750.944	10688.9
751.283	10729.8
751.621	10681.22
751.96	10587.89
752.298	10583.14
752.636	10560.54
752.975	10598.73
753.313	10555.8
753.651	10619.97
753.989	10554.44
754.327	10506.98
754.666	10488
755.004	10549.47
755.342	10511.5
755.679	10454.33
756.017	10418.85
756.355	10502.01
756.693	10456.14
757.031	10418.85
757.368	10369.81
757.706	10342.69
758.044	10376.37
758.381	10350.15
758.719	10329.14
759.056	10279.87
