Data from tablewood_brown_FLMS001491_088.txt Node
Date: Tue Feb 07 11:11:08 GMT 2017
User: dcchb
Spectrometer: FLMS00149
Trigger mode: 0
Integration Time (sec): 2.000000E-2
Scans to average: 10
Electric dark correction enabled: true
Nonlinearity correction enabled: false
Boxcar width: 0
XAxis mode: Wavelengths
Number of Pixels in Spectrum: 2048
>>>>>Begin Spectral Data<<<<<
341.393	-7.51
341.776	-7.51
342.16	-7.51
342.543	-56.33
342.927	-63.33
343.31	-56.1
343.693	-63.56
344.077	-68.98
344.46	-68.08
344.843	-67.63
345.226	-48.42
345.61	-16.55
345.993	-27.63
346.376	15.99
346.759	-7.29
347.142	21.86
347.525	65.03
347.908	51.69
348.291	72.94
348.674	85.14
349.057	111.58
349.44	139.15
349.823	150
350.206	145.02
350.588	195.42
350.971	215.53
351.354	216.66
351.737	252.82
352.119	256.21
352.502	287.62
352.884	290.78
353.267	281.07
353.65	294.85
354.032	292.82
354.414	330.1
354.797	312.48
355.179	336.88
355.562	325.58
355.944	353.15
356.326	356.77
356.709	337.11
357.091	356.77
357.473	350.44
357.855	349.09
358.238	331.46
358.62	338.01
359.002	346.38
359.384	363.32
359.766	362.19
360.148	363.32
360.53	361.52
360.912	356.54
361.294	350.67
361.676	333.04
362.057	322.19
362.439	341.86
362.821	328.3
363.203	346.15
363.584	362.65
363.966	320.39
364.348	333.95
364.729	352.02
365.111	344.12
365.493	313.16
365.874	321.29
366.256	327.39
366.637	325.36
367.019	324.23
367.4	351.57
367.781	331.91
368.163	319.26
368.544	318.81
368.925	308.64
369.306	343.21
369.688	308.64
370.069	330.33
370.45	317.22
370.831	335.08
371.212	322.42
371.593	328.97
371.974	311.35
372.355	330.56
372.736	326.71
373.117	339.6
373.498	330.1
373.879	318.13
374.26	332.14
374.641	329.43
375.021	362.87
375.402	348.18
375.783	344.57
376.163	359.03
376.544	338.01
376.925	329.65
377.305	361.74
377.686	347.96
378.066	346.38
378.447	349.76
378.827	369.88
379.208	349.09
379.588	341.86
379.968	349.31
380.349	333.72
380.729	343.44
381.109	359.26
381.489	374.4
381.87	351.57
382.25	359.26
382.63	373.04
383.01	380.27
383.39	367.39
383.77	374.4
384.15	364.45
384.53	359.03
384.91	382.08
385.29	378.69
385.67	390.44
386.049	388.63
386.429	389.54
386.809	385.7
387.189	392.93
387.568	407.16
387.948	389.31
388.328	392.02
388.707	396.32
389.087	392.93
389.466	420.27
389.846	410.33
390.225	421.18
390.605	399.93
390.984	417.11
391.363	403.32
391.743	430.67
392.122	416.66
392.501	418.01
392.881	455.3
393.26	423.89
393.639	445.81
394.018	429.08
394.397	459.37
394.776	471.8
395.155	452.14
395.534	475.64
395.913	456.43
396.292	454.17
396.671	468.18
397.05	465.02
397.429	473.15
397.808	459.37
398.186	499.37
398.565	467.95
398.944	499.82
399.323	487.16
399.701	492.81
400.08	491.23
400.458	504.34
400.837	507.73
401.215	500.04
401.594	490.33
401.972	506.82
402.351	509.31
402.729	521.74
403.107	495.52
403.486	517.9
403.864	518.35
404.242	541.4
404.62	532.58
404.999	532.13
405.377	549.99
405.755	530.1
406.133	578.23
406.511	549.08
406.889	566.03
407.267	560.61
407.645	576.65
408.023	562.19
408.401	562.64
408.779	594.73
409.156	601.06
409.534	593.15
409.912	621.85
410.29	605.58
410.667	593.15
411.045	632.92
411.422	605.58
411.8	620.04
412.178	642.86
412.555	638.8
412.933	659.14
413.31	633.83
413.687	656.65
414.065	645.12
414.442	659.81
414.819	689.64
415.197	697.1
415.574	683.77
415.951	702.75
416.328	690.32
416.705	703.43
417.082	715.4
417.46	728.51
417.837	713.37
418.214	719.92
418.591	728.51
418.967	724.44
419.344	716.99
419.721	747.95
420.098	754.5
420.475	758.79
420.852	763.09
421.228	770.77
421.605	759.25
421.982	798.34
422.358	771.45
422.735	773.93
423.111	795.85
423.488	824.33
423.864	801.73
424.241	828.4
424.617	812.58
424.994	796.53
425.37	794.5
425.746	798.34
426.123	842.86
426.499	843.76
426.875	832.01
427.251	885.57
427.627	880.6
428.003	875.85
428.379	892.8
428.756	893.71
429.132	923.54
429.507	906.13
429.883	946.36
430.259	921.05
430.635	933.03
431.011	947.94
431.387	966.02
431.763	999.69
432.138	999.47
432.514	1006.47
432.89	1007.37
433.265	1022.06
433.641	1026.36
434.016	1052.8
434.392	1032.91
434.767	1076.98
435.143	1100.71
435.518	1108.39
435.894	1094.38
436.269	1111.78
436.644	1125.34
437.02	1135.73
437.395	1159.91
437.77	1154.94
438.145	1171.21
438.52	1174.38
438.895	1182.06
439.271	1181.61
439.646	1216.41
440.021	1222.28
440.395	1198.1
440.77	1228.16
441.145	1239.68
441.52	1273.58
441.895	1252.79
442.27	1265.22
442.645	1275.39
443.019	1304.32
443.394	1276.29
443.769	1287.14
444.143	1299.12
444.518	1317.2
444.892	1331.66
445.267	1351.55
445.641	1355.61
446.016	1346.57
446.39	1357.87
446.764	1374.37
447.139	1365.78
447.513	1379.79
447.887	1388.83
448.262	1406.01
448.636	1393.58
449.01	1423.18
449.384	1436.52
449.758	1449.4
450.132	1478.1
450.506	1463.18
450.88	1486.46
451.254	1482.84
451.628	1498.89
452.002	1506.34
452.376	1498.89
452.75	1516.97
453.123	1546.34
453.497	1562.84
453.871	1584.99
454.244	1638.32
454.618	1616.17
454.992	1668.37
455.365	1643.97
455.739	1675.15
456.112	1683.97
456.486	1718.32
456.859	1742.5
457.232	1753.57
457.606	1727.58
457.979	1776.85
458.352	1848.26
458.725	1826.79
459.099	1808.26
459.472	1855.04
459.845	1851.65
460.218	1899.1
460.591	1898.42
460.964	1947.91
461.337	1979.78
461.71	1980.68
462.083	2026.78
462.456	2022.26
462.829	2044.64
463.201	2078.76
463.574	2096.39
463.947	2154.24
464.32	2155.59
464.692	2183.16
465.065	2176.61
465.438	2257.51
465.81	2241.47
466.183	2278.75
466.555	2332.76
466.928	2335.93
467.3	2370.73
467.672	2379.54
468.045	2433.78
468.417	2459.54
468.789	2498.41
469.161	2533.21
469.534	2576.37
469.906	2624.06
470.278	2655.47
470.65	2702.7
471.022	2747.22
471.394	2805.75
471.766	2825.63
472.138	2855.24
472.51	2955.8
472.882	2943.14
473.253	3011.16
473.625	3102.46
473.997	3139.75
474.369	3147.43
474.74	3218.16
475.112	3265.39
475.484	3335.68
475.855	3402.11
476.227	3465.39
476.598	3588.32
476.97	3608.89
477.341	3645.95
477.713	3748.32
478.084	3761.65
478.455	3908.32
478.827	3929.56
479.198	4024.92
479.569	4074.19
479.94	4197.35
480.311	4198.25
480.682	4305.37
481.053	4409.77
481.424	4519.15
481.795	4576.32
482.166	4683.66
482.537	4712.81
482.908	4835.07
483.279	4887.5
483.65	5014.27
484.021	5099.47
484.391	5181.95
484.762	5228.28
485.133	5313.48
485.503	5365
485.874	5442.96
486.244	5538.78
486.615	5660.59
486.985	5670.75
487.356	5848.15
487.726	5887.25
488.097	6039.78
488.467	6075.04
488.837	6146.9
489.207	6217.63
489.578	6394.8
489.948	6414.01
490.318	6528.59
490.688	6513.9
491.058	6652.65
491.428	6715.7
491.798	6811.97
492.168	6904.17
492.538	7019.19
492.908	7045.86
493.278	7204.05
493.648	7170.38
494.017	7283.37
494.387	7357.72
494.757	7406.3
495.126	7568.56
495.496	7550.25
495.866	7589.57
496.235	7748.67
496.605	7776.01
496.974	7810.13
497.344	7857.59
497.713	7994.99
498.082	8027.76
498.452	8143.01
498.821	8147.3
499.19	8176
499.559	8265.49
499.928	8333.06
500.298	8426.16
500.667	8440.17
501.036	8509.78
501.405	8548.65
501.774	8628.64
502.143	8671.13
502.512	8738.24
502.88	8767.17
503.249	8799.71
503.618	8939.37
503.987	8990.67
504.356	9077.9
504.724	9088.29
505.093	9121.96
505.462	9234.95
505.83	9303.43
506.199	9302.52
506.567	9483.31
506.936	9478.56
507.304	9616.41
507.672	9637.66
508.041	9692.34
508.409	9797.88
508.777	9870.19
509.145	9930.08
509.514	9976.18
509.882	10085.1
510.25	10139.34
510.618	10190.64
510.986	10290.97
511.354	10384.98
511.722	10455.26
512.09	10554.92
512.458	10548.14
512.826	10634.92
513.193	10760.56
513.561	10827.46
513.929	10888.7
514.297	11022.7
514.664	11052.08
515.032	11138.41
515.4	11244.62
515.767	11299.31
516.135	11375.01
516.502	11382.47
516.869	11567.32
517.237	11650.26
517.604	11649.58
517.972	11786.07
518.339	11892.06
518.706	11974.09
519.073	11972.74
519.44	12110.59
519.808	12289.11
520.175	12266.29
520.542	12429.45
520.909	12525.94
521.276	12592.61
521.643	12677.58
522.009	12823.34
522.376	12984.91
522.743	13000.28
523.11	13119.82
523.477	13230.78
523.843	13287.73
524.21	13539.7
524.577	13673.71
524.943	13685.91
525.31	13774.95
525.676	13995.51
526.043	14022.63
526.409	14105.79
526.776	14245.9
527.142	14305.56
527.508	14358.66
527.874	14504.87
528.241	14643.4
528.607	14640.69
528.973	14808.59
529.339	14786.9
529.705	14950.51
530.071	15199.09
530.437	15234.35
530.803	15291.74
531.169	15354.12
531.535	15348.24
531.901	15456.26
532.267	15552.53
532.632	15710.26
532.998	15670.04
533.364	15854.67
533.73	15837.72
534.095	15999.52
534.461	16076.81
534.826	16123.36
535.192	16251.27
535.557	16366.29
535.923	16324.03
536.288	16453.07
536.653	16435.67
537.019	16569.45
537.384	16566.51
537.749	16682.22
538.114	16721.31
538.479	16717.7
538.845	16827.98
539.21	16957.69
539.575	17034.52
539.94	17068.42
540.305	17127.63
540.67	17167.85
541.034	17170.11
541.399	17328.08
541.764	17292.14
542.129	17389.77
542.494	17480.39
542.858	17415.08
543.223	17555.19
543.587	17699.14
543.952	17726.03
544.316	17792.24
544.681	17785.01
545.045	17778.46
545.41	17922.64
545.774	18107.72
546.138	18046.02
546.503	18124.89
546.867	18210.31
547.231	18336.18
547.595	18389.52
547.959	18412.57
548.324	18468.61
548.688	18478.55
549.052	18632.67
549.416	18726.91
549.779	18733.01
550.143	18726.68
550.507	19023.62
550.871	19042.15
551.235	18977.98
551.599	19201.7
551.962	19325.09
552.326	19375.93
552.689	19541.58
553.053	19498.64
553.417	19578.41
553.78	19917.61
554.143	19852.08
554.507	20016.37
554.87	19979.08
555.234	20288.22
555.597	20231.5
555.96	20445.73
556.323	20485.73
556.686	20523.25
557.05	20771.37
557.413	20762.11
557.776	20927.75
558.139	21056.56
558.502	21218.14
558.865	21278.93
559.228	21594.86
559.59	21616.1
559.953	21755.3
560.316	22021.74
560.679	21987.61
561.041	22221.73
561.404	22322.07
561.767	22607.26
562.129	22576.98
562.492	22828.27
562.854	22891.09
563.217	22970.19
563.579	23107.58
563.941	23381.7
564.304	23506.22
564.666	23694.01
565.028	23768.13
565.39	24051.97
565.753	24114.11
566.115	24320.21
566.477	24553.42
566.839	24539.86
567.201	24785.73
567.563	24872.74
567.925	25154.08
568.287	25270.92
568.648	25255.32
569.01	25577.58
569.372	25810.11
569.734	25836.55
570.095	26067.05
570.457	26244.68
570.819	26390.66
571.18	26585.91
571.542	26702.97
571.903	26801.27
572.265	27100.25
572.626	27215.73
572.987	27310.41
573.349	27544.3
573.71	27765.77
574.071	27850.28
574.432	28170.28
574.794	28296.6
575.155	28382.93
575.516	28366.43
575.877	28703.82
576.238	28782.69
576.599	28922.35
576.96	28948.79
577.32	29101.55
577.681	29341.54
578.042	29454.99
578.403	29483.69
578.763	29676.45
579.124	29784.02
579.485	30120.28
579.845	30165.7
580.206	30167.74
580.566	30294.51
580.927	30231.24
581.287	30403.89
581.648	30440.73
582.008	30664.22
582.368	30587.61
582.728	30766.82
583.089	30791.22
583.449	30861.5
583.809	31064.89
584.169	31033.48
584.529	31026.02
584.889	31333.81
585.249	31236.41
585.609	31379.23
585.969	31482.51
586.329	31438.44
586.688	31518.66
587.048	31536.29
587.408	31526.12
587.768	31575.84
588.127	31697.64
588.487	31575.84
588.846	31855.38
589.206	31712.78
589.565	31719.56
589.925	31939.89
590.284	31786.9
590.643	31983.06
591.003	32112.55
591.362	32129.27
591.721	32115.48
592.08	32171.3
592.44	32253.56
592.799	32277.51
593.158	32138.31
593.517	32218.53
593.876	32285.2
594.235	32203.84
594.593	32258.3
594.952	32478.19
595.311	32310.96
595.67	32498.75
596.029	32618.29
596.387	32622.36
596.746	32636.15
597.104	32515.02
597.463	32550.95
597.822	32619.2
598.18	32571.29
598.538	32481.35
598.897	32757.5
599.255	32421.92
599.613	33072.07
599.972	32796.37
600.33	32864.62
600.688	32841.79
601.046	32949.59
601.404	32935.35
601.762	32985.74
602.12	33114.55
602.478	33155.68
602.836	33075.68
603.194	32953.65
603.552	33079.3
603.91	32967.21
604.268	33140.77
604.625	32983.48
604.983	33115.23
605.341	33035.91
605.698	33246.75
606.056	33277.49
606.413	33206.75
606.771	33425.51
607.128	33453.3
607.485	33270.48
607.843	33407.88
608.2	33526.07
608.557	33722.22
608.914	33630.25
609.272	33604.71
609.629	33581.21
609.986	33843.12
610.343	33607.42
610.7	33817.81
611.057	33872.95
611.414	33793.86
611.771	33783.91
612.127	33834.53
612.484	33964.25
612.841	34033.62
613.198	33921.76
613.554	34052.16
613.911	34057.35
614.267	34136.9
614.624	34090.12
614.98	34199.27
615.337	34233.17
615.693	34211.02
616.05	34228.65
616.406	34530.79
616.762	34267.52
617.118	34325.82
617.475	34424.8
617.831	34507.06
618.187	34399.49
618.543	34559.26
618.899	34639.03
619.255	34654.63
619.611	34533.72
619.967	34806.71
620.323	34849.65
620.678	34581.41
621.034	34608.3
621.39	34655.53
621.746	34521.3
622.101	34999.25
622.457	34626.83
622.812	34769.2
623.168	34747.96
623.523	34807.84
623.879	35089.64
624.234	34668.18
624.589	34913.38
624.945	34885.35
625.3	34918.12
625.655	34841.06
626.01	34829.31
626.365	34850.33
626.72	34956.31
627.075	34876.54
627.43	34822.3
627.785	34667.96
628.14	34798.35
628.495	34859.37
628.85	34828.86
629.205	34719.26
629.559	34916.99
629.914	34761.06
630.269	34731.01
630.623	34623.44
630.978	34527.4
631.332	34836.77
631.687	34844.68
632.041	34569.66
632.396	34669.54
632.75	34494.4
633.104	34468.64
633.459	34473.61
633.813	34394.07
634.167	34416.67
634.521	34352.49
634.875	34392.49
635.229	34337.12
635.583	34213.28
635.937	34357.46
636.291	34294.63
636.645	34201.08
636.999	34230.46
637.352	34134.41
637.706	34025.26
638.06	34116.56
638.413	33999.73
638.767	33974.64
639.121	34137.35
639.474	33771.48
639.828	33766.51
640.181	33773.07
640.534	33706.63
640.888	33791.82
641.241	33517.03
641.594	33613.07
641.947	33792.95
642.301	33568.78
642.654	33635.44
643.007	33634.31
643.36	33637.03
643.713	33524.26
644.066	33643.35
644.419	33507.76
644.771	33406.97
645.124	33089.92
645.477	32944.16
645.83	32807.67
646.182	32662.14
646.535	32488.13
646.888	32526.09
647.24	32289.26
647.593	32609.48
647.945	32402.71
648.298	32251.07
648.65	32223.73
649.002	32216.27
649.355	32424.85
649.707	32346.44
650.059	32429.6
650.411	32789.36
650.763	32846.99
651.115	33225.28
651.467	32964.05
651.819	33171.05
652.171	33019.64
652.523	33036.59
652.875	33013.99
653.227	32701.91
653.578	33121.33
653.93	33053.31
654.282	32882.24
654.633	32912.52
654.985	32898.51
655.337	33042.92
655.688	32870.49
656.039	33107.1
656.391	32795.69
656.742	32868.46
657.094	32802.02
657.445	32830.04
657.796	32858.29
658.147	32915.46
658.498	32915.46
658.849	32921.79
659.2	32724.73
659.551	32753.88
659.902	32913.88
660.253	32841.34
660.604	32836.82
660.955	32688.8
661.306	32869.36
661.656	32769.25
662.007	32733.55
662.358	32771.51
662.708	32643.38
663.059	32690.84
663.409	32505.3
663.76	32769.93
664.11	32740.33
664.461	32790.27
664.811	32804.96
665.161	32690.16
665.511	32674.56
665.862	32615.13
666.212	32948.68
666.562	32788.01
666.912	32736.26
667.262	32691.29
667.612	32651.51
667.962	32702.81
668.312	32671.4
668.662	32707.33
669.011	32656.26
669.361	32644.28
669.711	32586.66
670.06	32606.32
670.41	32638.41
670.76	32460.33
671.109	32559.09
671.459	32456.94
671.808	32435.93
672.157	32487.45
672.507	32329.71
672.856	32425.31
673.205	32439.77
673.554	32503.5
673.904	32325.42
674.253	32497.17
674.602	32268.93
674.951	31949.61
675.3	31732.44
675.649	32254.46
675.998	32174.46
676.346	32289.04
676.695	32280.68
677.044	32063.73
677.393	32095.82
677.741	32061.25
678.09	32057.86
678.438	31910.29
678.787	31936.96
679.135	32057.18
679.484	31720.24
679.832	31825.32
680.181	31686.12
680.529	31819.9
680.877	31774.25
681.225	31685.66
681.573	31860.8
681.922	31497.87
682.27	31341.49
682.618	31367.93
682.966	31352.34
683.314	31393.47
683.661	31410.42
684.009	31264.88
684.357	31248.84
684.705	31115.06
685.053	31134.27
685.4	31023.53
685.748	31075.28
686.095	30925.91
686.443	30787.38
686.79	30762.75
687.138	30793.03
687.485	30796.87
687.832	30613.83
688.18	30612.25
688.527	30353.95
688.874	30422.19
689.221	30387.62
689.568	30216.78
689.915	30320.73
690.262	30138.59
690.609	30126.61
690.956	30062.43
691.303	29918.7
691.65	29809.56
691.997	29727.07
692.344	29664.02
692.69	29630.8
693.037	29630.58
693.383	29337.48
693.73	29412.05
694.077	29162.34
694.423	29286.18
694.769	29135.9
695.116	29027.43
695.462	28939.52
695.808	28880.99
696.155	28920.31
696.501	28633.77
696.847	28656.37
697.193	28422.92
697.539	28484.84
697.885	28265.87
698.231	28155.81
698.577	28201.91
698.923	28023.39
699.269	27985.42
699.614	27983.84
699.96	27811.87
700.306	27801.92
700.651	27660.01
700.997	27542.04
701.342	27484.42
701.688	27444.19
702.033	27242.39
702.379	27306.34
702.724	27225.67
703.069	27191.54
703.415	26820.03
703.76	26941.16
704.105	26963.08
704.45	26838.56
704.795	26655.29
705.14	26567.15
705.485	26445.8
705.83	26458.91
706.175	26460.72
706.52	26309.08
706.865	26305.69
707.209	26169.42
707.554	26085.13
707.899	26166.94
708.243	25997.23
708.588	25951.8
708.932	25786.61
709.277	25781.19
709.621	25762.88
709.966	25652.15
710.31	25650.57
710.654	25543.9
710.998	25517.46
711.342	25435.88
711.687	25355.89
712.031	25370.12
712.375	25272.27
712.719	25208.77
713.063	25219.62
713.407	25210.35
713.75	25032.28
714.094	25081.54
714.438	24928.1
714.782	24994.77
715.125	24827.99
715.469	24837.26
715.812	24810.14
716.156	24752.74
716.499	24676.58
716.843	24813.3
717.186	24568.79
717.53	24721.78
717.873	24656.02
718.216	24508
718.559	24538.96
718.902	24362.24
719.246	24429.58
719.589	24374.44
719.932	24320.66
720.275	24265.29
720.617	24264.62
720.96	24226.2
721.303	24180.78
721.646	24141.91
721.989	24011.74
722.331	23991.18
722.674	24128.12
723.016	24120.89
723.359	24044.28
723.701	24051.51
724.044	23943.49
724.386	23860.56
724.729	23983.49
725.071	23878.64
725.413	23822.59
725.755	23976.49
726.097	23769.94
726.439	23700.56
726.782	23872.99
727.124	23797.74
727.465	23752.09
727.807	23635.71
728.149	23663.5
728.491	23732.2
728.833	23728.59
729.175	23570.62
729.516	23631.19
729.858	23525.43
730.199	23593.67
730.541	23645.65
730.882	23555.26
731.224	23598.65
731.565	23507.8
731.906	23428.25
732.248	23547.12
732.589	23383.96
732.93	23443.85
733.271	23382.61
733.612	23441.81
733.953	23503.96
734.294	23406.79
734.635	23399.78
734.976	23507.57
735.317	23373.34
735.658	23399.1
735.999	23404.53
736.339	23402.94
736.68	23433.23
737.021	23310.29
737.361	23335.15
737.702	23495.37
738.042	23413.57
738.383	23376.05
738.723	23383.28
739.063	23336.28
739.404	23371.98
739.744	23353.45
740.084	23212.89
740.424	23322.95
740.764	23274.36
741.104	23298.31
741.444	23183.06
741.784	23131.76
742.124	23255.38
742.464	23253.12
742.804	23167.24
743.143	23227.13
743.483	23269.39
743.823	23054.48
744.162	23114.14
744.502	23165.21
744.841	23079.56
745.181	23175.15
745.52	23016.06
745.86	23140.35
746.199	23004.99
746.538	23189.39
746.877	23093.12
747.216	23080.92
747.556	23035.27
747.895	23111.43
748.234	23041.6
748.573	23136.06
748.911	23120.92
749.25	23090.18
749.589	22935.84
749.928	22984.2
750.267	23002.5
750.605	22992.11
750.944	22926.35
751.283	22917.98
751.621	22977.42
751.96	22878.66
752.298	22932.45
752.636	22916.4
752.975	22673.7
753.313	22591.67
753.651	22792.79
753.989	22559.12
754.327	22674.38
754.666	22541.72
755.004	22524.55
