Data from tablewood_dark_bookshelf_FLMS001491_00033.txt Node
Date: Wed Feb 08 14:14:25 GMT 2017
User: dcchb
Spectrometer: FLMS00149
Trigger mode: 0
Integration Time (sec): 2.000000E-2
Scans to average: 10
Electric dark correction enabled: true
Nonlinearity correction enabled: false
Boxcar width: 0
XAxis mode: Wavelengths
Number of Pixels in Spectrum: 2048
>>>>>Begin Spectral Data<<<<<
341.393	11.72
341.776	11.72
342.16	11.72
342.543	-45.68
342.927	-59.46
343.31	-50.42
343.693	-79.8
344.077	-86.58
344.46	-75.28
344.843	-64.89
345.226	-28.05
345.61	-25.34
345.993	-5
346.376	-5.9
346.759	-5.23
347.142	19.18
347.525	52.4
347.908	72.74
348.291	78.84
348.674	101.66
349.057	101.66
349.44	144.6
349.823	131.04
350.206	171.49
350.588	177.82
350.971	204.71
351.354	216.92
351.737	241.1
352.119	231.15
352.502	249
352.884	271.15
353.267	279.29
353.65	301.21
354.032	297.59
354.414	296.24
354.797	305.5
355.179	335.56
355.562	319.74
355.944	319.51
356.326	331.94
356.709	331.26
357.091	334.43
357.473	326.74
357.855	325.16
358.238	331.26
358.62	322
359.002	345.5
359.384	343.92
359.766	339.17
360.148	342.11
360.53	363.13
360.912	346.63
361.294	360.87
361.676	321.09
362.057	350.47
362.439	331.04
362.821	339.62
363.203	326.52
363.584	317.25
363.966	330.81
364.348	319.06
364.729	324.48
365.111	331.94
365.493	325.84
365.874	310.7
366.256	325.16
366.637	321.32
367.019	312.96
367.4	322.68
367.781	305.95
368.163	314.54
368.544	316.57
368.925	308.89
369.306	345.5
369.688	311.6
370.069	334.88
370.45	332.84
370.831	317.7
371.212	329
371.593	327.65
371.974	319.29
372.355	340.98
372.736	314.31
373.117	319.96
373.498	345.95
373.879	329
374.26	320.19
374.641	325.39
375.021	322.68
375.402	327.65
375.783	321.55
376.163	331.26
376.544	322.9
376.925	349.57
377.305	337.82
377.686	335.1
378.066	350.7
378.447	344.14
378.827	353.41
379.208	354.09
379.588	332.17
379.968	306.18
380.349	347.76
380.729	360.41
381.109	346.4
381.489	338.72
381.87	346.63
382.25	364.93
382.63	347.31
383.01	346.4
383.39	343.47
383.77	340.08
384.15	371.71
384.53	369.68
384.91	374.88
385.29	363.35
385.67	359.96
386.049	359.28
386.429	382.11
386.809	386.85
387.189	388.44
387.568	373.97
387.948	395.22
388.328	388.89
388.707	369.68
389.087	363.58
389.466	372.84
389.846	371.04
390.225	390.24
390.605	386.85
390.984	387.31
391.363	425.5
391.743	405.61
392.122	393.18
392.501	408.1
392.881	420.75
393.26	404.48
393.639	401.09
394.018	398.38
394.397	424.59
394.776	421.43
395.155	423.24
395.534	425.5
395.913	445.61
396.292	414.2
396.671	432.5
397.05	436.8
397.429	418.94
397.808	423.24
398.186	427.08
398.565	440.64
398.944	455.55
399.323	441.99
399.701	458.26
400.08	450.36
400.458	433.86
400.837	444.93
401.215	472.05
401.594	443.35
401.972	472.5
402.351	476.57
402.729	469.34
403.107	452.84
403.486	467.3
403.864	469.56
404.242	474.76
404.62	483.57
404.999	472.95
405.377	463.01
405.755	484.7
406.133	479.28
406.511	486.51
406.889	495.33
407.267	491.03
407.645	484.48
408.023	507.53
408.401	507.76
408.779	497.13
409.156	519.51
409.534	529.22
409.912	517.47
410.29	533.74
410.667	558.15
411.045	507.76
411.422	540.3
411.8	549.79
412.178	559.28
412.555	557.47
412.933	543.23
413.31	553.4
413.687	566.28
414.065	569.67
414.442	573.06
414.819	568.09
415.197	569.67
415.574	569.45
415.951	586.85
416.328	613.29
416.705	593.85
417.082	580.3
417.46	592.27
417.837	601.76
418.214	603.35
418.591	610.8
418.967	616.45
419.344	617.13
419.721	624.36
420.098	622.55
420.475	616.9
420.852	622.33
421.228	634.31
421.605	635.89
421.982	643.8
422.358	631.59
422.735	631.59
423.111	657.58
423.488	687.41
423.864	648.99
424.241	679.05
424.617	679.95
424.994	690.58
425.37	703.91
425.746	695.77
426.123	669.56
426.499	705.04
426.875	705.49
427.251	724.25
427.627	720.18
428.003	720.4
428.379	754.08
428.756	757.24
429.132	731.93
429.507	754.3
429.883	748.88
430.259	770.35
430.635	765.6
431.011	774.41
431.387	768.09
431.763	782.55
432.138	812.38
432.514	797.01
432.89	793.4
433.265	829.33
433.641	832.94
434.016	819.39
434.392	839.5
434.767	843.57
435.143	854.86
435.518	860.97
435.894	879.27
436.269	909.78
436.644	893.96
437.02	891.7
437.395	895.54
437.77	911.36
438.145	909.55
438.52	904.35
438.895	912.49
439.271	918.14
439.646	936.44
440.021	966.95
440.395	968.53
440.77	974.41
441.145	961.75
441.52	973.28
441.895	941.19
442.27	975.99
442.645	981.41
443.019	988.19
443.394	989.55
443.769	959.72
444.143	1017.8
444.518	1009.44
444.892	993.84
445.267	1011.7
445.641	1044.69
446.016	1039.72
446.39	1003.56
446.764	1055.09
447.139	1027.97
447.513	1057.57
447.887	1072.49
448.262	1091.69
448.636	1083.11
449.01	1080.17
449.384	1082.66
449.758	1085.82
450.132	1107.51
450.506	1116.55
450.88	1110.45
451.254	1112.71
451.628	1132.6
452.002	1127.17
452.376	1113.39
452.75	1152.03
453.123	1159.04
453.497	1150
453.871	1172.82
454.244	1197
454.618	1173.73
454.992	1221.63
455.365	1213.5
455.739	1222.31
456.112	1266.61
456.486	1246.49
456.859	1292.82
457.232	1297.56
457.606	1291.24
457.979	1299.82
458.352	1327.62
458.725	1342.76
459.099	1361.07
459.472	1375.08
459.845	1388.18
460.218	1379.82
460.591	1394.96
460.964	1415.98
461.337	1432.02
461.71	1453.49
462.083	1465.7
462.456	1463.89
462.829	1447.39
463.201	1490.1
463.574	1486.26
463.947	1516.99
464.32	1540.5
464.692	1546.6
465.065	1586.82
465.438	1583.88
465.81	1617.56
466.183	1631.34
466.555	1634.96
466.928	1648.29
467.3	1636.76
467.672	1663.2
468.045	1706.37
468.417	1746.59
468.789	1733.26
469.161	1750.21
469.534	1799.92
469.906	1791.34
470.278	1848.96
470.65	1839.7
471.022	1874.95
471.394	1916.76
471.766	1888.96
472.138	1914.5
472.51	1945.46
472.882	1979.35
473.253	2025.91
473.625	2025.68
473.997	2070.88
474.369	2119.46
474.74	2097.09
475.112	2144.1
475.484	2164.89
475.855	2222.51
476.227	2246.92
476.598	2275.62
476.97	2292.34
477.341	2328.5
477.713	2360.14
478.084	2348.16
478.455	2439.91
478.827	2461.38
479.198	2506.12
479.569	2496.18
479.94	2563.97
480.311	2599
480.682	2643.74
481.053	2697.75
481.424	2696.62
481.795	2750.86
482.166	2781.59
482.537	2832.44
482.908	2878.09
483.279	2938.65
483.65	2941.14
484.021	2978.2
484.391	3022.49
484.762	3069.72
485.133	3121.02
485.503	3116.95
485.874	3232.88
486.244	3266.55
486.615	3287.79
486.985	3298.42
487.356	3319.88
487.726	3403.5
488.097	3445.76
488.467	3408.02
488.837	3545.42
489.207	3570.5
489.578	3587.67
489.948	3665.86
490.318	3716.71
490.688	3714.9
491.058	3757.39
491.428	3770.04
491.798	3835.13
492.168	3911.51
492.538	3935.01
492.908	3971.62
493.278	4003.48
493.648	4034.67
494.017	4088.9
494.387	4063.59
494.757	4134.1
495.126	4196.02
495.496	4194.21
495.866	4203.25
496.235	4258.84
496.605	4313.08
496.974	4340.2
497.344	4325.28
497.713	4370.7
498.082	4436.24
498.452	4458.84
498.821	4462.45
499.19	4471.94
499.559	4559.4
499.928	4590.13
500.298	4576.12
500.667	4672.39
501.036	4620.87
501.405	4697.48
501.774	4685.72
502.143	4720.07
502.512	4793.97
502.88	4819.73
503.249	4839.62
503.618	4848.21
503.987	4901.99
504.356	4914.64
504.724	4971.59
505.093	4988.77
505.462	5037.13
505.83	5021.08
506.199	5100.63
506.567	5075.77
506.936	5109.89
507.304	5205.26
507.672	5203.68
508.041	5254.3
508.409	5260.62
508.777	5348.08
509.145	5340.4
509.514	5378.59
509.882	5351.92
510.25	5400.28
510.618	5468.98
510.986	5484.35
511.354	5540.84
511.722	5621.07
512.09	5586.72
512.458	5594.85
512.826	5664.91
513.193	5703.78
513.561	5752.59
513.929	5804.34
514.297	5887.5
514.664	5876.65
515.032	5895.18
515.4	5940.83
515.767	5968.18
516.135	6012.24
516.502	6052.02
516.869	6051.11
517.237	6084.56
517.604	6139.92
517.972	6197.1
518.339	6267.15
518.706	6259.24
519.073	6295.4
519.44	6336.53
519.808	6441.61
520.175	6433.47
520.542	6518.44
520.909	6569.29
521.276	6580.59
521.643	6674.15
522.009	6701.49
522.376	6754.82
522.743	6801.37
523.11	6864.88
523.477	6929.06
523.843	6956.85
524.21	7052.44
524.577	7078.2
524.943	7083.4
525.31	7149.61
525.676	7226.67
526.043	7296.05
526.409	7303.28
526.776	7404.97
527.142	7415.14
527.508	7477.52
527.874	7512.32
528.241	7589.6
528.607	7572.88
528.973	7703.95
529.339	7680
529.705	7652.88
530.071	7798.86
530.437	7873.44
530.803	7904.17
531.169	7920.89
531.535	7971.97
531.901	7997.95
532.267	8053.55
532.632	8125.41
532.998	8135.8
533.364	8204.05
533.73	8177.61
534.095	8279.3
534.461	8363.14
534.826	8292.86
535.192	8309.58
535.557	8399.07
535.923	8448.34
536.288	8495.57
536.653	8523.59
537.019	8507.32
537.384	8528.11
537.749	8609.46
538.114	8608.11
538.479	8637.03
538.845	8705.28
539.21	8714.32
539.575	8707.09
539.94	8815.33
540.305	8862.34
540.67	8873.64
541.034	8962.45
541.399	8897.36
541.764	8963.58
542.129	8991.6
542.494	9087.64
542.858	9125.16
543.223	9035.21
543.587	9106.85
543.952	9060.07
544.316	9169.22
544.681	9230.24
545.045	9298.03
545.41	9275.66
545.774	9333.06
546.138	9310.91
546.503	9358.82
546.867	9440.18
547.231	9503.45
547.595	9543.68
547.959	9504.13
548.324	9537.57
548.688	9524.92
549.052	9550.23
549.416	9643.33
549.779	9684.24
550.143	9689.89
550.507	9742.09
550.871	9796.55
551.235	9885.59
551.599	9915.42
551.962	9961.74
552.326	9999.03
552.689	9970.78
553.053	10039.71
553.417	10059.14
553.78	10201.51
554.143	10182.53
554.507	10160.16
554.87	10242.41
555.234	10348.63
555.597	10312.02
555.96	10333.94
556.323	10368.29
556.686	10418
557.05	10527.15
557.413	10594.95
557.776	10618.22
558.139	10728.73
558.502	10666.13
558.865	10785
559.228	10790.65
559.59	10912
559.953	10888.95
560.316	11000.36
560.679	11029.96
561.041	11135.72
561.404	11148.61
561.767	11253.69
562.129	11253.91
562.492	11381.14
562.854	11341.37
563.217	11384.31
563.579	11492.55
563.941	11579.1
564.304	11566.45
564.666	11707.91
565.028	11750.85
565.39	11615.26
565.753	11757.4
566.115	11761.47
566.477	11943.39
566.839	11955.36
567.201	12074.23
567.563	12106.77
567.925	12103.16
568.287	12157.39
568.648	12243.72
569.01	12337.73
569.372	12476.93
569.734	12396.93
570.095	12563.03
570.457	12610.04
570.819	12616.14
571.18	12685.06
571.542	12737.04
571.903	12778.84
572.265	12808.22
572.626	12793.08
572.987	12968.67
573.349	12952.4
573.71	13048.89
574.071	13196.69
574.432	13138.16
574.794	13209.57
575.155	13284.59
575.516	13276.68
575.877	13326.63
576.238	13399.85
576.599	13441.43
576.96	13417.92
577.32	13559.84
577.681	13578.37
578.042	13645.94
578.403	13692.04
578.763	13726.62
579.124	13724.81
579.485	13861.75
579.845	13810.68
580.206	13894.97
580.566	13912.83
580.927	13965.25
581.287	14006.84
581.648	13955.31
582.008	14105.14
582.368	13999.15
582.728	14165.25
583.089	14227.62
583.449	14165.7
583.809	14210.67
584.169	14212.93
584.529	14215.87
584.889	14287.05
585.249	14368.86
585.609	14347.17
585.969	14436.88
586.329	14395.3
586.688	14485.01
587.048	14494.73
587.408	14541.28
587.768	14454.28
588.127	14577.89
588.487	14508.97
588.846	14748.51
589.206	14586.03
589.565	14621.06
589.925	14770.88
590.284	14749.87
590.643	14783.09
591.003	14864.67
591.362	14906.47
591.721	14844.1
592.08	14786.25
592.44	14921.61
592.799	14941.95
593.158	14972.69
593.517	14982.4
593.876	14995.51
594.235	15019.46
594.593	14986.7
594.952	15039.58
595.311	15057.65
595.67	15075.28
596.029	15251.55
596.387	15240.47
596.746	15250.19
597.104	15199.57
597.463	15291.32
597.822	15298.78
598.18	15263.53
598.538	15297.87
598.897	15464.2
599.255	15264.43
599.613	15527.25
599.972	15426.68
600.33	15440.24
600.688	15441.6
601.046	15592.56
601.404	15648.15
601.762	15589.84
602.12	15673.01
602.478	15661.25
602.836	15562.27
603.194	15622.39
603.552	15680.92
603.91	15690.41
604.268	15765.66
604.625	15647.47
604.983	15786.22
605.341	15689.28
605.698	15848.82
606.056	15823.51
606.413	15837.97
606.771	15860.8
607.128	15915.49
607.485	15898.99
607.843	15896.05
608.2	16028.48
608.557	15990.29
608.914	15991.87
609.272	16049.72
609.629	16127.46
609.986	16092.2
610.343	16044.3
610.7	16146.89
611.057	16186.66
611.414	16289.03
611.771	16193.22
612.127	16328.58
612.484	16297.4
612.841	16434.34
613.198	16372.87
613.554	16342.82
613.911	16410.16
614.267	16436.6
614.624	16433.66
614.98	16463.04
615.337	16568.12
615.693	16511.63
616.05	16425.3
616.406	16635.47
616.762	16557.28
617.118	16613.77
617.475	16557.95
617.831	16677.95
618.187	16597.95
618.543	16658.97
618.899	16842.47
619.255	16740.1
619.611	16750.94
619.967	16795.91
620.323	16882.47
620.678	16717.5
621.034	16784.16
621.39	16658.74
621.746	16748.23
622.101	16941.45
622.457	16832.07
622.812	16861.9
623.168	16850.15
623.523	16807.44
623.879	16919.07
624.234	16814.44
624.589	16823.03
624.945	16893.09
625.3	16811.06
625.655	16905.29
626.01	16847.44
626.365	16922.24
626.72	16954.1
627.075	16956.14
627.43	16909.13
627.785	16792.3
628.14	16909.36
628.495	16885.86
628.85	16893.09
629.205	16817.16
629.559	16839.75
629.914	16818.51
630.269	16840.88
630.623	16836.37
630.978	16792.3
631.332	16894.22
631.687	16870.26
632.041	16842.01
632.396	16875.23
632.75	16798.4
633.104	16748.23
633.459	16669.36
633.813	16769.7
634.167	16745.75
634.521	16737.61
634.875	16739.64
635.229	16742.58
635.583	16680.66
635.937	16602.25
636.291	16702.13
636.645	16652.64
636.999	16689.7
637.352	16654.45
637.706	16557.28
638.06	16602.7
638.413	16629.37
638.767	16485.87
639.121	16570.38
639.474	16424.4
639.828	16493.55
640.181	16423.49
640.534	16470.95
640.888	16344.17
641.241	16316.15
641.594	16454
641.947	16532.64
642.301	16368.81
642.654	16355.02
643.007	16301.46
643.36	16272.99
643.713	16289.26
644.066	16425.08
644.419	16290.62
644.771	16274.12
645.124	15931.98
645.477	16055.14
645.83	15912.1
646.182	15812.21
646.535	15702.61
646.888	15877.29
647.24	15841.59
647.593	15958.42
647.945	15860.35
648.298	15777.18
648.65	15824.87
649.002	15833.91
649.355	15756.62
649.707	15667.36
650.059	15733.57
650.411	15962.49
650.763	16026.44
651.115	16136.5
651.467	16094.24
651.819	16160.22
652.171	16075.48
652.523	16101.47
652.875	16044.3
653.227	15892.89
653.578	16081.81
653.93	16099.89
654.282	16037.52
654.633	16017.63
654.985	16035.71
655.337	16050.62
655.688	16031.87
656.039	16064.86
656.391	15969.04
656.742	15922.49
657.094	16069.38
657.445	16055.37
657.796	15950.29
658.147	16025.09
658.498	15993.9
658.849	15993.45
659.2	15969.5
659.551	15926.78
659.902	16099.44
660.253	16000.91
660.604	15974.47
660.955	15849.05
661.306	16002.94
661.656	15927.24
662.007	15915.94
662.358	15911.42
662.708	15976.95
663.059	15902.83
663.409	15877.75
663.76	15954.58
664.11	15984.86
664.461	16021.25
664.811	15922.26
665.161	15905.99
665.511	15939.21
665.862	15955.26
666.212	15996.84
666.562	16024.64
666.912	15958.42
667.262	15936.95
667.612	15934.24
667.962	15936.05
668.312	15907.12
668.662	15986.44
669.011	15981.25
669.361	15929.72
669.711	15972.43
670.06	15930.17
670.41	15872.55
670.76	15811.53
671.109	15849.27
671.459	15949.61
671.808	15790.52
672.157	15926.11
672.507	15806.34
672.856	15863.28
673.205	15776.51
673.554	15934.02
673.904	15789.84
674.253	15854.02
674.602	15842.72
674.951	15609.28
675.3	15484.31
675.649	15823.96
675.998	15797.07
676.346	15838.88
676.695	15797.07
677.044	15702.61
677.393	15807.47
677.741	15803.4
678.09	15726.79
678.438	15720.24
678.787	15843.62
679.135	15817.18
679.484	15712.33
679.832	15801.59
680.181	15646.11
680.529	15689.05
680.877	15613.57
681.225	15609.73
681.573	15769.27
681.922	15569.05
682.27	15559.79
682.618	15655.38
682.966	15481.15
683.314	15542.84
683.661	15500.81
684.009	15425.78
684.357	15341.72
684.705	15418.78
685.053	15395.95
685.4	15464.42
685.748	15360.7
686.095	15399.34
686.443	15332.9
686.79	15308.95
687.138	15275.28
687.485	15241.15
687.832	15202.06
688.18	15247.25
688.527	15172.45
688.874	15193.02
689.221	15137.43
689.568	15126.13
689.915	15099.46
690.262	15028.73
690.609	15110.76
690.956	14899.69
691.303	14885
691.65	14830.54
691.997	14828.06
692.344	14759.58
692.69	14803.2
693.037	14816.53
693.383	14627.61
693.73	14767.72
694.077	14604.33
694.423	14649.76
694.769	14709.42
695.116	14617.44
695.462	14562.98
695.808	14502.64
696.155	14487.73
696.501	14419.93
696.847	14401.85
697.193	14351.01
697.539	14445.24
697.885	14340.61
698.231	14193.5
698.577	14315.08
698.923	14271.23
699.269	14201.63
699.614	14138.13
699.96	14061.3
700.306	14130
700.651	14021.52
700.997	13972.03
701.342	13931.13
701.688	14017.91
702.033	13885.26
702.379	13891.58
702.724	13868.53
703.069	13873.96
703.415	13816.33
703.76	13756.9
704.105	13776.11
704.45	13680.97
704.795	13616.11
705.14	13570.69
705.485	13579.05
705.83	13561.88
706.175	13591.93
706.52	13564.59
706.865	13403.91
707.209	13423.57
707.554	13452.05
707.899	13443.01
708.243	13398.49
708.588	13267.19
708.932	13191.94
709.277	13252.05
709.621	13258.38
709.966	13211.6
710.31	13267.65
710.654	13144.48
710.998	13187.65
711.342	13213.18
711.687	13087.76
712.031	13134.77
712.375	13066.97
712.719	13043.02
713.063	13064.26
713.407	13031.04
713.75	13046.86
714.094	13004.38
714.438	12936.81
714.782	12970.7
715.125	12777.94
715.469	12943.13
715.812	12812.52
716.156	12739.52
716.499	12704.5
716.843	12826.75
717.186	12826.08
717.53	12799.41
717.873	12869.01
718.216	12697.49
718.559	12724.16
718.902	12633.99
719.246	12633.09
719.589	12572.75
719.932	12600.54
720.275	12637.38
720.617	12622.92
720.96	12513.32
721.303	12553.09
721.646	12655.68
721.989	12559.87
722.331	12635.8
722.674	12565.52
723.016	12578.17
723.359	12498.63
723.701	12608
724.044	12453.43
724.386	12325.3
724.729	12421.11
725.071	12494.11
725.413	12397.16
725.755	12408.91
726.097	12343.83
726.439	12314.68
726.782	12273.32
727.124	12372.98
727.465	12265.86
727.807	12337.5
728.149	12223.38
728.491	12306.54
728.833	12347.44
729.175	12259.31
729.516	12287.56
729.858	12316.48
730.199	12227.67
730.541	12274.68
730.882	12244.85
731.224	12221.12
731.565	12176.37
731.906	12163.49
732.248	12247.11
732.589	12225.64
732.93	12102.25
733.271	12056.15
733.612	12152.65
733.953	12095.25
734.294	12108.58
734.635	12141.8
734.976	12144.29
735.317	12075.13
735.658	12073.78
735.999	12057.96
736.339	12095.47
736.68	12091.18
737.021	12063.84
737.361	12015.7
737.702	12070.16
738.042	12116.49
738.383	11989.04
738.723	12068.58
739.063	12088.02
739.404	12090.5
739.744	11994.01
740.084	12058.41
740.424	12021.12
740.764	12052.31
741.104	12042.37
741.444	11944.74
741.784	11879.89
742.124	11920.56
742.464	11946.1
742.804	11878.98
743.143	11828.14
743.483	11900.22
743.823	11787.68
744.162	11823.62
744.502	11910.62
744.841	11797.85
745.181	11920.34
745.52	11766.22
745.86	11778.65
746.199	11777.06
746.538	11850.96
746.877	11876.5
747.216	11889.38
747.556	11858.42
747.895	11901.81
748.234	11767.8
748.573	11775.26
748.911	11744.3
749.25	11789.27
749.589	11678.53
749.928	11744.75
750.267	11759.21
750.605	11663.62
750.944	11689.83
751.283	11615.03
751.621	11675.6
751.96	11657.97
752.298	11688.48
752.636	11709.95
752.975	11618.88
753.313	11593.11
753.651	11652.55
753.989	11529.84
754.327	11566.9
754.666	11509.95
755.004	11509.5
755.342	11518.31
755.679	11469.95
756.017	11428.37
756.355	11471.53
756.693	11393.34
757.031	11452.78
757.368	11389.95
757.706	11350.86
758.044	11251.65
758.381	11350.41
758.719	11296.4
759.056	11329.17
