Data from tablewood_dark_bookshelf_FLMS001491_00045.txt Node
Date: Wed Feb 08 14:14:48 GMT 2017
User: dcchb
Spectrometer: FLMS00149
Trigger mode: 0
Integration Time (sec): 2.000000E-2
Scans to average: 10
Electric dark correction enabled: true
Nonlinearity correction enabled: false
Boxcar width: 0
XAxis mode: Wavelengths
Number of Pixels in Spectrum: 2048
>>>>>Begin Spectral Data<<<<<
341.393	-42.85
341.776	-42.85
342.16	-42.85
342.543	-64.77
342.927	-41.04
343.31	-61.38
343.693	-70.42
344.077	-53.93
344.46	-66.58
344.843	-50.99
345.226	-42.63
345.61	-15.96
345.993	-7.6
346.376	-14.83
346.759	-2.85
347.142	22.01
347.525	50.03
347.908	64.49
348.291	50.25
348.674	92.96
349.057	107.43
349.44	120.99
349.823	130.7
350.206	167.09
350.588	178.39
350.971	197.14
351.354	209.8
351.737	219.29
352.119	239.63
352.502	250.47
352.884	267.65
353.267	256.12
353.65	287.76
354.032	292.28
354.414	284.15
354.797	317.82
355.179	299.96
355.562	302.9
355.944	316.01
356.326	316.23
356.709	320.98
357.091	311.26
357.473	349.23
357.855	327.76
358.238	326.86
358.62	317.59
359.002	322.56
359.384	323.47
359.766	346.29
360.148	329.57
360.53	349.68
360.912	330.7
361.294	315.78
361.676	322.79
362.057	318.72
362.439	336.8
362.821	305.84
363.203	325.95
363.584	304.48
363.966	303.35
364.348	309.46
364.729	300.42
365.111	309.46
365.493	330.47
365.874	320.75
366.256	294.99
366.637	286.18
367.019	313.07
367.4	290.7
367.781	299.74
368.163	295.67
368.544	322.34
368.925	312.62
369.306	307.87
369.688	304.71
370.069	306.07
370.45	306.97
370.831	308.33
371.212	295.67
371.593	319.85
371.974	307.87
372.355	306.97
372.736	316.01
373.117	306.29
373.498	313.75
373.879	323.24
374.26	303.58
374.641	299.96
375.021	288.21
375.402	312.62
375.783	307.87
376.163	323.92
376.544	308.78
376.925	336.57
377.305	330.92
377.686	334.31
378.066	323.47
378.447	327.31
378.827	315.78
379.208	333.41
379.588	331.6
379.968	343.58
380.349	326.18
380.729	321.66
381.109	318.27
381.489	334.09
381.87	333.41
382.25	336.12
382.63	330.25
383.01	345.84
383.39	320.08
383.77	327.53
384.15	331.83
384.53	327.53
384.91	352.62
385.29	353.97
385.67	349.91
386.049	339.96
386.429	370.47
386.809	327.08
387.189	351.94
387.568	365.05
387.948	358.04
388.328	368.44
388.707	369.11
389.087	379.96
389.466	373.18
389.846	371.6
390.225	369.57
390.605	362.11
390.984	374.76
391.363	358.49
391.743	381.09
392.122	385.84
392.501	384.93
392.881	382.45
393.26	394.65
393.639	387.65
394.018	371.15
394.397	400.75
394.776	377.93
395.155	391.03
395.534	407.31
395.913	393.07
396.292	410.92
396.671	398.72
397.05	402.11
397.429	402.33
397.808	414.09
398.186	400.07
398.565	407.98
398.944	404.14
399.323	407.08
399.701	407.31
400.08	410.7
400.458	401.43
400.837	419.51
401.215	414.31
401.594	442.56
401.972	428.77
402.351	421.99
402.729	441.2
403.107	430.36
403.486	432.84
403.864	421.32
404.242	441.66
404.62	454.99
404.999	463.58
405.377	455.44
405.755	448.66
406.133	463.58
406.511	462.9
406.889	456.57
407.267	471.26
407.645	474.2
408.023	466.97
408.401	466.97
408.779	487.76
409.156	469.9
409.534	499.28
409.912	489.79
410.29	480.07
410.667	492.05
411.045	489.79
411.422	492.28
411.8	496.57
412.178	527.75
412.555	507.87
412.933	501.09
413.31	503.12
413.687	527.08
414.065	529.56
414.442	543.57
414.819	525.27
415.197	528.88
415.574	523.23
415.951	558.49
416.328	537.7
416.705	543.35
417.082	577.47
417.46	541.09
417.837	550.58
418.214	563.23
418.591	556.45
418.967	579.28
419.344	584.7
419.721	578.83
420.098	561.2
420.475	585.15
420.852	589
421.228	581.09
421.605	594.42
421.982	594.42
422.358	602.78
422.735	598.49
423.111	609.56
423.488	615.66
423.864	640.75
424.241	649.56
424.617	626.06
424.994	625.61
425.37	647.98
425.746	635.1
426.123	651.14
426.499	656.79
426.875	665.15
427.251	667.19
427.627	678.94
428.003	683.46
428.379	677.81
428.756	700.86
429.132	725.94
429.507	724.36
429.883	708.77
430.259	725.26
430.635	744.7
431.011	723.46
431.387	726.85
431.763	748.99
432.138	751.7
432.514	761.19
432.89	783.57
433.265	763.45
433.641	786.05
434.016	794.41
434.392	810.91
434.767	813.17
435.143	807.75
435.518	829.89
435.894	818.37
436.269	810.01
436.644	847.07
437.02	870.57
437.395	854.07
437.77	871.7
438.145	854.75
438.52	880.51
438.895	868.54
439.271	875.54
439.646	890.46
440.021	901.3
440.395	910.34
440.77	886.62
441.145	925.71
441.52	888.42
441.895	924.13
442.27	926.39
442.645	928.65
443.019	932.26
443.394	935.65
443.769	960.29
444.143	956.9
444.518	978.82
444.892	958.03
445.267	973.17
445.641	978.14
446.016	967.74
446.39	983.34
446.764	1016.1
447.139	994.18
447.513	1018.14
447.887	1025.82
448.262	1032.83
448.636	1014.52
449.01	1043.22
449.384	1031.24
449.758	1046.84
450.132	1052.49
450.506	1069.89
450.88	1089.1
451.254	1094.97
451.628	1081.64
452.002	1080.96
452.376	1106.95
452.75	1097.46
453.123	1118.02
453.497	1117.57
453.871	1173.84
454.244	1143.56
454.618	1154.86
454.992	1182.2
455.365	1170.22
455.739	1220.17
456.112	1204.57
456.486	1238.02
456.859	1225.59
457.232	1280.96
457.606	1257
457.979	1274.63
458.352	1290.9
458.725	1323.89
459.099	1327.51
459.472	1321.86
459.845	1353.95
460.218	1365.7
460.591	1362.31
460.964	1377
461.337	1400.95
461.71	1447.73
462.083	1409.09
462.456	1429.2
462.829	1477.56
463.201	1463.55
463.574	1505.81
463.947	1534.51
464.32	1516.88
464.692	1528.86
465.065	1548.74
465.438	1606.6
465.81	1611.12
466.183	1586.94
466.555	1657.22
466.928	1626.03
467.3	1641.4
467.672	1646.14
468.045	1691.79
468.417	1708.06
468.789	1751
469.161	1777.44
469.534	1748.06
469.906	1795.07
470.278	1806.36
470.65	1811.56
471.022	1856.08
471.394	1894.72
471.766	1915.97
472.138	1950.09
472.51	1954.61
472.882	1985.8
473.253	2051.1
473.625	2053.36
473.997	2068.05
474.369	2087.71
474.74	2125.45
475.112	2182.85
475.484	2190.31
475.855	2231.89
476.227	2285.67
476.598	2307.82
476.97	2321.15
477.341	2373.36
477.713	2386.91
478.084	2401.38
478.455	2415.16
478.827	2450.64
479.198	2555.27
479.569	2546.91
479.94	2624.42
480.311	2646.12
480.682	2707.36
481.053	2743.97
481.424	2782.84
481.795	2816.28
482.166	2880.69
482.537	2913.23
482.908	2967.24
483.279	2957.52
483.65	3004.53
484.021	3045.88
484.391	3097.4
484.762	3161.36
485.133	3190.06
485.503	3194.8
485.874	3276.61
486.244	3340.11
486.615	3374.91
486.985	3384.18
487.356	3421.01
487.726	3497.85
488.097	3557.51
488.467	3570.84
488.837	3642.25
489.207	3675.92
489.578	3718.41
489.948	3775.13
490.318	3825.07
490.688	3780.32
491.058	3870.94
491.428	3910.26
491.798	3988.91
492.168	4055.35
492.538	4065.51
492.908	4131.28
493.278	4163.37
493.648	4169.01
494.017	4223.48
494.387	4270.03
494.757	4309.58
495.126	4357.26
495.496	4346.86
495.866	4366.3
496.235	4422.57
496.605	4495.79
496.974	4498.05
497.344	4503.24
497.713	4586.63
498.082	4625.73
498.452	4617.59
498.821	4673.18
499.19	4684.03
499.559	4785.5
499.928	4810.35
500.298	4763.12
500.667	4839.28
501.036	4812.84
501.405	4914.98
501.774	4934.87
502.143	4963.34
502.512	5012.61
502.88	5031.14
503.249	5057.8
503.618	5103
503.987	5077.47
504.356	5151.59
504.724	5177.35
505.093	5249.66
505.462	5282.21
505.83	5285.6
506.199	5313.39
506.567	5385.93
506.936	5455.76
507.304	5490.79
507.672	5488.75
508.041	5557
508.409	5580.73
508.777	5609.65
509.145	5606.27
509.514	5656.66
509.882	5687.17
510.25	5744.79
510.618	5761.97
510.986	5743.89
511.354	5848.74
511.722	5883.09
512.09	5955.18
512.458	5967.39
512.826	5991.79
513.193	5987.95
513.561	6119.92
513.929	6129.19
514.297	6132.58
514.664	6227.27
515.032	6204.67
515.4	6277.89
515.767	6324.89
516.135	6356.75
516.502	6380.26
516.869	6445.11
517.237	6415.51
517.604	6481.5
517.972	6548.61
518.339	6616.86
518.706	6687.14
519.073	6688.27
519.44	6733.69
519.808	6779.34
520.175	6829.74
520.542	6883.97
520.909	6900.24
521.276	6926.46
521.643	7058.43
522.009	7061.82
522.376	7144.53
522.743	7137.52
523.11	7242.61
523.477	7331.87
523.843	7377.29
524.21	7409.16
524.577	7504.07
524.943	7520.11
525.31	7577.96
525.676	7644.86
526.043	7658.41
526.409	7731.86
526.776	7832.42
527.142	7850.5
527.508	7919.42
527.874	7950.38
528.241	7974.34
528.607	8019.76
528.973	8134.56
529.339	8096.82
529.705	8158.29
530.071	8234.9
530.437	8279.19
530.803	8402.8
531.169	8393.76
531.535	8366.42
531.901	8430.6
532.267	8501.56
532.632	8501.78
532.998	8552.4
533.364	8647.54
533.73	8671.95
534.095	8704.71
534.461	8792.17
534.826	8774.32
535.192	8876.46
535.557	8948.32
535.923	8860.19
536.288	8986.74
536.653	8969.11
537.019	8976.57
537.384	9078.94
537.749	9038.04
538.114	9088.43
538.479	9141.99
538.845	9227.64
539.21	9135.66
539.575	9278.71
539.94	9265.83
540.305	9338.14
540.67	9355.32
541.034	9365.71
541.399	9400.74
541.764	9339.05
542.129	9404.81
542.494	9468.99
542.858	9558.25
543.223	9530
543.587	9599.83
543.952	9592.83
544.316	9624.46
544.681	9611.36
545.045	9739.49
545.41	9737.46
545.774	9759.38
546.138	9849.77
546.503	9794.18
546.867	9812.71
547.231	9958.69
547.595	9922.99
547.959	9975.87
548.324	9992.36
548.688	10018.8
549.052	10086.37
549.416	10084.79
549.779	10180.38
550.143	10187.39
550.507	10188.52
550.871	10232.81
551.235	10338.57
551.599	10367.72
551.962	10346.48
552.326	10434.84
552.689	10526.81
553.053	10464.44
553.417	10481.39
553.78	10642.97
554.143	10576.76
554.507	10639.35
554.87	10660.82
555.234	10702.4
555.597	10694.27
555.96	10828.05
556.323	10849.52
556.686	10881.83
557.05	10991.89
557.413	10986.46
557.776	11024.43
558.139	11072.34
558.502	11094.03
558.865	11061.71
559.228	11304.19
559.59	11212.45
559.953	11263.07
560.316	11350.97
560.679	11356.85
561.041	11419.22
561.404	11514.58
561.767	11611.3
562.129	11583.51
562.492	11704.64
562.854	11734.92
563.217	11717.06
563.579	11806.78
563.941	11871.64
564.304	11995.25
564.666	11934.01
565.028	11976.72
565.39	12056.49
565.753	12178.3
566.115	12195.7
566.477	12285.64
566.839	12291.29
567.201	12425.29
567.563	12437.05
567.925	12544.84
568.287	12525.41
568.648	12546.65
569.01	12677.72
569.372	12673.88
569.734	12710.03
570.095	12796.58
570.457	12861.22
570.819	12990.03
571.18	12933.53
571.542	13033.64
571.903	13064.6
572.265	13193.41
572.626	13216.46
572.987	13214.65
573.349	13311.37
573.71	13319.96
574.071	13353.86
574.432	13376.68
574.794	13492.39
575.155	13503.68
575.516	13528.09
575.877	13541.2
576.238	13592.04
576.599	13665.26
576.96	13672.27
577.32	13607.86
577.681	13727.63
578.042	13888.76
578.403	13841.98
578.763	13805.37
579.124	13938.02
579.485	13936.89
579.845	14041.07
580.206	14022.54
580.566	14097.34
580.927	14093.05
581.287	14220.5
581.648	14102.54
582.008	14196.55
582.368	14206.72
582.728	14272.25
583.089	14266.38
583.449	14285.58
583.809	14296.43
584.169	14380.27
584.529	14401.51
584.889	14507.05
585.249	14418.01
585.609	14460.95
585.969	14501.62
586.329	14462.3
586.688	14531.45
587.048	14492.13
587.408	14490.33
587.768	14535.3
588.127	14557.22
588.487	14550.89
588.846	14669.3
589.206	14603.77
589.565	14663.2
589.925	14701.85
590.284	14694.39
590.643	14760.37
591.003	14735.06
591.362	14877.43
591.721	14828.62
592.08	14767.38
592.44	14844.44
592.799	14889.86
593.158	14802.86
593.517	14936.19
593.876	14941.84
594.235	14868.62
594.593	14984.78
594.952	14997.88
595.311	14950.88
595.67	14964.66
596.029	15111.78
596.387	15161.95
596.746	15149.97
597.104	15088.28
597.463	15068.62
597.822	15202.17
598.18	15147.26
598.538	15169.18
598.897	15353.81
599.255	15213.02
599.613	15472.9
599.972	15240.81
600.33	15331.89
600.688	15276.07
601.046	15396.74
601.404	15492.78
601.762	15439.45
602.12	15523.29
602.478	15482.62
602.836	15557.42
603.194	15461.15
603.552	15541.82
603.91	15505.89
604.268	15519.9
604.625	15473.8
604.983	15482.39
605.341	15516.51
605.698	15655.72
606.056	15592.9
606.413	15630.41
606.771	15717.19
607.128	15640.35
607.485	15684.87
607.843	15763.06
608.2	15847.13
608.557	15783.62
608.914	15790.63
609.272	15905.88
609.629	15942.26
609.986	15978.2
610.343	15894.81
610.7	16007.57
611.057	15932.77
611.414	15956.5
611.771	16001.7
612.127	16085.76
612.484	16077.85
612.841	16096.61
613.198	16092.32
613.554	16103.62
613.911	16156.5
614.267	16215.03
614.624	16202.37
614.98	16145.42
615.337	16337.73
615.693	16250.96
616.05	16227.45
616.406	16391.52
616.762	16258.87
617.118	16266.1
617.475	16303.61
617.831	16338.41
618.187	16329.6
618.543	16452.53
618.899	16486.43
619.255	16460.67
619.611	16411.18
619.967	16478.3
620.323	16454.34
620.678	16405.76
621.034	16401.91
621.39	16471.29
621.746	16436.71
622.101	16672.64
622.457	16423.16
622.812	16555.13
623.168	16529.37
623.523	16560.1
623.879	16571.4
624.234	16490.72
624.589	16569.59
624.945	16536.6
625.3	16642.81
625.655	16585.19
626.01	16612.53
626.365	16616.15
626.72	16526.2
627.075	16557.16
627.43	16531.18
627.785	16542.7
628.14	16581.12
628.495	16585.64
628.85	16462.25
629.205	16496.83
629.559	16563.72
629.914	16558.97
630.269	16506.32
630.623	16424.74
630.978	16427.45
631.332	16490.27
631.687	16596.03
632.041	16429.94
632.396	16479.88
632.75	16393.55
633.104	16477.84
633.459	16465.64
633.813	16441.46
634.167	16399.43
634.521	16289.83
634.875	16409.6
635.229	16309.94
635.583	16301.13
635.937	16261.58
636.291	16288.47
636.645	16298.19
636.999	16235.14
637.352	16322.82
637.706	16269.71
638.06	16283.27
638.413	16175.93
638.767	16147.68
639.121	16161.47
639.474	16065.43
639.828	16169.15
640.181	16064.52
640.534	16130.06
640.888	16128.25
641.241	15895.71
641.594	16031.08
641.947	16063.39
642.301	15979.1
642.654	15988.82
643.007	16028.36
643.36	16013.9
643.713	16001.02
644.066	16042.6
644.419	15954.47
644.771	15870.4
645.124	15749.05
645.477	15763.51
645.83	15639
646.182	15517.64
646.535	15446.23
646.888	15444.65
647.24	15373.69
647.593	15350.19
647.945	15372.34
648.298	15295.28
648.65	15211.89
649.002	15196.52
649.355	15285.33
649.707	15292.79
650.059	15418.89
650.411	15629.5
650.763	15536.4
651.115	15825.88
651.467	15804.19
651.819	15744.76
652.171	15645.78
652.523	15692.1
652.875	15688.26
653.227	15579.79
653.578	15778.43
653.93	15643.74
654.282	15658.2
654.633	15579.11
654.985	15648.49
655.337	15560.35
655.688	15584.08
656.039	15595.15
656.391	15486.46
656.742	15513.12
657.094	15502.28
657.445	15554.25
657.796	15576.85
658.147	15455.95
658.498	15452.56
658.849	15578.43
659.2	15505.21
659.551	15447.59
659.902	15557.19
660.253	15570.52
660.604	15503.63
660.955	15485.55
661.306	15570.97
661.656	15538.21
662.007	15573.91
662.358	15455.27
662.708	15514.25
663.059	15530.52
663.409	15428.61
663.76	15514.93
664.11	15501.6
664.461	15506.8
664.811	15441.03
665.161	15485.1
665.511	15389.28
665.862	15473.58
666.212	15514.93
666.562	15495.72
666.912	15487.36
667.262	15491.88
667.612	15414.59
667.962	15468.6
668.312	15456.18
668.662	15451.88
669.011	15589.96
669.361	15419.34
669.711	15474.93
670.06	15414.59
670.41	15361.26
670.76	15370.75
671.109	15424.99
671.459	15322.62
671.808	15363.52
672.157	15390.19
672.507	15281.04
672.856	15385.44
673.205	15395.61
673.554	15316.97
673.904	15280.36
674.253	15372.34
674.602	15374.14
674.951	15131.21
675.3	15018.9
675.649	15353.81
675.998	15325.11
676.346	15387.7
676.695	15335.27
677.044	15308.16
677.393	15296.63
677.741	15353.13
678.09	15275.16
678.438	15204.66
678.787	15248.27
679.135	15227.71
679.484	15219.8
679.832	15150.65
680.181	15101.38
680.529	15124.21
680.877	15129.86
681.225	15088.95
681.573	15216.86
681.922	15138.22
682.27	15118.78
682.618	15119.01
682.966	14975.28
683.314	15013.7
683.661	14969.41
684.009	14921.95
684.357	14883.99
684.705	14882.86
685.053	14809.64
685.4	14866.59
685.748	14720.83
686.095	14746.36
686.443	14716.31
686.79	14663.43
687.138	14739.13
687.485	14699.13
687.832	14646.93
688.18	14647.84
688.527	14639.02
688.874	14598.57
689.221	14627.72
689.568	14567.84
689.915	14467.73
690.262	14534.39
690.609	14452.59
690.956	14411.91
691.303	14390.89
691.65	14308.64
691.997	14358.8
692.344	14319.26
692.69	14299.82
693.037	14263.66
693.383	14148.41
693.73	14224.57
694.077	14123.1
694.423	14065.48
694.769	14015.76
695.116	13988.19
695.462	14001.07
695.808	14038.36
696.155	13938.02
696.501	13886.95
696.847	13891.24
697.193	13759.72
697.539	13772.83
697.885	13653.96
698.231	13641.53
698.577	13598.37
698.923	13728.54
699.269	13540.97
699.614	13538.26
699.96	13503.91
700.306	13548.66
700.651	13461.43
700.997	13334.2
701.342	13384.59
701.688	13386.17
702.033	13307.76
702.379	13344.59
702.724	13176.69
703.069	13264.37
703.415	13092.85
703.76	13117.25
704.105	13094.88
704.45	13065.5
704.795	13027.99
705.14	12977.82
705.485	12992.06
705.83	12855.79
706.175	12851.5
706.52	12929.69
706.865	12872.97
707.209	12848.79
707.554	12750.26
707.899	12860.99
708.243	12741.67
708.588	12684.5
708.932	12682.92
709.277	12703.93
709.621	12620.32
709.966	12561.56
710.31	12660.99
710.654	12492.64
710.998	12547.78
711.342	12454.45
711.687	12495.35
712.031	12465.75
712.375	12369.93
712.719	12441.11
713.063	12336.03
713.407	12430.27
713.75	12362.25
714.094	12326.77
714.438	12293.77
714.782	12280.67
715.125	12244.96
715.469	12258.29
715.812	12225.53
716.156	12188.24
716.499	12150.05
716.843	12158.41
717.186	12079.99
717.53	12227.56
717.873	12199.31
718.216	12138.97
718.559	12052.65
718.902	11987.79
719.246	12000.9
719.589	12017.4
719.932	12024.4
720.275	12023.95
720.617	11924.97
720.96	11941.01
721.303	11897.63
721.646	11936.49
721.989	11833.22
722.331	11867.34
722.674	11829.15
723.016	11863.28
723.359	11855.82
723.701	11899.88
724.044	11857.4
724.386	11746.22
724.729	11832.99
725.071	11737.63
725.413	11735.37
725.755	11700.57
726.097	11729.27
726.439	11588.25
726.782	11659.89
727.124	11653.79
727.465	11588.71
727.807	11639.33
728.149	11705.54
728.491	11608.82
728.833	11643.17
729.175	11579.44
729.516	11577.63
729.858	11561.59
730.199	11571.31
730.541	11548.71
730.882	11590.29
731.224	11577.63
731.565	11520.91
731.906	11493.57
732.248	11476.62
732.589	11494.7
732.93	11426.9
733.271	11501.03
733.612	11456.51
733.953	11546
734.294	11466.22
734.635	11394.81
734.976	11429.16
735.317	11396.4
735.658	11423.51
735.999	11493.57
736.339	11372.89
736.68	11401.59
737.021	11327.02
737.361	11339.9
737.702	11406.56
738.042	11360.01
738.383	11322.27
738.723	11387.58
739.063	11390.52
739.404	11380.8
739.744	11286.57
740.084	11292.22
740.424	11329.05
740.764	11362.27
741.104	11358.43
741.444	11326.34
741.784	11306.23
742.124	11308.26
742.464	11287.02
742.804	11292.44
743.143	11229.62
743.483	11262.16
743.823	11213.58
744.162	11167.7
744.502	11230.98
744.841	11170.64
745.181	11244.31
745.52	11200.92
745.86	11174.71
746.199	11167.93
746.538	11140.13
746.877	11172.22
747.216	11197.98
747.556	11138.77
747.895	11170.86
748.234	11070.53
748.573	11064.2
748.911	11119.57
749.25	11143.07
749.589	11096.52
749.928	11078.44
750.267	11190.75
750.605	11097.87
750.944	11060.36
751.283	11052.9
751.621	11067.59
751.96	11005.67
752.298	11003.86
752.636	11023.07
752.975	10912.79
753.313	10935.16
753.651	11015.61
753.989	10918.67
754.327	10908.27
754.666	10886.58
755.004	10903.53
755.342	10871.44
755.679	10882.74
756.017	10857.88
756.355	10848.16
756.693	10747.37
757.031	10827.82
757.368	10753.02
757.706	10647.04
758.044	10713.25
