Data from tablewood_brown_FLMS001491_094.txt Node
Date: Tue Feb 07 11:11:17 GMT 2017
User: dcchb
Spectrometer: FLMS00149
Trigger mode: 0
Integration Time (sec): 2.000000E-2
Scans to average: 10
Electric dark correction enabled: true
Nonlinearity correction enabled: false
Boxcar width: 0
XAxis mode: Wavelengths
Number of Pixels in Spectrum: 2048
>>>>>Begin Spectral Data<<<<<
341.393	7.23
341.776	7.23
342.16	7.23
342.543	-44.52
342.927	-72.99
343.31	-79.32
343.693	-65.08
344.077	-46.33
344.46	-42.48
344.843	-67.79
345.226	-34.58
345.61	-40.68
345.993	-15.59
346.376	0.45
346.759	8.36
347.142	8.14
347.525	31.64
347.908	58.53
348.291	85.42
348.674	87.91
349.057	111.41
349.44	98.3
349.823	156.83
350.206	153.44
350.588	196.15
350.971	202.71
351.354	223.5
351.737	221.46
352.119	246.55
352.502	249.48
352.884	268.24
353.267	294.23
353.65	284.29
354.032	299.65
354.414	308.92
354.797	305.75
355.179	302.14
355.562	322.93
355.944	346.21
356.326	343.49
356.709	345.75
357.091	345.08
357.473	329.48
357.855	337.39
358.238	332.87
358.62	340.33
359.002	350.05
359.384	344.62
359.766	333.1
360.148	329.48
360.53	342.59
360.912	344.62
361.294	345.53
361.676	339.65
362.057	327.22
362.439	329.71
362.821	340.1
363.203	327
363.584	324.29
363.966	328.58
364.348	347.34
364.729	329.26
365.111	324.74
365.493	336.04
365.874	319.54
366.256	334.23
366.637	327.22
367.019	343.04
367.4	324.06
367.781	321.8
368.163	321.8
368.544	318.41
368.925	330.61
369.306	320.67
369.688	315.25
370.069	321.12
370.45	323.38
370.831	305.53
371.212	310.95
371.593	321.12
371.974	342.14
372.355	346.88
372.736	325.42
373.117	338.52
373.498	328.35
373.879	336.26
374.26	316.6
374.641	315.47
375.021	323.38
375.402	334.91
375.783	317.51
376.163	352.08
376.544	336.71
376.925	361.35
377.305	355.92
377.686	339.2
378.066	340.78
378.447	347.11
378.827	340.78
379.208	372.65
379.588	355.47
379.968	356.6
380.349	364.28
380.729	351.4
381.109	363.61
381.489	358.86
381.87	371.97
382.25	348.01
382.63	373.55
383.01	368.58
383.39	382.14
383.77	386.2
384.15	393.44
384.53	386.2
384.91	393.66
385.29	385.53
385.67	380.33
386.049	380.33
386.429	373.1
386.809	383.04
387.189	397.5
387.568	399.76
387.948	399.31
388.328	380.55
388.707	398.41
389.087	400.89
389.466	421.01
389.846	428.46
390.225	428.24
390.605	411.51
390.984	402.02
391.363	412.42
391.743	427.79
392.122	418.52
392.501	425.3
392.881	439.76
393.26	411.06
393.639	440.44
394.018	441.12
394.397	422.81
394.776	458.52
395.155	453.32
395.534	459.65
395.913	467.78
396.292	461.91
396.671	464.85
397.05	477.73
397.429	470.27
397.808	477.95
398.186	490.61
398.565	485.64
398.944	478.63
399.323	487.44
399.701	493.09
400.08	483.15
400.458	481.57
400.837	479.76
401.215	524.96
401.594	494.22
401.972	543.49
402.351	515.69
402.729	524.28
403.107	524.28
403.486	505.3
403.864	546.65
404.242	523.6
404.62	547.33
404.999	539.42
405.377	534.68
405.755	547.1
406.133	547.33
406.511	562.47
406.889	556.37
407.267	584.62
407.645	574.45
408.023	589.59
408.401	586.2
408.779	573.54
409.156	579.65
409.534	590.04
409.912	609.25
410.29	634.56
410.667	616.25
411.045	636.14
411.422	617.61
411.8	629.14
412.178	642.47
412.555	655.12
412.933	639.98
413.31	658.06
413.687	693.99
414.065	678.17
414.442	680.43
414.819	670.94
415.197	691.28
415.574	712.52
415.951	693.99
416.328	682.24
416.705	726.53
417.082	711.85
417.46	721.79
417.837	740.55
418.214	749.36
418.591	736.03
418.967	745.74
419.344	742.81
419.721	755.46
420.098	754.56
420.475	765.63
420.852	755.69
421.228	774.22
421.605	795.23
421.982	799.53
422.358	801.56
422.735	819.19
423.111	801.79
423.488	837.49
423.864	818.51
424.241	845.63
424.617	838.4
424.994	848.79
425.37	852.18
425.746	839.07
426.123	849.7
426.499	881.78
426.875	872.07
427.251	886.08
427.627	921.33
428.003	897.6
428.379	919.52
428.756	943.93
429.132	926.76
429.507	960.2
429.883	943.03
430.259	968.56
430.635	964.72
431.011	994.78
431.387	998.84
431.763	995.91
432.138	1029.8
432.514	1039.52
432.89	1022.35
433.265	1050.82
433.641	1063.25
434.016	1080.88
434.392	1070.25
434.767	1081.33
435.143	1108.22
435.518	1132.85
435.894	1129.69
436.269	1136.92
436.644	1160.2
437.02	1175.11
437.395	1162.68
437.77	1201.78
438.145	1196.35
438.52	1195.67
438.895	1201.32
439.271	1221.89
439.646	1241.55
440.021	1237.03
440.395	1274.77
440.77	1274.09
441.145	1293.75
441.52	1311.83
441.895	1293.3
442.27	1310.93
442.645	1322
443.019	1331.04
443.394	1304.15
443.769	1328.1
444.143	1335.11
444.518	1389.57
444.892	1350.25
445.267	1389.12
445.641	1399.29
446.016	1392.51
446.39	1405.61
446.764	1411.94
447.139	1370.36
447.513	1437.93
447.887	1430.24
448.262	1419.62
448.636	1426.86
449.01	1488.32
449.384	1452.39
449.758	1463.01
450.132	1476.35
450.506	1521.32
450.88	1510.24
451.254	1525.61
451.628	1527.19
452.002	1538.72
452.376	1571.03
452.75	1597.25
453.123	1585.04
453.497	1614.65
453.871	1585.72
454.244	1642.22
454.618	1673.85
454.992	1664.59
455.365	1683.12
455.739	1709.11
456.112	1727.19
456.486	1728.32
456.859	1739.39
457.232	1788.65
457.606	1796.34
457.979	1829.1
458.352	1847.41
458.725	1871.36
459.099	1896.67
459.472	1908.65
459.845	1911.81
460.218	1983.68
460.591	1960.85
460.964	1960.17
461.337	2039.49
461.71	2028.2
462.083	2100.06
462.456	2085.14
462.829	2114.29
463.201	2142.54
463.574	2122.66
463.947	2140.51
464.32	2237.46
464.692	2257.57
465.065	2234.97
465.438	2274.29
465.81	2322.42
466.183	2369.43
466.555	2392.25
466.928	2428.41
467.3	2425.92
467.672	2452.59
468.045	2531.68
468.417	2532.59
468.789	2576.88
469.161	2594.73
469.534	2647.84
469.906	2742.07
470.278	2723.32
470.65	2761.51
471.022	2813.71
471.394	2881.28
471.766	2903.43
472.138	2963.54
472.51	3017.77
472.882	3064.1
473.253	3086.02
473.625	3158.11
473.997	3234.04
474.369	3302.29
474.74	3326.92
475.112	3366.47
475.484	3440.81
475.855	3513.81
476.227	3525.56
476.598	3641.49
476.97	3679.45
477.341	3748.38
477.713	3839.9
478.084	3842.38
478.455	4026.79
478.827	4067.01
479.198	4178.65
479.569	4169.16
479.94	4271.53
480.311	4377.96
480.682	4489.83
481.053	4559.2
481.424	4667.45
481.795	4724.17
482.166	4761.91
482.537	4843.04
482.908	4969.13
483.279	4964.39
483.65	5073.54
484.021	5223.14
484.391	5273.53
484.762	5405.96
485.133	5447.77
485.503	5564.15
485.874	5626.52
486.244	5693.18
486.615	5788.77
486.985	5933.18
487.356	6007.98
487.726	6047.75
488.097	6203.45
488.467	6209.1
488.837	6315.54
489.207	6379.72
489.578	6556.44
489.948	6631.46
490.318	6610.67
490.688	6697.45
491.058	6853.61
491.428	6920.5
491.798	6998.23
492.168	7122.07
492.538	7160.04
492.908	7225.8
493.278	7318.23
493.648	7372.46
494.017	7522.97
494.387	7553.7
494.757	7646.35
495.126	7735.62
495.496	7797.08
495.866	7865.56
496.235	7984.42
496.605	8028.26
496.974	8054.25
497.344	8134.02
497.713	8247.69
498.082	8311.65
498.452	8319.78
498.821	8397.52
499.19	8451.53
499.559	8492.66
499.928	8670.28
500.298	8601.36
500.667	8782.14
501.036	8803.61
501.405	8834.12
501.774	8863.04
502.143	8994.79
502.512	9024.4
502.88	9193.88
503.249	9125.41
503.618	9195.46
503.987	9312.3
504.356	9317.95
504.724	9435.01
505.093	9436.81
505.462	9476.81
505.83	9586.87
506.199	9649.24
506.567	9773.75
506.936	9722.46
507.304	9936.69
507.672	9941.66
508.041	9993.64
508.409	10120.64
508.777	10200.18
509.145	10332.38
509.514	10350.91
509.882	10369.9
510.25	10485.15
510.618	10467.52
510.986	10624.81
511.354	10705.71
511.722	10847.85
512.09	10900.96
512.458	10886.95
512.826	10997.22
513.193	11086.04
513.561	11199.03
513.929	11243.55
514.297	11309.53
514.664	11443.31
515.032	11536.42
515.4	11686.02
515.767	11739.58
516.135	11806.7
516.502	11785
516.869	12009.63
517.237	12028.38
517.604	12062.73
517.972	12229.96
518.339	12328.72
518.706	12404.19
519.073	12488.26
519.44	12559.67
519.808	12730.29
520.175	12727.35
520.542	12901.36
520.909	13038.08
521.276	12997.85
521.643	13255.47
522.009	13286.43
522.376	13377.05
522.743	13438.97
523.11	13588.34
523.477	13757.38
523.843	13824.95
524.21	14003.25
524.577	14108.56
524.943	14291.38
525.31	14259.74
525.676	14404.37
526.043	14472.61
526.409	14605.49
526.776	14771.36
527.142	14864.92
527.508	14888.2
527.874	15070.56
528.241	15286.83
528.607	15226.72
528.973	15383.55
529.339	15463.77
529.705	15561.85
530.071	15703.77
530.437	15788.96
530.803	15736.99
531.169	15929.52
531.535	15907.6
531.901	16050.2
532.267	16116.19
532.632	16231.89
532.998	16334.03
533.364	16458.1
533.73	16557.98
534.095	16710.52
534.461	16690.18
534.826	16777.41
535.192	16841.59
535.557	17037.52
535.923	17024.64
536.288	17103.05
536.653	17233.45
537.019	17207.46
537.384	17194.35
537.749	17365.65
538.114	17354.35
538.479	17451.97
538.845	17547.79
539.21	17595.7
539.575	17643.6
539.94	17668.69
540.305	17787.1
540.67	17762.92
541.034	17941.68
541.399	17981.67
541.764	17992.52
542.129	18126.98
542.494	18243.36
542.858	18295.79
543.223	18247.2
543.587	18340.99
543.952	18338.05
544.316	18480.64
544.681	18448.55
545.045	18625.27
545.41	18705.04
545.774	18790.69
546.138	18764.25
546.503	18869.11
546.867	18849.22
547.231	19041.31
547.595	19121.31
547.959	19129.67
548.324	19150.91
548.688	19319.72
549.052	19454.86
549.416	19455.08
549.779	19546.15
550.143	19610.33
550.507	19797.45
550.871	19847.61
551.235	19879.7
551.599	20098.45
551.962	20028.63
552.326	20241.95
552.689	20417.99
553.053	20225.68
553.417	20424.1
553.78	20662.06
554.143	20675.84
554.507	20814.37
554.87	20863.86
555.234	21141.14
555.597	21141.59
555.96	21361.47
556.323	21410.28
556.686	21544.74
557.05	21751.97
557.413	21686.21
557.776	21829.48
558.139	22020.21
558.502	22093.66
558.865	22240.77
559.228	22393.54
559.59	22634.43
559.953	22735.45
560.316	22942.9
560.679	22913.3
561.041	23199.84
561.404	23330.46
561.767	23560.06
562.129	23491.81
562.492	23772.26
562.854	23964.79
563.217	23939.94
563.579	24151.68
563.941	24398.91
564.304	24475.97
564.666	24804.77
565.028	24782.17
565.39	24955.95
565.753	25188.49
566.115	25286.79
566.477	25421.93
566.839	25666.67
567.201	25883.16
567.563	26025.3
567.925	26236.82
568.287	26332.19
568.648	26474.78
569.01	26678.39
569.372	27023.7
569.734	26820.09
570.095	27139.17
570.457	27420.52
570.819	27494.64
571.18	27594.08
571.542	27830.45
571.903	27961.52
572.265	28171.01
572.626	28393.38
572.987	28517.22
573.349	28782.97
573.71	28970.54
574.071	29001.95
574.432	29208.72
574.794	29481.26
575.155	29407.81
575.516	29629.5
575.877	29857.97
576.238	29972.77
576.599	30143.61
576.96	30274.46
577.32	30352.65
577.681	30575.92
578.042	30786.31
578.403	30899.98
578.763	30912.86
579.124	31109.92
579.485	31257.94
579.845	31384.94
580.206	31335.45
580.566	31494.09
580.927	31609.79
581.287	31693.18
581.648	31700.41
582.008	31902.66
582.368	31956.22
582.728	32162.32
583.089	32143.34
583.449	32198.93
583.809	32233.5
584.169	32393.72
584.529	32369.09
584.889	32642.98
585.249	32459.03
585.609	32509.2
585.969	32713.94
586.329	32640.95
586.688	32791.68
587.048	32828.52
587.408	32670.33
587.768	32899.7
588.127	32754.84
588.487	32860.83
588.846	33170.88
589.206	33052.92
589.565	33078.23
589.925	33099.69
590.284	33219.01
590.643	33221.73
591.003	33343.08
591.362	33418.33
591.721	33405
592.08	33471.66
592.44	33604.31
592.799	33523.19
593.158	33463.75
593.517	33582.85
593.876	33597.76
594.235	33624.65
594.593	33585.56
594.952	33565.45
595.311	33553.02
595.67	33675.05
596.029	33830.52
596.387	34032.78
596.746	34077.75
597.104	33833.01
597.463	33906
597.822	34000.24
598.18	33862.39
598.538	33800.92
598.897	34010.18
599.255	33697.65
599.613	34319.32
599.972	34021.93
600.33	34159.33
600.688	34075.71
601.046	34196.84
601.404	34399.77
601.762	34300.12
602.12	34360.23
602.478	34531.52
602.836	34375.37
603.194	34313.9
603.552	34216.5
603.91	34234.35
604.268	34385.31
604.625	34210.63
604.983	34556.15
605.341	34258.31
605.698	34520
606.056	34583.95
606.413	34546.21
606.771	34552.31
607.128	34723.83
607.485	34566.77
607.843	34605.19
608.2	34760.44
608.557	35090.6
608.914	34799.09
609.272	35079.3
609.629	34898.74
609.986	35070.04
610.343	35036.59
610.7	35150.94
611.057	35178.51
611.414	35054.9
611.771	35208.57
612.127	35415.11
612.484	35218.51
612.841	35362.23
613.198	35188.23
613.554	35256.7
613.911	35460.54
614.267	35463.93
614.624	35407.2
614.98	35418.5
615.337	35644.94
615.693	35588.22
616.05	35573.3
616.406	35765.39
616.762	35613.07
617.118	35784.14
617.475	35712.28
617.831	35757.93
618.187	35897.14
618.543	35851.71
618.899	36054.19
619.255	35985.72
619.611	35924.71
619.967	35999.73
620.323	36120.18
620.678	35958.83
621.034	35877.47
621.39	35895.33
621.746	35940.52
622.101	36381.87
622.457	35975.55
622.812	36086.28
623.168	36125.83
623.523	36176.9
623.879	36207.64
624.234	36038.15
624.589	36222.32
624.945	36110.01
625.3	36236.11
625.655	36147.52
626.01	36124.7
626.365	36227.07
626.72	36238.37
627.075	36127.41
627.43	36083.8
627.785	36085.15
628.14	36258.26
628.495	36239.73
628.85	35964.93
629.205	35968.55
629.559	36183.23
629.914	35974.2
630.269	36011.93
630.623	35987.08
630.978	35838.83
631.332	35988.43
631.687	36025.04
632.041	35816.46
632.396	35971.26
632.75	35820.98
633.104	35811.49
633.459	35642.23
633.813	35650.81
634.167	35623.92
634.521	35677.25
634.875	35633.87
635.229	35595.9
635.583	35435.45
635.937	35529.24
636.291	35432.74
636.645	35480.2
636.999	35385.74
637.352	35505.06
637.706	35317.26
638.06	35418.73
638.413	35276.36
638.767	35112.07
639.121	35318.85
639.474	35110.49
639.828	35171.73
640.181	35216.25
640.534	35124.27
640.888	35037.72
641.241	34917.95
641.594	34964.73
641.947	35072.07
642.301	34973.77
642.654	34927.67
643.007	34905.75
643.36	35067.1
643.713	34693.1
644.066	35033.2
644.419	34647.68
644.771	34520
645.124	34206.56
645.477	34031.42
645.83	33887.92
646.182	33706.68
646.535	33642.96
646.888	33707.14
647.24	33581.49
647.593	33782.16
647.945	33654.26
648.298	33434.83
648.65	33489.97
649.002	33353.25
649.355	33446.8
649.707	33479.8
650.059	33644.99
650.411	34076.84
650.763	34237.29
651.115	34524.52
651.467	34384.18
651.819	34273.9
652.171	34310.51
652.523	34195.71
652.875	34232.32
653.227	34040.01
653.578	34175.6
653.93	34169.95
654.282	34048.14
654.633	33993.68
654.985	34138.31
655.337	34082.27
655.688	34023.51
656.039	34121.81
656.391	33946
656.742	34007.69
657.094	34111.42
657.445	34025.09
657.796	34026.45
658.147	33919.56
658.498	33910.52
658.849	33937.19
659.2	33988.26
659.551	33873.46
659.902	34022.38
660.253	33960.24
660.604	33935.38
660.955	33923.85
661.306	33989.84
661.656	33907.36
662.007	33957.53
662.358	33923.4
662.708	33876.62
663.059	33856.96
663.409	33650.19
663.76	33885.89
664.11	33894.93
664.461	33862.16
664.811	33773.12
665.161	33925.44
665.511	33758.43
665.862	33729.96
666.212	33777.87
666.562	33933.35
666.912	33776.74
667.262	33830.97
667.612	33983.51
667.962	33836.85
668.312	33715.27
668.662	33915.94
669.011	33777.42
669.361	33677.31
669.711	33725.89
670.06	33600.92
670.41	33656.52
670.76	33613.35
671.109	33624.65
671.459	33615.61
671.808	33489.74
672.157	33576.97
672.507	33487.71
672.856	33479.12
673.205	33531.1
673.554	33527.93
673.904	33351.67
674.253	33623.97
674.602	33448.39
674.951	32974.27
675.3	32773.38
675.649	33198.68
675.998	33270.09
676.346	33295.17
676.695	33372.46
677.044	33118.23
677.393	33136.98
677.741	33132.01
678.09	32995.74
678.438	33040.04
678.787	33082.75
679.135	33106.7
679.484	32830.1
679.832	32964.78
680.181	32699.25
680.529	32889.3
680.877	32877.55
681.225	32681.17
681.573	32890.89
681.922	32638.92
682.27	32612.02
682.618	32562.76
682.966	32512.14
683.314	32613.15
683.661	32407.51
684.009	32337.91
684.357	32303.11
684.705	32166.84
685.053	32300.62
685.4	32174.97
685.748	31867.18
686.095	31983.57
686.443	31850.91
686.79	31736.34
687.138	31740.86
687.485	31660.18
687.832	31571.37
688.18	31607.3
688.527	31383.58
688.874	31360.98
689.221	31273.98
689.568	31214.09
689.915	31090.26
690.262	31286.41
690.609	31100.43
690.956	31014.1
691.303	30946.76
691.65	30763.26
691.997	30734.56
692.344	30509.25
692.69	30530.95
693.037	30644.39
693.383	30199.88
693.73	30248.92
694.077	30171.86
694.423	30036.05
694.769	29928.7
695.116	30024.52
695.462	29949.49
695.808	29805.09
696.155	29855.49
696.501	29559.67
696.847	29577.3
697.193	29412.56
697.539	29418.89
697.885	29219.34
698.231	29063.87
698.577	29114.94
698.923	28981.16
699.269	28855.74
699.614	28835.17
699.96	28714.27
700.306	28631.56
700.651	28617.78
700.997	28521.06
701.342	28369.88
701.688	28422.53
702.033	28187.06
702.379	28135.98
702.724	28109.09
703.069	28173.5
703.415	27783.9
703.76	27894.86
704.105	27766.73
704.45	27690.12
704.795	27551.82
705.14	27450.35
705.485	27483.12
705.83	27309.34
706.175	27290.36
706.52	27279.28
706.865	27154.31
707.209	27091.27
707.554	26988.89
707.899	26955.68
708.243	26915.45
708.588	26783.25
708.932	26589.13
709.277	26609.47
709.621	26755
709.966	26410.38
710.31	26524.27
710.654	26242.02
710.998	26436.37
711.342	26272.76
711.687	26176.49
712.031	26124.28
712.375	25931.97
712.719	26041.8
713.063	25982.14
713.407	26044.74
713.75	25949.6
714.094	25817.17
714.438	25734.46
714.782	25762.71
715.125	25659.66
715.469	25751.87
715.812	25530.18
716.156	25300.58
716.499	25562.27
716.843	25436.17
717.186	25427.35
717.53	25507.35
717.873	25411.99
718.216	25341.71
718.559	25233.91
718.902	25190.98
719.246	25245.44
719.589	25087.02
719.932	25028.95
720.275	25082.28
720.617	24976.74
720.96	25053.13
721.303	24857.2
721.646	24940.36
721.989	24913.02
722.331	24978.55
722.674	24915.28
723.016	24934.71
723.359	24834.83
723.701	24782.85
724.044	24755.73
724.386	24536.76
724.729	24717.32
725.071	24671.67
725.413	24654.49
725.755	24653.59
726.097	24490.66
726.439	24431.45
726.782	24436.42
727.124	24465.8
727.465	24435.74
727.807	24275.97
728.149	24378.12
728.491	24343.54
728.833	24443.2
729.175	24404.1
729.516	24342.41
729.858	24301.51
730.199	24331.34
730.541	24310.32
730.882	24266.48
731.224	24303.54
731.565	24176.09
731.906	24258.57
732.248	24233.04
732.589	24046.37
732.93	23989.65
733.271	24174.28
733.612	24105.81
733.953	24273.03
734.294	24089.08
734.635	24035.98
734.976	24240.94
735.317	23960.95
735.658	24019.26
735.999	24054.06
736.339	23987.62
736.68	24018.13
737.021	23864.01
737.361	23951.23
737.702	24121.85
738.042	23905.81
738.383	23946.26
738.723	24038.01
739.063	23864.68
739.404	24041.18
739.744	23928.86
740.084	23876.89
740.424	23889.54
740.764	24012.48
741.104	23853.61
741.444	23834.4
741.784	23765.93
742.124	23818.81
742.464	23900.84
742.804	23849.54
743.143	23786.95
743.483	23801.63
743.823	23660.39
744.162	23703.56
744.502	23778.13
744.841	23669.21
745.181	23946.71
745.52	23702.2
745.86	23770.22
746.199	23808.41
746.538	23769.32
746.877	23798.24
747.216	23773.61
747.556	23650.9
747.895	23674.63
748.234	23638.25
748.573	23572.49
748.911	23585.37
749.25	23563.45
749.589	23500.4
749.928	23542.88
750.267	23621.53
750.605	23535.88
750.944	23505.6
751.283	23497.46
751.621	23517.35
751.96	23329.1
752.298	23393.06
752.636	23429.44
752.975	23273.51
753.313	23163.01
753.651	23383.34
753.989	23205.49
754.327	23311.03
754.666	23272.61
755.004	23233.29
755.342	23136.79
755.679	23244.36
