Data from tablewood_dark_bookshelf_FLMS001491_00096.txt Node
Date: Wed Feb 08 14:16:01 GMT 2017
User: dcchb
Spectrometer: FLMS00149
Trigger mode: 0
Integration Time (sec): 2.000000E-2
Scans to average: 10
Electric dark correction enabled: true
Nonlinearity correction enabled: false
Boxcar width: 0
XAxis mode: Wavelengths
Number of Pixels in Spectrum: 2048
>>>>>Begin Spectral Data<<<<<
341.393	-5.24
341.776	-5.24
342.16	-5.24
342.543	-41.17
342.927	-45.46
343.31	-69.87
343.693	-63.54
344.077	-68.52
344.46	-55.63
344.843	-73.71
345.226	-39.59
345.61	-56.99
345.993	-7.95
346.376	2.22
346.759	26.4
347.142	22.78
347.525	38.37
347.908	65.94
348.291	78.83
348.674	90.35
349.057	110.92
349.44	131.25
349.823	168.31
350.206	156.11
350.588	195.43
350.971	201.31
351.354	225.49
351.737	235.21
352.119	235.21
352.502	254.41
352.884	279.95
353.267	277.24
353.65	292.83
354.032	300.51
354.414	303
354.797	292.15
355.179	306.62
355.562	292.38
355.944	325.37
356.326	335.99
356.709	321.31
357.091	346.16
357.473	320.63
357.855	345.26
358.238	334.19
358.62	328.54
359.002	321.76
359.384	347.52
359.766	336.9
360.148	345.71
360.53	342.55
360.912	338.48
361.294	359.27
361.676	352.49
362.057	351.59
362.439	335.54
362.821	328.99
363.203	333.73
363.584	344.58
363.966	319.72
364.348	321.98
364.729	338.03
365.111	303.68
365.493	333.06
365.874	324.47
366.256	322.21
366.637	335.54
367.019	321.53
367.4	322.66
367.781	322.89
368.163	329.21
368.544	347.07
368.925	314.07
369.306	342.77
369.688	310.01
370.069	323.56
370.45	297.35
370.831	321.98
371.212	305.94
371.593	314.3
371.974	321.31
372.355	331.02
372.736	316.33
373.117	318.82
373.498	325.15
373.879	312.94
374.26	344.36
374.641	325.37
375.021	355.88
375.402	331.47
375.783	324.47
376.163	340.74
376.544	342.55
376.925	335.32
377.305	326.95
377.686	326.73
378.066	340.74
378.447	328.99
378.827	330.12
379.208	345.49
379.588	334.41
379.968	355.88
380.349	343.23
380.729	344.58
381.109	349.55
381.489	344.58
381.87	365.6
382.25	350.91
382.63	369.89
383.01	348.2
383.39	375.09
383.77	373.96
384.15	375.99
384.53	378.03
384.91	355.88
385.29	373.28
385.67	363.56
386.049	370.57
386.429	365.15
386.809	368.54
387.189	388.42
387.568	375.77
387.948	386.39
388.328	402.66
388.707	390.46
389.087	374.41
389.466	403.56
389.846	385.48
390.225	400.63
390.605	389.55
390.984	408.99
391.363	392.04
391.743	418.7
392.122	412.15
392.501	396.56
392.881	392.94
393.26	408.08
393.639	424.35
394.018	403.11
394.397	403.34
394.776	434.3
395.155	422.55
395.534	428.19
395.913	420.51
396.292	429.55
396.671	424.58
397.05	424.13
397.429	430.91
397.808	439.27
398.186	441.08
398.565	427.07
398.944	436.56
399.323	441.98
399.701	442.43
400.08	456.67
400.458	468.19
400.837	446.5
401.215	454.18
401.594	461.41
401.972	451.7
402.351	480.17
402.729	456.22
403.107	455.99
403.486	465.93
403.864	483.56
404.242	491.02
404.62	491.02
404.999	492.15
405.377	495.76
405.755	485.37
406.133	478.82
406.511	489.66
406.889	494.63
407.267	494.86
407.645	519.27
408.023	502.54
408.401	497.35
408.779	515.2
409.156	535.99
409.534	505.03
409.912	529.66
410.29	547.51
410.667	543.9
411.045	544.8
411.422	540.28
411.8	550.23
412.178	553.84
412.555	552.49
412.933	558.81
413.31	595.65
413.687	575.99
414.065	583.67
414.442	574.18
414.819	574.18
415.197	577.34
415.574	573.28
415.951	611.24
416.328	618.92
416.705	620.73
417.082	622.77
417.46	611.92
417.837	630.45
418.214	609.21
418.591	637
418.967	623.22
419.344	614.86
419.721	632.71
420.098	644.91
420.475	637.23
420.852	641.75
421.228	672.03
421.605	638.36
421.982	654.86
422.358	681.97
422.735	679.04
423.111	697.79
423.488	679.26
423.864	686.49
424.241	690.56
424.617	688.75
424.994	724.01
425.37	726.49
425.746	710.22
426.123	694.4
426.499	731.69
426.875	720.16
427.251	726.27
427.627	738.7
428.003	758.13
428.379	757
428.756	764.46
429.132	769.2
429.507	787.73
429.883	773.5
430.259	786.38
430.635	823.44
431.011	804
431.387	817.56
431.763	846.04
432.138	837.22
432.514	866.83
432.89	840.16
433.265	872.7
433.641	899.14
434.016	900.95
434.392	919.03
434.767	904.11
435.143	890.33
435.518	902.76
435.894	896.88
436.269	922.42
436.644	946.37
437.02	954.06
437.395	947.05
437.77	952.25
438.145	975.3
438.52	974.4
438.895	988.86
439.271	985.02
439.646	1004.23
440.021	1023.21
440.395	982.3
440.77	994.73
441.145	1017.78
441.52	1009.87
441.895	1025.24
442.27	1049.2
442.645	1016.65
443.019	1041.29
443.394	1053.26
443.769	1058.46
444.143	1055.3
444.518	1090.1
444.892	1084.9
445.267	1101.17
445.641	1095.75
446.016	1106.82
446.39	1102.3
446.764	1120.15
447.139	1124
447.513	1107.95
447.887	1115.86
448.262	1110.44
448.636	1149.76
449.01	1159.7
449.384	1175.52
449.758	1175.52
450.132	1188.4
450.506	1181.17
450.88	1189.08
451.254	1197.44
451.628	1196.31
452.002	1234.5
452.376	1231.11
452.75	1250.32
453.123	1266.59
453.497	1244.9
453.871	1246.7
454.244	1302.3
454.618	1286.03
454.992	1323.76
455.365	1342.75
455.739	1352.92
456.112	1344.33
456.486	1358.11
456.859	1381.39
457.232	1420.94
457.606	1416.87
457.979	1411.9
458.352	1450.54
458.725	1447.83
459.099	1463.87
459.472	1499.58
459.845	1515.17
460.218	1541.84
460.591	1542.29
460.964	1530.54
461.337	1556.07
461.71	1583.42
462.083	1609.41
462.456	1622.97
462.829	1600.82
463.201	1647.6
463.574	1601.05
463.947	1622.97
464.32	1697.31
464.692	1723.75
465.065	1737.77
465.438	1752
465.81	1765.33
466.183	1798.55
466.555	1837.42
466.928	1832.9
467.3	1813.24
467.672	1856.86
468.045	1906.35
468.417	1879
468.789	1939.12
469.161	1949.74
469.534	1946.35
469.906	2022.5
470.278	2003.75
470.65	2058.21
471.022	2068.38
471.394	2090.98
471.766	2134.36
472.138	2148.15
472.51	2216.4
472.882	2206.68
473.253	2231.76
473.625	2268.37
473.997	2333.46
474.369	2332.78
474.74	2356.96
475.112	2424.53
475.484	2445.32
475.855	2489.84
476.227	2501.81
476.598	2529.38
476.97	2551.3
477.341	2603.28
477.713	2682.37
478.084	2664.52
478.455	2735.48
478.827	2781.13
479.198	2816.83
479.569	2864.06
479.94	2966.89
480.311	2938.41
480.682	2994.46
481.053	3049.37
481.424	3122.59
481.795	3112.19
482.166	3165.75
482.537	3235.35
482.908	3301.11
483.279	3339.3
483.65	3343.6
484.021	3438.06
484.391	3454.78
484.762	3471.96
485.133	3542.92
485.503	3578.39
485.874	3643.48
486.244	3686.87
486.615	3744.72
486.985	3765.06
487.356	3875.56
487.726	3859.97
488.097	3969.12
488.467	3950.59
488.837	4063.81
489.207	4061.09
489.578	4176.8
489.948	4182.22
490.318	4224.71
490.688	4218.83
491.058	4359.17
491.428	4426.96
491.798	4421.76
492.168	4467.18
492.538	4523.45
492.908	4566.17
493.278	4629.89
493.648	4640.51
494.017	4720.51
494.387	4725.03
494.757	4773.17
495.126	4830.11
495.496	4882.32
495.866	4870.34
496.235	4907.63
496.605	4994.63
496.974	5035.76
497.344	5037.79
497.713	5043.67
498.082	5177.22
498.452	5202.08
498.821	5202.53
499.19	5191.01
499.559	5298.58
499.928	5339.03
500.298	5336.77
500.667	5367.73
501.036	5372.25
501.405	5408.18
501.774	5493.15
502.143	5496.54
502.512	5529.53
502.88	5628.96
503.249	5570.66
503.618	5652.69
503.987	5665.35
504.356	5701.28
504.724	5770.43
505.093	5733.59
505.462	5792.35
505.83	5839.58
506.199	5916.19
506.567	5996.86
506.936	5968.84
507.304	6092.68
507.672	6032.12
508.041	6118.21
508.409	6149.63
508.777	6207.25
509.145	6258.55
509.514	6263.75
509.882	6311.43
510.25	6299
510.618	6318.21
510.986	6405.89
511.354	6504.65
511.722	6506.68
512.09	6640.46
512.458	6613.12
512.826	6674.36
513.193	6702.61
513.561	6727.69
513.929	6784.41
514.297	6791.19
514.664	6880
515.032	6883.84
515.4	6934.69
515.767	7009.04
516.135	7066.21
516.502	6996.38
516.869	7175.14
517.237	7247.45
517.604	7194.12
517.972	7291.74
518.339	7274.12
518.706	7359.54
519.073	7435.24
519.44	7435.69
519.808	7531.06
520.175	7542.81
520.542	7651.28
520.909	7677.95
521.276	7689.02
521.643	7801.56
522.009	7905.51
522.376	7900.77
522.743	8003.36
523.11	8030.03
523.477	8148.67
523.843	8181.66
524.21	8213.3
524.577	8320.87
524.943	8348.44
525.31	8358.16
525.676	8471.83
526.043	8547.98
526.409	8587.3
526.776	8670.46
527.142	8724.02
527.508	8716.34
527.874	8763.79
528.241	8848.54
528.607	8906.39
528.973	9006.27
529.339	8973.06
529.705	9098.25
530.071	9166.95
530.437	9202.65
530.803	9277.68
531.169	9355.87
531.535	9278.58
531.901	9323.78
532.267	9402.42
532.632	9492.59
532.998	9463.21
533.364	9495.08
533.73	9635.86
534.095	9658.23
534.461	9726.26
534.826	9761.28
535.192	9798.34
535.557	9887.83
535.923	9863.88
536.288	9947.49
536.653	9987.27
537.019	9999.47
537.384	9965.12
537.749	10032.91
538.114	10091.67
538.479	10186.81
538.845	10204.89
539.21	10182.29
539.575	10241.5
539.94	10274.94
540.305	10334.6
540.67	10305
541.034	10417.54
541.399	10476.52
541.764	10472.9
542.129	10566.69
542.494	10517.42
542.858	10653.01
543.223	10599.9
543.587	10722.16
543.952	10667.7
544.316	10726
544.681	10737.3
545.045	10769.39
545.41	10835.83
545.774	10934.81
546.138	10935.72
546.503	10976.62
546.867	10955.38
547.231	11159.66
547.595	11095.71
547.959	11083.06
548.324	11183.39
548.688	11200.34
549.052	11218.87
549.416	11244.86
549.779	11333.22
550.143	11299.1
550.507	11396.49
550.871	11485.53
551.235	11438.98
551.599	11499.32
551.962	11581.8
552.326	11619.09
552.689	11668.13
553.053	11655.24
553.417	11685.07
553.78	11851.85
554.143	11864.96
554.507	11881
554.87	11886.42
555.234	11962.35
555.597	11977.27
555.96	12017.49
556.323	12113.31
556.686	12157.15
557.05	12308.56
557.413	12306.53
557.776	12350.37
558.139	12504.71
558.502	12498.39
558.865	12493.64
559.228	12577.93
559.59	12646.18
559.953	12689.34
560.316	12806.63
560.679	12795.78
561.041	12846.4
561.404	13003.46
561.767	13038.94
562.129	13055.89
562.492	13145.15
562.854	13129.78
563.217	13227.86
563.579	13236.22
563.941	13409.77
564.304	13391.7
564.666	13532.26
565.028	13509.21
565.39	13616.1
565.753	13657.68
566.115	13764.57
566.477	13786.04
566.839	13916.88
567.201	13948.07
567.563	13979.25
567.925	14164.56
568.287	14129.3
568.648	14212.01
569.01	14272.35
569.372	14341.05
569.734	14414.49
570.095	14552.57
570.457	14562.51
570.819	14571.78
571.18	14562.96
571.542	14698.55
571.903	14722.06
572.265	14780.36
572.626	14885.44
572.987	14879.57
573.349	15037.98
573.71	15155.04
574.071	15190.07
574.432	15221.7
574.794	15366.11
575.155	15434.13
575.516	15287.01
575.877	15434.58
576.238	15510.51
576.599	15604.52
576.96	15636.83
577.32	15636.38
577.681	15667.34
578.042	15741.01
578.403	15819.2
578.763	15815.14
579.124	15916.83
579.485	15902.36
579.845	15906.66
580.206	16027.56
580.566	16060.78
580.927	16098.74
581.287	16152.3
581.648	16176.03
582.008	16277.5
582.368	16338.74
582.728	16361.11
583.089	16338.06
583.449	16406.98
583.809	16438.62
584.169	16475.46
584.529	16501.9
584.889	16533.53
585.249	16589.58
585.609	16518.39
585.969	16690.82
586.329	16641.55
586.688	16666.64
587.048	16769.23
587.408	16719.97
587.768	16716.13
588.127	16758.84
588.487	16734.66
588.846	16953.18
589.206	16865.5
589.565	16936.46
589.925	17127.87
590.284	16965.61
590.643	17052.39
591.003	17162.9
591.362	17119.06
591.721	17196.57
592.08	17213.52
592.44	17309.33
592.799	17334.19
593.158	17329.45
593.517	17315.89
593.876	17336
594.235	17411.48
594.593	17375.77
594.952	17388.65
595.311	17405.38
595.67	17424.36
596.029	17660.06
596.387	17563.11
596.746	17691.92
597.104	17554.3
597.463	17587.52
597.822	17719.49
598.18	17599.72
598.538	17685.14
598.897	17817.57
599.255	17701.87
599.613	17971.01
599.972	17807.85
600.33	17972.82
600.688	17801.3
601.046	17968.07
601.404	18104.57
601.762	17961.07
602.12	18131.23
602.478	18008.3
602.836	18173.27
603.194	18120.84
603.552	18066.6
603.91	18079.26
604.268	18244.9
604.625	18141.85
604.983	18264.34
605.341	18163.1
605.698	18335.75
606.056	18375.29
606.413	18273.83
606.771	18434.28
607.128	18503.43
607.485	18397.89
607.843	18414.61
608.2	18615.74
608.557	18613.48
608.914	18574.16
609.272	18636.08
609.629	18628.39
609.986	18728.5
610.343	18639.92
610.7	18900.48
611.057	18793.14
611.414	18727.15
611.771	18782.74
612.127	18924.88
612.484	18872
612.841	18982.28
613.198	18907.03
613.554	18896.18
613.911	19037.88
614.267	19015.95
614.624	18973.47
614.98	19137.76
615.337	19126.46
615.693	19098.89
616.05	19067.25
616.406	19277.64
616.762	19205.33
617.118	19151.09
617.475	19181.37
617.831	19185.67
618.187	19372.78
618.543	19281.71
618.899	19386.57
619.255	19344.99
619.611	19342.05
619.967	19301.37
620.323	19403.52
620.678	19362.84
621.034	19392.67
621.39	19396.28
621.746	19407.36
622.101	19657.75
622.457	19420.46
622.812	19481.03
623.168	19613.23
623.523	19587.47
623.879	19627.92
624.234	19418.88
624.589	19556.73
624.945	19436.96
625.3	19646.45
625.655	19606.9
626.01	19626.33
626.365	19608.48
626.72	19653
627.075	19492.1
627.43	19606
627.785	19499.78
628.14	19606.45
628.495	19531.2
628.85	19535.72
629.205	19481.48
629.559	19616.84
629.914	19503.85
630.269	19506.56
630.623	19410.97
630.978	19522.83
631.332	19645.77
631.687	19567.8
632.041	19393.8
632.396	19538.43
632.75	19399
633.104	19425.66
633.459	19405.1
633.813	19271.77
634.167	19312.9
634.521	19447.13
634.875	19444.42
635.229	19351.09
635.583	19248.27
635.937	19272.67
636.291	19311.31
636.645	19325.78
636.999	19326.68
637.352	19327.59
637.706	19107.48
638.06	19205.55
638.413	19202.39
638.767	19170.53
639.121	19199.9
639.474	19053.47
639.828	18975.05
640.181	19079.46
640.534	19072.68
640.888	19080.36
641.241	18919.23
641.594	18970.98
641.947	19112
642.301	18945
642.654	18979.8
643.007	18923.53
643.36	18959.01
643.713	19018.21
644.066	18984.77
644.419	18893.25
644.771	18804.21
645.124	18628.62
645.477	18662.97
645.83	18554.95
646.182	18399.47
646.535	18384.33
646.888	18447.61
647.24	18236.09
647.593	18353.6
647.945	18194.06
648.298	18163.32
648.65	18179.82
649.002	18131.23
649.355	18277.44
649.707	18172.14
650.059	18177.11
650.411	18538.91
650.763	18606.93
651.115	18635.85
651.467	18638.56
651.819	18771.22
652.171	18636.08
652.523	18630.2
652.875	18591.56
653.227	18501.39
653.578	18710.65
653.93	18643.54
654.282	18541.17
654.633	18504.56
654.985	18494.61
655.337	18466.82
655.688	18418.46
656.039	18561.73
656.391	18448.96
656.742	18440.6
657.094	18576.42
657.445	18540.04
657.796	18504.1
658.147	18379.36
658.498	18489.41
658.849	18516.98
659.2	18378.46
659.551	18429.98
659.902	18411.9
660.253	18441.28
660.604	18472.01
660.955	18318.57
661.306	18413.03
661.656	18436.54
662.007	18569.41
662.358	18382.75
662.708	18374.39
663.059	18447.16
663.409	18313.83
663.76	18538.45
664.11	18440.83
664.461	18508.4
664.811	18415.52
665.161	18481.96
665.511	18355.41
665.862	18394.95
666.212	18491.67
666.562	18532.58
666.912	18433.82
667.262	18430.43
667.612	18376.65
667.962	18408.51
668.312	18419.36
668.662	18481.51
669.011	18495.97
669.361	18430.43
669.711	18399.47
670.06	18444.22
670.41	18291.68
670.76	18350.89
671.109	18432.69
671.459	18436.54
671.808	18443.31
672.157	18353.6
672.507	18353.83
672.856	18349.31
673.205	18360.38
673.554	18404.22
673.904	18351.34
674.253	18436.99
674.602	18431.11
674.951	18150.21
675.3	17910.45
675.649	18306.82
675.998	18238.8
676.346	18408.97
676.695	18328.74
677.044	18232.92
677.393	18175.07
677.741	18251.46
678.09	18305.47
678.438	18296.65
678.787	18279.48
679.135	18264.11
679.484	18121.74
679.832	18172.14
680.181	18123.32
680.529	18248.07
680.877	18115.64
681.225	18118.13
681.573	18201.29
681.922	18109.09
682.27	18047.62
682.618	18112.93
682.966	17961.97
683.314	18077.22
683.661	17962.88
684.009	17942.08
684.357	17786.38
684.705	17747.29
685.053	17833.39
685.4	17894.63
685.748	17686.95
686.095	17805.14
686.443	17708.87
686.79	17653.96
687.138	17723.33
687.485	17713.62
687.832	17642.66
688.18	17688.76
688.527	17612.6
688.874	17510.68
689.221	17641.3
689.568	17505.71
689.915	17452.15
690.262	17543.23
690.609	17378.71
690.956	17319.5
691.303	17386.17
691.65	17241.09
691.997	17220.52
692.344	17123.58
692.69	17086.29
693.037	17220.97
693.383	17055.1
693.73	17039.74
694.077	17017.36
694.423	17049.45
694.769	16878.16
695.116	16859.85
695.462	16762.91
695.808	16825.5
696.155	16879.29
696.501	16803.13
696.847	16785.96
697.193	16634.32
697.539	16669.12
697.885	16544.16
698.231	16493.99
698.577	16463.93
698.923	16468.45
699.269	16449.92
699.614	16290.6
699.96	16324.5
700.306	16270.94
700.651	16223.26
700.997	16120.44
701.342	16052.42
701.688	16138.06
702.033	16107.33
702.379	16051.74
702.724	16092.87
703.069	16051.96
703.415	15879.99
703.76	15844.51
704.105	15841.8
704.45	15864.17
704.795	15774.46
705.14	15726.78
705.485	15741.92
705.83	15653.11
706.175	15684.52
706.52	15578.98
706.865	15554.58
707.209	15510.28
707.554	15498.08
707.899	15483.84
708.243	15477.52
708.588	15463.73
708.932	15275.71
709.277	15306.45
709.621	15370.85
709.966	15216.51
710.31	15309.39
710.654	15117.53
710.998	15174.25
711.342	15194.81
711.687	15164.3
712.031	15003.4
712.375	15012.44
712.719	15036.62
713.063	14983.74
713.407	15099.9
713.75	14920.92
714.094	14994.14
714.438	14852.45
714.782	14938.1
715.125	14856.97
715.469	14912.33
715.812	14837.76
716.156	14745.78
716.499	14753.69
716.843	14716.63
717.186	14670.53
717.53	14720.47
717.873	14752.34
718.216	14690.42
718.559	14677.31
718.902	14614.49
719.246	14532.23
719.589	14449.75
719.932	14520.93
720.275	14478.9
720.617	14544.89
720.96	14501.95
721.303	14513.47
721.646	14530.2
721.989	14496.98
722.331	14438
722.674	14468.96
723.016	14391.67
723.359	14426.7
723.701	14550.08
724.044	14336.3
724.386	14338.11
724.729	14306.25
725.071	14318
725.413	14249.53
725.755	14345.34
726.097	14233.03
726.439	14235.06
726.782	14238.68
727.124	14308.51
727.465	14226.48
727.807	14135.18
728.149	14247.49
728.491	14216.98
728.833	14178.34
729.175	14138.57
729.516	14144.22
729.858	14156.42
730.199	14107.84
730.541	14058.35
730.882	14108.97
731.224	14201.39
731.565	13985.35
731.906	14033.03
732.248	13954.17
732.589	13967.73
732.93	13972.92
733.271	13955.07
733.612	14028.52
733.953	13967.5
734.294	13931.79
734.635	13983.32
734.976	13922.3
735.317	13932.25
735.658	13872.14
735.999	13918.69
736.339	13872.36
736.68	13864
737.021	13913.72
737.361	13806.37
737.702	13874.4
738.042	13795.3
738.383	13835.53
738.723	13805.7
739.063	13833.04
739.404	13737
739.744	13747.39
740.084	13810.22
740.424	13866.26
740.764	13727.05
741.104	13850.67
741.444	13666.04
741.784	13682.54
742.124	13773.61
742.464	13758.69
742.804	13716.21
743.143	13680.5
743.483	13695.87
743.823	13610.67
744.162	13691.8
744.502	13641.63
744.841	13604.57
745.181	13704.46
745.52	13562.09
745.86	13621.97
746.199	13615.87
746.538	13560.96
746.877	13604.12
747.216	13628.98
747.556	13578.13
747.895	13624.01
748.234	13575.65
748.573	13478.25
748.911	13474.86
749.25	13493.16
749.589	13386.95
749.928	13475.31
750.267	13489.09
750.605	13450.9
750.944	13425.14
751.283	13344.47
751.621	13476.67
751.96	13352.37
752.298	13370.23
752.636	13339.72
752.975	13279.61
753.313	13268.99
753.651	13386.72
753.989	13229.67
754.327	13208.42
754.666	13235.32
755.004	13270.57
755.342	13220.4
755.679	13282.32
756.017	13076.68
756.355	13170.23
756.693	13065.15
757.031	13153.51
757.368	13056.34
757.706	12940.18
758.044	12968.43
