Data from tablewood_dark_bookshelf_FLMS001491_00029.txt Node
Date: Wed Feb 08 14:14:06 GMT 2017
User: dcchb
Spectrometer: FLMS00149
Trigger mode: 0
Integration Time (sec): 2.000000E-2
Scans to average: 10
Electric dark correction enabled: true
Nonlinearity correction enabled: false
Boxcar width: 0
XAxis mode: Wavelengths
Number of Pixels in Spectrum: 2048
>>>>>Begin Spectral Data<<<<<
341.393	-14.27
341.776	-14.27
342.16	-14.27
342.543	-48.39
342.927	-54.04
343.31	-81.38
343.693	-80.93
344.077	-59.46
344.46	-71.44
344.843	-29.18
345.226	-34.6
345.61	-17.65
345.993	-15.62
346.376	-22.17
346.759	5.85
347.142	25.73
347.525	48.78
347.908	47.88
348.291	72.74
348.674	103.47
349.057	107.99
349.44	135.56
349.823	109.35
350.206	149.35
350.588	161.78
350.971	203.58
351.354	208.78
351.737	225.05
352.119	234.54
352.502	235.45
352.884	261.66
353.267	269.57
353.65	280.19
354.032	294.65
354.414	280.19
354.797	290.36
355.179	288.33
355.562	320.19
355.944	312.28
356.326	321.32
356.709	310.92
357.091	325.39
357.473	327.19
357.855	316.8
358.238	321.32
358.62	326.52
359.002	337.59
359.384	322.9
359.766	341.43
360.148	305.95
360.53	338.27
360.912	328.55
361.294	318.61
361.676	318.38
362.057	326.29
362.439	297.37
362.821	295.78
363.203	296.69
363.584	309.12
363.966	301.66
364.348	297.59
364.729	312.28
365.111	316.57
365.493	325.84
365.874	324.48
366.256	300.98
366.637	294.65
367.019	300.75
367.4	300.53
367.781	298.49
368.163	289.23
368.544	330.36
368.925	302.79
369.306	302.56
369.688	301.88
370.069	312.73
370.45	305.95
370.831	327.19
371.212	282
371.593	314.77
371.974	295.56
372.355	308.21
372.736	290.59
373.117	313.64
373.498	298.72
373.879	313.41
374.26	297.37
374.641	311.15
375.021	300.08
375.402	295.78
375.783	315.44
376.163	323.35
376.544	334.2
376.925	311.38
377.305	317.48
377.686	323.81
378.066	317.7
378.447	311.83
378.827	345.95
379.208	347.53
379.588	317.7
379.968	333.75
380.349	324.48
380.729	337.14
381.109	326.52
381.489	340.75
381.87	334.88
382.25	334.2
382.63	336.69
383.01	366.74
383.39	358.15
383.77	330.13
384.15	340.53
384.53	342.34
384.91	326.29
385.29	337.14
385.67	353.41
386.049	345.73
386.429	338.04
386.809	336.46
387.189	348.89
387.568	365.61
387.948	366.52
388.328	357.48
388.707	371.94
389.087	360.19
389.466	376.46
389.846	355.67
390.225	377.81
390.605	390.02
390.984	354.76
391.363	383.92
391.743	382.79
392.122	367.65
392.501	404.03
392.881	379.62
393.26	395.67
393.639	399.74
394.018	377.14
394.397	382.79
394.776	388.21
395.155	391.6
395.534	362.45
395.913	385.05
396.292	379.4
396.671	374.65
397.05	408.55
397.429	399.96
397.808	396.8
398.186	376.46
398.565	403.12
398.944	417.14
399.323	389.11
399.701	425.5
400.08	417.59
400.458	419.17
400.837	421.88
401.215	419.4
401.594	410.36
401.972	432.73
402.351	424.59
402.729	429.56
403.107	449.45
403.486	432.05
403.864	431.15
404.242	434.76
404.62	441.09
404.999	428.89
405.377	455.1
405.755	439.06
406.133	464.59
406.511	454.2
406.889	464.14
407.267	477.25
407.645	446.51
408.023	461.2
408.401	495.78
408.779	470.24
409.156	479.06
409.534	476.34
409.912	483.35
410.29	488.09
410.667	477.93
411.045	468.89
411.422	502.11
411.8	502.33
412.178	494.2
412.555	494.2
412.933	505.27
413.31	520.64
413.687	503.91
414.065	523.57
414.442	523.35
414.819	516.12
415.197	507.3
415.574	554.53
415.951	526.51
416.328	554.76
416.705	555.44
417.082	571.48
417.46	558.83
417.837	572.61
418.214	563.12
418.591	569.9
418.967	560.63
419.344	563.12
419.721	580.3
420.098	578.49
420.475	591.59
420.852	574.65
421.228	572.84
421.605	583.23
421.982	599.05
422.358	601.76
422.735	594.76
423.111	600.63
423.488	607.41
423.864	616.9
424.241	641.76
424.617	609.22
424.994	644.02
425.37	627.98
425.746	625.94
426.123	638.6
426.499	636.11
426.875	637.02
427.251	665.04
427.627	669.33
428.003	667.98
428.379	664.14
428.756	705.04
429.132	687.19
429.507	690.35
429.883	711.59
430.259	725.38
430.635	709.11
431.011	705.72
431.387	726.96
431.763	752.72
432.138	748.43
432.514	731.25
432.89	756.56
433.265	734.87
433.641	774.41
434.016	780.52
434.392	788.2
434.767	778.71
435.143	793.4
435.518	790.23
435.894	799.27
436.269	805.6
436.644	796.79
437.02	837.01
437.395	836.79
437.77	844.7
438.145	850.8
438.52	865.26
438.895	854.86
439.271	851.93
439.646	879.72
440.021	861.19
440.395	883.79
440.77	858.48
441.145	895.99
441.52	904.81
441.895	927.63
442.27	900.74
442.645	931.47
443.019	900.06
443.394	922.66
443.769	940.74
444.143	912.72
444.518	952.26
444.892	928.08
445.267	932.15
445.641	941.87
446.016	950.91
446.39	995.43
446.764	952.72
447.139	984.13
447.513	975.54
447.887	968.53
448.262	982.09
448.636	1004.01
449.01	1013.28
449.384	993.84
449.758	1004.92
450.132	1025.48
450.506	1020.28
450.88	1015.99
451.254	1025.48
451.628	1037.46
452.002	1036.1
452.376	1076.1
452.75	1056.89
453.123	1062.09
453.497	1093.73
453.871	1093.28
454.244	1100.73
454.618	1116.78
454.992	1123.11
455.365	1121.52
455.739	1135.31
456.112	1166.49
456.486	1151.35
456.859	1186.83
457.232	1217.11
457.606	1194.06
457.979	1212.6
458.352	1260.05
458.725	1248.98
459.099	1259.37
459.472	1266.38
459.845	1279.49
460.218	1280.16
460.591	1285.81
460.964	1299.37
461.337	1319.49
461.71	1338.69
462.083	1387.28
462.456	1390.44
462.829	1349.54
463.201	1389.77
463.574	1400.61
463.947	1403.78
464.32	1425.92
464.692	1469.76
465.065	1481.97
465.438	1481.97
465.81	1485.81
466.183	1510.44
466.555	1532.59
466.928	1516.99
467.3	1569.87
467.672	1557.9
468.045	1618.69
468.417	1613.49
468.789	1623.88
469.161	1621.62
469.534	1636.99
469.906	1648.29
470.278	1668.85
470.65	1685.35
471.022	1738.23
471.394	1765.12
471.766	1789.53
472.138	1813.71
472.51	1818.68
472.882	1862.07
473.253	1891.45
473.625	1862.52
473.997	1934.61
474.369	1927.6
474.74	1973.71
475.112	2030.65
475.484	2035.85
475.855	2040.14
476.227	2047.38
476.598	2120.37
476.97	2123.31
477.341	2180.93
477.713	2219.12
478.084	2227.71
478.455	2271.78
478.827	2300.02
479.198	2357.42
479.569	2377.76
479.94	2394.71
480.311	2426.57
480.682	2457.53
481.053	2511.32
481.424	2559.9
481.795	2584.76
482.166	2633.35
482.537	2660.69
482.908	2719.9
483.279	2736.85
483.65	2815.94
484.021	2822.5
484.391	2854.59
484.762	2866.34
485.133	2921.48
485.503	2942.49
485.874	3029.72
486.244	3024.98
486.615	3075.15
486.985	3103.62
487.356	3154.24
487.726	3149.95
488.097	3225.42
488.467	3259.55
488.837	3299.55
489.207	3307.91
489.578	3396.04
489.948	3343.84
490.318	3490.5
490.688	3484.63
491.058	3512.2
491.428	3587.22
491.798	3623.61
492.168	3669.93
492.538	3665.19
492.908	3702.25
493.278	3756.26
493.648	3780.89
494.017	3816.14
494.387	3883.71
494.757	3913.77
495.126	3940.43
495.496	3911.73
495.866	3946.76
496.235	4007.78
496.605	4049.58
496.974	4087.1
497.344	4071.05
497.713	4130.48
498.082	4169.81
498.452	4208.67
498.821	4234.89
499.19	4208
499.559	4274.21
499.928	4317.37
500.298	4363.25
500.667	4388.33
501.036	4361.89
501.405	4448.22
501.774	4481.21
502.143	4480.76
502.512	4469.01
502.88	4501.1
503.249	4529.12
503.618	4579.74
503.987	4572.51
504.356	4632.17
504.724	4661.54
505.093	4689.34
505.462	4720.3
505.83	4754.2
506.199	4793.52
506.567	4796
506.936	4813.86
507.304	4881.43
507.672	4907.41
508.041	4941.99
508.409	4989.9
508.777	5021.53
509.145	5043.68
509.514	5053.4
509.882	5087.07
510.25	5122.55
510.618	5146.96
510.986	5161.42
511.354	5268.08
511.722	5272.15
512.09	5314.18
512.458	5336.33
512.826	5364.8
513.193	5429.21
513.561	5424.91
513.929	5472.82
514.297	5510.56
514.664	5495.65
515.032	5544.23
515.4	5622.2
515.767	5665.13
516.135	5678.24
516.502	5648.18
516.869	5748.75
517.237	5842.08
517.604	5780.84
517.972	5892.25
518.339	5868.97
518.706	5904.45
519.073	5968.4
519.44	6037.78
519.808	6060.38
520.175	6129.98
520.542	6146.25
520.909	6172.01
521.276	6217.44
521.643	6265.12
522.009	6282.74
522.376	6356.87
522.743	6386.92
523.11	6435.96
523.477	6514.15
523.843	6524.55
524.21	6598.44
524.577	6612
524.943	6683.64
525.31	6743.98
525.676	6773.8
526.043	6863.29
526.409	6931.99
526.776	6955.04
527.142	6897.64
527.508	6971.31
527.874	7051.09
528.241	7074.36
528.607	7125.21
528.973	7118.88
529.339	7185.09
529.705	7315.94
530.071	7333.11
530.437	7333.79
530.803	7480.68
531.169	7484.97
531.535	7512.54
531.901	7477.06
532.267	7595.93
532.632	7653.33
532.998	7687.45
533.364	7635.48
533.73	7669.83
534.095	7799.31
534.461	7792.31
534.826	7851.52
535.192	7796.83
535.557	7915.24
535.923	7905.53
536.288	8001.12
536.653	7990.95
537.019	8023.26
537.384	8033.21
537.749	8098.29
538.114	8115.92
538.479	8082.47
538.845	8219.64
539.21	8190.94
539.575	8209.25
539.94	8242.92
540.305	8295.57
540.67	8329.02
541.034	8332.18
541.399	8325.4
541.764	8384.61
542.129	8482.69
542.494	8476.59
542.858	8513.19
543.223	8539.63
543.587	8570.59
543.952	8571.72
544.316	8583.25
544.681	8625.96
545.045	8662.12
545.41	8682.68
545.774	8741.21
546.138	8744.15
546.503	8783.02
546.867	8779.18
547.231	8871.15
547.595	8930.13
547.959	8940.53
548.324	8917.93
548.688	8891.94
549.052	8997.02
549.416	9060.52
549.779	9076.34
550.143	9057.81
550.507	9160.63
550.871	9143.46
551.235	9169
551.599	9254.42
551.962	9277.24
552.326	9243.34
552.689	9429.55
553.053	9364.25
553.417	9354.3
553.78	9499.83
554.143	9446.28
554.507	9496.22
554.87	9590.23
555.234	9714.07
555.597	9610.34
555.96	9630.9
556.323	9748.19
556.686	9692.15
557.05	9817.11
557.413	9818.24
557.776	9914.29
558.139	9862.54
558.502	10013.04
558.865	9915.42
559.228	10022.76
559.59	10132.81
559.953	10133.94
560.316	10263.43
560.679	10245.8
561.041	10326.25
561.404	10300.49
561.767	10474.05
562.129	10419.81
562.492	10533.48
562.854	10575.06
563.217	10587.94
563.579	10601.95
563.941	10760.82
564.304	10687.83
564.666	10823.64
565.028	10814.15
565.39	10897.31
565.753	10996.07
566.115	11050.3
566.477	11079.91
566.839	11058.89
567.201	11151.99
567.563	11189.28
567.925	11293.46
568.287	11329.17
568.648	11262.05
569.01	11424.53
569.372	11540.91
569.734	11504.75
570.095	11560.8
570.457	11654.58
570.819	11664.07
571.18	11650.74
571.542	11724.64
571.903	11792.66
572.265	11874.01
572.626	11960.56
572.987	11982.03
573.349	12018.41
573.71	12157.62
574.071	12160.78
574.432	12176.37
574.794	12375.24
575.155	12232.87
575.516	12245.07
575.877	12377.95
576.238	12357.16
576.599	12458.85
576.96	12467.44
577.32	12558.06
577.681	12580.43
578.042	12574.33
578.403	12625.85
578.763	12666.53
579.124	12699.3
579.485	12775.23
579.845	12824.72
580.206	12889.12
580.566	12892.29
580.927	12868.33
581.287	12914.66
581.648	12928.9
582.008	12976.13
582.368	12987.43
582.728	13102.23
583.089	13071.94
583.449	13146.74
583.809	13082.11
584.169	13146.74
584.529	13137.71
584.889	13299.51
585.249	13154.2
585.609	13205.05
585.969	13317.36
586.329	13341.09
586.688	13376.57
587.048	13298.83
587.408	13356.68
587.768	13369.11
588.127	13433.74
588.487	13392.16
588.846	13524.81
589.206	13442.56
589.565	13462.67
589.925	13541.99
590.284	13589.22
590.643	13639.61
591.003	13616.79
591.362	13640.97
591.721	13630.57
592.08	13618.37
592.44	13667.86
592.799	13694.07
593.158	13723.23
593.517	13770.91
593.876	13767.52
594.235	13731.81
594.593	13833.96
594.952	13891.13
595.311	13796.9
595.67	13893.17
596.029	13868.31
596.387	13982.65
596.746	13931.13
597.104	13897.23
597.463	13999.15
597.822	14058.81
598.18	13991.69
598.538	13978.14
598.897	14068.98
599.255	14000.73
599.613	14336.32
599.972	14084.35
600.33	14230.33
600.688	14134.97
601.046	14105.82
601.404	14341.74
601.762	14264.23
602.12	14355.3
602.478	14292.25
602.836	14309.43
603.194	14360.72
603.552	14346.71
603.91	14329.31
604.268	14375.64
604.625	14357.11
604.983	14405.47
605.341	14400.72
605.698	14498.8
606.056	14397.79
606.413	14506.03
606.771	14599.59
607.128	14592.13
607.485	14555.3
607.843	14585.35
608.2	14632.36
608.557	14686.37
608.914	14689.08
609.272	14656.54
609.629	14794.61
609.986	14845.68
610.343	14757.32
610.7	14858.34
611.057	14898.56
611.414	14838.23
611.771	14897.66
612.127	14961.84
612.484	14937.43
612.841	15025.79
613.198	14910.09
613.554	14942.18
613.911	15064.89
614.267	14997.09
614.624	15071.67
614.98	15070.76
615.337	15093.36
615.693	15062.85
616.05	15154.83
616.406	15228.95
616.762	15136.52
617.118	15123.42
617.475	15151.44
617.831	15225.56
618.187	15204.09
618.543	15256.97
618.899	15355.5
619.255	15310.3
619.611	15245.67
619.967	15405.67
620.323	15379.68
620.678	15310.98
621.034	15368.83
621.39	15325.9
621.746	15316.41
622.101	15544.65
622.457	15381.04
622.812	15419.68
623.168	15411.54
623.523	15445.67
623.879	15540.35
624.234	15303.98
624.589	15441.37
624.945	15460.13
625.3	15446.12
625.655	15454.03
626.01	15398.66
626.365	15429.85
626.72	15423.52
627.075	15458.1
627.43	15556.17
627.785	15404.76
628.14	15488.6
628.495	15440.7
628.85	15437.53
629.205	15447.7
629.559	15474.37
629.914	15412.9
630.269	15441.83
630.623	15376.97
630.978	15347.59
631.332	15374.48
631.687	15553.91
632.041	15379.45
632.396	15398.21
632.75	15329.06
633.104	15363.41
633.459	15182.4
633.813	15239.8
634.167	15266.91
634.521	15256.29
634.875	15215.62
635.229	15268.95
635.583	15148.27
635.937	15229.18
636.291	15143.75
636.645	15165
636.999	15139.23
637.352	15205.22
637.706	15119.8
638.06	15189.18
638.413	15172.23
638.767	15082.29
639.121	15124.09
639.474	15003.65
639.828	15058.33
640.181	15088.16
640.534	15099.46
640.888	15009.07
641.241	14934.04
641.594	15033.02
641.947	15011.78
642.301	15019.46
642.654	14978.79
643.007	15038.45
643.36	15007.94
643.713	15019.69
644.066	15023.31
644.419	14854.72
644.771	14762.52
645.124	14725.46
645.477	14600.27
645.83	14495.18
646.182	14508.97
646.535	14545.13
646.888	14525.24
647.24	14427.16
647.593	14525.24
647.945	14526.37
648.298	14345.36
648.65	14422.64
649.002	14425.81
649.355	14468.74
649.707	14417.22
650.059	14471
650.411	14650.89
650.763	14638.23
651.115	14811.11
651.467	14731.11
651.819	14727.95
652.171	14716.42
652.523	14624.22
652.875	14718.68
653.227	14536.54
653.578	14664.67
653.93	14684.33
654.282	14618.8
654.633	14665.12
654.985	14692.92
655.337	14659.02
655.688	14686.37
656.039	14723.65
656.391	14648.17
656.742	14594.16
657.094	14734.95
657.445	14641.39
657.796	14640.49
658.147	14576.31
658.498	14564.56
658.849	14623.99
659.2	14585.12
659.551	14541.74
659.902	14670.09
660.253	14618.12
660.604	14651.11
660.955	14505.35
661.306	14656.08
661.656	14555.07
662.007	14600.72
662.358	14522.53
662.708	14499.03
663.059	14632.36
663.409	14541.51
663.76	14613.82
664.11	14584.9
664.461	14624.67
664.811	14585.35
665.161	14648.17
665.511	14502.87
665.862	14490.44
666.212	14539.7
666.562	14517.33
666.912	14534.05
667.262	14583.32
667.612	14586.25
667.962	14591.68
668.312	14575.86
668.662	14614.5
669.011	14527.5
669.361	14654.28
669.711	14458.35
670.06	14521.4
670.41	14504.45
670.76	14539.7
671.109	14621.06
671.459	14617.89
671.808	14493.15
672.157	14602.07
672.507	14486.37
672.856	14534.28
673.205	14473.04
673.554	14616.99
673.904	14517.56
674.253	14518.91
674.602	14563.43
674.951	14313.04
675.3	14216.32
675.649	14501.51
675.998	14462.19
676.346	14440.5
676.695	14551
677.044	14387.62
677.393	14478.91
677.741	14448.63
678.09	14383.55
678.438	14356.2
678.787	14355.07
679.135	14454.28
679.484	14386.03
679.832	14366.6
680.181	14325.92
680.529	14319.14
680.877	14391.23
681.225	14223.33
681.573	14303.78
681.922	14306.71
682.27	14211.8
682.618	14239.37
682.966	14143.55
683.314	14213.38
683.661	14137.91
684.009	14136.1
684.357	14069.88
684.705	14107.62
685.053	14083.67
685.4	14069.43
685.748	14010
686.095	13995.76
686.443	13907.4
686.79	13956.44
687.138	13931.36
687.485	13904.92
687.832	13917.8
688.18	13904.24
688.527	13830.34
688.874	13793.96
689.221	13772.26
689.568	13812.94
689.915	13802.32
690.262	13764.36
690.609	13754.19
690.956	13747.63
691.303	13568.2
691.65	13609.33
691.997	13646.84
692.344	13502.89
692.69	13567.52
693.037	13485.27
693.383	13392.61
693.73	13466.06
694.077	13305.61
694.423	13415.44
694.769	13366.63
695.116	13311.49
695.462	13259.51
695.808	13280.98
696.155	13282.33
696.501	13124.6
696.847	13140.42
697.193	13116.24
697.539	13125.73
697.885	13088.67
698.231	13115.11
698.577	13027.43
698.923	12946.52
699.269	12866.3
699.614	12844.83
699.96	12873.98
700.306	12876.7
700.651	12781.33
700.997	12772.52
701.342	12800.31
701.688	12746.08
702.033	12708.56
702.379	12673.99
702.724	12595.35
703.069	12679.41
703.415	12469.02
703.76	12557.16
704.105	12554.9
704.45	12512.19
704.795	12461.79
705.14	12371.85
705.485	12388.12
705.83	12361.45
706.175	12329.37
706.52	12314.9
706.865	12217.28
707.209	12272.19
707.554	12174.79
707.899	12257.73
708.243	12126.88
708.588	12125.08
708.932	12137.96
709.277	12081.46
709.621	12097.05
709.966	12016.6
710.31	11994.01
710.654	11959.66
710.998	12006.66
711.342	11981.8
711.687	11989.49
712.031	11942.48
712.375	11866.78
712.719	11912.88
713.063	11858.42
713.407	11958.53
713.75	11823.39
714.094	11803.96
714.438	11848.7
714.782	11765.31
715.125	11745.2
715.469	11726.44
715.812	11728.7
716.156	11653.45
716.499	11577.97
716.843	11664.07
717.186	11577.52
717.53	11650.51
717.873	11596.28
718.216	11604.19
718.559	11572.1
718.902	11479.44
719.246	11576.16
719.589	11499.78
719.932	11473.34
720.275	11537.07
720.617	11492.1
720.96	11436.06
721.303	11472.66
721.646	11407.81
721.989	11432.89
722.331	11448.94
722.674	11391.31
723.016	11418.2
723.359	11349.28
723.701	11393.57
724.044	11317.87
724.386	11316.74
724.729	11336.17
725.071	11337.75
725.413	11313.57
725.755	11212.33
726.097	11201.26
726.439	11172.79
726.782	11194.25
727.124	11281.03
727.465	11250.52
727.807	11196.74
728.149	11142.28
728.491	11166.91
728.833	11189.06
729.175	11150.19
729.516	11152.67
729.858	11062.96
730.199	11106.35
730.541	11176.85
730.882	11082.39
731.224	11145.44
731.565	11049.62
731.906	11107.02
732.248	11059.57
732.589	11052.79
732.93	10984.09
733.271	10996.29
733.612	10971.43
733.953	11043.07
734.294	11043.3
734.635	10952.68
734.976	11031.09
735.317	11036.74
735.658	10999.91
735.999	11022.05
736.339	10978.21
736.68	10963.53
737.021	10968.95
737.361	10978.21
737.702	10947.48
738.042	10993.36
738.383	10947.93
738.723	10966.24
739.063	10884.43
739.404	10971.21
739.744	10975.05
740.084	10859.8
740.424	10866.13
740.764	10947.93
741.104	10862.06
741.444	10846.92
741.784	10880.14
742.124	10784.55
742.464	10831.55
742.804	10828.84
743.143	10843.75
743.483	10815.05
743.823	10762.4
744.162	10801.27
744.502	10742.06
744.841	10783.42
745.181	10823.87
745.52	10814.15
745.86	10802.85
746.199	10758.33
746.538	10767.6
746.877	10790.42
747.216	10842.4
747.556	10744.32
747.895	10745.68
748.234	10688.96
748.573	10717.43
748.911	10698.67
749.25	10703.42
749.589	10686.92
749.928	10650.99
750.267	10755.62
750.605	10728.28
750.944	10647.15
751.283	10627.04
751.621	10636.53
751.96	10602.86
752.298	10610.99
752.636	10589.07
752.975	10576.64
753.313	10540.26
753.651	10555.17
753.989	10490.54
754.327	10568.96
754.666	10494.61
755.004	10463.65
755.342	10495.51
755.679	10450.09
756.017	10462.3
756.355	10432.24
756.693	10335.97
757.031	10343.88
757.368	10292.81
757.706	10347.95
758.044	10304.11
758.381	10329.42
758.719	10306.37
