Data from tablewood_brown_FLMS001491_085.txt Node
Date: Tue Feb 07 11:11:08 GMT 2017
User: dcchb
Spectrometer: FLMS00149
Trigger mode: 0
Integration Time (sec): 2.000000E-2
Scans to average: 10
Electric dark correction enabled: true
Nonlinearity correction enabled: false
Boxcar width: 0
XAxis mode: Wavelengths
Number of Pixels in Spectrum: 2048
>>>>>Begin Spectral Data<<<<<
341.393	-9.18
341.776	-9.18
342.16	-9.18
342.543	-71.78
342.927	-71.1
343.31	-71.78
343.693	-92.79
344.077	-70.42
344.46	-54.6
344.843	-34.49
345.226	-40.14
345.61	-40.37
345.993	-17.99
346.376	-2.85
346.759	10.03
347.142	18.62
347.525	45.73
347.908	78.95
348.291	88.44
348.674	75.56
349.057	108.1
349.44	139.06
349.823	136.58
350.206	160.98
350.588	203.92
350.971	194.88
351.354	212.28
351.737	224.71
352.119	262.68
352.502	277.59
352.884	277.82
353.267	258.84
353.65	275.56
354.032	294.77
354.414	314.65
354.797	312.39
355.179	311.49
355.562	319.85
355.944	330.47
356.326	348.55
356.709	367.08
357.091	331.6
357.473	315.56
357.855	338.38
358.238	319.85
358.62	343.8
359.002	343.13
359.384	335.67
359.766	336.35
360.148	346.97
360.53	332.96
360.912	342.67
361.294	342.22
361.676	342.67
362.057	341.32
362.439	330.02
362.821	325.95
363.203	338.15
363.584	320.75
363.966	331.83
364.348	336.57
364.729	347.87
365.111	332.28
365.493	316.01
365.874	327.53
366.256	322.34
366.637	318.04
367.019	317.36
367.4	310.59
367.781	333.86
368.163	320.53
368.544	301.09
368.925	318.49
369.306	318.95
369.688	349
370.069	329.57
370.45	310.81
370.831	331.6
371.212	327.99
371.593	310.36
371.974	337.25
372.355	305.84
372.736	334.54
373.117	307.65
373.498	322.56
373.879	326.4
374.26	343.8
374.641	308.1
375.021	320.08
375.402	335.9
375.783	334.31
376.163	341.09
376.544	340.19
376.925	337.93
377.305	315.78
377.686	357.59
378.066	322.11
378.447	345.84
378.827	347.87
379.208	347.19
379.588	320.08
379.968	352.84
380.349	354.88
380.729	356.91
381.109	361.21
381.489	358.95
381.87	363.24
382.25	370.92
382.63	378.15
383.01	362.34
383.39	377.25
383.77	356.69
384.15	365.05
384.53	356.23
384.91	358.04
385.29	380.87
385.67	367.76
386.049	369.79
386.429	380.41
386.809	400.53
387.189	376.57
387.568	398.72
387.948	406.63
388.328	391.71
388.707	397.14
389.087	395.1
389.466	404.14
389.846	408.44
390.225	386.74
390.605	417.25
390.984	420.41
391.363	435.1
391.743	404.37
392.122	429
392.501	425.61
392.881	438.04
393.26	429.23
393.639	437.36
394.018	446.17
394.397	442.33
394.776	439.62
395.155	452.5
395.534	447.76
395.913	455.21
396.292	474.2
396.671	466.51
397.05	453.41
397.429	457.47
397.808	458.38
398.186	470.81
398.565	466.51
398.944	464.93
399.323	471.94
399.701	473.07
400.08	489.11
400.458	510.58
400.837	488.89
401.215	499.96
401.594	506.74
401.972	510.13
402.351	505.16
402.729	537.25
403.107	510.13
403.486	506.96
403.864	536.34
404.242	514.87
404.62	510.13
404.999	540.18
405.377	541.31
405.755	546.74
406.133	558.04
406.511	546.06
406.889	559.39
407.267	560.07
407.645	574.53
408.023	576.34
408.401	586.74
408.779	585.38
409.156	591.03
409.534	605.04
409.912	588.54
410.29	604.14
410.667	621.99
411.045	617.47
411.422	625.38
411.8	626.28
412.178	622.67
412.555	655.89
412.933	626.28
413.31	632.38
413.687	636
414.065	663.8
414.442	663.12
414.819	660.41
415.197	658.82
415.574	670.8
415.951	698.6
416.328	699.28
416.705	694.98
417.082	692.27
417.46	704.25
417.837	739.95
418.214	714.87
418.591	718.48
418.967	719.16
419.344	743.34
419.721	751.93
420.098	758.03
420.475	735.43
420.852	777.01
421.228	745.15
421.605	744.47
421.982	770.91
422.358	772.72
422.735	800.29
423.111	779.5
423.488	784.92
423.864	794.41
424.241	808.2
424.617	824.02
424.994	818.14
425.37	822.89
425.746	834.19
426.123	836.67
426.499	852.27
426.875	847.52
427.251	837.35
427.627	875.32
428.003	908.31
428.379	880.74
428.756	890.46
429.132	912.6
429.507	904.47
429.883	917.35
430.259	927.07
430.635	963.45
431.011	941.98
431.387	977.01
431.763	963.9
432.138	989.21
432.514	989.44
432.89	963.22
433.265	1007.06
433.641	1015.65
434.016	1052.71
434.392	1065.59
434.767	1052.49
435.143	1045.93
435.518	1091.13
435.894	1103.56
436.269	1093.39
436.644	1111.24
437.02	1140.39
437.395	1154.4
437.77	1169.32
438.145	1134.07
438.52	1172.71
438.895	1183.33
439.271	1207.74
439.646	1183.78
440.021	1211.58
440.395	1247.06
440.77	1233.95
441.145	1232.14
441.52	1249.77
441.895	1252.26
442.27	1297.9
442.645	1284.57
443.019	1313.04
443.394	1288.86
443.769	1304.91
444.143	1312.82
444.518	1327.73
444.892	1337.45
445.267	1328.41
445.641	1342.65
446.016	1332.03
446.39	1366.15
446.764	1378.58
447.139	1374.74
447.513	1344.46
447.887	1374.96
448.262	1391.69
448.636	1404.57
449.01	1419.48
449.384	1435.08
449.758	1434.4
450.132	1445.02
450.506	1442.76
450.88	1461.97
451.254	1484.79
451.628	1494.06
452.002	1470.55
452.376	1490.67
452.75	1538.35
453.123	1532.47
453.497	1568.41
453.871	1586.71
454.244	1617.9
454.618	1604.56
454.992	1670.1
455.365	1642.53
455.739	1675.75
456.112	1664.45
456.486	1674.62
456.859	1711.45
457.232	1751.45
457.606	1721.85
457.979	1743.09
458.352	1795.29
458.725	1832.13
459.099	1833.03
459.472	1867.38
459.845	1854.5
460.218	1906.7
460.591	1908.51
460.964	1922.97
461.337	1984.44
461.71	2020.6
462.083	1972.69
462.456	2012.46
462.829	2036.42
463.201	2051.56
463.574	2083.19
463.947	2086.81
464.32	2144.66
464.692	2185.11
465.065	2188.73
465.438	2218.33
465.81	2234.15
466.183	2288.16
466.555	2317.99
466.928	2318.44
467.3	2332
467.672	2404.54
468.045	2486.35
468.417	2442.73
468.789	2481.15
469.161	2532.45
469.534	2563.41
469.906	2642.05
470.278	2637.08
470.65	2641.15
471.022	2684.99
471.394	2805.89
471.766	2830.29
472.138	2874.13
472.51	2909.61
472.882	2936.05
473.253	2976.28
473.625	3082.26
473.997	3124.07
474.369	3180.79
474.74	3188.7
475.112	3225.76
475.484	3339.43
475.855	3384.4
476.227	3439.09
476.598	3511.18
476.97	3574.23
477.341	3674.34
477.713	3723.6
478.084	3737.61
478.455	3891.51
478.827	3937.38
479.198	4006.08
479.569	4068.68
479.94	4192.52
480.311	4227.32
480.682	4294.21
481.053	4397.03
481.424	4447.65
481.795	4573.75
482.166	4643.35
482.537	4766.97
482.908	4811.26
483.279	4883.35
483.65	4952.95
484.021	5062.32
484.391	5154.53
484.762	5225.03
485.133	5279.72
485.503	5337.35
485.874	5488.98
486.244	5542.54
486.615	5638.81
486.985	5685.58
487.356	5820.72
487.726	5910.66
488.097	6023.88
488.467	6065.46
488.837	6175.06
489.207	6219.13
489.578	6346.58
489.948	6385.45
490.318	6476.98
490.688	6503.42
491.058	6629.51
491.428	6767.14
491.798	6805.78
492.168	6914.25
492.538	6968.72
492.908	7048.26
493.278	7191.99
493.648	7155.6
494.017	7312.66
494.387	7354.47
494.757	7386.78
495.126	7542.71
495.496	7607.12
495.866	7587.23
496.235	7685.76
496.605	7754.01
496.974	7820.67
497.344	7891.63
497.713	7953.55
498.082	8017.05
498.452	8120.1
498.821	8110.38
499.19	8178.17
499.559	8289.81
499.928	8373.88
500.298	8397.83
500.667	8495
501.036	8420.2
501.405	8578.39
501.774	8586.53
502.143	8727.31
502.512	8702.68
502.88	8829.68
503.249	8833.07
503.618	8899.96
503.987	8963.92
504.356	9033.07
504.724	9067.19
505.093	9134.31
505.462	9211.59
505.83	9316.9
506.199	9373.4
506.567	9450.68
506.936	9383.11
507.304	9600.74
507.672	9651.81
508.041	9679.6
508.409	9789.43
508.777	9846.83
509.145	9945.13
509.514	9945.59
509.882	10039.59
510.25	10074.85
510.618	10249.53
510.986	10199.36
511.354	10334.95
511.722	10451.79
512.09	10558.23
512.458	10569.3
512.826	10684.32
513.193	10733.14
513.561	10835.73
513.929	10886.58
514.297	11002.96
514.664	11123.63
515.032	11122.5
515.4	11263.29
515.767	11270.52
516.135	11304.42
516.502	11280.69
516.869	11630.51
517.237	11601.14
517.604	11596.62
517.972	11843.39
518.339	11926.32
518.706	11926.1
519.073	12044.51
519.44	12077.51
519.808	12279.08
520.175	12282.47
520.542	12405.18
520.909	12429.14
521.276	12626.42
521.643	12690.82
522.009	12773.99
522.376	12883.59
522.743	13010.14
523.11	13074.32
523.477	13189.57
523.843	13305.27
524.21	13524.25
524.577	13672.49
524.943	13709.1
525.31	13753.4
525.676	13933.96
526.043	14035.2
526.409	14099.15
526.776	14244.91
527.142	14329.43
527.508	14324.23
527.874	14465.02
528.241	14622.98
528.607	14659.36
528.973	14760.6
529.339	14843.76
529.705	15028.62
530.071	15168.27
530.437	15203.98
530.803	15325.33
531.169	15309.96
531.535	15373.01
531.901	15420.92
532.267	15582.05
532.632	15690.07
532.998	15639.9
533.364	15788.82
533.73	15757.41
534.095	15962.15
534.461	16025.2
534.826	16229.04
535.192	16225.87
535.557	16376.38
535.923	16328.02
536.288	16500.89
536.653	16419.99
537.019	16524.62
537.384	16567.78
537.749	16661.12
538.114	16775.01
538.479	16719.42
538.845	16869.25
539.21	16955.57
539.575	16962.12
539.94	17091.61
540.305	17183.14
540.67	17116.02
541.034	17160.76
541.399	17328.89
541.764	17316.47
542.129	17380.19
542.494	17391.49
542.858	17537.7
543.223	17497.03
543.587	17643.69
543.952	17666.74
544.316	17841.42
544.681	17816.57
545.045	17939.73
545.41	18013.85
545.774	18019.05
546.138	18043.23
546.503	18057.01
546.867	18181.3
547.231	18308.76
547.595	18349.21
547.959	18552.14
548.324	18444.35
548.688	18533.38
549.052	18581.97
549.416	18665.36
549.779	18703.77
550.143	18757.11
550.507	18896.31
550.871	19036.42
551.235	18919.81
551.599	19278
551.962	19179.24
552.326	19439.35
552.689	19531.32
553.053	19428.5
553.417	19628.95
553.78	19760.7
554.143	19770.64
554.507	19944.42
554.87	20077.07
555.234	20321.81
555.597	20228.71
555.96	20399.1
556.323	20436.84
556.686	20480
557.05	20717.05
557.413	20952.53
557.776	20952.08
558.139	21109.59
558.502	21127.89
558.865	21374.21
559.228	21556.81
559.59	21723.81
559.953	21773.75
560.316	22030.69
560.679	21983.24
561.041	22305.03
561.404	22412.15
561.767	22453.73
562.129	22539.83
562.492	22975.07
562.854	22888.75
563.217	22972.14
563.579	23165.35
563.941	23401.96
564.304	23585.91
564.666	23770.53
565.028	23712.46
565.39	23917.87
565.753	24143.18
566.115	24256.62
566.477	24504.98
566.839	24641.47
567.201	24912.42
567.563	24836.04
567.925	25123.72
568.287	25166.43
568.648	25326.2
569.01	25644.61
569.372	25830.14
569.734	25830.59
570.095	25999.4
570.457	26274.2
570.819	26332.95
571.18	26546.73
571.542	26762.09
571.903	26936.33
572.265	27019.26
572.626	27195.53
572.987	27355.52
573.349	27461.96
573.71	27634.16
574.071	27828.73
574.432	28057.43
574.794	28370.41
575.155	28445.21
575.516	28380.36
575.877	28532.89
576.238	28758.42
576.599	28881.59
576.96	29116.61
577.32	29051.52
577.681	29186.44
578.042	29438.63
578.403	29536.48
578.763	29719.53
579.124	29753.2
579.485	29944.61
579.845	30154.09
580.206	30152.96
580.566	30184.38
580.927	30384.37
581.287	30424.6
581.648	30413.3
582.008	30714.53
582.368	30717.92
582.728	30892.61
583.089	30781.42
583.449	31028.42
583.809	30927.18
584.169	31028.2
584.529	31089.66
584.889	31314.52
585.249	31272.93
585.609	31122.43
585.969	31334.85
586.329	31429.54
586.688	31446.49
587.048	31562.87
587.408	31549.76
587.768	31528.3
588.127	31619.59
588.487	31514.74
588.846	31791.34
589.206	31695.3
589.565	31808.97
589.925	31797.67
590.284	31755.41
590.643	31916.99
591.003	32002.18
591.362	32180.71
591.721	32135.74
592.08	32091.67
592.44	32202.63
592.799	32162.63
593.158	32160.14
593.517	32095.51
593.876	32242.17
594.235	32175.51
594.593	32286.02
594.952	32346.8
595.311	32128.73
595.67	32380.93
596.029	32628.38
596.387	32528.04
596.746	32706.8
597.104	32489.17
597.463	32572.11
597.822	32511.55
598.18	32672.9
598.538	32464.09
598.897	32742.27
599.255	32510.19
599.613	32895.27
599.972	32767.81
600.33	32923.51
600.688	32716.96
601.046	32935.72
601.404	33033.11
601.762	32998.77
602.12	33089.61
602.478	33090.74
602.836	33193.34
603.194	32947.02
603.552	33051.19
603.91	32930.07
604.268	33176.16
604.625	32992.44
604.983	33109.04
605.341	33034.24
605.698	33176.84
606.056	33178.42
606.413	33298.87
606.771	33252.09
607.128	33286.22
607.485	33247.35
607.843	33382.71
608.2	33610.95
608.557	33588.35
608.914	33469.04
609.272	33576.6
609.629	33607.34
609.986	33812.08
610.343	33624.51
610.7	33850.49
611.057	33785.41
611.414	33833.32
611.771	33798.52
612.127	33949.7
612.484	33791.51
612.841	34021.56
613.198	33883.71
613.554	33928.46
613.911	34125.74
614.267	34180.43
614.624	34101.79
614.98	34109.02
615.337	34352.85
615.693	34253.42
616.05	34218.39
616.406	34408.67
616.762	34281.9
617.118	34311.72
617.475	34353.76
617.831	34429.24
618.187	34455.9
618.543	34547.65
618.899	34676.46
619.255	34709.45
619.611	34560.31
619.967	34647.31
620.323	34798.27
620.678	34589.91
621.034	34534.54
621.39	34570.25
621.746	34538.39
622.101	34999.39
622.457	34570.48
622.812	34600.08
623.168	34867.87
623.523	34849.79
623.879	34969.79
624.234	34808.21
624.589	34829.23
624.945	34888.66
625.3	34924.36
625.655	34842.78
626.01	35038.49
626.365	34826.51
626.72	34928.21
627.075	34852.28
627.43	34700.42
627.785	34661.77
628.14	34781.09
628.495	34734.54
628.85	34718.27
629.205	34677.14
629.559	34951.71
629.914	34602.56
630.269	34762.11
630.623	34608.44
630.978	34620.87
631.332	34860.86
631.687	34774.99
632.041	34677.82
632.396	34545.62
632.75	34546.52
633.104	34615.9
633.459	34345.17
633.813	34382.01
634.167	34346.75
634.521	34407.99
634.875	34449.57
635.229	34376.36
635.583	34304.72
635.937	34233.31
636.291	34213.42
636.645	34139.07
636.999	34294.55
637.352	34202.58
637.706	33947.89
638.06	34073.99
638.413	34017.27
638.767	33963.03
639.121	33863.6
639.474	33797.61
639.828	33810.5
640.181	33812.98
640.534	33788.12
640.888	33813.66
641.241	33534.57
641.594	33626.09
641.947	33761
642.301	33534.8
642.654	33595.13
643.007	33601.01
643.36	33497.96
643.713	33629.03
644.066	33599.65
644.419	33465.42
644.771	33253.45
645.124	33134.35
645.477	32988.37
645.83	32662.95
646.182	32656.18
646.535	32528.95
646.888	32644.65
647.24	32451.43
647.593	32556.06
647.945	32432.9
648.298	32368.27
648.65	32187.04
649.002	32243.98
649.355	32332.79
649.707	32248.28
650.059	32401.49
650.411	32927.13
650.763	32945.89
651.115	33288.7
651.467	33207.57
651.819	33099.1
652.171	32934.13
652.523	32985.66
652.875	32993.57
653.227	32892.78
653.578	33137.29
653.93	32977.97
654.282	32836.28
654.633	32754.48
654.985	32947.24
655.337	32921.03
655.688	32959.67
656.039	32990.63
656.391	32738.66
656.742	32878.99
657.094	32829.05
657.445	32885.1
657.796	32893.68
658.147	32774.14
658.498	32846.23
658.849	32850.52
659.2	32739.56
659.551	32807.58
659.902	32865.66
660.253	32893.91
660.604	32880.12
660.955	32677.19
661.306	32845.32
661.656	32800.58
662.007	32770.07
662.358	32719.9
662.708	32821.14
663.059	32603.97
663.409	32540.02
663.76	32731.2
664.11	32720.58
664.461	32646.91
664.811	32764.87
665.161	32803.06
665.511	32536.63
665.862	32754.93
666.212	32681.94
666.562	32634.71
666.912	32646.01
667.262	32618.89
667.612	32736.4
667.962	32583.63
668.312	32470.19
668.662	32713.12
669.011	32548.38
669.361	32615.95
669.711	32561.94
670.06	32553.81
670.41	32581.83
670.76	32331.44
671.109	32525.11
671.459	32596.06
671.808	32420.25
672.157	32420.02
672.507	32335.05
672.856	32321.95
673.205	32358.78
673.554	32448.72
673.904	32337.09
674.253	32477.65
674.602	32320.82
674.951	31924.22
675.3	31805.12
675.649	32403.98
675.998	32190.65
676.346	32232.01
676.695	32176.19
677.044	31957.21
677.393	32153.36
677.741	32101.16
678.09	31978.9
678.438	31925.8
678.787	32036.3
679.135	31932.8
679.484	31786.37
679.832	31912.01
680.181	31584.79
680.529	31681.51
680.877	31678.8
681.225	31555.87
681.573	31729.87
681.922	31675.86
682.27	31468.41
682.618	31470.44
682.966	31366.72
683.314	31354.51
683.661	31237.23
684.009	31021.64
684.357	31136.67
684.705	31100.28
685.053	31196.78
685.4	31052.15
685.748	30911.14
686.095	30864.36
686.443	30670.92
686.79	30664.36
687.138	30695.32
687.485	30625.04
687.832	30597.47
688.18	30581.65
688.527	30391.38
688.874	30430.7
689.221	30313.19
689.568	30296.24
689.915	30245.62
690.262	30159.52
690.609	29987.32
690.956	30106.19
691.303	30017.6
691.65	29770.6
691.997	29802.46
692.344	29565.64
692.69	29469.59
693.037	29564.28
693.383	29136.04
693.73	29514.79
694.077	29170.39
694.423	29171.07
694.769	28993.45
695.116	29142.37
695.462	28947.8
695.808	28915.93
696.155	28865.99
696.501	28699.67
696.847	28636.85
697.193	28433.69
697.539	28596.85
697.885	28280.7
698.231	28185.11
698.577	28188.27
698.923	28136.97
699.269	28026.47
699.614	27888.84
699.96	27787.15
700.306	27802.52
700.651	27659.24
700.997	27544.22
701.342	27574.73
701.688	27398.23
702.033	27288.41
702.379	27326.37
702.724	27164.34
703.069	27247.96
703.415	26871.69
703.76	26828.31
704.105	26939.72
704.45	26767.29
704.795	26595.09
705.14	26634.41
705.485	26567.3
705.83	26384.25
706.175	26481.42
706.52	26314.2
706.865	26161.43
707.209	26149
707.554	26033.07
707.899	26231.26
708.243	26052.06
708.588	25929.35
708.932	25709.47
709.277	25815.9
709.621	25857.26
709.966	25669.47
710.31	25646.87
710.654	25508.57
710.998	25450.49
711.342	25454.78
711.687	25426.08
712.031	25252.53
712.375	25163.94
712.719	25187.67
713.063	25149.71
713.407	25222.47
713.75	24981.12
714.094	25055.47
714.438	24994
714.782	24889.83
715.125	24817.29
715.469	24944.06
715.812	24841.92
716.156	24708.59
716.499	24786.33
716.843	24678.31
717.186	24615.93
717.53	24567.57
717.873	24622.04
718.216	24567.12
718.559	24532.77
718.902	24347.24
719.246	24402.61
719.589	24172.33
719.932	24277.86
720.275	24224.08
720.617	24107.93
720.96	24264.31
721.303	24059.79
721.646	24169.84
721.989	24020.24
722.331	24034.48
722.674	23981.6
723.016	24078.55
723.359	23929.17
723.701	24145.44
724.044	23951.32
724.386	23843.75
724.729	23954.94
725.071	23848.72
725.413	23909.96
725.755	23841.94
726.097	23864.09
726.439	23721.27
726.782	23759.69
727.124	23883.3
727.465	23769.4
727.807	23792.23
728.149	23626.13
728.491	23650.76
728.833	23714.72
729.175	23643.53
729.516	23503.87
729.858	23637.66
730.199	23694.38
730.541	23553.59
730.882	23524.21
731.224	23671.33
731.565	23567.83
731.906	23536.42
732.248	23509.52
732.589	23399.47
732.93	23415.51
733.271	23419.81
733.612	23433.37
733.953	23472.46
734.294	23446.02
734.635	23415.51
734.976	23505.46
735.317	23338.91
735.658	23377.78
735.999	23424.1
736.339	23359.47
736.68	23452.58
737.021	23364.67
737.361	23223.88
737.702	23477.43
738.042	23397.66
738.383	23335.29
738.723	23383.2
739.063	23298.46
739.404	23248.51
739.744	23259.81
740.084	23142.08
740.424	23197.21
740.764	23189.98
741.104	23277.89
741.444	23298.68
741.784	23117.89
742.124	23258.68
742.464	23203.32
742.804	23140.04
743.143	23186.37
743.483	23290.09
743.823	23113.15
744.162	23138.01
744.502	23074.28
744.841	22982.76
745.181	23177.55
745.52	23084.9
745.86	23104.56
746.199	23078.35
746.538	23170.1
746.877	23166.26
747.216	23113.83
747.556	23058.69
747.895	23103.21
748.234	22980.72
748.573	23039.03
748.911	22950.89
749.25	23021.85
749.589	22973.49
749.928	22934.4
750.267	23089.42
750.605	22967.39
750.944	22875.19
751.283	22883.1
751.621	22965.58
751.96	22948.18
752.298	22820.73
752.636	22873.61
752.975	22829.77
753.313	22773.72
753.651	22864.12
753.989	22681.07
754.327	22530.11
754.666	22526.5
755.004	22610.56
755.342	22571.69
755.679	22479.04
