Data from tablewood_dark_bookshelf_FLMS001491_00010.txt Node
Date: Wed Feb 08 14:13:20 GMT 2017
User: dcchb
Spectrometer: FLMS00149
Trigger mode: 0
Integration Time (sec): 2.000000E-2
Scans to average: 10
Electric dark correction enabled: true
Nonlinearity correction enabled: false
Boxcar width: 0
XAxis mode: Wavelengths
Number of Pixels in Spectrum: 2048
>>>>>Begin Spectral Data<<<<<
341.393	-16.5
341.776	-16.5
342.16	-16.5
342.543	-69.15
342.927	-64.86
343.31	-65.08
343.693	-77.74
344.077	-56.27
344.46	-66.89
344.843	-70.96
345.226	-54.46
345.61	-22.15
345.993	-14.91
346.376	-8.81
346.759	10.85
347.142	32.32
347.525	39.1
347.908	61.47
348.291	87
348.674	97.4
349.057	109.15
349.44	133.33
349.823	131.97
350.206	161.13
350.588	171.97
350.971	199.99
351.354	208.81
351.737	218.53
352.119	244.97
352.502	260.33
352.884	254
353.267	281.57
353.65	295.13
354.032	286.09
354.414	296.49
354.797	304.62
355.179	311.86
355.562	301.69
355.944	319.99
356.326	314.57
356.709	322.25
357.091	319.54
357.473	317.96
357.855	334.68
358.238	341.91
358.62	340.33
359.002	319.31
359.384	332.42
359.766	336.49
360.148	344.4
360.53	325.64
360.912	358.86
361.294	342.36
361.676	344.85
362.057	361.57
362.439	336.71
362.821	343.04
363.203	324.96
363.584	334
363.966	315.25
364.348	336.26
364.729	322.7
365.111	343.27
365.493	331.74
365.874	322.48
366.256	323.38
366.637	324.74
367.019	316.15
367.4	321.8
367.781	331.29
368.163	326.55
368.544	323.83
368.925	331.29
369.306	324.74
369.688	331.52
370.069	345.53
370.45	321.8
370.831	324.74
371.212	315.47
371.593	315.92
371.974	317.73
372.355	343.27
372.736	348.92
373.117	327.22
373.498	334
373.879	329.03
374.26	327
374.641	319.99
375.021	355.02
375.402	321.8
375.783	338.75
376.163	333.78
376.544	343.49
376.925	324.74
377.305	345.75
377.686	356.15
378.066	337.62
378.447	331.97
378.827	349.14
379.208	320.9
379.588	350.05
379.968	333.1
380.349	357.73
380.729	349.14
381.109	365.64
381.489	366.54
381.87	367.22
382.25	379.65
382.63	353.21
383.01	381.01
383.39	382.14
383.77	362.25
384.15	389.37
384.53	385.98
384.91	398.63
385.29	375.58
385.67	382.14
386.049	392.31
386.429	398.86
386.809	391.18
387.189	387.11
387.568	387.79
387.948	390.05
388.328	415.13
388.707	403.38
389.087	408.12
389.466	397.28
389.846	409.25
390.225	414.45
390.605	434.34
390.984	430.95
391.363	441.34
391.743	438.63
392.122	428.46
392.501	429.14
392.881	419.2
393.26	424.17
393.639	412.87
394.018	440.89
394.397	440.21
394.776	449.48
395.155	467.78
395.534	438.63
395.913	430.05
396.292	444.06
396.671	463.72
397.05	457.62
397.429	448.35
397.808	456.71
398.186	465.07
398.565	490.38
398.944	476.37
399.323	471.85
399.701	450.38
400.08	491.51
400.458	462.59
400.837	499.87
401.215	504.85
401.594	500.55
401.972	484.51
402.351	511.62
402.729	496.03
403.107	506.2
403.486	517.73
403.864	526.31
404.242	526.09
404.62	515.01
404.999	515.47
405.377	516.14
405.755	487.44
406.133	537.16
406.511	553.43
406.889	538.29
407.267	561.57
407.645	562.25
408.023	563.38
408.401	569.25
408.779	589.59
409.156	603.6
409.534	581.91
409.912	574
410.29	601.11
410.667	586.2
411.045	592.98
411.422	600.21
411.8	632.98
412.178	657.61
412.555	635.92
412.933	628.68
413.31	651.73
413.687	639.53
414.065	650.83
414.442	662.58
414.819	673.65
415.197	669.13
415.574	683.82
415.951	671.85
416.328	668.68
416.705	694.22
417.082	702.13
417.46	715.46
417.837	711.85
418.214	713.43
418.591	708.46
418.967	729.25
419.344	735.35
419.721	740.32
420.098	743.26
420.475	724.5
420.852	750.71
421.228	760.88
421.605	752.52
421.982	754.33
422.358	778.74
422.735	803.59
423.111	762.24
423.488	795.23
423.864	828
424.241	805.4
424.617	823.03
424.994	829.36
425.37	819.87
425.746	847.21
426.123	834.33
426.499	851.05
426.875	855.8
427.251	877.04
427.627	879.3
428.003	884.27
428.379	913.87
428.756	894.44
429.132	887.66
429.507	921.11
429.883	936.02
430.259	953.65
430.635	937.15
431.011	944.16
431.387	988.22
431.763	995.45
432.138	1012.4
432.514	995
432.89	1028
433.265	1042.23
433.641	1056.24
434.016	1051.05
434.392	1067.09
434.767	1082.46
435.143	1052.18
435.518	1093.98
435.894	1069.58
436.269	1089.24
436.644	1105.73
437.02	1156.81
437.395	1139.18
437.77	1146.18
438.145	1137.6
438.52	1185.05
438.895	1158.61
439.271	1163.81
439.646	1199.74
440.021	1202.23
440.395	1232.06
440.77	1216.69
441.145	1218.5
441.52	1225.73
441.895	1259.4
442.27	1253.75
442.645	1274.54
443.019	1285.39
443.394	1296.46
443.769	1313.19
444.143	1277.48
444.518	1293.53
444.892	1295.33
445.267	1316.12
445.641	1316.35
446.016	1343.47
446.39	1344.82
446.764	1361.55
447.139	1376.46
447.513	1351.38
447.887	1377.82
448.262	1388.21
448.636	1399.74
449.01	1390.92
449.384	1407.42
449.758	1430.92
450.132	1427.08
450.506	1440.87
450.88	1469.34
451.254	1448.32
451.628	1468.66
452.002	1491.26
452.376	1496.68
452.75	1498.49
453.123	1549.56
453.497	1561.77
453.871	1548.21
454.244	1584.82
454.618	1588.43
454.992	1615.32
455.365	1626.62
455.739	1696
456.112	1662.78
456.486	1692.16
456.859	1722.89
457.232	1718.37
457.606	1714.98
457.979	1796.11
458.352	1768.54
458.725	1806.05
459.099	1818.26
459.472	1829.56
459.845	1873.62
460.218	1939.61
460.591	1929.44
460.964	1931.7
461.337	1937.58
461.71	1993.17
462.083	1979.16
462.456	2027.52
462.829	2021.19
463.201	2068.87
463.574	2079.27
463.947	2110.68
464.32	2116.1
464.692	2167.17
465.065	2151.58
465.438	2178.93
465.81	2208.98
466.183	2250.34
466.555	2290.56
466.928	2311.13
467.3	2281.97
467.672	2321.29
468.045	2429.99
468.417	2416.89
468.789	2412.59
469.161	2472.48
469.534	2500.05
469.906	2532.81
470.278	2552.7
470.65	2582.98
471.022	2626.82
471.394	2664.56
471.766	2693.04
472.138	2744.79
472.51	2799.25
472.882	2803.77
473.253	2839.47
473.625	2922.86
473.997	2925.8
474.369	2980.49
474.74	2995.63
475.112	3065.23
475.484	3133.93
475.855	3109.97
476.227	3182.74
476.598	3267.03
476.97	3277.65
477.341	3377.99
477.713	3428.16
478.084	3447.59
478.455	3550.42
478.827	3556.74
479.198	3650.98
479.569	3658.89
479.94	3715.38
480.311	3784.76
480.682	3823.63
481.053	3914.93
481.424	4039.44
481.795	4026.79
482.166	4072.66
482.537	4114.69
482.908	4242.15
483.279	4282.15
483.65	4344.07
484.021	4434.69
484.391	4435.59
484.762	4546.55
485.133	4558.98
485.503	4603.72
485.874	4708.8
486.244	4779.99
486.615	4862.92
486.985	4890.94
487.356	4992.41
487.726	5056.14
488.097	5071.05
488.467	5135.68
488.837	5266.53
489.207	5311.27
489.578	5341.1
489.948	5429.24
490.318	5499.52
490.688	5578.84
491.058	5622.68
491.428	5667.87
491.798	5740.19
492.168	5835.78
492.538	5843.24
492.908	5930.24
493.278	5977.24
493.648	5975.44
494.017	6105.15
494.387	6137.69
494.757	6199.84
495.126	6265.6
495.496	6265.6
495.866	6306.5
496.235	6424.92
496.605	6487.97
496.974	6527.51
497.344	6572.71
497.713	6590.79
498.082	6724.79
498.452	6735.87
498.821	6745.13
499.19	6747.85
499.559	6880.95
499.928	6893.83
500.298	6943.32
500.667	7033.94
501.036	7012.47
501.405	7042.98
501.774	7143.09
502.143	7167.72
502.512	7246.36
502.88	7297.21
503.249	7284.33
503.618	7336.3
503.987	7394.61
504.356	7440.48
504.724	7489.97
505.093	7518.9
505.462	7570.87
505.83	7700.36
506.199	7738.33
506.567	7833.47
506.936	7807.48
507.304	7920.24
507.672	7914.82
508.041	7989.85
508.409	8003.18
508.777	8113.01
509.145	8116.17
509.514	8188.03
509.882	8326.79
510.25	8297.86
510.618	8299.44
510.986	8417.86
511.354	8442.26
511.722	8581.47
512.09	8621.47
512.458	8579.89
512.826	8733.33
513.193	8784.85
513.561	8842.03
513.929	8859.65
514.297	8992.08
514.664	9063.26
515.032	9072.76
515.4	9147.1
515.767	9152.3
516.135	9244.73
516.502	9185.97
516.869	9422.35
517.237	9449.02
517.604	9472.29
517.972	9537.83
518.339	9694.21
518.706	9670.03
519.073	9707.54
519.44	9839.97
519.808	9901.21
520.175	9940.76
520.542	9993.18
520.909	10171.48
521.276	10137.36
521.643	10272.72
522.009	10340.29
522.376	10444.7
522.743	10437.01
523.11	10576.67
523.477	10719.27
523.843	10717.01
524.21	10808.08
524.577	10941.18
524.943	10994.29
525.31	11053.72
525.676	11099.14
526.043	11246.48
526.409	11291.23
526.776	11415.52
527.142	11396.08
527.508	11434.5
527.874	11637.89
528.241	11656.64
528.607	11694.16
528.973	11855.06
529.339	11840.14
529.705	11977.31
530.071	12046.46
530.437	12167.36
530.803	12217.31
531.169	12228.38
531.535	12244.88
531.901	12316.29
532.267	12417.75
532.632	12503.17
532.998	12533.23
533.364	12600.12
533.73	12734.81
534.095	12708.37
534.461	12870.4
534.826	12926.67
535.192	12930.28
535.557	13030.17
535.923	13032.88
536.288	13144.74
536.653	13197.17
537.019	13236.49
537.384	13198.75
537.749	13231.97
538.114	13399.65
538.479	13374.11
538.845	13433.32
539.21	13476.93
539.575	13513.09
539.94	13603.26
540.305	13612.3
540.67	13579.08
541.034	13682.8
541.399	13811.39
541.764	13947.43
542.129	13906.75
542.494	13940.88
542.858	14016.13
543.223	13950.37
543.587	14092.96
543.952	14063.36
544.316	14149.91
544.681	14185.62
545.045	14370.47
545.41	14359.17
545.774	14393.29
546.138	14343.13
546.503	14469.22
546.867	14496.57
547.231	14653.63
547.595	14637.58
547.959	14668.09
548.324	14703.57
548.688	14806.39
549.052	14933.84
549.416	15014.52
549.779	14820.4
550.143	14973.84
550.507	15145.59
550.871	15090.22
551.235	15101.75
551.599	15308.3
551.962	15367.96
552.326	15414.51
552.689	15439.14
553.053	15469.2
553.417	15504.23
553.78	15661.28
554.143	15604.79
554.507	15696.08
554.87	15653.15
555.234	15903.76
555.597	15807.72
555.96	15922.97
556.323	16024.66
556.686	16064.44
557.05	16261.27
557.413	16171.78
557.776	16286.13
558.139	16343.3
558.502	16486.8
558.865	16502.16
559.228	16661.26
559.59	16657.64
559.953	16743.29
560.316	16766.11
560.679	16888.37
561.041	17055.37
561.404	17065.54
561.767	17162.26
562.129	17137.18
562.492	17405.87
562.854	17411.97
563.217	17334.01
563.579	17518.64
563.941	17552.08
564.304	17614.23
564.666	17730.16
565.028	17820.77
565.39	17915.24
565.753	18045.85
566.115	18112.74
566.477	18209.69
566.839	18231.84
567.201	18301.21
567.563	18391.38
567.925	18462.57
568.287	18506.18
568.648	18589.57
569.01	18751.37
569.372	18937.13
569.734	18782.78
570.095	18980.29
570.457	19076.56
570.819	19165.37
571.18	19069.1
571.542	19265.26
571.903	19244.24
572.265	19358.14
572.626	19505.93
572.987	19594.74
573.349	19650.56
573.71	19713.15
574.071	19712.93
574.432	19839.7
574.794	19957.67
575.155	19975.07
575.516	19977.78
575.877	20164.67
576.238	20204.89
576.599	20243.76
576.96	20309.07
577.32	20385.23
577.681	20428.16
578.042	20422.74
578.403	20469.74
578.763	20520.82
579.124	20578.67
579.485	20779.79
579.845	20909.51
580.206	20769.4
580.566	20768.04
580.927	20748.61
581.287	20961.71
581.648	20934.82
582.008	20991.31
582.368	20956.06
582.728	21109.95
583.089	21033.57
583.449	21177.52
583.809	21100.01
584.169	21127.35
584.529	21272.89
584.889	21329.83
585.249	21250.06
585.609	21154.7
585.969	21328.93
586.329	21249.61
586.688	21360.79
587.048	21377.97
587.408	21296.16
587.768	21404.18
588.127	21372.09
588.487	21447.12
588.846	21618.41
589.206	21454.13
589.565	21544.29
589.925	21675.36
590.284	21716.72
590.643	21751.52
591.003	21769.6
591.362	21884.62
591.721	21766.66
592.08	21788.58
592.44	21899.09
592.799	21800.33
593.158	21808.92
593.517	21864.96
593.876	22030.61
594.235	21919.42
594.593	21958.29
594.952	21923.27
595.311	22022.02
595.67	22108.35
596.029	22202.81
596.387	22130.94
596.746	22230.83
597.104	22109.02
597.463	22177.5
597.822	22349.69
598.18	22210.49
598.538	22270.37
598.897	22335.46
599.255	22241.9
599.613	22705.62
599.972	22452.74
600.33	22443.25
600.688	22473.76
601.046	22588.78
601.404	22636.47
601.762	22414.1
602.12	22647.77
602.478	22673.08
602.836	22669.46
603.194	22547.2
603.552	22630.82
603.91	22587.65
604.268	22811.15
604.625	22717.14
604.983	22747.65
605.341	22784.94
605.698	22856.35
606.056	23029.68
606.413	22983.12
606.771	22991.26
607.128	22950.13
607.485	22896.12
607.843	23033.74
608.2	23107.42
608.557	23164.59
608.914	23134.31
609.272	23279.61
609.629	23221.99
609.986	23367.75
610.343	23299.27
610.7	23422.66
611.057	23530
611.414	23369.1
611.771	23395.54
612.127	23532.04
612.484	23455.65
612.841	23547.86
613.198	23461.53
613.554	23598.93
613.911	23657.23
614.267	23690
614.624	23716.21
614.98	23649.55
615.337	23786.72
615.693	23856.1
616.05	23723.22
616.406	23906.72
616.762	23759.15
617.118	23969.99
617.475	23890.45
617.831	23962.53
618.187	24001.85
618.543	23950.56
618.899	24099.25
619.255	24062.87
619.611	24036.88
619.967	24173.15
620.323	24183.54
620.678	24139.03
621.034	24021.97
621.39	24068.52
621.746	24033.27
622.101	24245.01
622.457	24091.34
622.812	24094.73
623.168	24285.92
623.523	24235.97
623.879	24224.9
624.234	24184.9
624.589	24279.36
624.945	24379.47
625.3	24238.01
625.655	24256.54
626.01	24205.24
626.365	24309.42
626.72	24226.03
627.075	24228.52
627.43	24256.09
627.785	24131.12
628.14	24179.7
628.495	24289.53
628.85	24188.97
629.205	24096.32
629.559	24284.56
629.914	24158.23
630.269	24175.86
630.623	24096.54
630.978	24108.97
631.332	24204.56
631.687	24199.59
632.041	24030.78
632.396	24126.82
632.75	23984
633.104	24057.45
633.459	24012.25
633.813	23906.49
634.167	23987.62
634.521	23953.49
634.875	23923.21
635.229	23932.48
635.583	23754.4
635.937	23788.3
636.291	23807.74
636.645	23872.37
636.999	23739.26
637.352	23729.55
637.706	23684.35
638.06	23785.59
638.413	23662.65
638.767	23589.89
639.121	23612.71
639.474	23482.77
639.828	23453.39
640.181	23553.28
640.534	23531.58
640.888	23519.83
641.241	23479.83
641.594	23534.52
641.947	23446.39
642.301	23451.59
642.654	23515.77
643.007	23500.4
643.36	23342.89
643.713	23442.77
644.066	23475.99
644.419	23400.06
644.771	23242.55
645.124	22958.49
645.477	22850.02
645.83	22730.48
646.182	22661.55
646.535	22503.36
646.888	22675.79
647.24	22437.38
647.593	22663.36
647.945	22522.12
648.298	22498.84
648.65	22379.07
649.002	22324.16
649.355	22459.3
649.707	22285.74
650.059	22525.28
650.411	22769.8
650.763	22787.88
651.115	23048.21
651.467	22938.38
651.819	22879.85
652.171	22758.5
652.523	22789.46
652.875	22873.52
653.227	22737.03
653.578	22871.71
653.93	22756.46
654.282	22672.4
654.633	22702.68
654.985	22718.95
655.337	22720.31
655.688	22767.31
656.039	22776.35
656.391	22591.95
656.742	22656.58
657.094	22723.7
657.445	22831.72
657.796	22656.13
658.147	22671.49
658.498	22602.8
658.849	22697.26
659.2	22691.83
659.551	22692.96
659.902	22706.3
660.253	22649.57
660.604	22704.94
660.955	22486.41
661.306	22616.35
661.656	22543.14
662.007	22541.33
662.358	22558.05
662.708	22596.47
663.059	22497.94
663.409	22419.75
663.76	22689.57
664.11	22577.94
664.461	22612.29
664.811	22668.1
665.161	22624.26
665.511	22595.56
665.862	22527.09
666.212	22588.56
666.562	22625.39
666.912	22554.44
667.262	22620.2
667.612	22572.97
667.962	22520.31
668.312	22553.76
668.662	22543.36
669.011	22616.13
669.361	22470.37
669.711	22517.6
670.06	22512.4
670.41	22397.15
670.76	22407.09
671.109	22436.92
671.459	22437.83
671.808	22358.73
672.157	22498.84
672.507	22318.74
672.856	22361.22
673.205	22398.51
673.554	22365.51
673.904	22362.35
674.253	22388.11
674.602	22429.92
674.951	21995.35
675.3	21891.4
675.649	22213.88
675.998	22214.56
676.346	22169.13
676.695	22361.9
677.044	22111.73
677.393	22281.45
677.741	22327.32
678.09	22213.65
678.438	22151.06
678.787	22243.48
679.135	22226.76
679.484	22036.93
679.832	22113.32
680.181	22081.91
680.529	22108.57
680.877	22030.16
681.225	22047.1
681.573	22174.11
681.922	22017.95
682.27	21952.19
682.618	21943.38
682.966	22035.13
683.314	21956.94
683.661	21828.13
684.009	21864.96
684.357	21702.25
684.705	21647.57
685.053	21703.61
685.4	21680.56
685.748	21570.73
686.095	21624.52
686.443	21484.41
686.79	21460.23
687.138	21533.67
687.485	21476.5
687.832	21476.72
688.18	21450.06
688.527	21338.65
688.874	21319.67
689.221	21312.89
689.568	21098.65
689.915	21096.85
690.262	21086.68
690.609	21143.4
690.956	21106.11
691.303	21020.01
691.65	20830.41
691.997	20839.45
692.344	20732.79
692.69	20703.64
693.037	20694.15
693.383	20545
693.73	20583.41
694.077	20499.35
694.423	20530.76
694.769	20448.73
695.116	20378
695.462	20438.11
695.808	20348.39
696.155	20376.41
696.501	20241.5
696.847	20214.38
697.193	20156.76
697.539	20157.66
697.885	20025.46
698.231	19969.64
698.577	20078.34
698.923	19899.82
699.269	19814.85
699.614	19715.19
699.96	19749.76
700.306	19733.94
700.651	19658.01
700.997	19482.2
701.342	19516.77
701.688	19526.27
702.033	19454.63
702.379	19470.67
702.724	19345.71
703.069	19445.36
703.415	19136.67
703.76	19200.63
704.105	19193.62
704.45	19153.62
704.795	19037.69
705.14	19058.26
705.485	18911.59
705.83	18882.22
706.175	18958.82
706.52	18910.24
706.865	18839.5
707.209	18731.94
707.554	18648.55
707.899	18699.62
708.243	18567.42
708.588	18613.3
708.932	18536.24
709.277	18505.05
709.621	18515.22
709.966	18459.18
710.31	18471.15
710.654	18323.36
710.998	18291.04
711.342	18300.54
711.687	18273.87
712.031	18233.87
712.375	18162.91
712.719	18078.85
713.063	18127.21
713.407	18162.23
713.75	18005.85
714.094	18191.61
714.438	18011.96
714.782	18011.28
715.125	17899.19
715.469	17987.1
715.812	17842.24
716.156	17729.7
716.499	17761.11
716.843	17811.51
717.186	17684.51
717.53	17809.48
717.873	17758.18
718.216	17683.83
718.559	17750.04
718.902	17511.63
719.246	17650.84
719.589	17529.26
719.932	17407.23
720.275	17528.35
720.617	17459.88
720.96	17451.97
721.303	17494
721.646	17383.72
721.989	17333.1
722.331	17248.36
722.674	17411.07
723.016	17433.21
723.359	17331.52
723.701	17290.39
724.044	17215.37
724.386	17153.45
724.729	17271.41
725.071	17109.61
725.413	17214.01
725.755	17095.37
726.097	17026.67
726.439	16988.71
726.782	17051.76
727.124	17056.05
727.465	17016.95
727.807	17016.05
728.149	16807.92
728.491	16859.22
728.833	16908.48
729.175	16957.07
729.516	16851.53
729.858	16966.56
730.199	16925.43
730.541	16897.41
730.882	16762.95
731.224	16875.49
731.565	16698.32
731.906	16691.54
732.248	16764.3
732.589	16608.38
732.93	16650.41
733.271	16642.95
733.612	16684.08
733.953	16718.88
734.294	16584.65
734.635	16674.82
734.976	16642.05
735.317	16655.38
735.658	16620.58
735.999	16528.38
736.339	16560.47
736.68	16603.86
737.021	16471.88
737.361	16439.57
737.702	16586.23
738.042	16440.02
738.383	16485.22
738.723	16499.23
739.063	16444.54
739.404	16423.97
739.744	16340.36
740.084	16414.03
740.424	16417.2
740.764	16389.4
741.104	16291.78
741.444	16213.13
741.784	16150.54
742.124	16240.25
742.464	16225.11
742.804	16144.43
743.143	16096.75
743.483	16191.89
743.823	16145.11
744.162	16113.93
744.502	16245.45
744.841	16005.68
745.181	16101.72
745.52	16068.96
745.86	16070.54
746.199	16092.91
746.538	16005
746.877	16106.02
747.216	16062.63
747.556	15891.33
747.895	15926.81
748.234	15884.55
748.573	15942.41
748.911	15830.32
749.25	15913.48
749.589	15863.09
749.928	15890.88
750.267	15868.28
750.605	15709.19
750.944	15705.58
751.283	15686.59
751.621	15776.31
751.96	15718.23
752.298	15672.13
752.636	15685.92
752.975	15619.25
753.313	15574.05
753.651	15694.73
753.989	15519.82
754.327	15526.15
754.666	15416.09
755.004	15470.55
755.342	15491.8
755.679	15432.81
756.017	15299.48
