Data from tablewood_dark_bookshelf_FLMS001491_00061.txt Node
Date: Wed Feb 08 14:15:22 GMT 2017
User: dcchb
Spectrometer: FLMS00149
Trigger mode: 0
Integration Time (sec): 2.000000E-2
Scans to average: 10
Electric dark correction enabled: true
Nonlinearity correction enabled: false
Boxcar width: 0
XAxis mode: Wavelengths
Number of Pixels in Spectrum: 2048
>>>>>Begin Spectral Data<<<<<
341.393	-18.87
341.776	-18.87
342.16	-18.87
342.543	-62.26
342.927	-60.45
343.31	-82.82
343.693	-64.07
344.077	-64.97
344.46	-46.21
344.843	-50.73
345.226	-46.89
345.61	-43.73
345.993	-15.48
346.376	7.57
346.759	20.9
347.142	16.61
347.525	59.55
347.908	54.8
348.291	60.68
348.674	83.73
349.057	111.07
349.44	118.08
349.823	130.51
350.206	172.76
350.588	199.2
350.971	195.81
351.354	224.74
351.737	241.24
352.119	255.93
352.502	230.16
352.884	264.06
353.267	278.75
353.65	279.88
354.032	286.89
354.414	267.22
354.797	311.74
355.179	297.51
355.562	301.12
355.944	289.82
356.326	316.49
356.709	322.59
357.091	337.05
357.473	340.22
357.855	326.88
358.238	324.85
358.62	347.45
359.002	333.44
359.384	354.23
359.766	325.53
360.148	342.7
360.53	322.36
360.912	311.07
361.294	317.62
361.676	314.91
362.057	320.56
362.439	327.56
362.821	321.69
363.203	315.81
363.584	322.14
363.966	306.55
364.348	323.04
364.729	313.78
365.111	312.2
365.493	323.04
365.874	307.22
366.256	315.36
366.637	306.09
367.019	311.52
367.4	297.73
367.781	303.83
368.163	312.2
368.544	316.26
368.925	301.35
369.306	321.46
369.688	315.36
370.069	314.91
370.45	323.72
370.831	304.74
371.212	297.96
371.593	296.38
371.974	314.23
372.355	323.95
372.736	290.73
373.117	310.39
373.498	284.17
373.879	315.13
374.26	313.1
374.641	303.38
375.021	298.64
375.402	302.7
375.783	320.1
376.163	331.86
376.544	339.31
376.925	327.79
377.305	322.14
377.686	314.91
378.066	320.56
378.447	335.47
378.827	326.43
379.208	328.92
379.588	342.02
379.968	356.49
380.349	331.4
380.729	338.41
381.109	326.66
381.489	350.16
381.87	364.4
382.25	315.58
382.63	350.39
383.01	349.71
383.39	350.61
383.77	350.39
384.15	354.45
384.53	337.96
384.91	358.52
385.29	356.71
385.67	357.84
386.049	344.51
386.429	341.35
386.809	384.96
387.189	349.26
387.568	377.28
387.948	364.17
388.328	361.46
388.707	385.41
389.087	363.49
389.466	394.68
389.846	385.87
390.225	387.22
390.605	391.74
390.984	378.18
391.363	369.14
391.743	377.28
392.122	392.87
392.501	395.36
392.881	401.01
393.26	399.2
393.639	424.51
394.018	386.09
394.397	392.87
394.776	408.24
395.155	426.32
395.534	398.07
395.913	409.82
396.292	404.17
396.671	415.92
397.05	418.63
397.429	417.96
397.808	411.18
398.186	433.55
398.565	417.96
398.944	424.28
399.323	427.22
399.701	433.55
400.08	416.83
400.458	432.42
400.837	443.49
401.215	437.39
401.594	452.08
401.972	437.39
402.351	443.49
402.729	442.59
403.107	445.3
403.486	465.64
403.864	458.18
404.242	457.73
404.62	464.73
404.999	469.93
405.377	484.85
405.755	467.67
406.133	457.28
406.511	482.36
406.889	485.07
407.267	501.79
407.645	490.04
408.023	480.33
408.401	502.47
408.779	501.12
409.156	497.28
409.534	517.84
409.912	511.06
410.29	527.78
410.667	507.9
411.045	522.13
411.422	531.85
411.8	519.42
412.178	524.62
412.555	537.27
412.933	540.21
413.31	553.32
413.687	551.96
414.065	550.38
414.442	535.24
414.819	568.91
415.197	563.49
415.574	574.79
415.951	576.82
416.328	585.18
416.705	600.55
417.082	584.73
417.46	582.92
417.837	590.38
418.214	596.71
418.591	606.88
418.967	599.42
419.344	635.8
419.721	631.96
420.098	610.04
420.475	638.51
420.852	620.66
421.228	636.93
421.605	624.05
421.982	637.16
422.358	648.46
422.735	663.15
423.111	657.04
423.488	665.41
423.864	665.63
424.241	689.13
424.617	674.9
424.994	670.38
425.37	674.22
425.746	695.69
426.123	716.25
426.499	702.69
426.875	709.25
427.251	720.55
427.627	721.68
428.003	720.77
428.379	717.16
428.756	728.23
429.132	752.64
429.507	760.54
429.883	768.45
430.259	765.06
430.635	777.72
431.011	770.94
431.387	768
431.763	816.59
432.138	800.77
432.514	821.33
432.89	828.57
433.265	812.52
433.641	855.68
434.016	838.51
434.392	832.41
434.767	871.5
435.143	867.43
435.518	866.76
435.894	891.84
436.269	880.32
436.644	896.13
437.02	892.07
437.395	890.71
437.77	935.68
438.145	955.12
438.52	943.14
438.895	953.31
439.271	966.64
439.646	989.69
440.021	1005.28
440.395	990.37
440.77	978.62
441.145	978.84
441.52	993.99
441.895	1009.8
442.27	1006.64
442.645	989.47
443.019	1010.71
443.394	1022.91
443.769	1028.79
444.143	1033.76
444.518	1034.89
444.892	1057.71
445.267	1058.39
445.641	1065.4
446.016	1076.92
446.39	1093.19
446.764	1085.73
447.139	1058.16
447.513	1069.24
447.887	1089.35
448.262	1117.82
448.636	1102.68
449.01	1121.67
449.384	1117.15
449.758	1132.74
450.132	1142.23
450.506	1165.51
450.88	1174.77
451.254	1161.21
451.628	1172.51
452.002	1154.88
452.376	1198.27
452.75	1173.64
453.123	1207.76
453.497	1224.26
453.871	1249.57
454.244	1239.18
454.618	1254.32
454.992	1298.61
455.365	1303.81
455.739	1306.29
456.112	1337.03
456.486	1350.59
456.859	1363.24
457.232	1371.6
457.606	1371.6
457.979	1376.12
458.352	1390.58
458.725	1431.94
459.099	1456.35
459.472	1470.81
459.845	1473.29
460.218	1473.07
460.591	1459.96
460.964	1496.8
461.337	1539.96
461.71	1568.66
462.083	1549.45
462.456	1565.5
462.829	1567.3
463.201	1627.87
463.574	1591.48
463.947	1642.56
464.32	1662.89
464.692	1676.68
465.065	1690.46
465.438	1720.52
465.81	1739.95
466.183	1746.28
466.555	1771.82
466.928	1783.34
467.3	1768.43
467.672	1828.09
468.045	1843
468.417	1890.68
468.789	1854.08
469.161	1935.43
469.534	1939.5
469.906	2003.45
470.278	1988.54
470.65	2001.64
471.022	2040.29
471.394	2078.48
471.766	2084.35
472.138	2145.37
472.51	2184.24
472.882	2186.95
473.253	2190.34
473.625	2243.9
473.997	2273.05
474.369	2294.52
474.74	2316.21
475.112	2354.85
475.484	2379.71
475.855	2439.14
476.227	2441.63
476.598	2502.42
476.97	2541.74
477.341	2568.86
477.713	2609.76
478.084	2634.39
478.455	2703.54
478.827	2706.71
479.198	2779.93
479.569	2841.17
479.94	2875.07
480.311	2923.2
480.682	2936.98
481.053	3008.85
481.424	3100.82
481.795	3085.68
482.166	3154.61
482.537	3164.1
482.908	3202.74
483.279	3266.47
483.65	3312.79
484.021	3388.95
484.391	3396.63
484.762	3444.77
485.133	3460.81
485.503	3522.96
485.874	3605.67
486.244	3643.86
486.615	3684.99
486.985	3737.19
487.356	3794.36
487.726	3803.63
488.097	3903.97
488.467	3935.83
488.837	3988.71
489.207	4023.51
489.578	4062.83
489.948	4160.91
490.318	4179.21
490.688	4174.92
491.058	4208.36
491.428	4322.03
491.798	4398.19
492.168	4451.07
492.538	4455.14
492.908	4482.71
493.278	4537.85
493.648	4540.78
494.017	4632.76
494.387	4651.29
494.757	4710.72
495.126	4811.29
495.496	4788.69
495.866	4819.2
496.235	4891.74
496.605	4905.29
496.974	4947.1
497.344	4962.02
497.713	5033.2
498.082	5097.38
498.452	5105.74
498.821	5118.17
499.19	5176.02
499.559	5224.83
499.928	5270.03
500.298	5309.8
500.667	5345.74
501.036	5353.64
501.405	5389.35
501.774	5425.28
502.143	5470.7
502.512	5467.99
502.88	5514.09
503.249	5568.33
503.618	5615.78
503.987	5589.57
504.356	5687.65
504.724	5724.71
505.093	5740.98
505.462	5745.27
505.83	5789.34
506.199	5839.28
506.567	5893.29
506.936	5947.98
507.304	6018.49
507.672	6071.14
508.041	6056.9
508.409	6105.26
508.777	6124.92
509.145	6185.71
509.514	6175.77
509.882	6327.18
510.25	6250.34
510.618	6355.65
510.986	6387.06
511.354	6416.22
511.722	6539.15
512.09	6577.57
512.458	6555.42
512.826	6535.08
513.193	6659.82
513.561	6635.64
513.929	6703.21
514.297	6796.54
514.664	6849.88
515.032	6876.32
515.4	6942.53
515.767	6956.54
516.135	6996.09
516.502	6984.34
516.869	7167.38
517.237	7130.77
517.604	7157.89
517.972	7262.07
518.339	7241.96
518.706	7297.55
519.073	7322.18
519.44	7412.8
519.808	7460.71
520.175	7493.02
520.542	7632
520.909	7632
521.276	7739.12
521.643	7766.01
522.009	7840.36
522.376	7866.8
522.743	7902.28
523.11	8047.36
523.477	8092.56
523.843	8118.32
524.21	8139.11
524.577	8301.14
524.943	8312.44
525.31	8312.66
525.676	8458.2
526.043	8406.9
526.409	8506.1
526.776	8662.03
527.142	8577.97
527.508	8713.1
527.874	8775.02
528.241	8842.82
528.607	8870.84
528.973	8957.17
529.339	8997.62
529.705	9080.78
530.071	9166.88
530.437	9143.6
530.803	9248.46
531.169	9297.95
531.535	9251.17
531.901	9337.72
532.267	9426.31
532.632	9458.62
532.998	9568.45
533.364	9594.89
533.73	9583.82
534.095	9651.84
534.461	9753.08
534.826	9704.72
535.192	9724.83
535.557	9852.96
535.923	9867.88
536.288	9940.64
536.653	9958.72
537.019	9929.34
537.384	10051.6
537.749	10118.04
538.114	10087.08
538.479	10161.65
538.845	10170.69
539.21	10158.49
539.575	10267.41
539.94	10304.25
540.305	10303.12
540.67	10355.09
541.034	10426.28
541.399	10487.07
541.764	10490.68
542.129	10532.04
542.494	10566.16
542.858	10603.45
543.223	10560.51
543.587	10763.22
543.952	10621.3
544.316	10800.96
544.681	10745.14
545.045	10768.19
545.41	10825.82
545.774	10869.66
546.138	10931.8
546.503	11018.81
546.867	10964.57
547.231	11061.52
547.595	11071.91
547.959	11087.51
548.324	11071.91
548.688	11221.51
549.052	11259.48
549.416	11231.46
549.779	11296.54
550.143	11353.03
550.507	11352.13
550.871	11486.14
551.235	11430.32
551.599	11496.76
551.962	11599.13
552.326	11583.09
552.689	11739.92
553.053	11623.31
553.417	11701.5
553.78	11854.04
554.143	11695.17
554.507	11931.1
554.87	11957.76
555.234	12032.79
555.597	11992.79
555.96	12014.26
556.323	12094.71
556.686	12145.78
557.05	12282.5
557.413	12295.38
557.776	12313.46
558.139	12437.75
558.502	12499.67
558.865	12512.1
559.228	12576.96
559.59	12661.02
559.953	12629.39
560.316	12745.54
560.679	12739.21
561.041	12936.5
561.404	12896.05
561.767	13005.19
562.129	13006.78
562.492	13124.74
562.854	13094.68
563.217	13124.29
563.579	13191.86
563.941	13306.43
564.304	13383.72
564.666	13495.13
565.028	13435.01
565.39	13578.06
565.753	13625.97
566.115	13701.22
566.477	13690.6
566.839	13755.91
567.201	13891.27
567.563	13942.8
567.925	14013.08
568.287	14152.51
568.648	14100.53
569.01	14166.75
569.372	14340.53
569.734	14225.05
570.095	14468.66
570.457	14446.74
570.819	14539.84
571.18	14540.3
571.542	14617.36
571.903	14633.17
572.265	14767.63
572.626	14746.39
572.987	14883.56
573.349	15000.4
573.71	14923.34
574.071	15114.74
574.432	15130.11
574.794	15193.61
575.155	15220.73
575.516	15206.04
575.877	15251.24
576.238	15341.63
576.599	15406.26
576.96	15494.85
577.32	15435.19
577.681	15529.42
578.042	15608.29
578.403	15614.62
578.763	15615.3
579.124	15687.16
579.485	15782.97
579.845	15842.18
580.206	15830.66
580.566	15825.46
580.927	15914.27
581.287	15930.54
581.648	15974.16
582.008	16079.46
582.368	16030.43
582.728	16104.55
583.089	15968.73
583.449	16137.09
583.809	16194.26
584.169	16276.97
584.529	16181.38
584.889	16364.88
585.249	16385.67
585.609	16361.49
585.969	16353.58
586.329	16420.47
586.688	16358.1
587.048	16358.78
587.408	16393.58
587.768	16439.91
588.127	16507.48
588.487	16434.03
588.846	16608.72
589.206	16489.62
589.565	16550.19
589.925	16616.4
590.284	16608.04
590.643	16693.69
591.003	16619.34
591.362	16802.84
591.721	16737.07
592.08	16741.82
592.44	16878.77
592.799	16893.45
593.158	16832.89
593.517	16816.62
593.876	16931.19
594.235	16926.22
594.593	16878.54
594.952	17019.55
595.311	16930.06
595.67	16953.79
596.029	17102.04
596.387	17167.8
596.746	17123.05
597.104	17057.97
597.463	17110.62
597.822	17314.01
598.18	17170.28
598.538	17231.98
598.897	17321.47
599.255	17154.92
599.613	17537.28
599.972	17343.84
600.33	17474.91
600.688	17452.31
601.046	17356.27
601.404	17530.27
601.762	17509.94
602.12	17524.85
602.478	17592.87
602.836	17653.21
603.194	17466.55
603.552	17487.79
603.91	17548.35
604.268	17661.12
604.625	17693.89
604.983	17721
605.341	17702.02
605.698	17743.15
606.056	17845.29
606.413	17821.79
606.771	17955.12
607.128	17891.17
607.485	17818.18
607.843	17835.35
608.2	17954.44
608.557	18065.63
608.914	17883.71
609.272	18029.7
609.629	17966.42
609.986	18099.98
610.343	18071.28
610.7	18254.1
611.057	18201.67
611.414	18196.92
611.771	18144.72
612.127	18268.79
612.484	18265.4
612.841	18307.88
613.198	18253.87
613.554	18283.47
613.911	18394.66
614.267	18378.39
614.624	18379.74
614.98	18331.61
615.337	18584.48
615.693	18520.76
616.05	18400.99
616.406	18591.49
616.762	18591.26
617.118	18652.5
617.475	18548.55
617.831	18607.76
618.187	18670.81
618.543	18652.5
618.899	18781.99
619.255	18772.05
619.611	18700.19
619.967	18867.64
620.323	18850.92
620.678	18758.04
621.034	18718.26
621.39	18697.47
621.746	18695.21
622.101	18922.33
622.457	18721.43
622.812	18808.88
623.168	18834.87
623.523	18878.71
623.879	18976.56
624.234	18798.49
624.589	18823.57
624.945	18886.62
625.3	18871.48
625.655	18783.57
626.01	18956.68
626.365	18894.53
626.72	18829.67
627.075	18932.5
627.43	18812.95
627.785	18753.74
628.14	18901.08
628.495	18916.23
628.85	18865.83
629.205	18829.67
629.559	18813.63
629.914	18894.76
630.269	18873.29
630.623	18746.96
630.978	18813.4
631.332	18813.63
631.687	18859.73
632.041	18764.59
632.396	18795.1
632.75	18758.49
633.104	18748.32
633.459	18721.65
633.813	18712.39
634.167	18654.99
634.521	18616.12
634.875	18596.01
635.229	18760.52
635.583	18598.49
635.937	18564.37
636.291	18553.98
636.645	18513.98
636.999	18643.24
637.352	18639.17
637.706	18451.61
638.06	18500.64
638.413	18536.35
638.767	18519.85
639.121	18425.39
639.474	18318.5
639.828	18344.94
640.181	18468.33
640.534	18443.47
640.888	18311.95
641.241	18266.98
641.594	18359.4
641.947	18466.75
642.301	18305.39
642.654	18242.57
643.007	18302.68
643.36	18271.72
643.713	18143.82
644.066	18264.49
644.419	18272.63
644.771	18114.21
645.124	17991.28
645.477	17933.65
645.83	17808.68
646.182	17737.73
646.535	17682.36
646.888	17718.29
647.24	17596.03
647.593	17630.38
647.945	17565.75
648.298	17525.75
648.65	17500.22
649.002	17476.94
649.355	17590.61
649.707	17625.64
650.059	17662.47
650.411	17800.1
650.763	17866.76
651.115	18093.42
651.467	17968.23
651.819	17981.79
652.171	17952.18
652.523	17798.29
652.875	17939.75
653.227	17898.85
653.578	17914.22
653.93	17923.26
654.282	17791.74
654.633	17773.2
654.985	17824.96
655.337	17841
655.688	17836.25
656.039	17899.53
656.391	17804.84
656.742	17749.02
657.094	17794.22
657.445	17826.76
657.796	17755.8
658.147	17739.08
658.498	17723.71
658.849	17811.85
659.2	17755.13
659.551	17726.43
659.902	17803.26
660.253	17794.45
660.604	17751.06
660.955	17768.69
661.306	17769.82
661.656	17720.55
662.007	17659.31
662.358	17718.52
662.708	17686.2
663.059	17708.57
663.409	17651.85
663.76	17673.77
664.11	17711.74
664.461	17732.98
664.811	17691.4
665.161	17737.73
665.511	17684.62
665.862	17619.08
666.212	17730.72
666.562	17794
666.912	17702.47
667.262	17705.86
667.612	17724.84
667.962	17766.43
668.312	17652.3
668.662	17721.45
669.011	17713.32
669.361	17674.9
669.711	17614.11
670.06	17695.69
670.41	17644.85
670.76	17644.39
671.109	17709.25
671.459	17749.93
671.808	17608.24
672.157	17587.22
672.507	17537.28
672.856	17664.96
673.205	17565.3
673.554	17640.33
673.904	17547.9
674.253	17742.02
674.602	17617.95
674.951	17439.65
675.3	17340.22
675.649	17562.82
675.998	17607.11
676.346	17570.5
676.695	17636.03
677.044	17450.95
677.393	17592.19
677.741	17578.86
678.09	17507.68
678.438	17484.85
678.787	17463.16
679.135	17514.91
679.484	17352.43
679.832	17405.31
680.181	17363.05
680.529	17380.22
680.877	17413.21
681.225	17423.84
681.573	17485.3
681.922	17315.82
682.27	17240.11
682.618	17219.77
682.966	17202.82
683.314	17313.56
683.661	17229.72
684.009	17170.06
684.357	17105.65
684.705	17056.16
685.053	17101.58
685.4	17034.02
685.748	16958.99
686.095	16977.07
686.443	16887.8
686.79	16960.12
687.138	16914.92
687.485	16931.19
687.832	16824.53
688.18	16897.07
688.527	16795.83
688.874	16706.79
689.221	16788.15
689.568	16697.3
689.915	16634.93
690.262	16610.07
690.609	16565.1
690.956	16608.26
691.303	16572.33
691.65	16369.63
691.997	16477.42
692.344	16375.73
692.69	16367.37
693.037	16337.99
693.383	16229.29
693.73	16326.69
694.077	16210.53
694.423	16175.28
694.769	16141.38
695.116	16114.49
695.462	16152
695.808	16007.6
696.155	16046.47
696.501	15874.72
696.847	15901.62
697.193	15742.07
697.539	15929.19
697.885	15797.66
698.231	15716.54
698.577	15682.86
698.923	15743.65
699.269	15627.5
699.614	15537.56
699.96	15552.25
700.306	15474.96
700.651	15414.62
700.997	15381.86
701.342	15394.96
701.688	15377.79
702.033	15326.49
702.379	15363.32
702.724	15245.59
703.069	15282.2
703.415	15117
703.76	15102.77
704.105	15159.71
704.45	15153.84
704.795	15113.61
705.14	14959.95
705.485	14961.08
705.83	15007.4
706.175	14969.66
706.52	14925.6
706.865	14812.38
707.209	14825.26
707.554	14768.31
707.899	14783.68
708.243	14690.8
708.588	14730.57
708.932	14618.03
709.277	14529.67
709.621	14654.87
709.966	14485.61
710.31	14523.8
710.654	14415.1
710.998	14339.17
711.342	14426.4
711.687	14417.81
712.031	14375.1
712.375	14281.77
712.719	14310.25
713.063	14283.35
713.407	14355.89
713.75	14154.54
714.094	14313.18
714.438	14314.09
714.782	14196.58
715.125	14093.75
715.469	14185.28
715.812	13985.51
716.156	14031.16
716.499	14052.85
716.843	14012.63
717.186	13870.71
717.53	14016.02
717.873	13995.68
718.216	13903.7
718.559	13882.69
718.902	13829.58
719.246	13966.75
719.589	13776.7
719.932	13799.98
720.275	13777.38
720.617	13827.55
720.96	13770.15
721.303	13727.44
721.646	13752.07
721.989	13703.03
722.331	13738.96
722.674	13762.24
723.016	13794.55
723.359	13714.55
723.701	13688.57
724.044	13622.81
724.386	13535.12
724.729	13667.1
725.071	13667.32
725.413	13577.84
725.755	13541.45
726.097	13573.54
726.439	13526.76
726.782	13525.41
727.124	13526.31
727.465	13444.51
727.807	13448.8
728.149	13410.61
728.491	13491.74
728.833	13489.25
729.175	13350.27
729.516	13280.44
729.858	13302.14
730.199	13404.28
730.541	13377.61
730.882	13269.82
731.224	13333.55
731.565	13301.01
731.906	13271.63
732.248	13235.7
732.589	13252.42
732.93	13201.8
733.271	13254.91
733.612	13221.23
733.953	13193.44
734.294	13199.99
734.635	13202.7
734.976	13247.22
735.317	13125.87
735.658	13144.63
735.999	13110.5
736.339	13060.79
736.68	13136.72
737.021	13101.01
737.361	13070.5
737.702	13171.52
738.042	13093.1
738.383	13068.02
738.723	13097.4
739.063	13013.33
739.404	13142.37
739.744	13098.3
740.084	12949.6
740.424	13027.79
740.764	12985.76
741.104	13056.49
741.444	12933.78
741.784	12905.31
742.124	13044.29
742.464	12967.91
742.804	12976.04
743.143	12919.77
743.483	12937.4
743.823	12807.46
744.162	12893.56
744.502	12841.81
744.841	12846.55
745.181	12904.63
745.52	12897.63
745.86	12853.79
746.199	12820.11
746.538	12801.36
746.877	12879.1
747.216	12866.67
747.556	12834.58
747.895	12758.87
748.234	12736.05
748.573	12776.5
748.911	12694.92
749.25	12696.73
749.589	12608.6
749.928	12654.47
750.267	12637.75
750.605	12704.19
750.944	12700.12
751.283	12681.81
751.621	12650.18
751.96	12627.8
752.298	12669.84
752.636	12558.65
752.975	12530.63
753.313	12491.54
753.651	12587.8
753.989	12495.15
754.327	12459.9
754.666	12343.74
755.004	12472.33
755.342	12448.15
755.679	12361.82
756.017	12297.87
756.355	12383.29
756.693	12245.21
757.031	12292.45
757.368	12232.79
