Data from tablewood_dark_bookshelf_FLMS001491_00090.txt Node
Date: Wed Feb 08 14:15:50 GMT 2017
User: dcchb
Spectrometer: FLMS00149
Trigger mode: 0
Integration Time (sec): 2.000000E-2
Scans to average: 10
Electric dark correction enabled: true
Nonlinearity correction enabled: false
Boxcar width: 0
XAxis mode: Wavelengths
Number of Pixels in Spectrum: 2048
>>>>>Begin Spectral Data<<<<<
341.393	-6.09
341.776	-6.09
342.16	-6.09
342.543	-60.1
342.927	-89.25
343.31	-66.2
343.693	-77.95
344.077	-55.35
344.46	-64.62
344.843	-54.9
345.226	-44.5
345.61	0.69
345.993	-34.34
346.376	1.82
346.759	10.86
347.142	13.12
347.525	37.75
347.908	67.81
348.291	65.78
348.674	86.57
349.057	113.46
349.44	134.7
349.823	136.51
350.206	178.09
350.588	185.77
350.971	197.75
351.354	215.83
351.737	240.69
352.119	231.65
352.502	264.87
352.884	276.84
353.267	272.55
353.65	291.08
354.032	298.09
354.414	304.41
354.797	331.98
355.179	320.23
355.562	305.99
355.944	316.16
356.326	320.91
356.709	331.08
357.091	339.44
357.473	335.82
357.855	340.57
358.238	328.82
358.62	346.22
359.002	324.98
359.384	345.54
359.766	335.15
360.148	336.05
360.53	341.25
360.912	335.15
361.294	324.53
361.676	341.02
362.057	349.84
362.439	331.3
362.821	341.93
363.203	332.89
363.584	302.83
363.966	332.43
364.348	308.71
364.729	330.63
365.111	325.66
365.493	312.1
365.874	310.51
366.256	307.8
366.637	331.08
367.019	333.11
367.4	297.63
367.781	325.43
368.163	331.98
368.544	316.16
368.925	311.19
369.306	340.34
369.688	330.17
370.069	331.53
370.45	328.82
370.831	334.02
371.212	320.91
371.593	321.14
371.974	328.14
372.355	333.56
372.736	316.16
373.117	328.82
373.498	314.58
373.879	316.62
374.26	331.53
374.641	322.04
375.021	320.91
375.402	339.89
375.783	331.08
376.163	351.87
376.544	361.36
376.925	358.42
377.305	333.34
377.686	348.25
378.066	346.67
378.447	358.87
378.827	347.8
379.208	365.88
379.588	349.16
379.968	369.72
380.349	355.71
380.729	365.2
381.109	365.2
381.489	363.62
381.87	381.02
382.25	371.08
382.63	376.05
383.01	368.14
383.39	371.76
383.77	370.4
384.15	378.31
384.53	379.44
384.91	384.41
385.29	380.8
385.67	381.92
386.049	384.64
386.429	389.61
386.809	392.09
387.189	385.99
387.568	383.96
387.948	411.98
388.328	401.13
388.707	398.87
389.087	380.34
389.466	370.63
389.846	397.97
390.225	413.56
390.605	415.82
390.984	397.52
391.363	406.56
391.743	409.27
392.122	436.84
392.501	424.18
392.881	432.55
393.26	428.03
393.639	434.58
394.018	456.73
394.397	417.86
394.776	434.13
395.155	428.25
395.534	447.46
395.913	444.07
396.292	470.96
396.671	449.95
397.05	442.49
397.429	461.02
397.808	470.74
398.186	467.8
398.565	468.93
398.944	453.34
399.323	467.8
399.701	453.56
400.08	486.1
400.458	461.47
400.837	506.67
401.215	494.24
401.594	480.23
401.972	503.05
402.351	504.63
402.729	487.46
403.107	518.87
403.486	504.86
403.864	507.35
404.242	508.02
404.62	515.03
404.999	501.92
405.377	513.67
405.755	541.92
406.133	531.53
406.511	532.43
406.889	544.86
407.267	563.84
407.645	538.76
408.023	573.56
408.401	573.78
408.779	569.94
409.156	576.04
409.534	560.45
409.912	581.02
410.29	597.06
410.667	608.81
411.045	599.32
411.422	594.8
411.8	596.38
412.178	601.58
412.555	619.66
412.933	621.69
413.31	616.5
413.687	640.68
414.065	642.03
414.442	644.29
414.819	649.71
415.197	650.62
415.574	644.29
415.951	674.35
416.328	684.06
416.705	669.83
417.082	686.55
417.46	688.13
417.837	694.91
418.214	708.47
418.591	685.87
418.967	707.79
419.344	692.2
419.721	721.35
420.098	707.57
420.475	725.42
420.852	723.16
421.228	769.26
421.605	724.97
421.982	746.89
422.358	744.85
422.735	758.19
423.111	767.9
423.488	781.91
423.864	767.9
424.241	803.83
424.617	790.95
424.994	783.04
425.37	772.88
425.746	823.5
426.123	831.4
426.499	825.53
426.875	824.4
427.251	842.25
427.627	842.93
428.003	854
428.379	858.97
428.756	868.47
429.132	898.97
429.507	891.52
429.883	888.13
430.259	902.82
430.635	912.08
431.011	913.66
431.387	920.44
431.763	947.33
432.138	995.02
432.514	964.28
432.89	980.33
433.265	999.08
433.641	1002.7
434.016	1012.42
434.392	1044.05
434.767	1052.42
435.143	1030.95
435.518	1060.78
435.894	1104.84
436.269	1103.49
436.644	1074.79
437.02	1100.78
437.395	1107.1
437.77	1099.65
438.145	1123.83
438.52	1144.62
438.895	1155.92
439.271	1133.32
439.646	1160.66
440.021	1162.02
440.395	1192.3
440.77	1159.76
441.145	1187.33
441.52	1189.14
441.895	1213.99
442.27	1202.24
442.645	1204.28
443.019	1234.78
443.394	1237.5
443.769	1260.09
444.143	1239.3
444.518	1239.98
444.892	1269.59
445.267	1281.34
445.641	1301.22
446.016	1288.12
446.39	1289.02
446.764	1327.44
447.139	1285.18
447.513	1327.89
447.887	1357.04
448.262	1331.28
448.636	1338.06
449.01	1371.73
449.384	1390.26
449.758	1402.46
450.132	1394.78
450.506	1386.19
450.88	1414.89
451.254	1394.33
451.628	1443.14
452.002	1472.29
452.376	1473.87
452.75	1463.25
453.123	1477.49
453.497	1532.63
453.871	1488.56
454.244	1534.44
454.618	1548.9
454.992	1557.94
455.365	1551.84
455.739	1597.26
456.112	1599.29
456.486	1621.21
456.859	1677.03
457.232	1692.85
457.606	1669.35
457.979	1707.31
458.352	1705.73
458.725	1739.63
459.099	1740.31
459.472	1761.32
459.845	1792.51
460.218	1810.59
460.591	1841.32
460.964	1859.63
461.337	1873.19
461.71	1942.11
462.083	1932.17
462.456	1928.1
462.829	1967.87
463.201	2007.42
463.574	1976.69
463.947	1990.02
464.32	2046.29
464.692	2062.56
465.065	2058.04
465.438	2067.76
465.81	2144.82
466.183	2150.92
466.555	2188.21
466.928	2228.43
467.3	2211.93
467.672	2244.47
468.045	2301.87
468.417	2325.6
468.789	2307.3
469.161	2361.31
469.534	2383
469.906	2410.8
470.278	2456.67
470.65	2474.75
471.022	2537.35
471.394	2533.96
471.766	2629.78
472.138	2591.13
472.51	2625.03
472.882	2730.34
473.253	2700.28
473.625	2776.66
473.997	2841.07
474.369	2853.05
474.74	2871.13
475.112	2863.67
475.484	2937.79
475.855	3015.3
476.227	3034.28
476.598	3138.24
476.97	3151.57
477.341	3228.18
477.713	3183.66
478.084	3267.72
478.455	3323.32
478.827	3374.39
479.198	3474.73
479.569	3464.33
479.94	3554.72
480.311	3636.08
480.682	3697.32
481.053	3791.78
481.424	3845.11
481.795	3828.39
482.166	3907.71
482.537	3947.03
482.908	4031.55
483.279	4074.94
483.65	4152.45
484.021	4225.89
484.391	4296.17
484.762	4319.22
485.133	4339.11
485.503	4387.7
485.874	4487.35
486.244	4535.49
486.615	4655.48
486.985	4632.66
487.356	4741.58
487.726	4785.88
488.097	4876.72
488.467	4904.29
488.837	4987.68
489.207	5071.29
489.578	5154.91
489.948	5159.65
490.318	5198.75
490.688	5211.85
491.058	5349.7
491.428	5448.46
491.798	5466.76
492.168	5551.05
492.538	5604.16
492.908	5653.65
493.278	5718.51
493.648	5740.65
494.017	5827.21
494.387	5861.78
494.757	5884.38
495.126	5964.38
495.496	5945.17
495.866	6073.75
496.235	6096.13
496.605	6110.14
496.974	6200.76
497.344	6281.66
497.713	6248.21
498.082	6331.37
498.452	6362.33
498.821	6425.61
499.19	6458.83
499.559	6510.35
499.928	6583.34
500.298	6599.39
500.667	6653.17
501.036	6666.28
501.405	6749.89
501.774	6741.08
502.143	6830.57
502.512	6849.55
502.88	6931.81
503.249	6914.41
503.618	6959.15
503.987	6991.02
504.356	7082.54
504.724	7068.3
505.093	7132.03
505.462	7146.27
505.83	7261.07
506.199	7352.14
506.567	7409.76
506.936	7402.53
507.304	7471.46
507.672	7534.51
508.041	7598.01
508.409	7663.54
508.777	7729.53
509.145	7782.63
509.514	7751.22
509.882	7811.11
510.25	7893.37
510.618	7877.55
510.986	7941.95
511.354	8028.5
511.722	8109.86
512.09	8181.49
512.458	8196.86
512.826	8257.2
513.193	8334.26
513.561	8365.9
513.929	8381.94
514.297	8484.76
514.664	8527.25
515.032	8644.76
515.4	8643.85
515.767	8708.03
516.135	8798.2
516.502	8690.86
516.869	8913.9
517.237	8928.82
517.604	8954.35
517.972	9052.21
518.339	9126.55
518.706	9176.04
519.073	9202.71
519.44	9244.52
519.808	9375.59
520.175	9379.2
520.542	9495.13
520.909	9595.69
521.276	9587.56
521.643	9683.38
522.009	9753.43
522.376	9888.57
522.743	9889.92
523.11	10024.84
523.477	10070.71
523.843	10163.81
524.21	10217.37
524.577	10323.36
524.943	10354.32
525.31	10440.87
525.676	10530.81
526.043	10612.16
526.409	10660.3
526.776	10776.45
527.142	10850.35
527.508	10851.25
527.874	10888.54
528.241	11058.93
528.607	11074.75
528.973	11127.86
529.339	11182.09
529.705	11241.98
530.071	11361.98
530.437	11427.96
530.803	11460.5
531.169	11526.26
531.535	11587.96
531.901	11650.78
532.267	11715.86
532.632	11766.03
532.998	11797.44
533.364	11878.35
533.73	11974.39
534.095	12095.29
534.461	12120.15
534.826	12135.51
535.192	12180.48
535.557	12299.58
535.923	12320.59
536.288	12411.21
536.653	12381.38
537.019	12448.27
537.384	12513.81
537.749	12632
538.114	12537.54
538.479	12715.61
538.845	12733.92
539.21	12651.66
539.575	12700.25
539.94	12793.8
540.305	12933.23
540.67	12852.56
541.034	12945.44
541.399	12998.77
541.764	13015.27
542.129	13053.23
542.494	13095.71
542.858	13149.72
543.223	13241.93
543.587	13174.36
543.952	13211.64
544.316	13368.93
544.681	13281.92
545.045	13457.97
545.41	13538.64
545.774	13557.85
546.138	13552.43
546.503	13561.47
546.867	13669.94
547.231	13750.39
547.595	13822.93
547.959	13827.67
548.324	13831.51
548.688	13898.41
549.052	13877.84
549.416	13954.45
549.779	14005.97
550.143	14032.87
550.507	14068.57
550.871	14138.63
551.235	14211.84
551.599	14298.85
551.962	14350.37
552.326	14328.68
552.689	14468.33
553.053	14473.76
553.417	14535
553.78	14647.54
554.143	14647.31
554.507	14707.65
554.87	14715.56
555.234	14881.88
555.597	14799.85
555.96	14904.93
556.323	15119.39
556.686	14984.03
557.05	15170.24
557.413	15214.08
557.776	15224.92
558.139	15322.1
558.502	15400.06
558.865	15419.04
559.228	15548.08
559.59	15520.28
559.953	15706.49
560.316	15730.9
560.679	15761.86
561.041	15904.68
561.404	15993.94
561.767	16084.34
562.129	15994.17
562.492	16326.82
562.854	16209.08
563.217	16224.67
563.579	16338.12
563.941	16484.1
564.304	16453.59
564.666	16632.12
565.028	16683.87
565.39	16678.67
565.753	16881.83
566.115	16859.23
566.477	17010.41
566.839	17072.33
567.201	17161.14
567.563	17107.36
567.925	17327.02
568.287	17352.1
568.648	17357.98
569.01	17493.57
569.372	17610.4
569.734	17581.7
570.095	17729.72
570.457	17880
570.819	17811.98
571.18	17891.07
571.542	18048.35
571.903	18038.18
572.265	18131.74
572.626	18134.45
572.987	18283.83
573.349	18279.31
573.71	18453.09
574.071	18479.98
574.432	18491.73
574.794	18604.5
575.155	18604.72
575.516	18595.91
575.877	18715.68
576.238	18790.25
576.599	18796.13
576.96	18900.08
577.32	19005.39
577.681	19118.16
578.042	19105.27
578.403	19101.66
578.763	19241.77
579.124	19216.68
579.485	19268.89
579.845	19429.79
580.206	19265.27
580.566	19387.75
580.927	19429.33
581.287	19475.43
581.648	19447.19
582.008	19600.85
582.368	19564.7
582.728	19529.44
583.089	19597.24
583.449	19648.99
583.809	19685.82
584.169	19661.19
584.529	19715.2
584.889	19880.17
585.249	19738.25
585.609	19705.94
585.969	19887.4
586.329	19852.6
586.688	19865.03
587.048	19845.14
587.408	19975.99
587.768	19936.21
588.127	19928.76
588.487	19978.25
588.846	20149.09
589.206	20052.82
589.565	20130.33
589.925	20108.64
590.284	20110.45
590.643	20078.58
591.003	20123.33
591.362	20185.02
591.721	20211.91
592.08	20256.43
592.44	20320.16
592.799	20325.36
593.158	20266.83
593.517	20351.8
593.876	20342.53
594.235	20306.82
594.593	20422.98
594.952	20322.87
595.311	20272.02
595.67	20391.12
596.029	20662.07
596.387	20595.63
596.746	20639.92
597.104	20492.81
597.463	20530.77
597.822	20681.28
598.18	20629.75
598.538	20583.2
598.897	20822.29
599.255	20599.7
599.613	20940.93
599.972	20810.99
600.33	20754.27
600.688	20737.55
601.046	20770.54
601.404	21004.66
601.762	20904.32
602.12	20908.62
602.478	21010.76
602.836	21102.51
603.194	21005.11
603.552	21035.17
603.91	20931.22
604.268	21042.62
604.625	21067.26
604.983	21133.7
605.341	21148.16
605.698	21094.83
606.056	21267.25
606.413	21197.65
606.771	21196.74
607.128	21281.04
607.485	21161.72
607.843	21199.46
608.2	21410.52
608.557	21467.02
608.914	21394.03
609.272	21391.99
609.629	21611.2
609.986	21580.69
610.343	21483.97
610.7	21583.85
611.057	21663.85
611.414	21680.35
611.771	21619.33
612.127	21722.38
612.484	21793.79
612.841	21855.71
613.198	21752.44
613.554	21782.49
613.911	21909.27
614.267	21904.75
614.624	21921.47
614.98	21998.76
615.337	22127.12
615.693	21914.01
616.05	21961.24
616.406	22033.56
616.762	21921.47
617.118	22118.3
617.475	22042.37
617.831	22196.04
618.187	22212.54
618.543	22206.21
618.899	22365.08
619.255	22312.87
619.611	22150.17
619.967	22328.69
620.323	22305.87
620.678	22206.89
621.034	22175.02
621.39	22272.87
621.746	22157.4
622.101	22489.37
622.457	22216.61
622.812	22280.56
623.168	22371.86
623.523	22449.82
623.879	22376.37
624.234	22384.96
624.589	22464.28
624.945	22428.12
625.3	22397.39
625.655	22418.63
626.01	22373.44
626.365	22406.43
626.72	22421.57
627.075	22394.91
627.43	22368.69
627.785	22370.27
628.14	22344.06
628.495	22438.97
628.85	22351.97
629.205	22229.03
629.559	22381.57
629.914	22321.01
630.269	22289.82
630.623	22255.47
630.978	22198.3
631.332	22323.49
631.687	22252.99
632.041	22266.1
632.396	22344.74
632.75	22123.95
633.104	22102.26
633.459	22116.04
633.813	22069.49
634.167	22213.67
634.521	22114.91
634.875	22121.24
635.229	22084.18
635.583	21851.42
635.937	21959.89
636.291	21954.01
636.645	21882.15
636.999	21958.98
637.352	21901.81
637.706	21759.67
638.06	21933.22
638.413	21857.97
638.767	21785.88
639.121	21828.37
639.474	21659.33
639.828	21680.35
640.181	21673.57
640.534	21735.71
640.888	21661.59
641.241	21533.91
641.594	21664.3
641.947	21681.48
642.301	21577.53
642.654	21558.54
643.007	21718.54
643.36	21520.35
643.713	21546.11
644.066	21650.07
644.419	21440.35
644.771	21319.23
645.124	21110.19
645.477	21005.11
645.83	20969.86
646.182	20822.97
646.535	20780.03
646.888	20694.16
647.24	20633.37
647.593	20823.65
647.945	20752.69
648.298	20650.77
648.65	20605.35
649.002	20582.07
649.355	20667.49
649.707	20688.28
650.059	20749.53
650.411	21015.05
650.763	21094.6
651.115	21207.37
651.467	21109.29
651.819	21173.02
652.171	21070.65
652.523	21005.56
652.875	21002.63
653.227	20874.49
653.578	21062.06
653.93	20966.02
654.282	20809.86
654.633	20821.61
654.985	20856.64
655.337	20881.5
655.688	20888.28
656.039	20926.24
656.391	20869.97
656.742	20797.43
657.094	20849.64
657.445	20901.84
657.796	20765.8
658.147	20907.49
658.498	20862.74
658.849	20859.58
659.2	20822.29
659.551	20798.34
659.902	20789.3
660.253	20786.59
660.604	20850.99
660.955	20761.95
661.306	20761.05
661.656	20754.72
662.007	20881.72
662.358	20749.3
662.708	20752.46
663.059	20744.1
663.409	20579.13
663.76	20728.06
664.11	20628.4
664.461	20679.7
664.811	20708.4
665.161	20790.65
665.511	20714.05
665.862	20845.57
666.212	20721.96
666.562	20693.03
666.912	20698.9
667.262	20768.51
667.612	20674.5
667.962	20741.62
668.312	20712.46
668.662	20816.87
669.011	20778.9
669.361	20660.26
669.711	20754.27
670.06	20646.25
670.41	20516.99
670.76	20586.37
671.109	20671.79
671.459	20614.61
671.808	20537.33
672.157	20656.87
672.507	20527.16
672.856	20483.54
673.205	20508.4
673.554	20630.21
673.904	20521.51
674.253	20621.17
674.602	20535.29
674.951	20214.17
675.3	20186.15
675.649	20435.86
675.998	20465.92
676.346	20513.37
676.695	20500.49
677.044	20308.41
677.393	20427.73
677.741	20398.35
678.09	20385.92
678.438	20350.44
678.787	20352.25
679.135	20224.12
679.484	20212.14
679.832	20316.77
680.181	20203.1
680.529	20255.3
680.877	20241.97
681.225	20066.38
681.573	20285.13
681.922	20119.03
682.27	20116.55
682.618	20128.3
682.966	20067.51
683.314	20018.47
683.661	20019.37
684.009	19944.8
684.357	20021.18
684.705	19838.81
685.053	19951.35
685.4	19826.84
685.748	19752.49
686.095	19718.37
686.443	19546.17
686.79	19593.17
687.138	19642.44
687.485	19639.5
687.832	19549.1
688.18	19631.36
688.527	19581.65
688.874	19490.8
689.221	19437.24
689.568	19420.52
689.915	19407.41
690.262	19399.28
690.609	19274.08
690.956	19298.94
691.303	19153.41
691.65	18992.74
691.997	19058.95
692.344	19098.5
692.69	18948.44
693.037	18982.11
693.383	18751.61
693.73	18971.49
694.077	18855.11
694.423	18774.89
694.769	18651.28
695.116	18664.16
695.462	18700.77
695.808	18676.81
696.155	18624.16
696.501	18544.61
696.847	18406.08
697.193	18350.94
697.539	18533.99
697.885	18307.33
698.231	18197.95
698.577	18212.87
698.923	18169.48
699.269	18043.16
699.614	18018.52
699.96	17842.03
700.306	18014.46
700.651	18043.83
700.997	17894.01
701.342	17756.84
701.688	17789.83
702.033	17781.02
702.379	17759.32
702.724	17701.02
703.069	17709.83
703.415	17522.94
703.76	17530.17
704.105	17522.49
704.45	17474.36
704.795	17412.21
705.14	17264.87
705.485	17336.73
705.83	17259
706.175	17348.03
706.52	17218.54
706.865	17167.25
707.209	17106.46
707.554	17168.6
707.899	17076.4
708.243	16983.52
708.588	17030.07
708.932	16916.63
709.277	16901.72
709.621	16889.51
709.966	16779.01
710.31	16785.34
710.654	16651.1
710.998	16718.22
711.342	16789.18
711.687	16574.27
712.031	16582.4
712.375	16590.76
712.719	16532.91
713.063	16535.4
713.407	16574.49
713.75	16560.93
714.094	16490.65
714.438	16387.83
714.782	16415.63
715.125	16340.6
715.469	16331.79
715.812	16221.51
716.156	16176.54
716.499	16215.86
716.843	16165.92
717.186	16056.99
717.53	16144.45
717.873	16198.23
718.216	16126.37
718.559	16131.34
718.902	16006.6
719.246	16009.99
719.589	15929.31
719.932	15895.64
720.275	15938.35
720.617	15909.2
720.96	15789.88
721.303	15916.88
721.646	15919.6
721.989	15788.53
722.331	15857
722.674	15780.84
723.016	15824.68
723.359	15701.07
723.701	15801.18
724.044	15725.93
724.386	15638.92
724.729	15710.11
725.071	15543.11
725.413	15620.17
725.755	15537.01
726.097	15458.59
726.439	15458.59
726.782	15478.7
727.124	15465.37
727.465	15461.08
727.807	15414.07
728.149	15390.12
728.491	15356.9
728.833	15432.15
729.175	15349.67
729.516	15318.03
729.858	15434.41
730.199	15371.36
730.541	15327.97
730.882	15212.72
731.224	15247.97
731.565	15210.69
731.906	15254.98
732.248	15257.69
732.589	15146.96
732.93	15098.6
733.271	15160.29
733.612	15172.5
733.953	15163.23
734.294	15103.35
734.635	15042.33
734.976	15165.94
735.317	15052.73
735.658	15108.54
735.999	15067.87
736.339	14989.45
736.68	15050.69
737.021	14993.52
737.361	15005.72
737.702	14927.98
738.042	14998.94
738.383	14941.77
738.723	14873.75
739.063	14975.67
739.404	14921.88
739.744	14951.71
740.084	14849.79
740.424	14852.05
740.764	14862.67
741.104	14854.54
741.444	14746.29
741.784	14774.77
742.124	14749
742.464	14713.3
742.804	14749.46
743.143	14762.79
743.483	14713.75
743.823	14641.89
744.162	14686.63
744.502	14734.77
744.841	14655.45
745.181	14652.96
745.52	14596.24
745.86	14621.78
746.199	14581.78
746.538	14532.74
746.877	14606.18
747.216	14617.26
747.556	14500.2
747.895	14478.96
748.234	14509.92
748.573	14412.97
748.911	14463.81
749.25	14371.39
749.589	14390.37
749.928	14412.29
750.267	14422.69
750.605	14447.77
750.944	14323.25
751.283	14273.54
751.621	14294.55
751.96	14218.17
752.298	14293.88
752.636	14310.82
752.975	14234.44
753.313	14148.12
753.651	14217.27
753.989	14171.17
754.327	14101.11
754.666	14069.47
755.004	14092.75
755.342	14037.39
755.679	14078.51
756.017	13939.99
