Data from tablewood_brown_FLMS001491_007.txt Node
Date: Tue Feb 07 11:09:56 GMT 2017
User: dcchb
Spectrometer: FLMS00149
Trigger mode: 0
Integration Time (sec): 2.000000E-2
Scans to average: 10
Electric dark correction enabled: true
Nonlinearity correction enabled: false
Boxcar width: 0
XAxis mode: Wavelengths
Number of Pixels in Spectrum: 2048
>>>>>Begin Spectral Data<<<<<
341.393	-22.57
341.776	-22.57
342.16	-22.57
342.543	-69.8
342.927	-41.1
343.31	-75.22
343.693	-83.81
344.077	-50.59
344.46	-60.31
344.843	-45.39
345.226	-56.69
345.61	-30.48
345.993	-17.37
346.376	-0.2
346.759	11.33
347.142	20.37
347.525	40.48
347.908	60.82
348.291	77.31
348.674	100.59
349.057	109.18
349.44	120.48
349.823	132
350.206	167.48
350.588	208.84
350.971	210.42
351.354	237.31
351.737	242.73
352.119	250.87
352.502	253.58
352.884	283.41
353.267	301.94
353.65	305.78
354.032	308.72
354.414	310.08
354.797	325.44
355.179	323.86
355.562	322.51
355.944	338.55
356.326	341.94
356.709	322.73
357.091	346.23
357.473	340.36
357.855	352.79
358.238	338.78
358.62	329.06
359.002	340.58
359.384	352.34
359.766	355.5
360.148	346.69
360.53	357.76
360.912	343.07
361.294	362.5
361.676	325.9
362.057	337.87
362.439	341.71
362.821	362.96
363.203	333.35
363.584	325.67
363.966	344.2
364.348	338.1
364.729	337.65
365.111	325.67
365.493	347.14
365.874	332.45
366.256	327.03
366.637	333.35
367.019	331.77
367.4	340.36
367.781	343.07
368.163	331.54
368.544	320.7
368.925	321.38
369.306	350.98
369.688	330.87
370.069	320.25
370.45	316.63
370.831	325.44
371.212	332.22
371.593	329.51
371.974	336.97
372.355	340.13
372.736	355.05
373.117	335.61
373.498	328.16
373.879	333.58
374.26	355.95
374.641	332.67
375.021	341.04
375.402	354.14
375.783	355.95
376.163	376.29
376.544	363.18
376.925	336.97
377.305	350.75
377.686	352.11
378.066	360.02
378.447	348.72
378.827	368.38
379.208	358.44
379.588	351.88
379.968	364.99
380.349	380.36
380.729	364.09
381.109	380.81
381.489	360.24
381.87	374.93
382.25	389.4
382.63	405.44
383.01	367.02
383.39	374.48
383.77	376.52
384.15	405.67
384.53	397.76
384.91	409.06
385.29	381.04
385.67	410.64
386.049	396.18
386.429	397.31
386.809	401.15
387.189	411.32
387.568	409.73
387.948	409.96
388.328	419.23
388.707	397.98
389.087	406.35
389.466	421.26
389.846	419.23
390.225	414.03
390.605	437.98
390.984	429.4
391.363	443.18
391.743	447.47
392.122	458.32
392.501	450.41
392.881	437.3
393.26	465.55
393.639	459
394.018	451.77
394.397	475.27
394.776	462.39
395.155	464.65
395.534	488.38
395.913	478.43
396.292	470.3
396.671	498.77
397.05	466.46
397.429	500.81
397.808	508.26
398.186	504.42
398.565	495.83
398.944	489.96
399.323	483.86
399.701	521.82
400.08	491.77
400.458	508.49
400.837	527.02
401.215	508.26
401.594	523.86
401.972	531.54
402.351	536.51
402.729	537.64
403.107	534.48
403.486	531.31
403.864	544.19
404.242	536.29
404.62	562.5
404.999	560.47
405.377	573.35
405.755	556.17
406.133	599.79
406.511	568.6
406.889	586.68
407.267	594.59
407.645	609.5
408.023	596.4
408.401	599.33
408.779	595.04
409.156	616.28
409.534	622.16
409.912	601.59
410.29	648.6
410.667	659.22
411.045	659.67
411.422	674.13
411.8	657.41
412.178	668.26
412.555	670.29
412.933	670.29
413.31	683.4
413.687	677.98
414.065	677.98
414.442	694.25
414.819	682.27
415.197	712.1
415.574	698.54
415.951	713.91
416.328	719.78
416.705	729.27
417.082	729.5
417.46	738.99
417.837	742.83
418.214	768.6
418.591	731.99
418.967	759.78
419.344	783.06
419.721	789.84
420.098	772.89
420.475	805.88
420.852	803.4
421.228	777.18
421.605	796.62
421.982	813.11
422.358	824.87
422.735	813.11
423.111	816.05
423.488	841.36
423.864	853.11
424.241	868.25
424.617	843.85
424.994	865.09
425.37	856.73
425.746	894.24
426.123	879.55
426.499	881.14
426.875	894.69
427.251	895.15
427.627	915.26
428.003	942.83
428.379	935.14
428.756	940.34
429.132	971.75
429.507	963.39
429.883	962.04
430.259	979.21
430.635	989.15
431.011	1004.07
431.387	1018.53
431.763	1044.75
432.138	1040.68
432.514	1059.21
432.89	1055.59
433.265	1059.66
433.641	1090.85
434.016	1080.9
434.392	1108.7
434.767	1096.04
435.143	1122.71
435.518	1126.55
435.894	1151.41
436.269	1159.09
436.644	1193.44
437.02	1177.17
437.395	1167
437.77	1217.85
438.145	1236.61
438.52	1230.05
438.895	1240.67
439.271	1241.58
439.646	1280.9
440.021	1260.11
440.395	1279.99
440.77	1244.29
441.145	1291.29
441.52	1294.91
441.895	1291.29
442.27	1296.27
442.645	1303.27
443.019	1343.04
443.394	1338.52
443.769	1352.08
444.143	1369.71
444.518	1385.98
444.892	1374
445.267	1391.18
445.641	1400.9
446.016	1399.31
446.39	1411.29
446.764	1435.24
447.139	1414.45
447.513	1426.88
447.887	1429.37
448.262	1449.03
448.636	1473.89
449.01	1475.7
449.384	1487.45
449.758	1461.23
450.132	1497.39
450.506	1492.87
450.88	1520.67
451.254	1564.05
451.628	1550.04
452.002	1548.46
452.376	1558.41
452.75	1586.43
453.123	1613.77
453.497	1629.59
453.871	1609.93
454.244	1643.83
454.618	1660.78
454.992	1706.2
455.365	1691.06
455.739	1753.43
456.112	1721.11
456.486	1732.19
456.859	1810.6
457.232	1801.79
457.606	1816.48
457.979	1836.82
458.352	1858.51
458.725	1872.52
459.099	1917.94
459.472	1932.41
459.845	1940.99
460.218	1944.16
460.591	1975.8
460.964	1962.24
461.337	2019.18
461.71	2081.56
462.083	2055.57
462.456	2081.56
462.829	2075.45
463.201	2127.88
463.574	2116.81
463.947	2186.64
464.32	2218.28
464.692	2275.22
465.065	2265.51
465.438	2269.57
465.81	2324.71
466.183	2361.1
466.555	2405.61
466.928	2366.52
467.3	2403.81
467.672	2431.83
468.045	2519.06
468.417	2517.02
468.789	2514.31
469.161	2592.5
469.534	2635.89
469.906	2675.66
470.278	2705.72
470.65	2726.74
471.022	2784.81
471.394	2844.25
471.766	2853.74
472.138	2931.93
472.51	2961.31
472.882	3007.18
473.253	3036.11
473.625	3147.29
473.997	3149.55
474.369	3201.53
474.74	3275.42
475.112	3342.09
475.484	3322.2
475.855	3493.27
476.227	3498.92
476.598	3555.87
476.97	3587.96
477.341	3729.42
477.713	3755.86
478.084	3818.68
478.455	3921.06
478.827	3968.29
479.198	4087.38
479.569	4108.62
479.94	4230.88
480.311	4314.72
480.682	4412.12
481.053	4490.53
481.424	4524.43
481.795	4622.05
482.166	4676.52
482.537	4783.63
482.908	4876.96
483.279	4954.02
483.65	4998.77
484.021	5151.98
484.391	5176.84
484.762	5268.59
485.133	5310.85
485.503	5394.69
485.874	5512.88
486.244	5555.36
486.615	5723.27
486.985	5721.01
487.356	5827.9
487.726	5922.58
488.097	6045.52
488.467	6019.31
488.837	6155.12
489.207	6295.68
489.578	6338.84
489.948	6413.64
490.318	6490.03
490.688	6504.94
491.058	6663.81
491.428	6724.37
491.798	6799.4
492.168	6960.98
492.538	6944.48
492.908	7059.73
493.278	7129.11
493.648	7171.37
494.017	7228.99
494.387	7297.92
494.757	7431.25
495.126	7478.02
495.496	7495.88
495.866	7564.58
496.235	7676.21
496.605	7771.8
496.974	7821.97
497.344	7850.9
497.713	7937.45
498.082	7997.56
498.452	8073.04
498.821	8154.16
499.19	8153.71
499.559	8224.22
499.928	8235.97
500.298	8342.63
500.667	8435.96
501.036	8410.65
501.405	8523.19
501.774	8540.82
502.143	8681.61
502.512	8676.18
502.88	8780.81
503.249	8804.32
503.618	8835.5
503.987	8830.53
504.356	8969.51
504.724	9011.54
505.093	9103.29
505.462	9142.16
505.83	9206.79
506.199	9331.99
506.567	9385.77
506.936	9432.77
507.304	9555.26
507.672	9528.14
508.041	9621.92
508.409	9729.49
508.777	9730.17
509.145	9857.62
509.514	9827.79
509.882	9964.51
510.25	10055.13
510.618	10089.93
510.986	10171.06
511.354	10259.42
511.722	10277.5
512.09	10477.49
512.458	10446.53
512.826	10578.06
513.193	10614.21
513.561	10723.36
513.929	10764.04
514.297	10891.95
514.664	11034.31
515.032	11077.25
515.4	11150.92
515.767	11219.17
516.135	11295.32
516.502	11286.74
516.869	11458.71
517.237	11563.34
517.604	11566.05
517.972	11684.47
518.339	11822.54
518.706	11835.65
519.073	11932.37
519.44	11966.72
519.808	12115.87
520.175	12138.01
520.542	12361.74
520.909	12393.37
521.276	12507.5
521.643	12650.77
522.009	12733.93
522.376	12769.64
522.743	12865.68
523.11	13038.78
523.477	13182.96
523.843	13203.75
524.21	13367.59
524.577	13394.25
524.943	13579.33
525.31	13651.65
525.676	13767.35
526.043	13888.25
526.409	13885.09
526.776	14144.97
527.142	14200.56
527.508	14259.54
527.874	14418.18
528.241	14504.51
528.607	14550.61
528.973	14738.17
529.339	14750.6
529.705	14799.41
530.071	14881.67
530.437	15005.74
530.803	15139.29
531.169	15274.43
531.535	15178.61
531.901	15280.98
532.267	15420.87
532.632	15458.83
532.998	15551.71
533.364	15686.17
533.73	15784.7
534.095	15876.45
534.461	15938.82
534.826	15970
535.192	16131.13
535.557	16195.08
535.923	16127.74
536.288	16220.39
536.653	16321.41
537.019	16352.14
537.384	16507.39
537.749	16545.36
538.114	16515.07
538.479	16563.43
538.845	16765.24
539.21	16711.91
539.575	16863.09
539.94	16885.23
540.305	16965.01
540.67	16989.41
541.034	17035.96
541.399	17117.77
541.764	17172.01
542.129	17299.23
542.494	17301.27
542.858	17440.47
543.223	17437.99
543.587	17569.74
543.952	17566.57
544.316	17701.48
544.681	17625.1
545.045	17704.2
545.41	17868.94
545.774	17897.18
546.138	17922.49
546.503	17981.02
546.867	18084.3
547.231	18221.7
547.595	18177.18
547.959	18312.54
548.324	18375.59
548.688	18371.75
549.052	18500.56
549.416	18563.16
549.779	18688.35
550.143	18686.77
550.507	18888.57
550.871	18922.02
551.235	18936.48
551.599	19187.77
551.962	19207.21
552.326	19231.16
552.689	19434.77
553.053	19382.8
553.417	19572.17
553.78	19771.71
554.143	19675.44
554.507	19825.04
554.87	20041.54
555.234	20145.94
555.597	20124.7
555.96	20146.84
556.323	20482.88
556.686	20446.72
557.05	20832.02
557.413	20761.52
557.776	20873.38
558.139	20978.46
558.502	21246.02
558.865	21252.8
559.228	21357.43
559.59	21547.48
559.953	21681.27
560.316	21746.35
560.679	21951.77
561.041	22157.41
561.404	22389.27
561.767	22543.84
562.129	22349.5
562.492	22801.46
562.854	22817.06
563.217	22831.97
563.579	23012.3
563.941	23238.29
564.304	23372.3
564.666	23636.24
565.028	23773.41
565.39	23872.62
565.753	24000.3
566.115	24033.75
566.477	24328.43
566.839	24414.53
567.201	24722.32
567.563	24929.09
567.925	25109.88
568.287	25059.03
568.648	25263.32
569.01	25538.57
569.372	25650.65
569.734	25790.54
570.095	25965
570.457	26316.17
570.819	26312.33
571.18	26555.94
571.542	26739.89
571.903	26836.38
572.265	26962.26
572.626	27141.69
572.987	27325.41
573.349	27354.79
573.71	27664.16
574.071	27839.3
574.432	28011.27
574.794	28203.35
575.155	28291.94
575.516	28424.14
575.877	28534.65
576.238	28709.78
576.599	28842.43
576.96	29035.87
577.32	29061.86
577.681	29412.36
578.042	29507.27
578.403	29575.97
578.763	29717.89
579.124	29857.55
579.485	29966.47
579.845	30192.45
580.206	30209.86
580.566	30281.27
580.927	30345.9
581.287	30442.84
581.648	30494.59
582.008	30748.6
582.368	30731.2
582.728	30890.06
583.089	30930.51
583.449	30882.15
583.809	30971.87
584.169	31166.44
584.529	31114.46
584.889	31535.92
585.249	31276.95
585.609	31307.23
585.969	31587.45
586.329	31424.96
586.688	31603.72
587.048	31534.11
587.408	31580.21
587.768	31567.56
588.127	31731.4
588.487	31679.87
588.846	31831.73
589.206	31862.02
589.565	31845.07
589.925	31982.46
590.284	31848.68
590.643	32090.94
591.003	32078.96
591.362	32204.38
591.721	32176.81
592.08	32244.15
592.44	32400.53
592.799	32348.56
593.158	32272.85
593.517	32407.99
593.876	32399.63
594.235	32281.89
594.593	32354.88
594.952	32347.65
595.311	32424.26
595.67	32427.2
596.029	32707.19
596.387	32663.35
596.746	32798.04
597.104	32651.37
597.463	32553.52
597.822	32753.29
598.18	32548.55
598.538	32649.11
598.897	32804.82
599.255	32581.77
599.613	33138.14
599.972	32867.19
600.33	33012.04
600.688	32817.7
601.046	32929.11
601.404	33100.85
601.762	33069.89
602.12	33220.4
602.478	33109.44
602.836	33232.6
603.194	33044.13
603.552	33078.48
603.91	33047.07
604.268	33223.56
604.625	33073.28
604.983	33330.45
605.341	33148.08
605.698	33321.19
606.056	33279.38
606.413	33298.36
606.771	33394.4
607.128	33537.9
607.485	33414.74
607.843	33436.44
608.2	33557.56
608.557	33636.66
608.914	33449.09
609.272	33723.21
609.629	33773.15
609.986	33810.44
610.343	33721.18
610.7	33749.2
611.057	33814.73
611.414	33880.04
611.771	33866.03
612.127	34031.22
612.484	33950.55
612.841	34073.26
613.198	33901.06
613.554	34067.16
613.911	34261.27
614.267	34144.89
614.624	34159.58
614.98	34169.98
615.337	34426.02
615.693	34357.99
616.05	34175.17
616.406	34503.53
616.762	34295.17
617.118	34351.89
617.475	34507.6
617.831	34565.22
618.187	34620.36
618.543	34539.23
618.899	34922.73
619.255	34654.26
619.611	34635.28
619.967	34748.49
620.323	34843.41
620.678	34562.06
621.034	34772.45
621.39	34662.62
621.746	34762.5
622.101	35128.82
622.457	34818.32
622.812	34787.81
623.168	34876.4
623.523	34920.24
623.879	35016.28
624.234	34751.88
624.589	34855.61
624.945	34950.07
625.3	34934.25
625.655	34849.06
626.01	35017.86
626.365	34974.02
626.72	34973.57
627.075	34811.77
627.43	34769.51
627.785	34748.72
628.14	34802.95
628.495	35026
628.85	34691.09
629.205	34714.6
629.559	34936.28
629.914	34722.05
630.269	34706.23
630.623	34609.29
630.978	34503.3
631.332	34814.71
631.687	34821.49
632.041	34681.38
632.396	34714.14
632.75	34556.63
633.104	34625.78
633.459	34641.6
633.813	34406.81
634.167	34441.16
634.521	34410.65
634.875	34461.04
635.229	34319.35
635.583	34229.86
635.937	34213.59
636.291	34209.07
636.645	34140.83
636.999	34229.41
637.352	34263.31
637.706	34011.56
638.06	34237.55
638.413	34048.62
638.767	34075.97
639.121	34116.19
639.474	33809.08
639.828	33922.75
640.181	33926.14
640.534	34053.82
640.888	33816.09
641.241	33639.6
641.594	33748.52
641.947	33732.25
642.301	33716.2
642.654	33736.54
643.007	33747.16
643.36	33683.66
643.713	33562.31
644.066	33613.16
644.419	33553.95
644.771	33395.31
645.124	33038.71
645.477	32959.61
645.83	32704.71
646.182	32581.77
646.535	32567.99
646.888	32615.89
647.24	32452.96
647.593	32624.26
647.945	32627.19
648.298	32520.08
648.65	32417.25
649.002	32327.77
649.355	32466.29
649.707	32322.57
650.059	32531.83
650.411	32793.97
650.763	32964.59
651.115	33216.78
651.467	33013.62
651.819	33215.2
652.171	32983.12
652.523	32998.26
652.875	33137.69
653.227	33016.11
653.578	33043.23
653.93	33132.26
654.282	33043.91
654.633	32914.64
654.985	33090.23
655.337	33042.55
655.688	33180.17
656.039	33155.09
656.391	32833.06
656.742	32958.03
657.094	32804.14
657.445	33075.09
657.796	32963.46
658.147	32828.54
658.498	32898.37
658.849	32909.67
659.2	32812.72
659.551	32792.16
659.902	32945.15
660.253	32774.76
660.604	32874.87
660.955	32675.33
661.306	32836.45
661.656	32752.16
662.007	32860.86
662.358	32773.18
662.708	32718.26
663.059	32816.34
663.409	32711.71
663.76	32935.43
664.11	32831.93
664.461	32991.93
664.811	32878.49
665.161	32864.47
665.511	32872.38
665.862	32842.1
666.212	32885.04
666.562	32841.65
666.912	32786.96
667.262	32836.23
667.612	32742.44
667.962	32774.31
668.312	32711.03
668.662	32814.53
669.011	32722.56
669.361	32649.79
669.711	32681.43
670.06	32673.07
670.41	32459.29
670.76	32481.21
671.109	32551.49
671.459	32597.36
671.808	32666.97
672.157	32668.1
672.507	32537.03
672.856	32526.63
673.205	32512.39
673.554	32578.83
673.904	32345.62
674.253	32566.4
674.602	32443.47
674.951	31973.42
675.3	31871.96
675.649	32256.36
675.998	32238.28
676.346	32364.15
676.695	32320.31
677.044	32041.45
677.393	32227.66
677.741	32217.26
678.09	32103.36
678.438	31969.36
678.787	32010.03
679.135	32050.48
679.484	31803.94
679.832	32016.36
680.181	31746.31
680.529	31886.87
680.877	31835.8
681.225	31602.59
681.573	31901.34
681.922	31637.39
682.27	31539.76
682.618	31575.92
682.966	31533.44
683.314	31616.37
683.661	31438.75
684.009	31245.31
684.357	31175.93
684.705	31133.9
685.053	31206.89
685.4	31083.05
685.748	30922.15
686.095	30965.32
686.443	30930.51
686.79	30774.81
687.138	30861.14
687.485	30756.73
687.832	30631.54
688.18	30601.48
688.527	30394.48
688.874	30480.58
689.221	30451.2
689.568	30185.45
689.915	30147.48
690.262	30188.16
690.609	30032.68
690.956	30059.58
691.303	29904.1
691.65	29848.96
691.997	29737.78
692.344	29627.5
692.69	29559.03
693.037	29684.9
693.383	29227.06
693.73	29522.19
694.077	29233.84
694.423	29394.51
694.769	29184.12
695.116	29151.58
695.462	29050.11
695.808	28831.59
696.155	28860.06
696.501	28666.39
696.847	28526.06
697.193	28430.24
697.539	28532.16
697.885	28277.25
698.231	28272.73
698.577	28220.08
698.923	28162.68
699.269	27963.81
699.614	27860.54
699.96	27804.49
700.306	27751.84
700.651	27653.99
700.997	27554.11
701.342	27567.44
701.688	27436.14
702.033	27418.74
702.379	27366.54
702.724	27264.85
703.069	27207.45
703.415	26979.66
703.76	26872.54
704.105	26928.13
704.45	26981.47
704.795	26642.04
705.14	26590.97
705.485	26612.44
705.83	26477.3
706.175	26407.24
706.52	26348.49
706.865	26315.49
707.209	26219.68
707.554	26004.99
707.899	26128.15
708.243	25995.73
708.588	25864.21
708.932	25724.55
709.277	25746.24
709.621	25768.62
709.966	25563.42
710.31	25663.53
710.654	25385.8
710.998	25379.25
711.342	25406.37
711.687	25338.57
712.031	25243.66
712.375	25208.4
712.719	25292.47
713.063	25159.82
713.407	25255.18
713.75	25140.38
714.094	25067.39
714.438	24925.02
714.782	24947.17
715.125	24793.5
715.469	24922.54
715.812	24833.95
716.156	24658.59
716.499	24713.95
716.843	24672.83
717.186	24461.53
717.53	24659.04
717.873	24575.65
718.216	24501.08
718.559	24391.48
718.902	24319.39
719.246	24348.09
719.589	24313.06
719.932	24158.49
720.275	24186.51
720.617	24226.96
720.96	24144.7
721.303	24193.97
721.646	24181.77
721.989	24059.73
722.331	24038.04
722.674	24036.01
723.016	24068.32
723.359	24038.94
723.701	24058.83
724.044	23910.59
724.386	23794.43
724.729	23918.95
725.071	23943.58
725.413	23920.3
725.755	23886.18
726.097	23733.19
726.439	23672.17
726.782	23733.42
727.124	23969.34
727.465	23710.59
727.807	23767.31
728.149	23682.34
728.491	23713.53
728.833	23725.28
729.175	23616.58
729.516	23606.19
729.858	23626.53
730.199	23627.66
730.541	23575.45
730.882	23486.87
731.224	23601.89
731.565	23491.39
731.906	23544.27
732.248	23456.81
732.589	23442.58
732.93	23413.42
733.271	23382.24
733.612	23405.29
733.953	23467.89
734.294	23351.73
734.635	23425.63
734.976	23404.61
735.317	23352.18
735.658	23373.88
735.999	23450.03
736.339	23442.12
736.68	23384.05
737.021	23350.6
737.361	23252.52
737.702	23404.38
738.042	23345.4
738.383	23391.05
738.723	23494.1
739.063	23314.22
739.404	23418.17
739.744	23383.37
740.084	23330.04
740.424	23336.59
740.764	23266.76
741.104	23306.31
741.444	23199.19
741.784	23289.13
742.124	23440.32
742.464	23356.25
742.804	23324.16
743.143	23132.75
743.483	23311.73
743.823	23193.54
744.162	23234.45
744.502	23402.8
744.841	23105.64
745.181	23345.86
745.52	23178.85
745.86	23238.06
746.199	23159.42
746.538	23151.96
746.877	23287.1
747.216	23295.69
747.556	23172.75
747.895	23205.52
748.234	23129.82
748.573	23171.62
748.911	23157.39
749.25	23170.27
749.589	23149.93
749.928	23181.11
750.267	23234.45
750.605	23130.04
750.944	23092.98
751.283	23081.91
751.621	23200.32
751.96	23045.98
752.298	23050.95
752.636	23121.45
752.975	22973.66
753.313	22985.64
753.651	23003.04
753.989	22943.38
754.327	22914
754.666	22861.12
755.004	22920.56
755.342	22880.56
