Data from tablewood_brown_FLMS001491_026.txt Node
Date: Tue Feb 07 11:10:14 GMT 2017
User: dcchb
Spectrometer: FLMS00149
Trigger mode: 0
Integration Time (sec): 2.000000E-2
Scans to average: 10
Electric dark correction enabled: true
Nonlinearity correction enabled: false
Boxcar width: 0
XAxis mode: Wavelengths
Number of Pixels in Spectrum: 2048
>>>>>Begin Spectral Data<<<<<
341.393	-6.3
341.776	-6.3
342.16	-6.3
342.543	-50.59
342.927	-69.12
343.31	-60.31
343.693	-74.09
344.077	-68.44
344.46	-63.92
344.843	-62.34
345.226	-51.04
345.61	-20.99
345.993	-19.41
346.376	-4.27
346.759	6.81
347.142	25.56
347.525	34.83
347.908	47.26
348.291	78.67
348.674	107.14
349.057	124.54
349.44	123.19
349.823	130.42
350.206	158.67
350.588	196.63
350.971	196.86
351.354	216.97
351.737	235.05
352.119	247.03
352.502	256.74
352.884	267.37
353.267	284.99
353.65	276.63
354.032	285.9
354.414	312.11
354.797	320.47
355.179	329.06
355.562	324.54
355.944	328.16
356.326	343.97
356.709	331.32
357.091	319.79
357.473	333.8
357.855	343.07
358.238	344.88
358.62	336.29
359.002	333.58
359.384	332.9
359.766	339.23
360.148	355.05
360.53	347.82
360.912	334.26
361.294	322.73
361.676	320.25
362.057	325.67
362.439	331.09
362.821	335.61
363.203	342.84
363.584	321.38
363.966	308.72
364.348	325.22
364.729	327.03
365.111	321.6
365.493	333.58
365.874	329.51
366.256	298.1
366.637	310.53
367.019	321.83
367.4	323.41
367.781	303.3
368.163	322.73
368.544	329.06
368.925	316.18
369.306	336.97
369.688	338.1
370.069	311.21
370.45	302.17
370.831	315.05
371.212	329.74
371.593	337.42
371.974	327.7
372.355	307.36
372.736	312.11
373.117	338.55
373.498	320.47
373.879	310.53
374.26	316.4
374.641	324.31
375.021	317.53
375.402	316.63
375.783	336.97
376.163	339.68
376.544	339.68
376.925	347.14
377.305	331.32
377.686	344.88
378.066	342.39
378.447	351.43
378.827	340.13
379.208	321.6
379.588	349.62
379.968	357.31
380.349	346.46
380.729	359.79
381.109	339.23
381.489	355.05
381.87	360.92
382.25	354.37
382.63	351.43
383.01	353.47
383.39	375.16
383.77	362.05
384.15	374.93
384.53	362.28
384.91	385.33
385.29	382.39
385.67	395.5
386.049	377.87
386.429	362.05
386.809	376.06
387.189	367.48
387.568	386.68
387.948	379.45
388.328	372.22
388.707	411.09
389.087	395.5
389.466	398.44
389.846	377.65
390.225	406.35
390.605	369.28
390.984	389.4
391.363	414.03
391.743	409.28
392.122	413.12
392.501	424.88
392.881	435.27
393.26	395.5
393.639	421.71
394.018	423.07
394.397	435.72
394.776	404.76
395.155	415.16
395.534	428.27
395.913	433.46
396.292	433.92
396.671	445.21
397.05	455.84
397.429	436.17
397.808	429.62
398.186	444.54
398.565	485.21
398.944	474.14
399.323	469.85
399.701	461.71
400.08	476.85
400.458	479.11
400.837	471.2
401.215	477.3
401.594	475.27
401.972	493.35
402.351	490.18
402.729	499.68
403.107	511.65
403.486	521.14
403.864	517.98
404.242	495.83
404.62	528.38
404.999	501.71
405.377	524.76
405.755	522.27
406.133	519.79
406.511	530.86
406.889	543.29
407.267	541.93
407.645	522.73
408.023	543.52
408.401	553.91
408.779	570.86
409.156	558.88
409.534	557.08
409.912	548.71
410.29	568.37
410.667	589.84
411.045	603.18
411.422	592.56
411.8	576.28
412.178	593.01
412.555	602.27
412.933	594.59
413.31	628.94
413.687	614.93
414.065	613.8
414.442	619
414.819	628.71
415.197	656.73
415.574	636.62
415.951	645.66
416.328	645.89
416.705	654.02
417.082	670.29
417.46	674.59
417.837	674.59
418.214	642.05
418.591	670.52
418.967	673.91
419.344	696.96
419.721	664.42
420.098	694.93
420.475	681.59
420.852	694.7
421.228	731.31
421.605	696.51
421.982	716.62
422.358	729.95
422.735	752.32
423.111	760.69
423.488	736.51
423.864	756.39
424.241	736.28
424.617	756.84
424.994	757.97
425.37	775.6
425.746	768.82
426.123	773.79
426.499	753.45
426.875	770.86
427.251	799.1
427.627	795.49
428.003	798.65
428.379	831.64
428.756	833.23
429.132	863.96
429.507	845.66
429.883	832.77
430.259	866.45
430.635	885.65
431.011	879.1
431.387	873.68
431.763	892.21
432.138	910.06
432.514	913.68
432.89	948.03
433.265	918.87
433.641	935.82
434.016	927.91
434.392	965.65
434.767	969.72
435.143	990.74
435.518	996.39
435.894	998.65
436.269	1009.27
436.644	1013.56
437.02	1033.67
437.395	1007.91
437.77	1064.63
438.145	1056.5
438.52	1059.44
438.895	1108.25
439.271	1044.52
439.646	1112.09
440.021	1127.68
440.395	1143.5
440.77	1098.76
441.145	1096.5
441.52	1152.09
441.895	1150.96
442.27	1142.15
442.645	1152.54
443.019	1179.88
443.394	1157.29
443.769	1183.5
444.143	1175.36
444.518	1194.35
444.892	1209.71
445.267	1214.46
445.641	1199.77
446.016	1213.33
446.39	1254.23
446.764	1252.2
447.139	1216.72
447.513	1244.29
447.887	1245.65
448.262	1240.45
448.636	1282.93
449.01	1287.23
449.384	1296.49
449.758	1284.74
450.132	1317.96
450.506	1320.9
450.88	1321.35
451.254	1329.03
451.628	1322.48
452.002	1355.92
452.376	1371.97
452.75	1383.72
453.123	1390.5
453.497	1397.96
453.871	1419.88
454.244	1435.7
454.618	1443.83
454.992	1450.16
455.365	1481.12
455.739	1522.47
456.112	1500.1
456.486	1486.09
456.859	1569.7
457.232	1551.4
457.606	1570.38
457.979	1583.49
458.352	1611.51
458.725	1652.64
459.099	1621.91
459.472	1654.22
459.845	1693.09
460.218	1705.29
460.591	1695.12
460.964	1721.56
461.337	1768.57
461.71	1779.42
462.083	1808.57
462.456	1778.74
462.829	1820.55
463.201	1873.2
463.574	1843.6
463.947	1913.42
464.32	1923.14
464.692	1969.92
465.065	1918.62
465.438	1964.27
465.81	2041.1
466.183	2054.66
466.555	2090.14
466.928	2096.02
467.3	2118.16
467.672	2153.19
468.045	2187.09
468.417	2192.51
468.789	2246.75
469.161	2258.73
469.534	2281.32
469.906	2327.65
470.278	2374.66
470.65	2398.61
471.022	2441.77
471.394	2505.05
471.766	2513.41
472.138	2556.8
472.51	2609.68
472.882	2664.36
473.253	2691.03
473.625	2718.37
473.997	2771.48
474.369	2844.02
474.74	2855.09
475.112	2894.42
475.484	2912.95
475.855	3033.62
476.227	3039.04
476.598	3215.31
476.97	3231.81
477.341	3285.82
477.713	3365.36
478.084	3377.79
478.455	3458.47
478.827	3462.99
479.198	3622.53
479.569	3616.2
479.94	3761.96
480.311	3806.48
480.682	3891.45
481.053	3984.78
481.424	4023.2
481.795	4129.64
482.166	4171.9
482.537	4239.92
482.908	4329.41
483.279	4385.22
483.65	4438.33
484.021	4600.81
484.391	4625.67
484.762	4683.52
485.133	4715.84
485.503	4777.53
485.874	4886
486.244	5007.13
486.615	5073.57
486.985	5115.6
487.356	5238.31
487.726	5262.49
488.097	5391.07
488.467	5404.41
488.837	5570.28
489.207	5581.12
489.578	5667.68
489.948	5709.48
490.318	5818.41
490.688	5839.42
491.058	5978.4
491.428	6067.89
491.798	6123.94
492.168	6223.59
492.538	6286.19
492.908	6326.19
493.278	6403.48
493.648	6390.14
494.017	6472.85
494.387	6606.41
494.757	6628.78
495.126	6712.39
495.496	6744.71
495.866	6776.57
496.235	6892.95
496.605	6977.47
496.974	6971.82
497.344	7028.09
497.713	7152.38
498.082	7192.38
498.452	7193.29
498.821	7249.78
499.19	7334.3
499.559	7380.4
499.928	7443.45
500.298	7460.62
500.667	7573.39
501.036	7614.74
501.405	7643.44
501.774	7729.77
502.143	7792.37
502.512	7835.98
502.88	7906.49
503.249	7914.62
503.618	8014.05
503.987	7966.6
504.356	8139.02
504.724	8226.03
505.093	8200.26
505.462	8220.6
505.83	8328.17
506.199	8428.51
506.567	8508.73
506.936	8559.35
507.304	8618.33
507.672	8617.43
508.041	8681.83
508.409	8781.72
508.777	8822.62
509.145	8916.63
509.514	8882.05
509.882	9001.15
510.25	9080.24
510.618	9184.19
510.986	9180.13
511.354	9223.29
511.722	9382.15
512.09	9432.77
512.458	9458.76
512.826	9575.6
513.193	9635.71
513.561	9702.82
513.929	9811.07
514.297	9928.13
514.664	10024.17
515.032	9981.23
515.4	10039.31
515.767	10176.48
516.135	10250.83
516.502	10187.33
516.869	10362.92
517.237	10438.17
517.604	10494.89
517.972	10644.49
518.339	10632.29
518.706	10711.61
519.073	10811.72
519.44	10815.56
519.808	11044.03
520.175	11076.12
520.542	11193.63
520.909	11355.89
521.276	11343.23
521.643	11467.98
522.009	11528.99
522.376	11636.11
522.743	11659.61
523.11	11771.92
523.477	11962.43
523.843	12027.96
524.21	12185.47
524.577	12264.11
524.943	12369.87
525.31	12341.4
525.676	12545.69
526.043	12613.26
526.409	12717.43
526.776	12768.51
527.142	12935.96
527.508	12997.2
527.874	13043.75
528.241	13178.66
528.607	13183.86
528.973	13357.19
529.339	13399.22
529.705	13490.07
530.071	13586.79
530.437	13793.34
530.803	13767.12
531.169	13880.34
531.535	13897.74
531.901	13877.86
532.267	13964.63
532.632	14053.44
532.998	14170.05
533.364	14266.55
533.73	14240.33
534.095	14448.01
534.461	14461.79
534.826	14571.17
535.192	14619.53
535.557	14698.17
535.923	14753.76
536.288	14823.82
536.653	14853.65
537.019	14833.08
537.384	14893.87
537.749	14943.82
538.114	15043.93
538.479	15167.31
538.845	15166.86
539.21	15114.66
539.575	15271.27
539.94	15274.88
540.305	15380.41
540.67	15463.58
541.034	15463.58
541.399	15541.54
541.764	15487.53
542.129	15617.02
542.494	15704.25
542.858	15755.77
543.223	15799.84
543.587	15896.79
543.952	15867.86
544.316	15875.54
544.681	15942.43
545.045	16054.75
545.41	16092.49
545.774	16159.6
546.138	16277.57
546.503	16285.02
546.867	16353.04
547.231	16465.58
547.595	16475.75
547.959	16519.14
548.324	16636.65
548.688	16651.34
549.052	16842.52
549.416	16796.87
549.779	17020.82
550.143	16935.18
550.507	17091.33
550.871	17118.22
551.235	17172.46
551.599	17206.13
551.962	17320.02
552.326	17487.03
552.689	17489.96
553.053	17562.05
553.417	17665.78
553.78	17962.49
554.143	17870.52
554.507	17993.91
554.87	17984.87
555.234	18289.49
555.597	18211.75
555.96	18401.8
556.323	18550.05
556.686	18533.78
557.05	18741.23
557.413	18832.53
557.776	18884.05
558.139	19115.68
558.502	19157.94
558.865	19223.93
559.228	19451.04
559.59	19557.25
559.953	19689.91
560.316	19909.79
560.679	20002.89
561.041	20153.17
561.404	20271.59
561.767	20406.27
562.129	20429.32
562.492	20674.96
562.854	20759.71
563.217	20822.76
563.579	21019.36
563.941	21135.74
564.304	21238.79
564.666	21435.85
565.028	21566.69
565.39	21768.72
565.753	21913.35
566.115	22046.91
566.477	22139.79
566.839	22255.04
567.201	22549.27
567.563	22586.55
567.925	22830.84
568.287	22903.61
568.648	23046.88
569.01	23127.33
569.372	23447.55
569.734	23366.19
570.095	23536.81
570.457	23823.58
570.819	24015.44
571.18	24081.2
571.542	24292.95
571.903	24491.36
572.265	24571.59
572.626	24777.23
572.987	24874.85
573.349	24953.95
573.71	25275.3
574.071	25342.19
574.432	25490.66
574.794	25716.19
575.155	25785.11
575.516	25830.76
575.877	26019.91
576.238	26141.94
576.599	26305.78
576.96	26395.49
577.32	26507.81
577.681	26704.41
578.042	26861.47
578.403	26922.03
578.763	27029.83
579.124	27141.91
579.485	27239.09
579.845	27392.53
580.206	27411.06
580.566	27564.05
580.927	27658.96
581.287	27870.26
581.648	27734.21
582.008	27896.47
582.368	27945.51
582.728	28075.67
583.089	28142.79
583.449	28171.49
583.809	28180.3
584.169	28371.71
584.529	28268.89
584.889	28466.4
585.249	28434.53
585.609	28306.85
585.969	28665.72
586.329	28440.41
586.688	28585.72
587.048	28721.98
587.408	28687.64
587.768	28722.89
588.127	28829.55
588.487	28740.74
588.846	28998.59
589.206	28796.79
589.565	28935.31
589.925	29194.74
590.284	29041.52
590.643	29125.14
591.003	29170.56
591.362	29265.93
591.721	29155.87
592.08	29370.56
592.44	29301.86
592.799	29417.79
593.158	29305.7
593.517	29439.48
593.876	29411.01
594.235	29391.12
594.593	29302.53
594.952	29412.59
595.311	29407.39
595.67	29629.53
596.029	29669.53
596.387	29698.68
596.746	29704.78
597.104	29638.57
597.463	29663.43
597.822	29852.12
598.18	29670.21
598.538	29753.6
598.897	29849.64
599.255	29631.34
599.613	30017.09
599.972	29879.02
600.33	29874.5
600.688	29819.36
601.046	29840.15
601.404	30041.72
601.762	29922.63
602.12	30122.4
602.478	30074.94
602.836	30084.66
603.194	30012.12
603.552	30156.52
603.91	30020.03
604.268	30177.31
604.625	29975.74
604.983	30128.5
605.341	30039.24
605.698	30330.76
606.056	30303.64
606.413	30240.59
606.771	30406.46
607.128	30272.9
607.485	30177.99
607.843	30261.61
608.2	30462.73
608.557	30577.3
608.914	30420.7
609.272	30546.8
609.629	30544.31
609.986	30749.05
610.343	30433.13
610.7	30728.26
611.057	30683.29
611.414	30771.65
611.771	30858.2
612.127	30870.18
612.484	30821.14
612.841	30954.47
613.198	30837.64
613.554	31003.05
613.911	31102.49
614.267	30965.99
614.624	31145.42
614.98	31063.84
615.337	31135.03
615.693	31141.36
616.05	31134.35
616.406	31337.06
616.762	31247.34
617.118	31208.93
617.475	31364.85
617.831	31314.01
618.187	31384.06
618.543	31460.22
618.899	31617.28
619.255	31532.53
619.611	31449.14
619.967	31714.45
620.323	31735.24
620.678	31471.97
621.034	31415.47
621.39	31494.79
621.746	31530.05
622.101	31774.79
622.457	31494.12
622.812	31575.24
623.168	31766.2
623.523	31646.88
623.879	31879.64
624.234	31574.11
624.589	31695.47
624.945	31635.58
625.3	31680.1
625.655	31681
626.01	31722.13
626.365	31830.38
626.72	31718.29
627.075	31723.94
627.43	31591.51
627.785	31546.54
628.14	31687.78
628.495	31667.44
628.85	31646.2
629.205	31512.65
629.559	31637.61
629.914	31539.31
630.269	31537.28
630.623	31403.72
630.978	31394.23
631.332	31422.7
631.687	31519.65
632.041	31427.68
632.396	31411.18
632.75	31293.44
633.104	31470.39
633.459	31321.01
633.813	31180.68
634.167	31196.95
634.521	31283.73
634.875	31236.04
635.229	31153.56
635.583	30999.67
635.937	31072.88
636.291	31008.7
636.645	30999.89
636.999	30935.71
637.352	30944.98
637.706	30779.33
638.06	30879.67
638.413	30896.39
638.767	30794.02
639.121	30926.67
639.474	30675.38
639.828	30740.69
640.181	30760.8
640.534	30768.94
640.888	30515.84
641.241	30406.91
641.594	30637.41
641.947	30710.41
642.301	30476.97
642.654	30575.95
643.007	30545.89
643.36	30541.15
643.713	30356.07
644.066	30679
644.419	30358.1
644.771	30104.55
645.124	29970.54
645.477	29892.35
645.83	29649.64
646.182	29540.49
646.535	29607.84
646.888	29495.52
647.24	29346.83
647.593	29630.66
647.945	29441.29
648.298	29418.69
648.65	29285.13
649.002	29260.05
649.355	29320.61
649.707	29331.23
650.059	29501.85
650.411	29866.14
650.763	29786.59
651.115	30142.29
651.467	30099.12
651.819	30055.74
652.171	29886.47
652.523	29893.03
652.875	29948.62
653.227	29822.07
653.578	30129.41
653.93	29829.3
654.282	29907.04
654.633	29704.78
654.985	29806.7
655.337	29865.91
655.688	29910.88
656.039	29816.42
656.391	29752.01
656.742	29801.5
657.094	29650.1
657.445	29858.45
657.796	29786.14
658.147	29681.28
658.498	29764.22
658.849	29869.3
659.2	29810.77
659.551	29776.42
659.902	29748.17
660.253	29674.5
660.604	29841.28
660.955	29561.28
661.306	29717.44
661.656	29691.68
662.007	29592.7
662.358	29691.45
662.708	29808.74
663.059	29685.8
663.409	29481.51
663.76	29647.16
664.11	29549.31
664.461	29831.79
664.811	29646.93
665.161	29742.07
665.511	29617.55
665.862	29521.29
666.212	29668.4
666.562	29649.19
666.912	29608.74
667.262	29621.17
667.612	29636.99
667.962	29651.68
668.312	29620.94
668.662	29562.19
669.011	29635.18
669.361	29475.19
669.711	29440.61
670.06	29415.75
670.41	29406.94
670.76	29475.19
671.109	29514.28
671.459	29273.83
671.808	29337.34
672.157	29538.46
672.507	29217.79
672.856	29198.81
673.205	29355.87
673.554	29359.03
673.904	29222.54
674.253	29426.37
674.602	29303.21
674.951	28857.12
675.3	28601.99
675.649	29149.32
675.998	29068.19
676.346	29129.66
676.695	28981.87
677.044	28901.87
677.393	29060.28
677.741	29105.7
678.09	29046.72
678.438	28996.33
678.787	28866.39
679.135	28990
679.484	28732.61
679.832	28916.78
680.181	28603.34
680.529	28813.28
680.877	28733.96
681.225	28651.48
681.573	28839.95
681.922	28760.18
682.27	28468.43
682.618	28521.31
682.966	28496.68
683.314	28480.18
683.661	28365.16
684.009	28207.65
684.357	28158.84
684.705	28049.23
685.053	28164.26
685.4	28118.38
685.748	27940.08
686.095	27967.2
686.443	27800.43
686.79	27758.85
687.138	27774.67
687.485	27822.12
687.832	27668.45
688.18	27726.3
688.527	27630.49
688.874	27575.35
689.221	27449.48
689.568	27294
689.915	27302.59
690.262	27263.27
690.609	27094.23
690.956	27112.76
691.303	27032.09
691.65	26817.4
691.997	26827.57
692.344	26667.12
692.69	26742.15
693.037	26778.99
693.383	26508.26
693.73	26611.08
694.077	26420.12
694.423	26447.47
694.769	26259
695.116	26223.75
695.462	26049.74
695.808	25980.59
696.155	26060.59
696.501	25772.68
696.847	25918.44
697.193	25647.26
697.539	25758
697.885	25619.02
698.231	25353.26
698.577	25438.23
698.923	25408.17
699.269	25301.96
699.614	25123.21
699.96	25198.91
700.306	25099.93
700.651	24928.19
700.997	24808.87
701.342	24893.16
701.688	24758.02
702.033	24721.19
702.379	24672.15
702.724	24546.73
703.069	24562.32
703.415	24237.36
703.76	24269.45
704.105	24330.01
704.45	24135.89
704.795	24041.88
705.14	23928.44
705.485	23976.8
705.83	23836.24
706.175	23860.19
706.52	23744.49
706.865	23692.51
707.209	23623.14
707.554	23522.8
707.899	23527.32
708.243	23334.1
708.588	23387.66
708.932	23250.49
709.277	23322.35
709.621	23186.54
709.966	23136.82
710.31	23184.05
710.654	22916.94
710.998	22894.12
711.342	23056.6
711.687	22921.23
712.031	22795.36
712.375	22754.68
712.719	22839.65
713.063	22819.54
713.407	22797.39
713.75	22599.43
714.094	22631.07
714.438	22473.79
714.782	22544.97
715.125	22281.48
715.469	22526.44
715.812	22258.88
716.156	22222.95
716.499	22334.36
716.843	22395.6
717.186	22214.36
717.53	22273.34
717.873	22190.41
718.216	22198.77
718.559	22096.4
718.902	22072.89
719.246	22096.62
719.589	21982.73
719.932	21836.06
720.275	21900.47
720.617	21946.12
720.96	21924.42
721.303	21862.05
721.646	21920.13
721.989	21757.87
722.331	21798.78
722.674	21580.93
723.016	21740.02
723.359	21685.56
723.701	21749.51
724.044	21558.56
724.386	21569.18
724.729	21653.02
725.071	21503.87
725.413	21563.08
725.755	21557.43
726.097	21407.37
726.439	21332.57
726.782	21411.67
727.124	21471.1
727.465	21435.62
727.807	21375.51
728.149	21283.76
728.491	21349.98
728.833	21351.11
729.175	21283.54
729.516	21228.85
729.858	21204.67
730.199	21204.89
730.541	21293.48
730.882	21302.52
731.224	21324.44
731.565	21045.35
731.906	21253.71
732.248	21152.92
732.589	21169.87
732.93	21045.35
733.271	21091
733.612	21142.52
733.953	21175.74
734.294	21037.22
734.635	21029.31
734.976	21164.9
735.317	21027.95
735.658	20990.66
735.999	20949.99
736.339	21026.59
736.68	21192.24
737.021	21056.42
737.361	20903.21
737.702	21126.93
738.042	21011.23
738.383	21028.63
738.723	21107.72
739.063	20917.67
739.404	21109.76
739.744	21033.15
740.084	20879.48
740.424	20994.05
740.764	20887.84
741.104	20910.21
741.444	20879.48
741.784	20890.55
742.124	20916.09
742.464	20916.77
742.804	20836.54
743.143	20833.38
743.483	20866.82
743.823	20727.39
744.162	20878.8
744.502	20922.42
744.841	20825.47
745.181	20860.5
745.52	20745.92
745.86	20831.12
746.199	20859.14
746.538	20714.74
746.877	20797.67
747.216	20770.78
747.556	20729.88
747.895	20815.07
748.234	20781.4
748.573	20652.37
748.911	20684.68
749.25	20669.99
749.589	20590
749.928	20629.09
750.267	20802.19
750.605	20661.86
750.944	20496.21
751.283	20492.6
751.621	20561.3
751.96	20428.64
752.298	20461.19
752.636	20498.47
752.975	20432.03
753.313	20389.1
753.651	20373.05
753.989	20255.99
754.327	20258.7
754.666	20258.03
755.004	20415.76
755.342	20297.8
755.679	20266.61
756.017	20086.73
