Data from tablewood_dark_bookshelf_FLMS001491_00014.txt Node
Date: Wed Feb 08 14:13:43 GMT 2017
User: dcchb
Spectrometer: FLMS00149
Trigger mode: 0
Integration Time (sec): 2.000000E-2
Scans to average: 10
Electric dark correction enabled: true
Nonlinearity correction enabled: false
Boxcar width: 0
XAxis mode: Wavelengths
Number of Pixels in Spectrum: 2048
>>>>>Begin Spectral Data<<<<<
341.393	2.57
341.776	2.57
342.16	2.57
342.543	-50.08
342.927	-65.22
343.31	-65.45
343.693	-71.78
344.077	-71.55
344.46	-75.62
344.843	-44.66
345.226	-48.28
345.61	-43.3
345.993	-27.03
346.376	-0.37
346.759	10.03
347.142	34.66
347.525	60.2
347.908	59.74
348.291	78.73
348.674	102.45
349.057	102.23
349.44	138.16
349.823	121.21
350.206	136.8
350.588	205.28
350.971	207.54
351.354	222.45
351.737	230.36
352.119	237.14
352.502	271.04
352.884	245.05
353.267	264.71
353.65	269
354.032	292.96
354.414	304.48
354.797	287.31
355.179	306.29
355.562	316.46
355.944	318.95
356.326	320.75
356.709	314.2
357.091	321.88
357.473	318.49
357.855	334.99
358.238	350.36
358.62	332.73
359.002	331.38
359.384	333.41
359.766	345.39
360.148	337.25
360.53	335.44
360.912	335.44
361.294	336.35
361.676	332.51
362.057	325.5
362.439	351.04
362.821	324.82
363.203	325.05
363.584	329.12
363.966	329.12
364.348	334.77
364.729	331.15
365.111	339.74
365.493	322.79
365.874	326.63
366.256	321.66
366.637	317.14
367.019	306.97
367.4	312.62
367.781	302.9
368.163	308.1
368.544	299.06
368.925	311.04
369.306	319.85
369.688	322.11
370.069	324.14
370.45	305.84
370.831	320.53
371.212	339.74
371.593	317.59
371.974	328.21
372.355	323.24
372.736	325.05
373.117	316.01
373.498	307.87
373.879	316.91
374.26	332.51
374.641	307.2
375.021	319.17
375.402	332.28
375.783	342.45
376.163	334.09
376.544	334.09
376.925	340.64
377.305	331.6
377.686	356.01
378.066	318.95
378.447	334.31
378.827	319.4
379.208	336.8
379.588	326.4
379.968	336.57
380.349	342.9
380.729	363.01
381.109	337.25
381.489	351.04
381.87	345.61
382.25	333.41
382.63	342.22
383.01	367.98
383.39	363.69
383.77	366.63
384.15	368.21
384.53	347.42
384.91	369.57
385.29	376.8
385.67	369.34
386.049	387.42
386.429	372.28
386.809	369.57
387.189	388.55
387.568	366.18
387.948	361.66
388.328	371.83
388.707	361.21
389.087	379.96
389.466	410.92
389.846	387.65
390.225	384.71
390.605	409.11
390.984	393.29
391.363	393.29
391.743	403.01
392.122	392.16
392.501	400.98
392.881	422.45
393.26	402.79
393.639	407.98
394.018	417.25
394.397	396.91
394.776	404.82
395.155	410.47
395.534	420.86
395.913	433.07
396.292	443.01
396.671	447.76
397.05	430.58
397.429	432.16
397.808	422.67
398.186	434.88
398.565	423.58
398.944	434.65
399.323	420.41
399.701	431.94
400.08	433.52
400.458	445.72
400.837	459.96
401.215	478.04
401.594	475.1
401.972	460.19
402.351	461.99
402.729	462.67
403.107	464.03
403.486	484.37
403.864	475.33
404.242	480.07
404.62	477.59
404.999	465.61
405.377	482.78
405.755	497.02
406.133	475.1
406.511	462.45
406.889	483.01
407.267	499.96
407.645	499.73
408.023	500.41
408.401	510.81
408.779	511.03
409.156	543.12
409.534	521.65
409.912	531.37
410.29	521.2
410.667	540.18
411.045	546.51
411.422	552.84
411.8	529.34
412.178	540.86
412.555	565.04
412.933	561.2
413.31	563.69
413.687	578.83
414.065	578.83
414.442	600.97
414.819	577.92
415.197	578.83
415.574	615.89
415.951	601.65
416.328	593.06
416.705	585.61
417.082	608.2
417.46	601.65
417.837	605.04
418.214	638.49
418.591	642.78
418.967	619.05
419.344	644.14
419.721	625.83
420.098	642.1
420.475	652.27
420.852	636.68
421.228	658.15
421.605	659.95
421.982	670.8
422.358	676.9
422.735	678.03
423.111	674.64
423.488	660.18
423.864	685.04
424.241	693.4
424.617	704.7
424.994	694.98
425.37	706.51
425.746	693.63
426.123	693.63
426.499	742.44
426.875	734.3
427.251	714.87
427.627	753.51
428.003	740.4
428.379	758.26
428.756	729.78
429.132	772.72
429.507	775.21
429.883	781.31
430.259	780.63
430.635	817.24
431.011	812.49
431.387	805.04
431.763	836.45
432.138	858.82
432.514	827.18
432.89	849.33
433.265	844.58
433.641	854.53
434.016	850.68
434.392	870.8
434.767	908.99
435.143	866.28
435.518	897.01
435.894	915.31
436.269	893.62
436.644	941.3
437.02	919.38
437.395	952.38
437.77	936.11
438.145	965.71
438.52	944.24
438.895	983.79
439.271	975.65
439.646	979.72
440.021	1016.56
440.395	992.6
440.77	993.28
441.145	984.92
441.52	1003.9
441.895	1025.14
442.27	1014.07
442.645	991.02
443.019	1018.82
443.394	1023.33
443.769	1062.43
444.143	1052.94
444.518	1070.34
444.892	1043.9
445.267	1085.03
445.641	1094.52
446.016	1079.38
446.39	1092.94
446.764	1075.99
447.139	1114.18
447.513	1141.52
447.887	1109.21
448.262	1095.65
448.636	1100.62
449.01	1132.94
449.384	1146.04
449.758	1141.07
450.132	1146.27
450.506	1152.6
450.88	1189.66
451.254	1180.39
451.628	1176.1
452.002	1211.13
452.376	1212.26
452.75	1235.08
453.123	1218.81
453.497	1235.98
453.871	1245.25
454.244	1277.79
454.618	1283.21
454.992	1292.48
455.365	1296.1
455.739	1329.77
456.112	1312.59
456.486	1357.11
456.859	1352.37
457.232	1394.85
457.606	1367.28
457.979	1390.78
458.352	1429.65
458.725	1417
459.099	1454.51
459.472	1461.74
459.845	1471.91
460.218	1518.24
460.591	1481.63
460.964	1528.63
461.337	1559.14
461.71	1586.94
462.083	1558.91
462.456	1546.26
462.829	1581.96
463.201	1609.53
463.574	1633.49
463.947	1650.89
464.32	1650.66
464.692	1684.79
465.065	1706.03
465.438	1711
465.81	1722.53
466.183	1762.07
466.555	1791.9
466.928	1810.43
467.3	1810.88
467.672	1839.81
468.045	1866.25
468.417	1850.21
468.789	1873.26
469.161	1948.96
469.534	1943.08
469.906	1972.24
470.278	1951.45
470.65	2012.69
471.022	2047.26
471.394	2062.18
471.766	2078.9
472.138	2084.1
472.51	2183.3
472.882	2172.23
473.253	2206.81
473.625	2219.24
473.997	2256.75
474.369	2261.95
474.74	2288.16
475.112	2308.72
475.484	2351.44
475.855	2451.77
476.227	2423.52
476.598	2454.94
476.97	2475.73
477.341	2596.4
477.713	2555.05
478.084	2632.11
478.455	2679.34
478.827	2685.44
479.198	2778.54
479.569	2730.63
479.94	2807.69
480.311	2869.61
480.682	2891.08
481.053	2959.55
481.424	3024.64
481.795	3063.96
482.166	3066.9
482.537	3101.7
482.908	3169.72
483.279	3240
483.65	3268.02
484.021	3348.92
484.391	3354.35
484.762	3352.54
485.133	3409.49
485.503	3458.98
485.874	3545.75
486.244	3544.17
486.615	3613.55
486.985	3659.65
487.356	3723.15
487.726	3782.58
488.097	3834.56
488.467	3851.73
488.837	3947.33
489.207	3964.05
489.578	3989.36
489.948	4045.63
490.318	4120.65
490.688	4124.72
491.058	4192.29
491.428	4259.18
491.798	4265.06
492.168	4366.98
492.538	4392.96
492.908	4399.29
493.278	4449.91
493.648	4461.89
494.017	4511.15
494.387	4572.39
494.757	4612.62
495.126	4652.84
495.496	4702.56
495.866	4674.99
496.235	4726.97
496.605	4814.87
496.974	4785.04
497.344	4852.39
497.713	4893.97
498.082	4951.82
498.452	4987.52
498.821	5045.38
499.19	5001.08
499.559	5082.44
499.928	5110.91
500.298	5141.19
500.667	5143.23
501.036	5210.12
501.405	5275.43
501.774	5205.37
502.143	5312.49
502.512	5349.77
502.88	5394.29
503.249	5357.68
503.618	5402.2
503.987	5417.57
504.356	5521.52
504.724	5538.02
505.093	5603.1
505.462	5574.18
505.83	5606.04
506.199	5668.86
506.567	5708.64
506.936	5742.98
507.304	5806.26
507.672	5811.68
508.041	5888.52
508.409	5942.75
508.777	5934.84
509.145	6010.32
509.514	6011.9
509.882	6086.7
510.25	6092.58
510.618	6122.41
510.986	6144.78
511.354	6210.77
511.722	6296.19
512.09	6354.72
512.458	6338
512.826	6408.96
513.193	6469.97
513.561	6532.79
513.929	6493.47
514.297	6553.13
514.664	6643.07
515.032	6641.04
515.4	6704.77
515.767	6753.13
516.135	6773.01
516.502	6735.5
516.869	6861.37
517.237	6939.11
517.604	6937.53
517.972	6973.23
518.339	7064.08
518.706	7052.55
519.073	7133.91
519.44	7128.94
519.808	7255.49
520.175	7196.28
520.542	7318.76
520.909	7394.24
521.276	7388.14
521.643	7511.53
522.009	7586.1
522.376	7588.81
522.743	7646.66
523.11	7726.44
523.477	7837.17
523.843	7831.74
524.21	7922.81
524.577	7995.13
524.943	8069.03
525.31	8096.6
525.676	8179.98
526.043	8146.76
526.409	8253.88
526.776	8297.27
527.142	8390.37
527.508	8454.55
527.874	8543.81
528.241	8500.88
528.607	8614.32
528.973	8607.99
529.339	8609.58
529.705	8758.27
530.071	8852.28
530.437	8837.59
530.803	8888.21
531.169	9019.96
531.535	9044.37
531.901	8978.38
532.267	9115.78
532.632	9126.62
532.998	9167.53
533.364	9250.46
533.73	9221.31
534.095	9326.17
534.461	9360.52
534.826	9341.76
535.192	9388.99
535.557	9485.71
535.923	9558.7
536.288	9593.05
536.653	9653.62
537.019	9579.72
537.384	9617.01
537.749	9673.95
538.114	9722.77
538.479	9725.93
538.845	9828.53
539.21	9811.13
539.575	9932.93
539.94	9925.25
540.305	10030.78
540.67	10012.25
541.034	9960.95
541.399	10125.24
541.764	10078.92
542.129	10148.74
542.494	10234.39
542.858	10266.48
543.223	10174.51
543.587	10338.12
543.952	10284.79
544.316	10342.41
544.681	10380.38
545.045	10461.28
545.41	10507.61
545.774	10530.2
546.138	10553.48
546.503	10601.61
546.867	10677.09
547.231	10684.55
547.595	10741.27
547.959	10756.64
548.324	10777.88
548.688	10783.53
549.052	10837.54
549.416	10896.75
549.779	10918.22
550.143	10983.75
550.507	11009.96
550.871	11132.22
551.235	11107.36
551.599	11161.37
551.962	11208.38
552.326	11275.72
552.689	11348.94
553.053	11256.29
553.417	11360.24
553.78	11463.29
554.143	11476.62
554.507	11489.73
554.87	11548.93
555.234	11628.48
555.597	11696.27
555.96	11732.88
556.323	11788.7
556.686	11818.53
557.05	11861.69
557.413	11895.14
557.776	12035.7
558.139	12041.8
558.502	11994.35
558.865	12098.3
559.228	12228.01
559.59	12254
559.953	12265.07
560.316	12459.42
560.679	12534.67
561.041	12563.6
561.404	12624.61
561.767	12704.61
562.129	12641.11
562.492	12875.23
562.854	12865.74
563.217	12886.75
563.579	12911.16
563.941	13058.05
564.304	13080.87
564.666	13107.54
565.028	13266.85
565.39	13305.5
565.753	13427.53
566.115	13502.1
566.477	13464.14
566.839	13519.73
567.201	13681.76
567.563	13641.76
567.925	13871.13
568.287	13832.26
568.648	13846.73
569.01	14022.31
569.372	14052.6
569.734	14012.15
570.095	14193.16
570.457	14258.69
570.819	14289.88
571.18	14305.7
571.542	14434.06
571.903	14447.16
572.265	14564.22
572.626	14589.53
572.987	14694.16
573.349	14734.39
573.71	14775.97
574.071	14907.72
574.432	14918.79
574.794	15119.91
575.155	15043.76
575.516	15025.45
575.877	14993.14
576.238	15140.7
576.599	15303.19
576.96	15235.84
577.32	15333.47
577.681	15359.45
578.042	15420.02
578.403	15500.47
578.763	15535.04
579.124	15560.58
579.485	15780.23
579.845	15731.87
580.206	15740.01
580.566	15758.54
580.927	15847.35
581.287	15858.65
581.648	15919.21
582.008	15953.56
582.368	15936.16
582.728	16055.93
583.089	16032.43
583.449	16090.28
583.809	16157.85
584.169	16225.65
584.529	16135.25
584.889	16399.88
585.249	16208.47
585.609	16298.87
585.969	16304.29
586.329	16403.72
586.688	16353.1
587.048	16383.61
587.408	16403.5
587.768	16474.23
588.127	16446.43
588.487	16420.67
588.846	16663.15
589.206	16438.07
589.565	16585.41
589.925	16618.63
590.284	16686.2
590.643	16728.68
591.003	16697.05
591.362	16799.42
591.721	16819.08
592.08	16853.88
592.44	16884.16
592.799	16975.01
593.158	16864.95
593.517	16882.58
593.876	17020.65
594.235	17011.84
594.593	17072.4
594.952	17177.03
595.311	17041.44
595.67	17159.18
596.029	17225.17
596.387	17253.19
596.746	17272.62
597.104	17217.71
597.463	17144.49
597.822	17334.32
598.18	17367.99
598.538	17290.7
598.897	17457.7
599.255	17334.32
599.613	17554.65
599.972	17540.64
600.33	17515.56
600.688	17447.08
601.046	17516.91
601.404	17704.03
601.762	17567.76
602.12	17708.77
602.478	17750.8
602.836	17810.01
603.194	17761.43
603.552	17854.3
603.91	17713.52
604.268	17857.24
604.625	17810.46
604.983	17972.49
605.341	17818.37
605.698	18063.34
606.056	18014.53
606.413	18083.23
606.771	18041.87
607.128	18136.11
607.485	18044.13
607.843	18113.05
608.2	18354.63
608.557	18211.81
608.914	18220.62
609.272	18335.2
609.629	18417.91
609.986	18436.66
610.343	18449.77
610.7	18469.88
611.057	18328.19
611.414	18456.77
611.771	18439.37
612.127	18606.83
612.484	18507.85
612.841	18550.33
613.198	18526.83
613.554	18719.14
613.911	18722.98
614.267	18709.42
614.624	18726.37
614.98	18695.41
615.337	18857.44
615.693	18852.47
616.05	18838.91
616.406	18871.23
616.762	18821.51
617.118	18940.38
617.475	18907.84
617.831	18894.73
618.187	19002.97
618.543	18943.99
618.899	19155.06
619.255	19057.66
619.611	19053.6
619.967	19158.9
620.323	19094.5
620.678	19130.43
621.034	19026.25
621.39	19078.45
621.746	19127.94
622.101	19260.82
622.457	19085.91
622.812	19252.23
623.168	19238
623.523	19176.76
623.879	19304.89
624.234	19229.41
624.589	19258.34
624.945	19247.49
625.3	19258.56
625.655	19243.65
626.01	19214.95
626.365	19268.05
626.72	19199.35
627.075	19152.8
627.43	19268.28
627.785	19143.99
628.14	19190.99
628.495	19188.96
628.85	19186.02
629.205	19176.08
629.559	19240.71
629.914	19214.72
630.269	19266.47
630.623	19228.28
630.978	19108.73
631.332	19229.64
631.687	19243.87
632.041	19132.01
632.396	19119.13
632.75	19184.89
633.104	19183.31
633.459	18987.61
633.813	19116.19
634.167	19078.23
634.521	18979.7
634.875	19058.57
635.229	18997.1
635.583	19009.3
635.937	18959.59
636.291	19002.97
636.645	18990.09
636.999	18804.79
637.352	18970.89
637.706	18824.9
638.06	18958.46
638.413	18853.83
638.767	18793.71
639.121	18921.17
639.474	18725.92
639.828	18756.65
640.181	18831.68
640.534	18741.74
640.888	18669.42
641.241	18676.88
641.594	18671.01
641.947	18689.31
642.301	18638.69
642.654	18647.28
643.007	18789.2
643.36	18698.8
643.713	18736.99
644.066	18760.04
644.419	18594.85
644.771	18480.05
645.124	18320.28
645.477	18305.59
645.83	18202.77
646.182	17959.61
646.535	17939.27
646.888	18093.17
647.24	18003.91
647.593	18148.99
647.945	18082.55
648.298	17992.61
648.65	17905.83
649.002	17796.68
649.355	17968.43
649.707	17911.7
650.059	18054.3
650.411	18254.52
650.763	18185.14
651.115	18435.98
651.467	18379.26
651.819	18286.16
652.171	18476.66
652.523	18250.45
652.875	18360.96
653.227	18262.43
653.578	18373.39
653.93	18352.82
654.282	18263.56
654.633	18162.77
654.985	18237.57
655.337	18337.91
655.688	18242.32
656.039	18411.13
656.391	18165.26
656.742	18220.17
657.094	18136.11
657.445	18310.34
657.796	18259.72
658.147	18219.04
658.498	18195.99
658.849	18268.53
659.2	18255.2
659.551	18195.76
659.902	18276.89
660.253	18121.42
660.604	18259.04
660.955	18074.41
661.306	18186.95
661.656	18128.2
662.007	18150.12
662.358	18107.86
662.708	18233.5
663.059	18170
663.409	17982.21
663.76	18199.61
664.11	18125.03
664.461	18138.59
664.811	18083.68
665.161	18106.95
665.511	18092.72
665.862	18237.35
666.212	18220.4
666.562	18106.28
666.912	18119.61
667.262	18109.44
667.612	18168.65
667.962	18193.28
668.312	18144.92
668.662	18252.49
669.011	18084.36
669.361	18174.07
669.711	18102.21
670.06	18101.08
670.41	18120.51
670.76	18144.01
671.109	18146.27
671.459	18200.96
671.808	18120.29
672.157	18103.79
672.507	17986.05
672.856	18113.73
673.205	18059.27
673.554	18233.96
673.904	18104.69
674.253	18094.3
674.602	18056.56
674.951	17783.12
675.3	17712.84
675.649	18017.01
675.998	17979.27
676.346	18000.06
676.695	18047.29
677.044	17911.48
677.393	18067.41
677.741	18097.91
678.09	17975.21
678.438	17972.49
678.787	18062.21
679.135	18049.1
679.484	17870.8
679.832	17937.92
680.181	17830.58
680.529	17930.91
680.877	17872.16
681.225	17767.3
681.573	17960.97
681.922	17842.78
682.27	17715.33
682.618	17808.88
682.966	17677.59
683.314	17741.54
683.661	17706.06
684.009	17620.86
684.357	17615.21
684.705	17612.5
685.053	17589.45
685.4	17614.31
685.748	17512.17
686.095	17520.75
686.443	17444.37
686.79	17459.06
687.138	17485.05
687.485	17621.54
687.832	17394.43
688.18	17465.16
688.527	17380.42
688.874	17347.65
689.221	17314.43
689.568	17126.19
689.915	17200.31
690.262	17277.82
690.609	17182.91
690.956	17189.92
691.303	17153.08
691.65	16965.97
691.997	17120.99
692.344	16865.4
692.69	16982.24
693.037	16970.71
693.383	16778.63
693.73	16922.35
694.077	16751.06
694.423	16767.55
694.769	16725.29
695.116	16638.97
695.462	16737.95
695.808	16633.55
696.155	16656.37
696.501	16564.62
696.847	16509.48
697.193	16411.4
697.539	16446.88
697.885	16431.97
698.231	16362.14
698.577	16436.04
698.923	16341.58
699.269	16317.17
699.614	16223.84
699.96	16101.36
700.306	16209.6
700.651	16105.88
700.997	16078.08
701.342	16049.83
701.688	16016.16
702.033	15943.62
702.379	16031.08
702.724	15939.33
703.069	15942.26
703.415	15780.23
703.76	15828.82
704.105	15781.36
704.45	15739.33
704.795	15749.5
705.14	15639.45
705.485	15634.48
705.83	15556.06
706.175	15546.57
706.52	15451.2
706.865	15535.95
707.209	15537.76
707.554	15434.71
707.899	15479.68
708.243	15351.32
708.588	15365.56
708.932	15233.13
709.277	15318.55
709.621	15289.63
709.966	15127.37
710.31	15197.65
710.654	15039.92
710.998	15146.58
711.342	15120.59
711.687	15093.25
712.031	15069.52
712.375	14956.53
712.719	15043.53
713.063	15010.09
713.407	15026.81
713.75	15001.27
714.094	14947.04
714.438	14877.43
714.782	14981.39
715.125	14804.67
715.469	14923.99
715.812	14815.97
716.156	14793.14
716.499	14749.08
716.843	14740.04
717.186	14645.35
717.53	14803.54
717.873	14783.42
718.216	14708.85
718.559	14653.71
718.902	14517.67
719.246	14608.74
719.589	14560.61
719.932	14549.08
720.275	14485.81
720.617	14491.91
720.96	14476.54
721.303	14453.49
721.646	14463.43
721.989	14434.96
722.331	14513.83
722.674	14400.38
723.016	14541.4
723.359	14417.56
723.701	14369.88
724.044	14359.26
724.386	14305.92
724.729	14385.47
725.071	14364.9
725.413	14210.56
725.755	14250.11
726.097	14203.1
726.439	14135.98
726.782	14182.31
727.124	14222.31
727.465	14147.96
727.807	14148.19
728.149	14134.18
728.491	14073.39
728.833	14183.67
729.175	14037
729.516	14022.54
729.858	14056.66
730.199	14021.86
730.541	14047.17
730.882	14020.28
731.224	14054.4
731.565	14013.05
731.906	13994.07
732.248	13998.81
732.589	13982.99
732.93	13897.8
733.271	13957.23
733.612	13934.41
733.953	13979.15
734.294	13858.48
734.635	13891.24
734.976	13993.39
735.317	13771.02
735.658	13886.95
735.999	13863
736.339	13849.21
736.68	13860.74
737.021	13796.33
737.361	13753.62
737.702	13801.76
738.042	13774.19
738.383	13660.74
738.723	13816.44
739.063	13721.31
739.404	13626.62
739.744	13692.61
740.084	13603.34
740.424	13674.08
740.764	13593.63
741.104	13668.43
741.444	13621.2
741.784	13571.25
742.124	13633.17
742.464	13626.39
742.804	13488.54
743.143	13599.73
743.483	13520.63
743.823	13473.85
744.162	13475.21
744.502	13438.38
744.841	13404.48
745.181	13541.88
745.52	13444.93
745.86	13446.96
746.199	13410.81
746.538	13348.66
746.877	13381.88
747.216	13428.21
747.556	13490.58
747.895	13390.24
748.234	13310.7
748.573	13256.01
748.911	13254.2
749.25	13224.14
749.589	13279.96
749.928	13282
750.267	13342.78
750.605	13185.05
750.944	13152.51
751.283	13227.31
751.621	13209.23
751.96	13105.95
752.298	13152.73
752.636	13056.92
752.975	13027.54
753.313	12978.05
753.651	13055.79
753.989	12908.45
754.327	12973.53
754.666	12873.87
755.004	12931.04
755.342	12951.61
755.679	12926.07
756.017	12826.19
756.355	12814.44
756.693	12826.87
757.031	12792.29
757.368	12695.8
757.706	12729.24
