Data from tablewood_brown_FLMS001491_093.txt Node
Date: Tue Feb 07 11:11:17 GMT 2017
User: dcchb
Spectrometer: FLMS00149
Trigger mode: 0
Integration Time (sec): 2.000000E-2
Scans to average: 10
Electric dark correction enabled: true
Nonlinearity correction enabled: false
Boxcar width: 0
XAxis mode: Wavelengths
Number of Pixels in Spectrum: 2048
>>>>>Begin Spectral Data<<<<<
341.393	-13.47
341.776	-13.47
342.16	-13.47
342.543	-62.74
342.927	-65.68
343.31	-58.22
343.693	-77.65
344.077	-66.35
344.46	-53.25
344.843	-72.91
345.226	-32
345.61	-39.24
345.993	-28.16
346.376	0.31
346.759	-12.34
347.142	31.04
347.525	40.31
347.908	66.98
348.291	80.76
348.674	92.29
349.057	128.44
349.44	120.31
349.823	144.04
350.206	159.63
350.588	199.63
350.971	221.32
351.354	228.55
351.737	226.52
352.119	238.95
352.502	270.81
352.884	296.35
353.267	264.48
353.65	282.79
354.032	309.91
354.414	309
354.797	322.34
355.179	321.88
355.562	335.67
355.944	346.29
356.326	349.91
356.709	312.17
357.091	315.78
357.473	335.22
357.855	347.19
358.238	346.74
358.62	341.09
359.002	330.92
359.384	331.6
359.766	319.17
360.148	356.69
360.53	348.32
360.912	350.36
361.294	350.36
361.676	330.02
362.057	315.1
362.439	307.65
362.821	326.4
363.203	340.87
363.584	316.46
363.966	331.6
364.348	352.39
364.729	293.18
365.111	323.92
365.493	333.64
365.874	338.15
366.256	320.98
366.637	342.67
367.019	319.4
367.4	331.15
367.781	325.95
368.163	326.4
368.544	330.7
368.925	309.46
369.306	323.92
369.688	332.05
370.069	348.1
370.45	338.83
370.831	330.02
371.212	323.01
371.593	338.83
371.974	329.57
372.355	347.65
372.736	326.86
373.117	349.45
373.498	324.37
373.879	340.87
374.26	322.79
374.641	306.52
375.021	335.22
375.402	338.15
375.783	327.31
376.163	337.93
376.544	341.77
376.925	364.59
377.305	337.7
377.686	342.22
378.066	345.61
378.447	350.36
378.827	376.8
379.208	375.22
379.588	372.05
379.968	356.01
380.349	363.69
380.729	377.02
381.109	344.48
381.489	351.94
381.87	377.02
382.25	378.61
382.63	358.72
383.01	376.12
383.39	365.72
383.77	394.42
384.15	379.51
384.53	373.18
384.91	387.19
385.29	386.52
385.67	382.45
386.049	392.62
386.429	411.6
386.809	401.66
387.189	406.4
387.568	395.1
387.948	423.35
388.328	400.75
388.707	382.9
389.087	408.44
389.466	407.31
389.846	417.93
390.225	403.92
390.605	416.34
390.984	421.09
391.363	417.93
391.743	413.63
392.122	435.55
392.501	462.9
392.881	444.37
393.26	440.07
393.639	435.78
394.018	441.2
394.397	456.8
394.776	473.29
395.155	469.22
395.534	458.83
395.913	467.87
396.292	473.07
396.671	471.94
397.05	475.33
397.429	480.75
397.808	485.04
398.186	456.57
398.565	476.68
398.944	499.28
399.323	476.23
399.701	496.57
400.08	508.32
400.458	486.63
400.837	510.35
401.215	500.64
401.594	512.39
401.972	515.1
402.351	522.33
402.729	540.41
403.107	522.33
403.486	524.14
403.864	513.52
404.242	535.89
404.62	552.84
404.999	543.57
405.377	546.51
405.755	552.61
406.133	562.56
406.511	559.17
406.889	539.51
407.267	588.54
407.645	586.28
408.023	599.62
408.401	586.06
408.779	591.48
409.156	608.43
409.534	616.79
409.912	591.48
410.29	617.02
410.667	620.86
411.045	617.24
411.422	626.28
411.8	640.75
412.178	653.17
412.555	642.55
412.933	659.95
413.31	665.38
413.687	686.62
414.065	674.42
414.442	668.32
414.819	666.96
415.197	673.74
415.574	701.99
415.951	708.09
416.328	715.77
416.705	707.86
417.082	704.25
417.46	734.08
417.837	742.44
418.214	732.49
418.591	748.31
418.967	764.58
419.344	760.06
419.721	765.26
420.098	755.09
420.475	762.55
420.852	774.53
421.228	800.97
421.605	798.48
421.982	801.87
422.358	785.37
422.735	822.21
423.111	809.1
423.488	824.02
423.864	828.54
424.241	845.49
424.617	832.38
424.994	848.2
425.37	838.03
425.746	851.14
426.123	856.11
426.499	874.19
426.875	863.34
427.251	903.79
427.627	906.95
428.003	929.78
428.379	919.61
428.756	938.37
429.132	949.21
429.507	946.5
429.883	945.6
430.259	980.85
430.635	980.4
431.011	984.92
431.387	994.18
431.763	1006.61
432.138	1027.18
432.514	1049.1
432.89	1050.9
433.265	1074.86
433.641	1070.34
434.016	1113.28
434.392	1096.55
434.767	1111.24
435.143	1125.25
435.518	1115.54
435.894	1138.13
436.269	1184.46
436.644	1163.22
437.02	1193.73
437.395	1200.28
437.77	1201.86
438.145	1212.93
438.52	1198.47
438.895	1224.69
439.271	1212.93
439.646	1246.15
440.021	1240.96
440.395	1269.66
440.77	1269.66
441.145	1267.17
441.52	1282.31
441.895	1290.67
442.27	1316.89
442.645	1319.15
443.019	1354.17
443.394	1322.54
443.769	1341.74
444.143	1365.92
444.518	1366.6
444.892	1351.01
445.267	1367.05
445.641	1366.6
446.016	1417.9
446.39	1414.28
446.764	1398.24
447.139	1395.3
447.513	1434.4
447.887	1445.02
448.262	1473.72
448.636	1486.15
449.01	1477.79
449.384	1497.22
449.758	1479.14
450.132	1509.65
450.506	1513.49
450.88	1522.76
451.254	1544.45
451.628	1536.77
452.002	1531.12
452.376	1548.74
452.75	1593.72
453.123	1628.52
453.497	1620.83
453.871	1621.96
454.244	1642.75
454.618	1653.83
454.992	1675.29
455.365	1662.19
455.739	1728.85
456.112	1750.55
456.486	1760.49
456.859	1783.09
457.232	1787.16
457.606	1787.38
457.979	1789.42
458.352	1846.82
458.725	1866.93
459.099	1880.26
459.472	1909.41
459.845	1911.45
460.218	1980.15
460.591	1976.98
460.964	1976.76
461.337	2035.29
461.71	2044.78
462.083	2066.92
462.456	2061.95
462.829	2134.94
463.201	2167.94
463.574	2147.6
463.947	2185.11
464.32	2218.78
464.692	2234.15
465.065	2273.25
465.438	2295.84
465.81	2328.16
466.183	2356.86
466.555	2414.71
466.928	2448.61
467.3	2430.98
467.672	2474.14
468.045	2565.89
468.417	2539.45
468.789	2572.22
469.161	2602.05
469.534	2655.61
469.906	2703.06
470.278	2681.14
470.65	2748.26
471.022	2829.39
471.394	2869.16
471.766	2903.06
472.138	2930.86
472.51	3001.59
472.882	3058.99
473.253	3151.87
473.625	3162.04
473.997	3235.48
474.369	3263.05
474.74	3297.4
475.112	3399.32
475.484	3482.25
475.855	3526.32
476.227	3525.87
476.598	3677.05
476.97	3654.9
477.341	3739.42
477.713	3862.36
478.084	3893.77
478.455	3983.03
478.827	4040.88
479.198	4154.1
479.569	4185.51
479.94	4274.32
480.311	4427.09
480.682	4466.63
481.053	4569.68
481.424	4611.26
481.795	4726.51
482.166	4769.22
482.537	4882.44
482.908	4971.25
483.279	5041.31
483.65	5104.81
484.021	5221.64
484.391	5293.28
484.762	5355.65
485.133	5466.16
485.503	5548.87
485.874	5653.5
486.244	5737.79
486.615	5827.95
486.985	5907.05
487.356	6006.93
487.726	6098.68
488.097	6175.74
488.467	6259.58
488.837	6336.42
489.207	6441.5
489.578	6526.01
489.948	6576.41
490.318	6662.06
490.688	6746.8
491.058	6852.33
491.428	6916.74
491.798	7062.27
492.168	7126.45
492.538	7161.48
492.908	7263.85
493.278	7362.38
493.648	7393.34
494.017	7502.94
494.387	7628.58
494.757	7627.91
495.126	7817.51
495.496	7770.73
495.866	7861.8
496.235	7925.75
496.605	8003.72
496.974	8069.7
497.344	8160.1
497.713	8202.81
498.082	8273.09
498.452	8325.97
498.821	8361.45
499.19	8419.3
499.559	8518.28
499.928	8530.26
500.298	8646.19
500.667	8759.18
501.036	8770.25
501.405	8838.95
501.774	8887.31
502.143	8982.22
502.512	8992.62
502.88	9152.16
503.249	9110.13
503.618	9266.73
503.987	9227.41
504.356	9374.75
504.724	9355.77
505.093	9433.28
505.462	9517.57
505.83	9556.44
506.199	9640.28
506.567	9800.73
506.936	9798.02
507.304	9907.62
507.672	9930.22
508.041	9982.2
508.409	10164.56
508.777	10261.74
509.145	10245.92
509.514	10275.07
509.882	10426.48
510.25	10475.06
510.618	10486.36
510.986	10618.34
511.354	10723.64
511.722	10779.46
512.09	10889.74
512.458	10837.77
512.826	10942.85
513.193	11118.44
513.561	11173.35
513.929	11278.21
514.297	11376.73
514.664	11510.74
515.032	11488.6
515.4	11569.95
515.767	11723.62
516.135	11769.72
516.502	11737.63
516.869	11956.83
517.237	11984.85
517.604	12046.32
517.972	12244.28
518.339	12315.92
518.706	12411.96
519.073	12475.69
519.44	12533.77
519.808	12836.36
520.175	12735.57
520.542	12889.24
520.909	12888.33
521.276	13073.41
521.643	13197.93
522.009	13299.85
522.376	13379.62
522.743	13483.57
523.11	13640.4
523.477	13700.52
523.843	13813.28
524.21	13981.86
524.577	14016.21
524.943	14200.16
525.31	14261.63
525.676	14447.84
526.043	14577.55
526.409	14612.13
526.776	14769.19
527.142	14843.31
527.508	15002.85
527.874	15102.74
528.241	15185
528.607	15207.82
528.973	15408.72
529.339	15420.7
529.705	15517.64
530.071	15691.88
530.437	15702.72
530.803	15923.51
531.169	15859.1
531.535	15932.55
531.901	15966.22
532.267	16121.24
532.632	16152.43
532.998	16370.05
533.364	16428.81
533.73	16589.25
534.095	16598.29
534.461	16711.06
534.826	16775.01
535.192	16858.62
535.557	16947.44
535.923	16979.3
536.288	17130.71
536.653	17204.15
537.019	17186.75
537.384	17245.28
537.749	17263.36
538.114	17426.07
538.479	17358.5
538.845	17565.05
539.21	17555.56
539.575	17638.49
539.94	17761.88
540.305	17800.07
540.67	17852.27
541.034	17912.38
541.399	17964.81
541.764	17963.45
542.129	18034.64
542.494	18078.71
542.858	18222.2
543.223	18173.84
543.587	18352.82
543.952	18429.2
544.316	18425.59
544.681	18563.89
545.045	18606.83
545.41	18759.37
545.774	18771.79
546.138	18854.28
546.503	18831.68
546.867	18899.47
547.231	19088.85
547.595	19146.25
547.959	19162.52
548.324	19225.12
548.688	19326.81
549.052	19428.05
549.416	19438.22
549.779	19532
550.143	19563.41
550.507	19742.16
550.871	19838.66
551.235	19912.1
551.599	20067.81
551.962	20129.5
552.326	20207.24
552.689	20420.11
553.053	20430.96
553.417	20321.36
553.78	20731.52
554.143	20685.19
554.507	20804.74
554.87	20893.09
555.234	21158.62
555.597	21067.33
555.96	21232.29
556.323	21279.07
556.686	21384.83
557.05	21630.7
557.413	21845.39
557.776	21861.88
558.139	22025.27
558.502	22159.05
558.865	22218.71
559.228	22411.25
559.59	22524.69
559.953	22591.13
560.316	22960.16
560.679	22901.18
561.041	23129.65
561.404	23293.48
561.767	23558.11
562.129	23570.54
562.492	23841.72
562.854	23950.64
563.217	24026.57
563.579	24038.55
563.941	24273.34
564.304	24494.36
564.666	24750.62
565.028	24779.09
565.39	24964.17
565.753	25153.32
566.115	25286.43
566.477	25380.43
566.839	25600.77
567.201	26008.21
567.563	25953.53
567.925	26287.08
568.287	26385.38
568.648	26500.86
569.01	26670.12
569.372	26998.24
569.734	26934.52
570.095	27282.53
570.457	27446.82
570.819	27549.64
571.18	27599.13
571.542	27880.48
571.903	27899.69
572.265	28165.9
572.626	28466.68
572.987	28405.44
573.349	28617.64
573.71	28875.48
574.071	29134.23
574.432	29176.49
574.794	29583.71
575.155	29628.91
575.516	29657.84
575.877	29894.89
576.238	29946.42
576.599	30097.6
576.96	30270.48
577.32	30507.98
577.681	30485.61
578.042	30665.72
578.403	30856.22
578.763	30842.44
579.124	31118.36
579.485	31347.96
579.845	31347.51
580.206	31362.65
580.566	31485.58
580.927	31478.35
581.287	31670.66
581.648	31806.71
582.008	31840.6
582.368	31871.79
582.728	32048.28
583.089	32105
583.449	32168.5
583.809	32243.3
584.169	32371.66
584.529	32310.87
584.889	32621.37
585.249	32510.42
585.609	32513.58
585.969	32739.11
586.329	32563.75
586.688	32799.67
587.048	32774.36
587.408	32714.48
587.768	32824.08
588.127	32991.76
588.487	32841.71
588.846	33204.18
589.206	32877.86
589.565	32968.71
589.925	33193.34
590.284	33047.13
590.643	33231.3
591.003	33364.86
591.362	33432.88
591.721	33324.41
592.08	33461.13
592.44	33536.6
592.799	33496.61
593.158	33405.99
593.517	33493.44
593.876	33587.9
594.235	33543.38
594.593	33633.32
594.952	33606.66
595.311	33589.71
595.67	33832.19
596.029	33868.35
596.387	33814.34
596.746	34053.2
597.104	33777.95
597.463	33787.9
597.822	33895.46
598.18	33730.27
598.538	33847.56
598.897	34080.09
599.255	33887.56
599.613	34223.59
599.972	34061.34
600.33	34103.14
600.688	33966.88
601.046	34191.05
601.404	34275.79
601.762	34230.82
602.12	34360.99
602.478	34290.26
602.836	34347.2
603.194	34239.18
603.552	34343.36
603.91	34308.56
604.268	34443.7
604.625	34295.45
604.983	34414.32
605.341	34312.4
605.698	34594.2
606.056	34594.88
606.413	34439.63
606.771	34800.98
607.128	34816.12
607.485	34538.16
607.843	34688.44
608.2	34763.24
608.557	34984.7
608.914	34665.16
609.272	35000.97
609.629	34893.4
609.986	35007.75
610.343	34891.6
610.7	35162.55
611.057	35083
611.414	35008.88
611.771	35174.3
612.127	35205.94
612.484	35162.78
612.841	35276.22
613.198	35069.45
613.554	35278.03
613.911	35510.11
614.267	35403.45
614.624	35416.1
614.98	35495.65
615.337	35688.86
615.693	35575.87
616.05	35607.96
616.406	35753.49
616.762	35661.97
617.118	35790.1
617.475	35719.6
617.831	35943.32
618.187	35798.24
618.543	35862.64
618.899	35954.85
619.255	35953.49
619.611	35877.79
619.967	35937.44
620.323	36021.74
620.678	35899.71
621.034	35889.54
621.39	35977.67
621.746	35777.22
622.101	36206.36
622.457	36046.59
622.812	36029.19
623.168	36174.95
623.523	36141.96
623.879	36327.27
624.234	35888.63
624.589	36197.55
624.945	36172.92
625.3	36279.13
625.655	36078.23
626.01	36368.62
626.365	36171.79
626.72	36205.23
627.075	36199.81
627.43	36077.78
627.785	35896.54
628.14	36095.18
628.495	36220.6
628.85	36097.44
629.205	36018.12
629.559	36145.8
629.914	35884.56
630.269	36099.47
630.623	35811.57
630.978	35900.16
631.332	35978.12
631.687	35956.65
632.041	35840.05
632.396	35880.05
632.75	35696.32
633.104	35899.93
633.459	35678.47
633.813	35697.9
634.167	35675.98
634.521	35661.29
634.875	35694.06
635.229	35609.32
635.583	35555.53
635.937	35396.67
636.291	35400.96
636.645	35509.66
636.999	35402.54
637.352	35465.82
637.706	35243.68
638.06	35327.74
638.413	35247.52
638.767	35274.19
639.121	35276.9
639.474	34970.69
639.828	35090.46
640.181	35242.77
640.534	35288.42
640.888	35078.48
641.241	34891.14
641.594	35060.41
641.947	35011.59
642.301	34944.93
642.654	34963.69
643.007	34941.09
643.36	34921.43
643.713	34817.02
644.066	35055.21
644.419	34735.44
644.771	34415.68
645.124	34319.63
645.477	34120.77
645.83	33772.3
646.182	33823.6
646.535	33603.27
646.888	33681.01
647.24	33490.73
647.593	33728.01
647.945	33676.94
648.298	33532.54
648.65	33411.64
649.002	33346.78
649.355	33612.31
649.707	33472.88
650.059	33588.58
650.411	34097.95
650.763	34030.15
651.115	34512.4
651.467	34338.16
651.819	34214.33
652.171	34284.83
652.523	34108.34
652.875	34107.21
653.227	34147.66
653.578	34280.31
653.93	34222.91
654.282	33885.07
654.633	33837.16
654.985	34097.72
655.337	34084.39
655.688	34157.15
656.039	34188.56
656.391	33890.49
656.742	33920.55
657.094	34018.63
657.445	34102.24
657.796	33965.52
658.147	33933.2
658.498	33928.01
658.849	34085.29
659.2	33937.72
659.551	33817.5
659.902	34142.92
660.253	33969.36
660.604	33963.71
660.955	33769.14
661.306	33927.78
661.656	33850.27
662.007	33970.49
662.358	33917.39
662.708	33914.45
663.059	33850.72
663.409	33712.42
663.76	33839.87
664.11	33790.61
664.461	33862.7
664.811	33901.79
665.161	33793.09
665.511	33809.82
665.862	33769.82
666.212	33783.15
666.562	33779.31
666.912	33859.31
667.262	33774.11
667.612	33844.17
667.962	33744.51
668.312	33725.3
668.662	33888.69
669.011	33689.37
669.361	33717.39
669.711	33555.36
670.06	33559.2
670.41	33638.3
670.76	33456.15
671.109	33674.23
671.459	33468.36
671.808	33537.06
672.157	33530.5
672.507	33477.4
672.856	33350.17
673.205	33524.4
673.554	33428.13
673.904	33464.29
674.253	33554.46
674.602	33414.57
674.951	33030.4
675.3	32765.32
675.649	33335.48
675.998	33250.51
676.346	33138.65
676.695	33362.15
677.044	33075.83
677.393	33253
677.741	33173.22
678.09	33048.93
678.438	33004.87
678.787	33026.11
679.135	32992.44
679.484	32774.59
679.832	32962.16
680.181	32783.18
680.529	32827.24
680.877	32854.81
681.225	32741.6
681.573	32882.84
681.922	32602.62
682.27	32575.27
682.618	32615.5
682.966	32501.15
683.314	32469.97
683.661	32393.13
684.009	32254.83
684.357	32272
684.705	32203.08
685.053	32257.54
685.4	32234.94
685.748	31899.81
686.095	31871.11
686.443	31630.89
686.79	31711.57
687.138	31841.96
687.485	31685.13
687.832	31611.23
688.18	31615.98
688.527	31531.46
688.874	31366.72
689.221	31286.27
689.568	31246.04
689.915	31170.56
690.262	31120.17
690.609	31038.36
690.956	31020.51
691.303	30972.6
691.65	30816.22
691.997	30649.9
692.344	30533.52
692.69	30630.01
693.037	30453.3
693.383	30153.64
693.73	30357.48
694.077	30020.99
694.423	30092.85
694.769	29952.29
695.116	29942.12
695.462	29851.28
695.808	29742.81
696.155	29826.87
696.501	29613.09
696.847	29600.21
697.193	29389.59
697.539	29572.41
697.885	29198.87
698.231	29151.41
698.577	29100.56
698.923	29047.46
699.269	28833.22
699.614	28820.34
699.96	28663.29
700.306	28619.67
700.651	28562.27
700.997	28482.5
701.342	28448.83
701.688	28229.4
702.033	28222.62
702.379	28282.28
702.724	28041.38
703.069	28106.92
703.415	27764.33
703.76	27798.45
704.105	27796.64
704.45	27787.83
704.795	27511.23
705.14	27457.67
705.485	27393.94
705.83	27231.69
706.175	27311.23
706.52	27261.06
706.865	27037.79
707.209	27065.36
707.554	26993.95
707.899	26964.35
708.243	26852.49
708.588	26755.77
708.932	26678.93
709.277	26643.45
709.621	26682.1
709.966	26498.37
710.31	26624.24
710.654	26307.87
710.998	26209.34
711.342	26374.53
711.687	26297.25
712.031	26184.93
712.375	26109.23
712.719	26004.15
713.063	25944.26
713.407	25981.77
713.75	25873.98
714.094	25949.01
714.438	25787.66
714.782	25884.38
715.125	25579.3
715.469	25702.01
715.812	25631.73
716.156	25398.06
716.499	25550.6
716.843	25520.77
717.186	25422.02
717.53	25458.4
717.873	25456.14
718.216	25352.41
718.559	25245.07
718.902	25169.59
719.246	25188.12
719.589	25151.29
719.932	25039.2
720.275	24991.97
720.617	25006.43
720.96	24942.93
721.303	25018.41
721.646	24978.41
721.989	24813.44
722.331	24901.35
722.674	24928.92
723.016	24872.2
723.359	24944.29
723.701	24875.14
724.044	24711.53
724.386	24553.56
724.729	24725.08
725.071	24566.44
725.413	24568.25
725.755	24650.51
726.097	24533
726.439	24396.96
726.782	24431.53
727.124	24564.86
727.465	24394.02
727.807	24446.22
728.149	24365.09
728.491	24412.78
728.833	24404.41
729.175	24263.63
729.516	24392.66
729.858	24277.64
730.199	24397.18
730.541	24213.46
730.882	24329.16
731.224	24335.04
731.565	24171.2
731.906	24269.73
732.248	24302.95
732.589	24092.78
732.93	23983.63
733.271	24123.52
733.612	24110.41
733.953	24098.21
734.294	24069.96
734.635	24008.04
734.976	24134.14
735.317	24004.88
735.658	24011.88
735.999	24041.49
736.339	24006.69
736.68	24012.11
737.021	24056.85
737.361	23889.63
737.702	24062.28
738.042	24015.27
738.383	24035.84
738.723	23926.24
739.063	23953.81
739.404	23929.4
739.744	23921.49
740.084	23844.43
740.424	23952.68
740.764	23871.77
741.104	24029.06
741.444	23777.09
741.784	23840.81
742.124	23917.65
742.464	23820.02
742.804	23815.28
743.143	23763.98
743.483	23866.35
743.823	23705
744.162	23697.99
744.502	23705.9
744.841	23736.64
745.181	23884.43
745.52	23680.14
745.86	23752.68
746.199	23757.88
746.538	23662.06
746.877	23806.01
747.216	23783.41
747.556	23697.77
747.895	23687.6
748.234	23588.84
748.573	23611.67
748.911	23566.92
749.25	23626.58
749.589	23434.5
749.928	23491.67
750.267	23556.53
750.605	23526.92
750.944	23501.39
751.283	23421.62
751.621	23617.77
751.96	23407.6
752.298	23360.6
752.636	23415.51
752.975	23241.28
753.313	23354.05
753.651	23319.92
753.989	23295.97
754.327	23202.86
754.666	23100.95
755.004	23118.35
755.342	23249.42
755.679	23088.29
