Data from tablewood_brown_FLMS001491_040.txt Node
Date: Tue Feb 07 11:10:23 GMT 2017
User: dcchb
Spectrometer: FLMS00149
Trigger mode: 0
Integration Time (sec): 2.000000E-2
Scans to average: 10
Electric dark correction enabled: true
Nonlinearity correction enabled: false
Boxcar width: 0
XAxis mode: Wavelengths
Number of Pixels in Spectrum: 2048
>>>>>Begin Spectral Data<<<<<
341.393	-20.06
341.776	-20.06
342.16	-20.06
342.543	-41.07
342.927	-81.98
343.31	-72.26
343.693	-83.11
344.077	-60.73
344.46	-55.76
344.843	-39.26
345.226	-47.4
345.61	-31.81
345.993	-8.76
346.376	-9.89
346.759	22.43
347.142	27.63
347.525	29.66
347.908	78.02
348.291	54.52
348.674	101.3
349.057	95.42
349.44	127.74
349.823	149.43
350.206	168.87
350.588	195.31
350.971	216.55
351.354	219.49
351.737	243.89
352.119	292.7
352.502	233.95
352.884	285.25
353.267	301.29
353.65	300.61
354.032	300.84
354.414	306.49
354.797	301.74
355.179	316.66
355.562	320.05
355.944	340.84
356.326	341.06
356.709	334.51
357.091	329.54
357.473	323.21
357.855	350.56
358.238	344.91
358.62	360.27
359.002	353.49
359.384	340.84
359.766	362.31
360.148	358.01
360.53	370.67
360.912	346.04
361.294	351.23
361.676	327.05
362.057	343.55
362.439	339.48
362.821	321.86
363.203	328.64
363.584	345.58
363.966	316.66
364.348	331.35
364.729	308.52
365.111	343.78
365.493	327.05
365.874	326.83
366.256	330.44
366.637	332.93
367.019	319.82
367.4	342.65
367.781	334.28
368.163	326.83
368.544	342.87
368.925	315.3
369.306	323.89
369.688	316.66
370.069	311.91
370.45	329.09
370.831	365.02
371.212	323.66
371.593	337
371.974	339.93
372.355	325.47
372.736	322.08
373.117	313.49
373.498	336.54
373.879	327.73
374.26	331.35
374.641	351.69
375.021	339.71
375.402	346.71
375.783	325.25
376.163	343.32
376.544	343.1
376.925	358.01
377.305	360.95
377.686	344.45
378.066	368.18
378.447	349.43
378.827	343.1
379.208	347.39
379.588	338.8
379.968	326.38
380.349	367.5
380.729	367.28
381.109	359.6
381.489	367.96
381.87	386.04
382.25	372.48
382.63	358.92
383.01	395.53
383.39	375.19
383.77	366.37
384.15	380.16
384.53	388.07
384.91	396.66
385.29	395.98
385.67	382.65
386.049	402.53
386.429	396.43
386.809	418.12
387.189	413.83
387.568	405.7
387.948	406.83
388.328	389.42
388.707	385.58
389.087	422.42
389.466	408.63
389.846	415.19
390.225	428.97
390.605	432.59
390.984	439.14
391.363	421.97
391.743	435.53
392.122	458.8
392.501	435.98
392.881	475.98
393.26	450.89
393.639	462.64
394.018	452.25
394.397	466.71
394.776	452.7
395.155	449.31
395.534	469.42
395.913	447.95
396.292	457.22
396.671	441.85
397.05	475.07
397.429	490.44
397.808	470.55
398.186	485.47
398.565	488.18
398.944	484.79
399.323	494.73
399.701	480.95
400.08	494.51
400.458	501.29
400.837	510.55
401.215	495.86
401.594	513.94
401.972	535.86
402.351	533.83
402.729	511.46
403.107	527.27
403.486	538.35
403.864	548.52
404.242	543.77
404.62	544.22
404.999	542.64
405.377	560.72
405.755	584
406.133	581.74
406.511	553.49
406.889	572.47
407.267	570.44
407.645	578.57
408.023	593.71
408.401	631
408.779	593.04
409.156	615.63
409.534	579.7
409.912	623.99
410.29	632.13
410.667	640.27
411.045	639.59
411.422	653.37
411.8	673.26
412.178	665.12
412.555	669.87
412.933	694.05
413.31	671
413.687	689.3
414.065	711.22
414.442	688.4
414.819	714.84
415.197	711.9
415.574	674.62
415.951	727.27
416.328	718.46
416.705	739.7
417.082	721.17
417.46	737.21
417.837	749.87
418.214	763.88
418.591	747.16
418.967	754.16
419.344	780.15
419.721	759.58
420.098	759.58
420.475	773.37
420.852	776.99
421.228	804.33
421.605	812.92
421.982	797.55
422.358	810.66
422.735	830.77
423.111	808.17
423.488	826.25
423.864	819.92
424.241	845.68
424.617	832.58
424.994	867.15
425.37	863.31
425.746	855.18
426.123	866.47
426.499	860.15
426.875	887.04
427.251	884.1
427.627	888.39
428.003	947.83
428.379	938.56
428.756	912.35
429.132	951.44
429.507	952.57
429.883	949.18
430.259	955.96
430.635	976.08
431.011	983.08
431.387	1018.79
431.763	1030.54
432.138	1026.24
432.514	1044.77
432.89	1041.61
433.265	1082.06
433.641	1076.86
434.016	1068.28
434.392	1084.32
434.767	1108.05
435.143	1120.48
435.518	1158.22
435.894	1124.09
436.269	1127.26
436.644	1175.17
437.02	1179.01
437.395	1193.47
437.77	1215.17
438.145	1242.06
438.52	1221.95
438.895	1227.82
439.271	1222.85
439.646	1277.99
440.021	1260.14
440.395	1291.32
440.77	1243.41
441.145	1299.46
441.52	1301.27
441.895	1313.69
442.27	1344.43
442.645	1310.53
443.019	1326.8
443.394	1355.05
443.769	1341.94
444.143	1367.25
444.518	1381.49
444.892	1371.77
445.267	1389.4
445.641	1383.52
446.016	1387.14
446.39	1386.69
446.764	1431.21
447.139	1438.44
447.513	1437.31
447.887	1471.88
448.262	1420.58
448.636	1438.21
449.01	1500.58
449.384	1507.59
449.758	1493.58
450.132	1492.45
450.506	1518.66
450.88	1508.27
451.254	1533.8
451.628	1570.64
452.002	1584.2
452.376	1583.74
452.75	1568.83
453.123	1569.96
453.497	1636.4
453.871	1625.32
454.244	1650.86
454.618	1681.14
454.992	1698.54
455.365	1709.84
455.739	1738.09
456.112	1740.8
456.486	1770.86
456.859	1753.46
457.232	1823.74
457.606	1808.82
457.979	1823.29
458.352	1855.15
458.725	1888.82
459.099	1872.1
459.472	1930.4
459.845	1945.99
460.218	1983.06
460.591	1972.89
460.964	1979.89
461.337	2049.72
461.71	2042.94
462.083	2103.73
462.456	2116.39
462.829	2124.07
463.201	2174.69
463.574	2169.94
463.947	2181.92
464.32	2243.16
464.692	2251.97
465.065	2282.26
465.438	2318.19
465.81	2377.17
466.183	2376.04
466.555	2416.26
466.928	2400.67
467.3	2430.05
467.672	2459.2
468.045	2577.62
468.417	2588.46
468.789	2590.95
469.161	2621.68
469.534	2659.87
469.906	2713.43
470.278	2748.68
470.65	2810.83
471.022	2860.09
471.394	2886.99
471.766	2929.7
472.138	2970.15
472.51	3038.17
472.882	3079.75
473.253	3128.34
473.625	3183.02
473.997	3274.32
474.369	3276.81
474.74	3338.95
475.112	3393.19
475.484	3444.03
475.855	3521.09
476.227	3571.04
476.598	3698.04
476.97	3668.21
477.341	3826.4
477.713	3851.03
478.084	3915.66
478.455	4029.56
478.827	4044.92
479.198	4242.66
479.569	4223.45
479.94	4314.75
480.311	4392.26
480.682	4454.18
481.053	4571.91
481.424	4668.18
481.795	4732.14
482.166	4823.43
482.537	4915.18
482.908	4933.03
483.279	5041.96
483.65	5159.02
484.021	5228.62
484.391	5312.91
484.762	5399.01
485.133	5418.22
485.503	5469.97
485.874	5700.25
486.244	5753.13
486.615	5744.54
486.985	5911.09
487.356	6053.23
487.726	6086.9
488.097	6221.59
488.467	6252.32
488.837	6358.31
489.207	6465.65
489.578	6547.68
489.948	6587.23
490.318	6706.77
490.688	6752.42
491.058	6858.18
491.428	6968.46
491.798	7005.97
492.168	7218.17
492.538	7199.42
492.908	7301.79
493.278	7319.19
493.648	7337.26
494.017	7523.93
494.387	7576.58
494.757	7737.71
495.126	7734.09
495.496	7860.41
495.866	7885.95
496.235	7926.85
496.605	8021.99
496.974	8076.23
497.344	8125.27
497.713	8182.89
498.082	8300.86
498.452	8354.64
498.821	8412.72
499.19	8421.98
499.559	8549.21
499.928	8566.84
500.298	8614.52
500.667	8754.85
501.036	8733.39
501.405	8817.45
501.774	8882.31
502.143	9008.63
502.512	9010.89
502.88	9138.57
503.249	9150.32
503.618	9190.55
503.987	9260.15
504.356	9284.78
504.724	9422.63
505.093	9441.84
505.462	9490.2
505.83	9568.39
506.199	9688.62
506.567	9814.04
506.936	9786.47
507.304	9849.97
507.672	9936.97
508.041	9987.36
508.409	10068.72
508.777	10142.39
509.145	10273.23
509.514	10243.18
509.882	10431.65
510.25	10384.19
510.618	10519.78
510.986	10604.75
511.354	10705.76
511.722	10805.65
512.09	10886.78
512.458	10870.73
512.826	11032.99
513.193	11114.57
513.561	11148.69
513.929	11211.51
514.297	11425.52
514.664	11497.61
515.032	11536.93
515.4	11571.05
515.767	11707.55
516.135	11782.8
516.502	11740.09
516.869	11891.72
517.237	12066.18
517.604	12029.34
517.972	12202.45
518.339	12224.82
518.706	12258.94
519.073	12389.56
519.44	12563.79
519.808	12657.35
520.175	12737.12
520.542	12892.6
520.909	12903.45
521.276	13016.89
521.643	13034.06
522.009	13219.37
522.376	13345.92
522.743	13394.73
523.11	13582.3
523.477	13757.66
523.843	13728.96
524.21	13928.96
524.577	14069.97
524.943	14162.4
525.31	14237.2
525.676	14274.71
526.043	14454.82
526.409	14554.93
526.776	14730.29
527.142	14744.75
527.508	14792.66
527.874	15027.46
528.241	15049.38
528.607	15121.01
528.973	15263.84
529.339	15358.07
529.705	15494.11
530.071	15666.76
530.437	15748.57
530.803	15796.48
531.169	15890.49
531.535	15943.82
531.901	15954.44
532.267	16039.63
532.632	16141.78
532.998	16239.86
533.364	16384.03
533.73	16394.43
534.095	16484.37
534.461	16605.5
534.826	16657.47
535.192	16817.24
535.557	16942.21
535.923	16965.03
536.288	17003.23
536.653	17011.59
537.019	17081.42
537.384	17183.56
537.749	17296.78
538.114	17272.82
538.479	17376.1
538.845	17394.18
539.21	17350.33
539.575	17564.57
539.94	17590.55
540.305	17826.25
540.67	17663.09
541.034	17819.25
541.399	17844.79
541.764	17944.67
542.129	18055.4
542.494	18035.51
542.858	18093.82
543.223	18154.16
543.587	18266.92
543.952	18236.41
544.316	18367.03
544.681	18324.55
545.045	18463.75
545.41	18613.13
545.774	18619.91
546.138	18748.49
546.503	18794.82
546.867	18865.55
547.231	19028.71
547.595	18940.35
547.959	19056.28
548.324	19065.09
548.688	19222.38
549.052	19235.03
549.416	19257.18
549.779	19318.19
550.143	19444.07
550.507	19649.94
550.871	19705.98
551.235	19764.51
551.599	19892.19
551.962	19957.5
552.326	19930.15
552.689	20180.32
553.053	20076.14
553.417	20214.21
553.78	20429.35
554.143	20449.91
554.507	20626.63
554.87	20622.79
555.234	20902.78
555.597	20888.77
555.96	20927.19
556.323	21096
556.686	21241.76
557.05	21386.61
557.413	21468.19
557.776	21591.58
558.139	21896.88
558.502	21837
558.865	21974.85
559.228	22264.56
559.59	22348.17
559.953	22399.92
560.316	22715.84
560.679	22760.14
561.041	22985.67
561.404	23107.25
561.767	23352.89
562.129	23347.01
562.492	23641.92
562.854	23568.02
563.217	23769.15
563.579	23927.79
563.941	24075.81
564.304	24163.04
564.666	24407.78
565.028	24596.92
565.39	24702.68
565.753	24903.58
566.115	24970.47
566.477	25232.61
566.839	25356.9
567.201	25587.18
567.563	25718.02
567.925	26007.51
568.287	26064
568.648	26159.37
569.01	26515.74
569.372	26709.64
569.734	26667.83
570.095	26847.26
570.457	27078.89
570.819	27287.25
571.18	27343.29
571.542	27508.94
571.903	27720.91
572.265	27941.02
572.626	28076.83
572.987	28151.41
573.349	28341.68
573.71	28668.46
574.071	28683.14
574.432	28866.64
574.794	29124.94
575.155	29108.44
575.516	29159.29
575.877	29439.73
576.238	29471.15
576.599	29740.29
576.96	29884.02
577.32	29948.2
577.681	30126.04
578.042	30260.05
578.403	30323.1
578.763	30481.51
579.124	30700.27
579.485	30754.95
579.845	30919.47
580.206	30955.17
580.566	31106.58
580.927	31210.99
581.287	31376.41
581.648	31238.33
582.008	31608.26
582.368	31502.51
582.728	31626.57
583.089	31791.99
583.449	31745.66
583.809	31847.35
584.169	31985.66
584.529	31973.45
584.889	32341.58
585.249	32016.39
585.609	31969.84
585.969	32281.02
586.329	32135.26
586.688	32310.62
587.048	32394.91
587.408	32312.88
587.768	32330.73
588.127	32365.53
588.487	32543.61
588.846	32653.89
589.206	32594.68
589.565	32548.81
589.925	32767.78
590.284	32696.82
590.643	32770.95
591.003	32792.41
591.362	32988.34
591.721	32923.48
592.08	32965.52
592.44	33106.3
592.799	33152.18
593.158	32941.34
593.517	33036.25
593.876	33095.46
594.235	33022.24
594.593	32930.49
594.952	33231.95
595.311	33087.32
595.67	33220.43
596.029	33269.92
596.387	33354.21
596.746	33373.42
597.104	33296.58
597.463	33361.89
597.822	33574.54
598.18	33338.16
598.538	33378.61
598.897	33602.34
599.255	33392.4
599.613	33760.52
599.972	33653.18
600.33	33653.18
600.688	33470.14
601.046	33637.59
601.404	33736.34
601.762	33634.43
602.12	33982.21
602.478	33927.07
602.836	33824.03
603.194	33692.96
603.552	33812.05
603.91	33872.39
604.268	33942.67
604.625	33894.31
604.983	34007.98
605.341	33886.4
605.698	34112.38
606.056	34136.79
606.413	34042.33
606.771	34091.36
607.128	34308.08
607.485	34106.96
607.843	34148.76
608.2	34298.59
608.557	34338.59
608.914	34253.17
609.272	34424.24
609.629	34401.41
609.986	34581.75
610.343	34388.53
610.7	34629.2
611.057	34579.71
611.414	34638.69
611.771	34630.78
612.127	34865.58
612.484	34776.77
612.841	35020.83
613.198	34854.28
613.554	34681.63
613.911	35090.43
614.267	35004.11
614.624	34951
614.98	34918.69
615.337	35265.34
615.693	35081.39
616.05	35094.5
616.406	35184.67
616.762	35113.48
617.118	35240.94
617.475	35095.86
617.831	35142.41
618.187	35250.43
618.543	35356.19
618.899	35506.02
619.255	35437.77
619.611	35360.03
619.967	35565.22
620.323	35618.55
620.678	35521.16
621.034	35494.49
621.39	35508.73
621.746	35444.32
622.101	35715.28
622.457	35505.34
622.812	35641.83
623.168	35747.59
623.523	35673.69
623.879	35746.69
624.234	35487.94
624.589	35699.68
624.945	35541.95
625.3	35759.57
625.655	35702.39
626.01	35713.69
626.365	35677.99
626.72	35677.31
627.075	35620.81
627.43	35590.99
627.785	35513.47
628.14	35702.39
628.495	35666.46
628.85	35520.03
629.205	35419.01
629.559	35655.84
629.914	35434.15
630.269	35388.05
630.623	35471.44
630.978	35310.77
631.332	35516.41
631.687	35440.25
632.041	35467.15
632.396	35474.38
632.75	35262.63
633.104	35405
633.459	35208.85
633.813	35156.42
634.167	35242.97
634.521	35204.55
634.875	35239.81
635.229	35100.15
635.583	34940.61
635.937	34998.01
636.291	34955.3
636.645	34847.95
636.999	34837.33
637.352	34838.01
637.706	34766.83
638.06	34741.74
638.413	34749.65
638.767	34625.81
639.121	34805.69
639.474	34549.88
639.828	34590.56
640.181	34542.2
640.534	34681.4
640.888	34406.38
641.241	34424.01
641.594	34450
641.947	34553.27
642.301	34362.99
642.654	34429.43
643.007	34341.98
643.36	34322.54
643.713	34268.31
644.066	34376.1
644.419	34160.29
644.771	33985.6
645.124	33651.6
645.477	33681.43
645.83	33347.43
646.182	33337.03
646.535	33336.36
646.888	33328.9
647.24	33116.7
647.593	33304.72
647.945	33197.6
648.298	32981.56
648.65	33088.9
649.002	33168.45
649.355	33117.6
649.707	32975.69
650.059	33141.56
650.411	33459.06
650.763	33578.38
651.115	33945.38
651.467	33737.47
651.819	33811.14
652.171	33734.54
652.523	33699.96
652.875	33731.37
653.227	33679.17
653.578	33856.12
653.93	33663.13
654.282	33566.18
654.633	33547.87
654.985	33545.84
655.337	33658.15
655.688	33522.34
656.039	33706.97
656.391	33503.81
656.742	33520.53
657.094	33617.48
657.445	33766.85
657.796	33438.73
658.147	33486.63
658.498	33492.96
658.849	33577.48
659.2	33636.46
659.551	33479.18
659.902	33639.4
660.253	33548.78
660.604	33550.36
660.955	33268.33
661.306	33549.46
661.656	33389.69
662.007	33386.98
662.358	33367.99
662.708	33425.17
663.059	33425.17
663.409	33167.09
663.76	33407.99
664.11	33440.53
664.461	33540.64
664.811	33584.03
665.161	33474.66
665.511	33244.61
665.862	33414.77
666.212	33468.78
666.562	33466.07
666.912	33414.32
667.262	33419.29
667.612	33217.04
667.962	33350.37
668.312	33304.04
668.662	33505.84
669.011	33309.01
669.361	33309.92
669.711	33250.26
670.06	33191.95
670.41	33204.61
670.76	33266.98
671.109	33210.93
671.459	33175.91
671.808	33174.1
672.157	33154.44
672.507	32961.9
672.856	32907.67
673.205	33108.11
673.554	33047.78
673.904	33011.39
674.253	33118.96
674.602	33024.05
674.951	32561.01
675.3	32363.27
675.649	32976.36
675.998	32900.66
676.346	32823.83
676.695	32803.26
677.044	32789.93
677.393	32876.48
677.741	32817.95
678.09	32660.67
678.438	32639.42
678.787	32687.33
679.135	32587.22
679.484	32401.46
679.832	32511.07
680.181	32279.89
680.529	32431.29
680.877	32348.58
681.225	32339.77
681.573	32306.1
681.922	32211.41
682.27	32110.85
682.618	32269.49
682.966	32180.68
683.314	32096.84
683.661	31958.99
684.009	31842.16
684.357	31740.92
684.705	31682.16
685.053	31770.97
685.4	31746.11
685.748	31568.27
686.095	31492.56
686.443	31409.17
686.79	31307.26
687.138	31509.28
687.485	31344.09
687.832	31288.5
688.18	31240.14
688.527	31139.12
688.874	31152.68
689.221	31156.07
689.568	31024.78
689.915	30808.74
690.262	30878.57
690.609	30692.81
690.956	30536.43
691.303	30475.41
691.65	30516.09
691.997	30441.29
692.344	30251.46
692.69	30279.49
693.037	30119.94
693.383	29816
693.73	30090.79
694.077	29803.11
694.423	29743.46
694.769	29711.59
695.116	29563.35
695.462	29511.6
695.808	29378.27
696.155	29525.16
696.501	29152.28
696.847	29248.78
697.193	29008.33
697.539	29048.11
697.885	28838.85
698.231	28722.92
698.577	28806.08
698.923	28695.12
699.269	28533.77
699.614	28452.64
699.96	28389.37
700.306	28341.01
700.651	28244.06
700.997	28094.69
701.342	28123.61
701.688	28015.82
702.033	27939.66
702.379	27861.7
702.724	27742.6
703.069	27702.6
703.415	27412.67
703.76	27373.35
704.105	27507.81
704.45	27345.33
704.795	27268.04
705.14	27079.57
705.485	27132.22
705.83	27056.07
706.175	26965.22
706.52	26899.01
706.865	26842.29
707.209	26769.3
707.554	26623.99
707.899	26724.78
708.243	26495.63
708.588	26582.18
708.932	26294.73
709.277	26352.13
709.621	26312.36
709.966	26110.56
710.31	26239.82
710.654	25959.6
710.998	26082.08
711.342	25986.04
711.687	25911.47
712.031	25861.3
712.375	25737.91
712.719	25856.55
713.063	25670.34
713.407	25781.3
713.75	25542.21
714.094	25563.9
714.438	25347.41
714.782	25508.99
715.125	25310.58
715.469	25431.03
715.812	25283.91
716.156	25146.51
716.499	25048.44
716.843	25198.49
717.186	25025.61
717.53	25139.73
717.873	25146.06
718.216	25207.98
718.559	25064.93
718.902	24900.64
719.246	25057.48
719.589	24869.01
719.932	24790.59
720.275	24922.79
720.617	24788.11
720.96	24793.75
721.303	24774.55
721.646	24714.43
721.989	24645.51
722.331	24664.27
722.674	24572.52
723.016	24603.93
723.359	24503.59
723.701	24574.55
724.044	24351.05
724.386	24233.32
724.729	24346.53
725.071	24353.54
725.413	24434.44
725.755	24381.34
726.097	24249.36
726.439	24297.5
726.782	24219.76
727.124	24356.48
727.465	24244.39
727.807	24245.07
728.149	24129.82
728.491	24202.13
728.833	24166.88
729.175	24123.49
729.516	24109.93
729.858	24037.62
730.199	24047.11
730.541	23983.38
730.882	24001.23
731.224	24029.26
731.565	23948.35
731.906	24009.59
732.248	24045.07
732.589	23796.49
732.93	23824.29
733.271	23828.36
733.612	23862.03
733.953	23932.31
734.294	23818.64
734.635	23791.75
734.976	23987.22
735.317	23747.45
735.658	23760.34
735.999	23770.73
736.339	23740.68
736.68	23759.66
737.021	23854.12
737.361	23794.91
737.702	23906.09
738.042	23684.63
738.383	23641.92
738.723	23799.66
739.063	23651.41
739.404	23747.68
739.744	23667.91
740.084	23516.95
740.424	23741.13
740.764	23597.63
741.104	23755.14
741.444	23664.74
741.784	23459.78
742.124	23729.15
742.464	23574.58
742.804	23529.38
743.143	23426.79
743.483	23533.22
743.823	23413
744.162	23455.71
744.502	23519.89
744.841	23570.28
745.181	23542.26
745.52	23540
745.86	23589.94
746.199	23467.01
746.538	23434.02
746.877	23607.8
747.216	23550.62
747.556	23489.61
747.895	23506.78
748.234	23398.76
748.573	23438.31
748.911	23395.83
749.25	23407.12
749.589	23343.17
749.928	23270.86
750.267	23380.01
750.605	23243.51
750.944	23210.75
751.283	23204.87
751.621	23232.21
751.96	23033.12
752.298	23048.72
752.636	23166.45
752.975	23057.98
753.313	22986.12
753.651	23087.81
753.989	22977.53
754.327	23002.39
754.666	22897.31
755.004	22871.09
