Data from tablewood_dark_bookshelf_FLMS001491_00008.txt Node
Date: Wed Feb 08 14:13:20 GMT 2017
User: dcchb
Spectrometer: FLMS00149
Trigger mode: 0
Integration Time (sec): 2.000000E-2
Scans to average: 10
Electric dark correction enabled: true
Nonlinearity correction enabled: false
Boxcar width: 0
XAxis mode: Wavelengths
Number of Pixels in Spectrum: 2048
>>>>>Begin Spectral Data<<<<<
341.393	-19.51
341.776	-19.51
342.16	-19.51
342.543	-66.28
342.927	-66.51
343.31	-69.22
343.693	-74.87
344.077	-77.36
344.46	-71.26
344.843	-46.17
345.226	-49.11
345.61	-19.96
345.993	-7.75
346.376	3.32
346.759	10.78
347.142	16.65
347.525	47.39
347.908	63.88
348.291	75.18
348.674	85.58
349.057	112.92
349.44	100.72
349.823	149.98
350.206	168.74
350.588	188.85
350.971	193.37
351.354	209.87
351.737	225.91
352.119	251.45
352.502	246.02
352.884	266.59
353.267	273.82
353.65	267.94
354.032	281.96
354.414	310.2
354.797	298.9
355.179	307.49
355.562	309.3
355.944	325.8
356.326	326.7
356.709	330.32
357.091	325.34
357.473	331.22
357.855	330.32
358.238	337.55
358.62	345.68
359.002	331.45
359.384	320.15
359.766	311.56
360.148	345.01
360.53	328.51
360.912	326.47
361.294	319.24
361.676	328.96
362.057	331.67
362.439	330.09
362.821	352.91
363.203	349.75
363.584	326.25
363.966	334.16
364.348	342.97
364.729	300.03
365.111	312.24
365.493	344.1
365.874	314.27
366.256	314.27
366.637	316.53
367.019	302.97
367.4	319.92
367.781	318.11
368.163	342.07
368.544	310.66
368.925	313.59
369.306	307.49
369.688	306.59
370.069	325.57
370.45	294.61
370.831	324.67
371.212	307.04
371.593	321.5
371.974	329.41
372.355	318.57
372.736	327.38
373.117	332.8
373.498	318.57
373.879	339.81
374.26	326.7
374.641	315.85
375.021	334.16
375.402	334.16
375.783	303.65
376.163	341.62
376.544	349.3
376.925	365.12
377.305	366.25
377.686	358.34
378.066	348.62
378.447	318.57
378.827	356.98
379.208	343.65
379.588	341.84
379.968	367.83
380.349	357.43
380.729	363.76
381.109	354.04
381.489	361.95
381.87	342.75
382.25	372.8
382.63	370.99
383.01	384.78
383.39	384.1
383.77	360.15
384.15	368.51
384.53	361.5
384.91	377.32
385.29	390.65
385.67	394.04
386.049	377.55
386.429	387.72
386.809	386.81
387.189	393.82
387.568	382.52
387.948	414.38
388.328	424.1
388.707	389.07
389.087	411.22
389.466	420.26
389.846	406.92
390.225	419.81
390.605	408.05
390.984	430.88
391.363	419.13
391.743	428.17
392.122	418.68
392.501	419.58
392.881	416.87
393.26	430.88
393.639	413.7
394.018	420.03
394.397	438.34
394.776	433.82
395.155	436.3
395.534	450.31
395.913	448.73
396.292	443.08
396.671	426.81
397.05	472.69
397.429	439.47
397.808	466.36
398.186	446.02
398.565	474.72
398.944	467.49
399.323	463.42
399.701	470.88
400.08	496.64
400.458	482.4
400.837	486.02
401.215	480.14
401.594	483.76
401.972	484.21
402.351	489.18
402.729	502.06
403.107	496.64
403.486	499.13
403.864	506.13
404.242	526.24
404.62	507.71
404.999	526.7
405.377	522.18
405.755	520.37
406.133	499.8
406.511	536.64
406.889	524.89
407.267	542.29
407.645	539.12
408.023	564.89
408.401	564.89
408.779	570.08
409.156	584.77
409.534	596.07
409.912	587.71
410.29	589.52
410.667	601.72
411.045	596.98
411.422	587.94
411.8	606.24
412.178	622.96
412.555	636.75
412.933	634.26
413.31	658.9
413.687	641.49
414.065	642.85
414.442	644.43
414.819	659.57
415.197	660.93
415.574	673.58
415.951	667.93
416.328	695.96
416.705	683.08
417.082	701.38
417.46	702.06
417.837	716.07
418.214	693.92
418.591	716.29
418.967	724.88
419.344	716.29
419.721	720.36
420.098	736.86
420.475	711.78
420.852	738.67
421.228	718.33
421.605	747.03
421.982	781.83
422.358	775.73
422.735	797.42
423.111	772.56
423.488	814.6
423.864	783.19
424.241	797.2
424.617	824.31
424.994	805.11
425.37	852.11
425.746	806.69
426.123	843.07
426.499	851.43
426.875	840.59
427.251	879.45
427.627	872.22
428.003	870.19
428.379	897.53
428.756	890.08
429.132	907.02
429.507	925.33
429.883	946.57
430.259	925.1
430.635	948.38
431.011	953.58
431.387	982.05
431.763	965.1
432.138	991.09
432.514	1010.98
432.89	1014.59
433.265	1024.99
433.641	1027.25
434.016	1024.31
434.392	1045.55
434.767	1040.81
435.143	1064.99
435.518	1090.97
435.894	1126
436.269	1117.19
436.644	1122.84
437.02	1138.88
437.395	1152.44
437.77	1151.99
438.145	1170.29
438.52	1194.7
438.895	1159.9
439.271	1188.6
439.646	1182.05
440.021	1209.62
440.395	1199.22
440.77	1208.26
441.145	1230.63
441.52	1247.13
441.895	1253.91
442.27	1268.6
442.645	1253.68
443.019	1274.25
443.394	1261.59
443.769	1272.21
444.143	1293
444.518	1301.14
444.892	1307.47
445.267	1303.85
445.641	1333.45
446.016	1342.72
446.39	1322.83
446.764	1354.02
447.139	1358.99
447.513	1366.67
447.887	1375.94
448.262	1390.4
448.636	1389.27
449.01	1393.11
449.384	1396.5
449.758	1413.9
450.132	1466.78
450.506	1449.16
450.88	1454.35
451.254	1452.32
451.628	1491.87
452.002	1487.57
452.376	1508.59
452.75	1513.56
453.123	1534.13
453.497	1562.6
453.871	1564.63
454.244	1586.55
454.618	1586.55
454.992	1627.46
455.365	1605.54
455.739	1667.91
456.112	1679.89
456.486	1707.46
456.859	1697.74
457.232	1737.96
457.606	1728.25
457.979	1729.6
458.352	1782.71
458.725	1810.5
459.099	1790.16
459.472	1855.93
459.845	1867
460.218	1879.2
460.591	1884.17
460.964	1912.42
461.337	1919.2
461.71	1993.55
462.083	2010.5
462.456	2002.81
462.829	2017.28
463.201	2034
463.574	2092.3
463.947	2103.6
464.32	2124.85
464.692	2131.4
465.065	2163.26
465.438	2184.73
465.81	2228.35
466.183	2270.15
466.555	2318.29
466.928	2315.57
467.3	2315.12
467.672	2364.39
468.045	2394.67
468.417	2427.21
468.789	2430.15
469.161	2468.57
469.534	2472.63
469.906	2559.18
470.278	2538.85
470.65	2603.48
471.022	2644.38
471.394	2689.8
471.766	2681.21
472.138	2738.61
472.51	2796.01
472.882	2803.02
473.253	2828.56
473.625	2883.47
473.997	2948.55
474.369	2983.81
474.74	2984.71
475.112	3070.36
475.484	3113.52
475.855	3140.86
476.227	3187.87
476.598	3278.71
476.97	3296.11
477.341	3370.69
477.713	3386.96
478.084	3424.92
478.455	3504.47
478.827	3569.55
479.198	3664.92
479.569	3658.36
479.94	3722.09
480.311	3762.99
480.682	3843.67
481.053	3918.02
481.424	3965.7
481.795	3994.4
482.166	4052.93
482.537	4121.85
482.908	4238.24
483.279	4269.2
483.65	4316.43
484.021	4393.49
484.391	4442.98
484.762	4537.66
485.133	4542.63
485.503	4602.29
485.874	4722.52
486.244	4758
486.615	4829.86
486.985	4889.07
487.356	4997.09
487.726	5012.23
488.097	5150.08
488.467	5100.13
488.837	5232.11
489.207	5304.2
489.578	5376.06
489.948	5405.89
490.318	5558.65
490.688	5544.64
491.058	5647.69
491.428	5701.02
491.798	5729.5
492.168	5845.65
492.538	5873.22
492.908	5917.51
493.278	6026.66
493.648	5963.16
494.017	6071.86
494.387	6127.68
494.757	6238.86
495.126	6208.58
495.496	6312.76
495.866	6342.36
496.235	6425.07
496.605	6468.23
496.974	6517.27
497.344	6563.15
497.713	6531.74
498.082	6649.7
498.452	6768.34
498.821	6748.45
499.19	6785.51
499.559	6850.14
499.928	6880.43
500.298	6977.6
500.667	7037.26
501.036	7028.67
501.405	7113.41
501.774	7117.71
502.143	7185.28
502.512	7239.06
502.88	7304.37
503.249	7295.56
503.618	7356.12
503.987	7407.87
504.356	7474.76
504.724	7542.56
505.093	7502.33
505.462	7579.39
505.83	7653.97
506.199	7733.29
506.567	7815.54
506.936	7765.15
507.304	7853.73
507.672	7874.75
508.041	7987.29
508.409	8056.89
508.777	8166.72
509.145	8203.33
509.514	8146.61
509.882	8282.42
510.25	8350.9
510.618	8353.38
510.986	8420.72
511.354	8460.05
511.722	8550.44
512.09	8620.49
512.458	8683.09
512.826	8760.83
513.193	8787.27
513.561	8807.83
513.929	8907.72
514.297	8991.56
514.664	9041.95
515.032	9087.37
515.4	9140.48
515.767	9201.72
516.135	9334.83
516.502	9198.33
516.869	9380.25
517.237	9454.37
517.604	9466.8
517.972	9583.18
518.339	9647.59
518.706	9685.1
519.073	9777.98
519.44	9795.38
519.808	9929.39
520.175	9905.43
520.542	10068.37
520.909	10068.82
521.276	10066.78
521.643	10204.18
522.009	10341.13
522.376	10445.08
522.743	10457.73
523.11	10569.59
523.477	10685.3
523.843	10720.1
524.21	10911.28
524.577	10967.55
524.943	10952.18
525.31	11065.4
525.676	11122.12
526.043	11156.47
526.409	11292.74
526.776	11347.2
527.142	11411.38
527.508	11537.93
527.874	11567.99
528.241	11726.85
528.607	11736.34
528.973	11833.74
529.339	11929.33
529.705	11960.74
530.071	12113.96
530.437	12127.29
530.803	12203.68
531.169	12262.21
531.535	12290.68
531.901	12329.55
532.267	12450
532.632	12500.39
532.998	12572.71
533.364	12644.79
533.73	12675.98
534.095	12722.53
534.461	12854.96
534.826	12944.9
535.192	12949.42
535.557	12974.96
535.923	13055.86
536.288	13164.55
536.653	13188.06
537.019	13124.33
537.384	13268.06
537.749	13322.06
538.114	13385.57
538.479	13403.64
538.845	13426.02
539.21	13451.1
539.575	13594.6
539.94	13586.92
540.305	13714.82
540.67	13645.9
541.034	13697.87
541.399	13840.24
541.764	13814.71
542.129	13912.78
542.494	13957.75
542.858	14057.64
543.223	14018.77
543.587	14095.83
543.952	14248.59
544.316	14175.6
544.681	14115.72
545.045	14282.49
545.41	14352.77
545.774	14403.62
546.138	14438.65
546.503	14558.42
546.867	14476.16
547.231	14650.17
547.595	14613.33
547.959	14672.76
548.324	14730.84
548.688	14832.08
549.052	14874.57
549.416	14955.02
549.779	14884.06
550.143	14999.76
550.507	15046.54
550.871	15069.36
551.235	15160.21
551.599	15231.17
551.962	15326.08
552.326	15322.24
552.689	15416.25
553.053	15311.84
553.417	15456.47
553.78	15623.7
554.143	15569.69
554.507	15713.64
554.87	15816.01
555.234	15908.44
555.597	15822.79
555.96	15964.48
556.323	15993.63
556.686	16086.51
557.05	16180.75
557.413	16208.54
557.776	16214.87
558.139	16378.48
558.502	16377.8
558.865	16514.98
559.228	16670.9
559.59	16725.82
559.953	16710.22
560.316	16837
560.679	16912.03
561.041	16917.9
561.404	17023.89
561.767	17122.42
562.129	17184.56
562.492	17308.17
562.854	17263.2
563.217	17288.06
563.579	17505.01
563.941	17619.35
564.304	17708.39
564.666	17843.98
565.028	17919.91
565.39	17908.16
565.753	17951.77
566.115	18118.78
566.477	18116.52
566.839	18168.27
567.201	18396.51
567.563	18394.25
567.925	18485.09
568.287	18548.59
568.648	18656.84
569.01	18712.66
569.372	18812.54
569.734	18822.49
570.095	19012.99
570.457	19038.3
570.819	19116.26
571.18	19143.61
571.542	19256.37
571.903	19271.51
572.265	19407.55
572.626	19445.52
572.987	19574.78
573.349	19557.16
573.71	19758.96
574.071	19712.63
574.432	19816.13
574.794	19885.73
575.155	19986.75
575.516	19933.87
575.877	19983.81
576.238	20237.59
576.599	20269.9
576.96	20197.82
577.32	20327.76
577.681	20317.14
578.042	20380.41
578.403	20410.69
578.763	20591.25
579.124	20518.94
579.485	20661.08
579.845	20788.08
580.206	20820.85
580.566	20805.26
580.927	20905.37
581.287	20904.92
581.648	20881.64
582.008	21059.94
582.368	20953.73
582.728	20973.39
583.089	21061.07
583.449	21153.72
583.809	21193.27
584.169	21191.46
584.529	21108.98
584.889	21346.71
585.249	21253.16
585.609	21230.11
585.969	21443.66
586.329	21440.72
586.688	21428.97
587.048	21460.61
587.408	21332.02
587.768	21362.08
588.127	21431
588.487	21442.76
588.846	21650.43
589.206	21439.59
589.565	21539.48
589.925	21620.83
590.284	21584.22
590.643	21683.2
591.003	21711.9
591.362	21856.53
591.721	21775.63
592.08	21814.5
592.44	21922.29
592.799	22007.03
593.158	21826.25
593.517	21890.65
593.876	21879.58
594.235	21874.38
594.593	21936.75
594.952	22012.01
595.311	21998.45
595.67	22001.84
596.029	22147.14
596.387	22123.42
596.746	22250.87
597.104	22055.17
597.463	22199.8
597.822	22230.76
598.18	22230.53
598.538	22277.99
598.897	22436.4
599.255	22167.03
599.613	22565.66
599.972	22445.67
600.33	22488.83
600.688	22433.01
601.046	22631.88
601.404	22598.43
601.762	22584.42
602.12	22710.74
602.478	22600.24
602.836	22675.27
603.194	22576.51
603.552	22648.15
603.91	22563.63
604.268	22838.2
604.625	22673.01
604.983	22802.49
605.341	22771.99
605.698	22873.9
606.056	23071.19
606.413	22869.61
606.771	23003.39
607.128	22962.94
607.485	22873
607.843	22986.44
608.2	23094.69
608.557	23095.82
608.914	23106.44
609.272	23138.3
609.629	23299.43
609.986	23329.49
610.343	23148.02
610.7	23475.7
611.057	23441.35
611.414	23441.35
611.771	23529.93
612.127	23560.21
612.484	23468.01
612.841	23527.9
613.198	23571.74
613.554	23493.55
613.911	23808.12
614.267	23773.54
614.624	23663.94
614.98	23707.78
615.337	23837.95
615.693	23812.64
616.05	23729.02
616.406	23912.29
616.762	23795.91
617.118	23797.27
617.475	23754.33
617.831	23928.79
618.187	23940.99
618.543	24051.95
618.899	24076.13
619.255	24096.24
619.611	24031.16
619.967	24200.65
620.323	24109.8
620.678	24124.49
621.034	24049.92
621.39	23997.04
621.746	23966.98
622.101	24232.51
622.457	24095.34
622.812	24046.53
623.168	24238.39
623.523	24136.02
623.879	24309.12
624.234	24097.83
624.589	24191.16
624.945	24228.67
625.3	24213.98
625.655	24245.85
626.01	24268.9
626.365	24142.57
626.72	24166.3
627.075	24170.14
627.43	24254.43
627.785	24085.17
628.14	24274.32
628.495	24197.71
628.85	24201.78
629.205	24090.14
629.559	24203.59
629.914	24160.42
630.269	24254.21
630.623	24073.65
630.978	24008.56
631.332	24076.81
631.687	24256.69
632.041	24056.92
632.396	24173.53
632.75	23893.76
633.104	24053.76
633.459	23986.42
633.813	23881.56
634.167	24013.99
634.521	24003.14
634.875	23890.37
635.229	24009.69
635.583	23758.4
635.937	23775.58
636.291	23802.69
636.645	23857.61
636.999	23856.93
637.352	23868.91
637.706	23651.74
638.06	23762.24
638.413	23771.96
638.767	23550.72
639.121	23581.68
639.474	23410.16
639.828	23497.39
640.181	23594.56
640.534	23444.51
640.888	23497.84
641.241	23524.51
641.594	23518.63
641.947	23461.69
642.301	23402.93
642.654	23512.98
643.007	23495.81
643.36	23373.78
643.713	23347.34
644.066	23457.17
644.419	23366.09
644.771	23213.56
645.124	22931.3
645.477	22932.21
645.83	22752.78
646.182	22619
646.535	22619.9
646.888	22610.86
647.24	22478.43
647.593	22635.49
647.945	22560.24
648.298	22473.24
648.65	22469.17
649.002	22327.25
649.355	22371.09
649.707	22513.46
650.059	22517.98
650.411	22781.25
650.763	22825.54
651.115	23042.49
651.467	22907.35
651.819	22874.36
652.171	22920.23
652.523	22765.21
652.875	22921.81
653.227	22765.66
653.578	22929.5
653.93	22767.01
654.282	22773.79
654.633	22716.85
654.985	22733.12
655.337	22760.01
655.688	22694.25
656.039	22711.2
656.391	22556.85
656.742	22622.16
657.094	22569.96
657.445	22828.03
657.796	22702.38
658.147	22640.69
658.498	22619
658.849	22746.9
659.2	22757.07
659.551	22597.08
659.902	22668.71
660.253	22669.62
660.604	22668.94
660.955	22510.3
661.306	22651.54
661.656	22487.93
662.007	22649.05
662.358	22639.79
662.708	22545.1
663.059	22544.42
663.409	22387.36
663.76	22684.53
664.11	22511.88
664.461	22661.93
664.811	22547.13
665.161	22590.3
665.511	22539.45
665.862	22537.19
666.212	22531.77
666.562	22556.62
666.912	22542.16
667.262	22484.76
667.612	22390.53
667.962	22440.47
668.312	22534.7
668.662	22541.71
669.011	22712.78
669.361	22623.97
669.711	22528.38
670.06	22553.69
670.41	22532.22
670.76	22342.39
671.109	22491.99
671.459	22525.44
671.808	22474.59
672.157	22417.87
672.507	22366.12
672.856	22256.97
673.205	22317.76
673.554	22312.34
673.904	22247.48
674.253	22370.64
674.602	22425.78
674.951	22038.45
675.3	21883.2
675.649	22295.16
675.998	22237.54
676.346	22281.38
676.695	22346.91
677.044	22238.89
677.393	22213.13
677.741	22282.06
678.09	22114.38
678.438	22162.06
678.787	22133.13
679.135	22179.91
679.484	22082.96
679.832	22214.26
680.181	21971.33
680.529	22178.78
680.877	22042.29
681.225	21993.25
681.573	22187.59
681.922	22052
682.27	21998.67
682.618	21959.13
682.966	21894.04
683.314	21870.77
683.661	21771.11
684.009	21722.52
684.357	21757.55
684.705	21664.22
685.053	21721.62
685.4	21654.5
685.748	21547.39
686.095	21479.82
686.443	21524.34
686.79	21480.72
687.138	21501.06
687.485	21489.53
687.832	21407.28
688.18	21344.68
688.527	21312.36
688.874	21362.53
689.221	21282.53
689.568	21154.18
689.915	21245.7
690.262	21142.88
690.609	21113.05
690.956	21077.57
691.303	21044.12
691.65	20875.31
691.997	20952.6
692.344	20753.73
692.69	20710.12
693.037	20712.38
693.383	20527.75
693.73	20642.78
694.077	20471.48
694.423	20575.21
694.769	20405.95
695.116	20476.91
695.462	20285.95
695.808	20353.97
696.155	20365.27
696.501	20163.69
696.847	20236.69
697.193	20093.64
697.539	20175.67
697.885	20068.78
698.231	20009.57
698.577	20067.42
698.923	20055
699.269	19869.92
699.614	19773.87
699.96	19744.95
700.306	19819.52
700.651	19639.64
700.997	19620.43
701.342	19622.69
701.688	19560.77
702.033	19347.44
702.379	19426.99
702.724	19425.18
703.069	19409.81
703.415	19205.07
703.76	19196.03
704.105	19252.76
704.45	19123.04
704.795	19069.48
705.14	18940
705.485	19011.86
705.83	18912.2
706.175	18887.57
706.52	18831.98
706.865	18776.16
707.209	18772.77
707.554	18702.49
707.899	18757.4
708.243	18652.32
708.588	18671.53
708.932	18593.34
709.277	18502.49
709.621	18447.58
709.966	18511.76
710.31	18433.57
710.654	18252.33
710.998	18288.04
711.342	18309.28
711.687	18238.09
712.031	18146.8
712.375	18222.95
712.719	18156.51
713.063	18184.08
713.407	18183.18
713.75	18022.28
714.094	18042.17
714.438	17965.78
714.782	18038.55
715.125	17880.59
715.469	17975.05
715.812	17781.61
716.156	17741.84
716.499	17673.81
716.843	17739.12
717.186	17675.85
717.53	17817.77
717.873	17787.94
718.216	17696.87
718.559	17734.83
718.902	17497.1
719.246	17640.6
719.589	17478.79
719.932	17434.73
720.275	17450.77
720.617	17409.19
720.96	17514.27
721.303	17410.32
721.646	17379.59
721.989	17306.82
722.331	17404.9
722.674	17226.14
723.016	17280.38
723.359	17333.71
723.701	17241.74
724.044	17319.7
724.386	17168.52
724.729	17281.06
725.071	17181.85
725.413	17183.43
725.755	17236.09
726.097	17118.12
726.439	16981.63
726.782	16967.17
727.124	17085.58
727.465	16965.13
727.807	16981.4
728.149	16933.5
728.491	16913.16
728.833	16939.15
729.175	16874.97
729.516	16879.71
729.858	16893.72
730.199	16877.68
730.541	16989.31
730.882	16750.68
731.224	16892.59
731.565	16734.18
731.906	16827.96
732.248	16764.91
732.589	16596.78
732.93	16671.36
733.271	16672.94
733.612	16612.6
733.953	16604.69
734.294	16525.37
734.635	16588.65
734.976	16651.24
735.317	16623.22
735.658	16531.02
735.999	16526.27
736.339	16531.47
736.68	16540.51
737.021	16524.47
737.361	16435.66
737.702	16503.68
738.042	16405.37
738.383	16414.87
738.723	16467.52
739.063	16464.58
739.404	16378.03
739.744	16404.02
740.084	16300.29
740.424	16463.68
740.764	16267.98
741.104	16354.08
741.444	16207.86
741.784	16126.06
742.124	16246.51
742.464	16222.1
742.804	16143.23
743.143	16226.4
743.483	16179.39
743.823	16078.83
744.162	16128.09
744.502	16168.32
744.841	16025.5
745.181	16121.09
745.52	16095.33
745.86	16038.6
746.199	15974.88
746.538	16046.29
746.877	16004.03
747.216	16074.53
747.556	15974.65
747.895	15993.63
748.234	15895.78
748.573	15916.57
748.911	15861.43
749.25	15915.22
749.589	15898.04
749.928	15820.98
750.267	15859.17
750.605	15815.56
750.944	15826.41
751.283	15643.81
751.621	15708.89
751.96	15723.36
752.298	15617.37
752.636	15606.3
752.975	15625.73
753.313	15464.16
753.651	15625.28
753.989	15534.44
754.327	15559.75
754.666	15497.83
755.004	15489.69
755.342	15441.56
755.679	15458.51
756.017	15296.7
756.355	15427.32
