Data from tablewood_dark_bookshelf_FLMS001491_00054.txt Node
Date: Wed Feb 08 14:15:04 GMT 2017
User: dcchb
Spectrometer: FLMS00149
Trigger mode: 0
Integration Time (sec): 2.000000E-2
Scans to average: 10
Electric dark correction enabled: true
Nonlinearity correction enabled: false
Boxcar width: 0
XAxis mode: Wavelengths
Number of Pixels in Spectrum: 2048
>>>>>Begin Spectral Data<<<<<
341.393	-11.47
341.776	-11.47
342.16	-11.47
342.543	-77.68
342.927	-83.11
343.31	-55.76
343.693	-62.99
344.077	-59.38
344.46	-50.79
344.843	-63.9
345.226	-44.24
345.61	-28.42
345.993	-7.4
346.376	-24.35
346.759	13.39
347.142	4.8
347.525	46.83
347.908	42.77
348.291	86.38
348.674	97.23
349.057	105.82
349.44	120.96
349.823	156.44
350.206	166.15
350.588	178.36
350.971	200.73
351.354	219.49
351.737	231.01
352.119	246.38
352.502	261.74
352.884	269.65
353.267	258.35
353.65	297.45
354.032	279.37
354.414	313.95
354.797	294.96
355.179	296.55
355.562	313.95
355.944	306.94
356.326	318.92
356.709	323.21
357.091	339.03
357.473	322.76
357.855	312.82
358.238	346.49
358.62	343.1
359.002	322.99
359.384	340.16
359.766	331.12
360.148	329.99
360.53	313.95
360.912	324.57
361.294	326.38
361.676	327.28
362.057	330.22
362.439	326.83
362.821	314.4
363.203	354.4
363.584	332.93
363.966	353.27
364.348	348.07
364.729	314.17
365.111	303.33
365.493	323.89
365.874	310.56
366.256	320.73
366.637	312.36
367.019	310.78
367.4	311.91
367.781	298.58
368.163	318.24
368.544	311.01
368.925	311.69
369.306	334.96
369.688	320.73
370.069	307.85
370.45	322.31
370.831	320.73
371.212	314.17
371.593	308.75
371.974	320.5
372.355	331.12
372.736	307.17
373.117	344
373.498	319.6
373.879	322.76
374.26	320.27
374.641	337.67
375.021	330.9
375.402	335.41
375.783	349.88
376.163	345.81
376.544	335.87
376.925	347.84
377.305	323.89
377.686	331.12
378.066	345.81
378.447	326.38
378.827	327.96
379.208	339.71
379.588	337.9
379.968	337.45
380.349	356.66
380.729	332.7
381.109	334.96
381.489	346.94
381.87	350.78
382.25	370.67
382.63	334.51
383.01	358.24
383.39	366.83
383.77	362.08
384.15	347.84
384.53	360.95
384.91	353.27
385.29	365.7
385.67	345.36
386.049	372.02
386.429	372.02
386.809	349.88
387.189	368.18
387.568	371.12
387.948	375.19
388.328	380.84
388.707	384.68
389.087	385.13
389.466	384.68
389.846	388.29
390.225	387.16
390.605	383.1
390.984	402.76
391.363	390.55
391.743	391.46
392.122	384.45
392.501	403.89
392.881	397.56
393.26	405.92
393.639	409.09
394.018	392.81
394.397	400.05
394.776	423.32
395.155	410.22
395.534	418.58
395.913	440.5
396.292	435.53
396.671	432.36
397.05	426.03
397.429	456.77
397.808	444.34
398.186	419.25
398.565	430.78
398.944	436.66
399.323	416.54
399.701	425.81
400.08	442.98
400.458	450.21
400.837	457.9
401.215	431.23
401.594	447.95
401.972	464.23
402.351	462.42
402.729	461.29
403.107	462.87
403.486	462.87
403.864	464.45
404.242	469.87
404.62	482.53
404.999	477.78
405.377	460.38
405.755	466.71
406.133	487.28
406.511	492.47
406.889	504
407.267	513.26
407.645	481.63
408.023	506.48
408.401	503.32
408.779	519.82
409.156	522.75
409.534	525.92
409.912	517.33
410.29	551.23
410.667	559.82
411.045	557.78
411.422	548.52
411.8	568.4
412.178	567.5
412.555	560.95
412.933	569.99
413.31	565.47
413.687	562.98
414.065	574.28
414.442	611.79
414.819	595.97
415.197	584
415.574	628.29
415.951	599.59
416.328	598.01
416.705	630.32
417.082	619.7
417.46	616.76
417.837	642.07
418.214	622.41
418.591	637.55
418.967	663.32
419.344	635.07
419.721	635.29
420.098	663.77
420.475	634.62
420.852	659.47
421.228	670.77
421.605	696.54
421.982	665.35
422.358	683.88
422.735	686.14
423.111	666.48
423.488	700.15
423.864	689.76
424.241	706.7
424.617	699.47
424.994	719.13
425.37	722.3
425.746	708.29
426.123	739.7
426.499	739.25
426.875	731.56
427.251	749.19
427.627	755.06
428.003	760.94
428.379	783.54
428.756	779.47
429.132	801.39
429.507	793.26
429.883	772.24
430.259	803.43
430.635	807.94
431.011	798.45
431.387	851.11
431.763	854.05
432.138	843.65
432.514	840.49
432.89	871.9
433.265	843.2
433.641	892.69
434.016	921.16
434.392	898.56
434.767	919.81
435.143	911.22
435.518	934.95
435.894	957.09
436.269	957.55
436.644	935.85
437.02	962.97
437.395	978.56
437.77	963.2
438.145	999.58
438.52	1004.32
438.895	1017.88
439.271	1004.55
439.646	1010.65
440.021	1020.37
440.395	1033.48
440.77	1040.48
441.145	1058.56
441.52	1052.01
441.895	1044.1
442.27	1074.15
442.645	1082.51
443.019	1070.08
443.394	1078.67
443.769	1084.77
444.143	1079.8
444.518	1129.52
444.892	1126.58
445.267	1121.61
445.641	1120.93
446.016	1109.18
446.39	1140.14
446.764	1175.39
447.139	1155.96
447.513	1174.49
447.887	1169.97
448.262	1180.14
448.636	1158.22
449.01	1185.34
449.384	1181.04
449.758	1211.1
450.132	1217.43
450.506	1206.8
450.88	1219.01
451.254	1225.34
451.628	1232.79
452.002	1273.02
452.376	1258.78
452.75	1283.64
453.123	1268.27
453.497	1286.35
453.871	1317.76
454.244	1342.85
454.618	1332.68
454.992	1334.26
455.365	1377.65
455.739	1388.27
456.112	1419.91
456.486	1446.8
456.859	1428.49
457.232	1444.76
457.606	1476.85
457.979	1460.58
458.352	1493.58
458.725	1492.22
459.099	1532.22
459.472	1538.55
459.845	1560.24
460.218	1590.07
460.591	1580.35
460.964	1576.06
461.337	1643.86
461.71	1658.54
462.083	1669.62
462.456	1679.33
462.829	1669.17
463.201	1721.59
463.574	1716.4
463.947	1715.04
464.32	1750.07
464.692	1787.81
465.065	1795.94
465.438	1805.88
465.81	1803.85
466.183	1838.88
466.555	1871.42
466.928	1915.71
467.3	1877.97
467.672	1904.19
468.045	2000.46
468.417	1976.28
468.789	2006.78
469.161	2005.65
469.534	2068.93
469.906	2081.58
470.278	2128.59
470.65	2122.94
471.022	2137.4
471.394	2206.78
471.766	2223.5
472.138	2242.26
472.51	2279.09
472.882	2329.26
473.253	2355.93
473.625	2347.57
473.997	2438.41
474.369	2448.13
474.74	2456.26
475.112	2447
475.484	2541.46
475.855	2558.18
476.227	2567.67
476.598	2653.09
476.97	2657.39
477.341	2713.66
477.713	2773.09
478.084	2795.01
478.455	2832.3
478.827	2852.41
479.198	2929.7
479.569	2937.61
479.94	3049.47
480.311	3073.65
480.682	3144.61
481.053	3221.44
481.424	3260.99
481.795	3302.57
482.166	3331.04
482.537	3388.67
482.908	3449.91
483.279	3439.29
483.65	3477.03
484.021	3594.54
484.391	3591.15
484.762	3654.42
485.133	3666.85
485.503	3714.99
485.874	3817.81
486.244	3833.63
486.615	3907.75
486.985	3955.66
487.356	4020.52
487.726	4039.5
488.097	4124.92
488.467	4154.98
488.837	4248.76
489.207	4307.29
489.578	4339.38
489.948	4388.19
490.318	4434.74
490.688	4434.74
491.058	4497.34
491.428	4550.45
491.798	4654.4
492.168	4669.99
492.538	4723.32
492.908	4742.08
493.278	4834.96
493.648	4832.7
494.017	4891.68
494.387	4916.31
494.757	4979.36
495.126	5070.88
495.496	5056.19
495.866	5127.61
496.235	5135.74
496.605	5215.29
496.974	5262.97
497.344	5280.82
497.713	5271.1
498.082	5334.61
498.452	5417.54
498.821	5456.86
499.19	5468.84
499.559	5537.31
499.928	5558.55
500.298	5583.41
500.667	5613.92
501.036	5607.82
501.405	5711.32
501.774	5738.89
502.143	5828.83
502.512	5758.78
502.88	5886.46
503.249	5862.95
503.618	5923.97
503.987	5977.07
504.356	6037.41
504.724	6024.08
505.093	5991.76
505.462	6128.03
505.83	6125.09
506.199	6177.07
506.567	6210.06
506.936	6240.57
507.304	6327.8
507.672	6340.45
508.041	6370.74
508.409	6430.17
508.777	6480.34
509.145	6550.62
509.514	6586.32
509.882	6636.27
510.25	6610.73
510.618	6683.04
510.986	6718.98
511.354	6788.13
511.722	6807.56
512.09	6870.84
512.458	6885.98
512.826	6969.36
513.193	6982.92
513.561	7050.72
513.929	7089.14
514.297	7209.13
514.664	7259.07
515.032	7218.85
515.4	7270.37
515.767	7390.14
516.135	7353.31
516.502	7322.35
516.869	7496.36
517.237	7566.64
517.604	7540.2
517.972	7608.67
518.339	7681.44
518.706	7679.18
519.073	7741.55
519.44	7822.68
519.808	7916.68
520.175	7893.86
520.542	8018.83
520.909	8074.19
521.276	8113.06
521.643	8123.23
522.009	8220.18
522.376	8277.8
522.743	8344.02
523.11	8364.81
523.477	8468.53
523.843	8525.71
524.21	8610.45
524.577	8686.61
524.943	8710.56
525.31	8804.12
525.676	8835.3
526.043	8926.83
526.409	8987.16
526.776	8985.13
527.142	9105.58
527.508	9175.86
527.874	9198.01
528.241	9303.09
528.607	9317.55
528.973	9405.91
529.339	9343.31
529.705	9523.65
530.071	9626.7
530.437	9643.64
530.803	9736.3
531.169	9770.87
531.535	9767.26
531.901	9739.69
532.267	9868.72
532.632	9859.68
532.998	9971.55
533.364	10007.03
533.73	9953.02
534.095	10087.47
534.461	10143.29
534.826	10240.69
535.192	10248.37
535.557	10279.56
535.923	10334.02
536.288	10409.5
536.653	10451.31
537.019	10491.31
537.384	10492.21
537.749	10508.93
538.114	10477.97
538.479	10559.33
538.845	10618.08
539.21	10643.17
539.575	10659.21
539.94	10784.41
540.305	10798.42
540.67	10821.47
541.034	10880.45
541.399	10849.26
541.764	10943.05
542.129	11015.36
542.494	11038.41
542.858	11039.31
543.223	11067.56
543.587	11100.78
543.952	11136.94
544.316	11220.55
544.681	11202.7
545.045	11308.91
545.41	11321.57
545.774	11346.65
546.138	11377.38
546.503	11498.06
546.867	11436.59
547.231	11527.89
547.595	11616.25
547.959	11582.8
548.324	11672.07
548.688	11651.95
549.052	11762.91
549.416	11813.08
549.779	11750.48
550.143	11895.79
550.507	11936.92
550.871	11944.38
551.235	11945.51
551.599	12041.1
551.962	12145.95
552.326	12085.61
552.689	12208.55
553.053	12097.82
553.417	12203.13
553.78	12334.65
554.143	12257.81
554.507	12430.46
554.87	12419.39
555.234	12651.7
555.597	12402.44
555.96	12547.98
556.323	12674.75
556.686	12637.69
557.05	12823.22
557.413	12857.35
557.776	12790
558.139	12860.51
558.502	12915.2
558.865	13021.41
559.228	13064.35
559.59	13125.59
559.953	13199.94
560.316	13350.44
560.679	13431.57
561.041	13499.36
561.404	13559.25
561.767	13551.56
562.129	13569.19
562.492	13697.1
562.854	13703.2
563.217	13625.46
563.579	13799.69
563.941	14005.56
564.304	14007.15
564.666	14110.42
565.028	14116.97
565.39	14229.51
565.753	14258.89
566.115	14330.98
566.477	14384.99
566.839	14502.05
567.201	14633.12
567.563	14576.85
567.925	14673.79
568.287	14748.37
568.648	14835.15
569.01	14762.15
569.372	14926.9
569.734	14908.14
570.095	15050.96
570.457	15144.29
570.819	15218.64
571.18	15215.02
571.542	15347.68
571.903	15331.4
572.265	15403.04
572.626	15508.8
572.987	15522.81
573.349	15568.23
573.71	15626.31
574.071	15741.11
574.432	15827.21
574.794	15992.18
575.155	15899.3
575.516	15902.01
575.877	16138.16
576.238	16171.16
576.599	16251.38
576.96	16224.26
577.32	16267.43
577.681	16386.07
578.042	16346.07
578.403	16426.97
578.763	16408.89
579.124	16521.43
579.485	16680.07
579.845	16586.74
580.206	16645.27
580.566	16773.85
580.927	16791.48
581.287	16907.18
581.648	16831.48
582.008	16971.59
582.368	16900.63
582.728	16938.37
583.089	16898.37
583.449	17025.6
583.809	17097.23
584.169	17146.27
584.529	17119.38
584.889	17297.68
585.249	17207.06
585.609	17216.1
585.969	17361.86
586.329	17420.84
586.688	17435.53
587.048	17443.44
587.408	17329.09
587.768	17360.5
588.127	17384.68
588.487	17418.81
588.846	17626.94
589.206	17469.43
589.565	17644.34
589.925	17586.03
590.284	17647.5
590.643	17695.86
591.003	17727.73
591.362	17814.28
591.721	17751.45
592.08	17855.86
592.44	17888.4
592.799	17905.12
593.158	17948.06
593.517	17967.27
593.876	17984.89
594.235	17983.09
594.593	18052.01
594.952	18048.85
595.311	18108.73
595.67	18173.82
596.029	18237.09
596.387	18313.25
596.746	18270.76
597.104	18194.38
597.463	18252.46
597.822	18353.02
598.18	18228.5
598.538	18301.72
598.897	18384.66
599.255	18247.03
599.613	18609.96
599.972	18448.84
600.33	18556.63
600.688	18569.74
601.046	18609.06
601.404	18682.05
601.762	18653.13
602.12	18765.66
602.478	18770.18
602.836	18729.96
603.194	18771.77
603.552	18804.08
603.91	18801.82
604.268	18858.77
604.625	18830.3
604.983	18964.98
605.341	18870.07
605.698	18928.6
606.056	19028.26
606.413	19022.61
606.771	19096.73
607.128	19114.81
607.485	18990.07
607.843	19136.05
608.2	19146.45
608.557	19289.27
608.914	19109.16
609.272	19304.41
609.629	19336.5
609.986	19287.23
610.343	19265.31
610.7	19472.76
611.057	19503.27
611.414	19449.71
611.771	19391.41
612.127	19526.32
612.484	19461.92
612.841	19590.73
613.198	19630.05
613.554	19552.54
613.911	19540.11
614.267	19781.68
614.624	19724.96
614.98	19759.08
615.337	19711.85
615.693	19835.69
616.05	19694.23
616.406	19814
616.762	19805.19
617.118	19897.39
617.475	19847.22
617.831	19997.5
618.187	19915.92
618.543	19886.54
618.899	20067.1
619.255	20027.33
619.611	19973.09
619.967	20119.98
620.323	20005.63
620.678	20030.94
621.034	20098.06
621.39	20043.82
621.746	20080.66
622.101	20302.8
622.457	20034.33
622.812	20176.7
623.168	20189.36
623.523	20156.59
623.879	20287.43
624.234	20185.06
624.589	20274.33
624.945	20104.39
625.3	20294.66
625.655	20291.95
626.01	20158.85
626.365	20149.36
626.72	20238.85
627.075	20210.15
627.43	20185.74
627.785	20175.57
628.14	20217.6
628.495	20145.74
628.85	20187.1
629.205	20233.65
629.559	20265.06
629.914	20099.64
630.269	20244.72
630.623	20135.12
630.978	20056.7
631.332	20103.03
631.687	20176.48
632.041	20131.5
632.396	20136.48
632.75	20030.04
633.104	20037.5
633.459	20020.55
633.813	20027.1
634.167	19988.68
634.521	20018.06
634.875	20057.83
635.229	20026.65
635.583	19964.96
635.937	19920.89
636.291	19933.09
636.645	19913.66
636.999	19775.81
637.352	19841.57
637.706	19792.53
638.06	19854.9
638.413	19761.34
638.767	19734.9
639.121	19770.38
639.474	19678.18
639.828	19693.55
640.181	19750.72
640.534	19669.82
640.888	19679.31
641.241	19611.29
641.594	19607.22
641.947	19696.04
642.301	19558.86
642.654	19681.12
643.007	19611.97
643.36	19633.89
643.713	19544.63
644.066	19693.78
644.419	19439.09
644.771	19364.29
645.124	19231.19
645.477	19186.22
645.83	18996.39
646.182	18914.36
646.535	18833.46
646.888	18971.54
647.24	18860.8
647.593	18899.9
647.945	18755.27
648.298	18818.54
648.65	18762.05
649.002	18724.54
649.355	18816.28
649.707	18765.44
650.059	18933.12
650.411	19087.92
650.763	19193
651.115	19368.81
651.467	19305.99
651.819	19238.19
652.171	19169.5
652.523	19108.93
652.875	19200.46
653.227	19185.54
653.578	19219.66
653.93	19113.9
654.282	19107.35
654.633	19071.87
654.985	19025.09
655.337	19127.46
655.688	19112.32
656.039	19261.92
656.391	19075.94
656.742	19062.83
657.094	19073.23
657.445	19052.21
657.796	18991.2
658.147	19108.93
658.498	19003.62
658.849	19083.62
659.2	19037.75
659.551	19055.15
659.902	19083.17
660.253	18974.7
660.604	19089.27
660.955	19021.03
661.306	19037.97
661.656	19023.29
662.007	19163.62
662.358	19092.66
662.708	18973.57
663.059	19090.18
663.409	18898.99
663.76	19131.53
664.11	18996.39
664.461	19047.24
664.811	19027.35
665.161	18986.68
665.511	19019.22
665.862	18929.95
666.212	19096.5
666.562	19087.46
666.912	19105.99
667.262	19034.36
667.612	18995.49
667.962	19115.49
668.312	18999.78
668.662	19099.67
669.011	19118.88
669.361	19079.55
669.711	19058.54
670.06	19084.53
670.41	18922.27
670.76	18970.86
671.109	19007.92
671.459	18817.64
671.808	18977.64
672.157	19013.12
672.507	18860.13
672.856	18927.92
673.205	18834.14
673.554	18937.86
673.904	18905.55
674.253	18894.25
674.602	18864.65
674.951	18569.51
675.3	18515.28
675.649	18729.73
675.998	18822.61
676.346	18806.34
676.695	18932.89
677.044	18802.27
677.393	18849.5
677.741	18832.33
678.09	18854.93
678.438	18702.16
678.787	18871.42
679.135	18740.81
679.484	18684.08
679.832	18781.03
680.181	18609.51
680.529	18741.03
680.877	18609.96
681.225	18590.53
681.573	18813.57
681.922	18590.08
682.27	18566.57
682.618	18574.03
682.966	18578.55
683.314	18573.58
683.661	18451.77
684.009	18415.62
684.357	18410.42
684.705	18284.55
685.053	18318.22
685.4	18319.12
685.748	18381.95
686.095	18249.75
686.443	18234.61
686.79	18273.93
687.138	18228.05
687.485	18181.5
687.832	18073.71
688.18	18092.46
688.527	18018.57
688.874	18016.53
689.221	17998.68
689.568	17979.47
689.915	17866.03
690.262	17872.81
690.609	17863.09
690.956	17838.68
691.303	17835.52
691.65	17745.58
691.997	17808.18
692.344	17574.96
692.69	17610.44
693.037	17641.4
693.383	17479.82
693.73	17532.25
694.077	17486.38
694.423	17409.54
694.769	17395.53
695.116	17351.92
695.462	17264.46
695.808	17233.28
696.155	17311.24
696.501	17085.26
696.847	17188.76
697.193	17000.74
697.539	17160.06
697.885	16989.89
698.231	16937.92
698.577	16918.03
698.923	16944.24
699.269	16836.9
699.614	16807.75
699.96	16806.85
700.306	16766.4
700.651	16565.27
700.997	16669
701.342	16594.65
701.688	16611.37
702.033	16494.99
702.379	16501.77
702.724	16430.36
703.069	16515.1
703.415	16258.39
703.76	16311.72
704.105	16337.71
704.45	16221.55
704.795	16259.29
705.14	16119.86
705.485	16087.54
705.83	16124.6
706.175	16075.11
706.52	16072.18
706.865	16052.06
707.209	15932.52
707.554	15924.84
707.899	15868.79
708.243	15850.04
708.588	15866.98
708.932	15787.44
709.277	15695.69
709.621	15741.34
709.966	15616.82
710.31	15598.29
710.654	15596.03
710.998	15573.43
711.342	15644.39
711.687	15502.93
712.031	15482.59
712.375	15290.28
712.719	15394.23
713.063	15417.96
713.407	15459.76
713.75	15394.68
714.094	15439.42
714.438	15339.31
714.782	15341.12
715.125	15209.37
715.469	15297.28
715.812	15140
716.156	15163.73
716.499	15044.41
716.843	15160.34
717.186	15079.21
717.53	15129.15
717.873	15160.79
718.216	15134.12
718.559	15095.93
718.902	14962.15
719.246	14978.42
719.589	14925.54
719.932	14930.29
720.275	14880.12
720.617	14884.41
720.96	14850.51
721.303	14845.99
721.646	14841.25
721.989	14846.67
722.331	14841.25
722.674	14791.31
723.016	14729.84
723.359	14768.71
723.701	14777.75
724.044	14713.79
724.386	14716.73
724.729	14773.23
725.071	14725.55
725.413	14718.54
725.755	14641.03
726.097	14658.2
726.439	14573.23
726.782	14611.65
727.124	14618.66
727.465	14553.35
727.807	14523.97
728.149	14557.19
728.491	14485.1
728.833	14531.2
729.175	14424.99
729.516	14445.33
729.858	14409.17
730.199	14440.35
730.541	14508.6
730.882	14505.44
731.224	14386.8
731.565	14348.15
731.906	14380.92
732.248	14348.83
732.589	14316.74
732.93	14170.31
733.271	14254.6
733.612	14259.34
733.953	14273.58
734.294	14249.4
734.635	14249.63
734.976	14394.93
735.317	14245.78
735.658	14295.95
735.999	14250.3
736.339	14195.62
736.68	14260.02
737.021	14287.36
737.361	14186.12
737.702	14251.21
738.042	14214.15
738.383	14276.97
738.723	14311.09
739.063	14226.35
739.404	14245.11
739.744	14140.48
740.084	14158.78
740.424	14217.76
740.764	14166.46
741.104	14160.36
741.444	14132.11
741.784	14090.53
742.124	14045.79
742.464	14034.94
742.804	14024.77
743.143	14021.83
743.483	14000.82
743.823	13988.16
744.162	13951.33
744.502	13991.78
744.841	13973.25
745.181	14040.37
745.52	13972.8
745.86	14000.82
746.199	14036.75
746.538	14039.24
746.877	14036.75
747.216	13983.42
747.556	13935.51
747.895	13982.06
748.234	13855.06
748.573	13891.67
748.911	13861.84
749.25	13948.39
749.589	13808.96
749.928	13894.15
750.267	13887.15
750.605	13871.56
750.944	13858.68
751.283	13779.81
751.621	13843.08
751.96	13781.16
752.298	13806.93
752.636	13820.94
752.975	13768.51
753.313	13670.88
753.651	13693.93
753.989	13663.2
754.327	13661.17
754.666	13513.15
755.004	13620.04
755.342	13641.96
755.679	13552.92
756.017	13516.76
756.355	13491.45
756.693	13545.46
