Data from tablewood_dark_bookshelf_FLMS001491_00015.txt Node
Date: Wed Feb 08 14:13:43 GMT 2017
User: dcchb
Spectrometer: FLMS00149
Trigger mode: 0
Integration Time (sec): 2.000000E-2
Scans to average: 10
Electric dark correction enabled: true
Nonlinearity correction enabled: false
Boxcar width: 0
XAxis mode: Wavelengths
Number of Pixels in Spectrum: 2048
>>>>>Begin Spectral Data<<<<<
341.393	-19.31
341.776	-19.31
342.16	-19.31
342.543	-76.26
342.927	-69.25
343.31	-70.15
343.693	-75.13
344.077	-38.29
344.46	-64.05
344.843	-41.45
345.226	-41.23
345.61	-28.35
345.993	-30.15
346.376	-0.32
346.759	17.98
347.142	28.37
347.525	53.69
347.908	53.46
348.291	83.51
348.674	52.78
349.057	99.33
349.44	111.08
349.823	163.74
350.206	158.32
350.588	185.66
350.971	209.16
351.354	220.01
351.737	224.53
352.119	213.45
352.502	240.12
352.884	267.69
353.267	290.74
353.65	287.58
354.032	282.38
354.414	290.06
354.797	288.03
355.179	315.15
355.562	311.08
355.944	305.66
356.326	315.15
356.709	319.44
357.091	326.67
357.473	344.52
357.855	334.36
358.238	339.55
358.62	357.18
359.002	353.34
359.384	351.76
359.766	347.69
360.148	335.26
360.53	345.43
360.912	326.9
361.294	322.83
361.676	316.28
362.057	311.76
362.439	328.71
362.821	316.5
363.203	335.71
363.584	336.84
363.966	317.41
364.348	304.53
364.729	326.67
365.111	302.49
365.493	307.92
365.874	315.37
366.256	308.14
366.637	300.68
367.019	315.83
367.4	299.1
367.781	314.47
368.163	316.28
368.544	318.99
368.925	307.24
369.306	309.95
369.688	319.67
370.069	307.92
370.45	325.99
370.831	316.28
371.212	311.98
371.593	320.34
371.974	329.84
372.355	323.51
372.736	306.33
373.117	310.18
373.498	300.01
373.879	313.34
374.26	313.57
374.641	311.08
375.021	316.73
375.402	320.34
375.783	334.36
376.163	325.99
376.544	307.69
376.925	343.39
377.305	356.95
377.686	333.9
378.066	342.27
378.447	326.45
378.827	351.3
379.208	337.75
379.588	333
379.968	361.25
380.349	342.49
380.729	342.72
381.109	340.68
381.489	337.75
381.87	359.67
382.25	347.69
382.63	350.85
383.01	334.13
383.39	355.37
383.77	379.1
384.15	354.92
384.53	355.37
384.91	369.61
385.29	362.38
385.67	366.22
386.049	373.68
386.429	365.32
386.809	377.97
387.189	386.56
387.568	375.48
387.948	385.2
388.328	375.94
388.707	370.74
389.087	382.94
389.466	380.23
389.846	380.68
390.225	377.97
390.605	406.44
390.984	390.4
391.363	376.16
391.743	413.9
392.122	422.26
392.501	403.05
392.881	408.93
393.26	404.86
393.639	414.13
394.018	434.24
394.397	401.7
394.776	423.62
395.155	420.23
395.534	413.22
395.913	418.2
396.292	429.27
396.671	429.04
397.05	433.11
397.429	422.04
397.808	433.11
398.186	435.14
398.565	445.54
398.944	434.69
399.323	449.83
399.701	440.12
400.08	435.82
400.458	447.12
400.837	457.97
401.215	436.5
401.594	465.2
401.972	453
402.351	443.28
402.729	450.51
403.107	472.66
403.486	445.54
403.864	475.14
404.242	464.07
404.62	486.22
404.999	456.84
405.377	493.45
405.755	477.63
406.133	481.7
406.511	490.51
406.889	491.19
407.267	496.39
407.645	490.51
408.023	488.93
408.401	499.55
408.779	477.63
409.156	525.31
409.534	524.41
409.912	522.83
410.29	521.92
410.667	535.93
411.045	540.68
411.422	541.58
411.8	565.76
412.178	553.78
412.555	547.23
412.933	549.49
413.31	551.53
413.687	563.05
414.065	555.82
414.442	558.53
414.819	558.3
415.197	578.87
415.574	617.51
415.951	590.17
416.328	581.58
416.705	616.83
417.082	606.66
417.46	601.24
417.837	605.08
418.214	633.1
418.591	621.13
418.967	622.03
419.344	649.15
419.721	653.22
420.098	638.98
420.475	632.2
420.852	650.96
421.228	635.36
421.605	653.9
421.982	644.4
422.358	633.1
422.735	660.9
423.111	665.42
423.488	681.47
423.864	655.03
424.241	692.09
424.617	694.57
424.994	692.99
425.37	701.13
425.746	726.44
426.123	692.76
426.499	714.23
426.875	743.38
427.251	720.11
427.627	741.8
428.003	757.4
428.379	761.24
428.756	740.9
429.132	764.63
429.507	770.95
429.883	769.15
430.259	790.16
430.635	791.29
431.011	777.96
431.387	790.61
431.763	829.26
432.138	809.37
432.514	806.66
432.89	835.59
433.265	836.49
433.641	862.25
434.016	843.95
434.392	875.13
434.767	881.23
435.143	857.51
435.518	924.4
435.894	905.19
436.269	895.7
436.644	935.02
437.02	951.74
437.395	936.83
437.77	922.59
438.145	972.76
438.52	953.32
438.895	975.69
439.271	967.33
439.646	987.45
440.021	978.41
440.395	984.51
440.77	1002.59
441.145	1002.81
441.52	982.47
441.895	1023.15
442.27	1046.88
442.645	1034.22
443.019	1028.12
443.394	1014.56
443.769	1048.91
444.143	1041.23
444.518	1036.03
444.892	1046.88
445.267	1085.52
445.641	1051.17
446.016	1096.6
446.39	1085.75
446.764	1083.94
447.139	1106.99
447.513	1112.64
447.887	1096.14
448.262	1131.62
448.636	1121.68
449.01	1140.44
449.384	1146.09
449.758	1144.5
450.132	1174.79
450.506	1146.31
450.88	1167.1
451.254	1186.31
451.628	1173.88
452.002	1210.49
452.376	1210.26
452.75	1216.37
453.123	1225.41
453.497	1240.55
453.871	1247.1
454.244	1273.99
454.618	1293.65
454.992	1309.47
455.365	1302.47
455.739	1318.06
456.112	1335.46
456.486	1363.71
456.859	1392.41
457.232	1382.01
457.606	1343.59
457.979	1393.54
458.352	1425.4
458.725	1422.46
459.099	1430.37
459.472	1446.42
459.845	1490.48
460.218	1495.91
460.591	1508.11
460.964	1490.48
461.337	1533.42
461.71	1546.53
462.083	1559.63
462.456	1582.91
462.829	1575.23
463.201	1587.66
463.574	1621.55
463.947	1642.8
464.32	1644.83
464.692	1671.04
465.065	1683.25
465.438	1702.91
465.81	1736.58
466.183	1746.97
466.555	1758.95
466.928	1771.83
467.3	1791.72
467.672	1831.04
468.045	1850.93
468.417	1852.06
468.789	1892.05
469.161	1904.48
469.534	1928.44
469.906	1978.15
470.278	1969.11
470.65	2026.29
471.022	2042.11
471.394	2062.22
471.766	2045.72
472.138	2089.56
472.51	2136.57
472.882	2180.41
473.253	2188.54
473.625	2218.83
473.997	2248.88
474.369	2270.58
474.74	2286.85
475.112	2346.96
475.484	2339.27
475.855	2419.05
476.227	2436.9
476.598	2430.35
476.97	2476.67
477.341	2537.01
477.713	2576.1
478.084	2580.85
478.455	2670.11
478.827	2679.38
479.198	2731.81
479.569	2756.89
479.94	2862.2
480.311	2828.3
480.682	2887.28
481.053	2978.35
481.424	3005.02
481.795	3037.11
482.166	3089.31
482.537	3142.19
482.908	3158.46
483.279	3220.16
483.65	3277.1
484.021	3305.35
484.391	3388.74
484.762	3404.78
485.133	3444.56
485.503	3461.73
485.874	3564.78
486.244	3548.96
486.615	3637.55
486.985	3667.83
487.356	3712.8
487.726	3773.36
488.097	3846.81
488.467	3848.61
488.837	3884.77
489.207	3932
489.578	4021.49
489.948	4066.46
490.318	4094.03
490.688	4075.05
491.058	4192.11
491.428	4214.71
491.798	4278.88
492.168	4327.47
492.538	4393.01
492.908	4417.19
493.278	4498.77
493.648	4471.42
494.017	4567.92
494.387	4552.1
494.757	4567.01
495.126	4647.91
495.496	4681.13
495.866	4685.65
496.235	4761.36
496.605	4757.52
496.974	4861.02
497.344	4851.52
497.713	4908.47
498.082	4937.17
498.452	4925.65
498.821	5011.97
499.19	5011.29
499.559	5079.54
499.928	5155.02
500.298	5173.32
500.667	5182.82
501.036	5165.42
501.405	5231.85
501.774	5242.93
502.143	5323.83
502.512	5332.64
502.88	5377.16
503.249	5356.14
503.618	5422.81
503.987	5475.69
504.356	5515.24
504.724	5531.06
505.093	5530.6
505.462	5585.97
505.83	5644.95
506.199	5666.87
506.567	5737.15
506.936	5726.3
507.304	5812.18
507.672	5853.53
508.041	5843.14
508.409	5943.02
508.777	5942.57
509.145	6056.24
509.514	6050.59
509.882	6091.49
510.25	6068.22
510.618	6110.02
510.986	6164.71
511.354	6272.96
511.722	6289.68
512.09	6345.05
512.458	6296.68
512.826	6404.03
513.193	6458.26
513.561	6481.76
513.929	6533.51
514.297	6564.47
514.664	6597.92
515.032	6679.05
515.4	6704.58
515.767	6767.86
516.135	6754.3
516.502	6778.71
516.869	6930.79
517.237	6892.6
517.604	6930.79
517.972	6959.94
518.339	6992.03
518.706	7033.16
519.073	7117.91
519.44	7171.69
519.808	7206.27
520.175	7258.92
520.542	7328.3
520.909	7362.42
521.276	7407.84
521.643	7475.18
522.009	7543.43
522.376	7542.3
522.743	7650.77
523.11	7730.32
523.477	7814.84
523.843	7862.29
524.21	7903.65
524.577	7957.21
524.943	8027.49
525.31	8080.59
525.676	8146.35
526.043	8138.67
526.409	8233.36
526.776	8337.08
527.142	8380.02
527.508	8404.88
527.874	8519
528.241	8564.65
528.607	8576.17
528.973	8640.8
529.339	8641.71
529.705	8757.64
530.071	8845.54
530.437	8835.15
530.803	8869.95
531.169	8939.55
531.535	8932.55
531.901	8993.56
532.267	9038.53
532.632	9108.81
532.998	9176.38
533.364	9275.82
533.73	9267.68
534.095	9333.89
534.461	9295.48
534.826	9361.46
535.192	9459.54
535.557	9461.12
535.923	9521.68
536.288	9589.93
536.653	9633.55
537.019	9621.57
537.384	9628.8
537.749	9721.91
538.114	9699.99
538.479	9712.19
538.845	9803.71
539.21	9800.77
539.575	9878.29
539.94	9963.71
540.305	9935.91
540.67	9962.13
541.034	10053.65
541.399	10041.67
541.764	10153.08
542.129	10136.81
542.494	10177.94
542.858	10239.86
543.223	10173.19
543.587	10273.3
543.952	10293.19
544.316	10330.25
544.681	10306.3
545.045	10473.75
545.41	10396.46
545.774	10562.56
546.138	10534.54
546.503	10543.58
546.867	10612.5
547.231	10655.89
547.595	10668.32
547.959	10722.78
548.324	10692.05
548.688	10854.53
549.052	10850.69
549.416	10937.01
549.779	10911.93
550.143	10959.16
550.507	11105.37
550.871	11021.08
551.235	11057.92
551.599	11163.45
551.962	11218.14
552.326	11252.71
552.689	11307.63
553.053	11193.96
553.417	11297.91
553.78	11499.71
554.143	11443.44
554.507	11514.85
554.87	11527.06
555.234	11602.99
555.597	11654.74
555.96	11707.62
556.323	11771.79
556.686	11876.2
557.05	11921.85
557.413	11939.93
557.776	11986.03
558.139	12136.98
558.502	12021.51
558.865	12088.85
559.228	12289.07
559.59	12280.48
559.953	12311.44
560.316	12440.7
560.679	12527.93
561.041	12526.8
561.404	12670.3
561.767	12686.12
562.129	12731.32
562.492	12834.37
562.854	12870.75
563.217	12858.77
563.579	12946.23
563.941	13042.04
564.304	13141.93
564.666	13189.61
565.028	13311.19
565.39	13280.46
565.753	13418.31
566.115	13436.84
566.477	13573.56
566.839	13499.89
567.201	13609.26
567.563	13739.2
567.925	13802.7
568.287	13843.38
568.648	13834.79
569.01	13956.37
569.372	14056.93
569.734	14084.05
570.095	14216.7
570.457	14216.93
570.819	14351.39
571.18	14321.78
571.542	14477.94
571.903	14425.28
572.265	14527.2
572.626	14571.95
572.987	14668.67
573.349	14741.89
573.71	14801.77
574.071	14792.28
574.432	14905.05
574.794	14983.24
575.155	15051.48
575.516	14986.85
575.877	15053.52
576.238	15163.34
576.599	15229.11
576.96	15281.76
577.32	15327.63
577.681	15407.18
578.042	15502.77
578.403	15500.51
578.763	15573.95
579.124	15569.44
579.485	15601.52
579.845	15671.13
580.206	15773.27
580.566	15730.56
580.927	15822.08
581.287	15860.73
581.648	15772.37
582.008	15996.09
582.368	16004
582.728	16007.84
583.089	16099.59
583.449	16049.2
583.809	16201.74
584.169	16182.3
584.529	16126.48
584.889	16244.9
585.249	16276.76
585.609	16255.74
585.969	16345.69
586.329	16367.15
586.688	16446.02
587.048	16433.14
587.408	16515.85
587.768	16500.26
588.127	16426.14
588.487	16498.22
588.846	16610.54
589.206	16607.15
589.565	16573.25
589.925	16635.85
590.284	16616.41
590.643	16686.47
591.003	16773.7
591.362	16787.26
591.721	16844.2
592.08	16793.13
592.44	16846.92
592.799	16836.29
593.158	16916.07
593.517	16964.88
593.876	16972.56
594.235	16956.74
594.593	16989.74
594.952	17056.4
595.311	17067.93
595.67	17163.29
596.029	17206
596.387	17168.26
596.746	17296.17
597.104	17212.33
597.463	17181.37
597.822	17337.75
598.18	17313.57
598.538	17404.42
598.897	17347.69
599.255	17369.39
599.613	17500.46
599.972	17402.38
600.33	17518.99
600.688	17488.48
601.046	17495.94
601.404	17649.15
601.762	17690.06
602.12	17676.27
602.478	17718.76
602.836	17770.96
603.194	17703.84
603.552	17749.94
603.91	17659.1
604.268	17867.91
604.625	17782.03
604.983	17949.26
605.341	17835.82
605.698	18002.14
606.056	18046.88
606.413	18085.08
606.771	18022.93
607.128	18162.36
607.485	17996.04
607.843	18052.76
608.2	18150.84
608.557	18332.75
608.914	18205.07
609.272	18355.58
609.629	18453.65
609.986	18336.14
610.343	18385.86
610.7	18489.36
611.057	18429.25
611.414	18429.25
611.771	18542.01
612.127	18496.14
612.484	18604.61
612.841	18601.45
613.198	18559.87
613.554	18602.8
613.911	18735.23
614.267	18699.3
614.624	18612.75
614.98	18688.45
615.337	18827.88
615.693	18717.15
616.05	18852.96
616.406	18979.29
616.762	18826.98
617.118	18777.71
617.475	18816.36
617.831	18917.37
618.187	18903.81
618.543	18949.46
618.899	19129.34
619.255	19020.42
619.611	18979.97
619.967	18986.07
620.323	19197.59
620.678	19156.23
621.034	18923.7
621.39	19077.82
621.746	19084.6
622.101	19294.99
622.457	19106.29
622.812	19209.11
623.168	19261.99
623.523	19276.23
623.879	19326.85
624.234	19266.29
624.589	19297.02
624.945	19303.57
625.3	19263.35
625.655	19288.43
626.01	19297.02
626.365	19243.91
626.72	19217.93
627.075	19127.99
627.43	19288.66
627.785	19117.59
628.14	19317.36
628.495	19212.05
628.85	19224.25
629.205	19092.28
629.559	19244.82
629.914	19156.23
630.269	19167.31
630.623	19171.15
630.978	19170.47
631.332	19168.21
631.687	19219.51
632.041	19050.47
632.396	19132.05
632.75	19068.55
633.104	19168.89
633.459	19009.12
633.813	18977.26
634.167	19068.33
634.521	19076.91
634.875	19069.23
635.229	19067.42
635.583	18918.27
635.937	18972.51
636.291	18952.85
636.645	18996.01
636.999	18865.39
637.352	18960.53
637.706	18815
638.06	18915.56
638.413	18885.73
638.767	18885.51
639.121	18838.73
639.474	18713.08
639.828	18828.56
640.181	18771.38
640.534	18846.41
640.888	18752.85
641.241	18707.66
641.594	18719.41
641.947	18746.3
642.301	18691.84
642.654	18710.6
643.007	18783.59
643.36	18647.09
643.713	18639.86
644.066	18810.48
644.419	18573.42
644.771	18481.22
645.124	18286.43
645.477	18282.13
645.83	18210.95
646.182	18128.46
646.535	18014.34
646.888	17996.72
647.24	17870.62
647.593	18027.45
647.945	18087.11
648.298	17943.38
648.65	17963.5
649.002	17876.04
649.355	17921.69
649.707	17806.21
650.059	18079.43
650.411	18208.01
650.763	18254.56
651.115	18447.33
651.467	18410.04
651.819	18412.75
652.171	18385.41
652.523	18296.82
652.875	18375.24
653.227	18225.18
653.578	18345.18
653.93	18267.67
654.282	18222.02
654.633	18198.74
654.985	18209.82
655.337	18248.91
655.688	18233.55
656.039	18315.8
656.391	18194.45
656.742	18192.42
657.094	18222.25
657.445	18275.13
657.796	18267.9
658.147	18249.59
658.498	18326.65
658.849	18191.97
659.2	18256.6
659.551	18072.19
659.902	18149.48
660.253	18238.29
660.604	18274.22
660.955	18238.74
661.306	18179.76
661.656	18095.24
662.007	18172.08
662.358	18166.66
662.708	18145.41
663.059	18211.17
663.409	18043.27
663.76	18154.23
664.11	18208.01
664.461	18182.93
664.811	18123.72
665.161	18153.32
665.511	18078.52
665.862	18054.79
666.212	18187.9
666.562	18263.83
666.912	18134.79
667.262	18126.88
667.612	18163.49
667.962	18157.84
668.312	18054.57
668.662	18152.87
669.011	18160.55
669.361	18082.59
669.711	18140.22
670.06	18111.97
670.41	18131.4
670.76	18141.12
671.109	18185.64
671.459	18074.68
671.808	18040.1
672.157	18083.49
672.507	17976.6
672.856	18083.49
673.205	18064.96
673.554	18172.76
673.904	18028.13
674.253	18156.71
674.602	18083.95
674.951	17797.4
675.3	17744.52
675.649	18070.39
675.998	18063.61
676.346	18030.84
676.695	18004.85
677.044	17975.02
677.393	17898.19
677.741	18028.13
678.09	17980.45
678.438	17941.58
678.787	17912.2
679.135	17993.78
679.484	17923.27
679.832	17921.69
680.181	17905.87
680.529	17949.26
680.877	17828.58
681.225	17836.72
681.573	18052.99
681.922	17781.13
682.27	17809.83
682.618	17678.76
682.966	17718.76
683.314	17740
683.661	17711.98
684.009	17620
684.357	17645.99
684.705	17596.73
685.053	17620.91
685.4	17669.72
685.748	17493.68
686.095	17562.38
686.443	17482.15
686.79	17460.01
687.138	17452.32
687.485	17565.54
687.832	17440.12
688.18	17496.62
688.527	17303.85
688.874	17302.5
689.221	17267.92
689.568	17271.76
689.915	17307.24
690.262	17270.41
690.609	17222.05
690.956	17113.35
691.303	17068.6
691.65	17052.79
691.997	16992
692.344	16937.31
692.69	17013.69
693.037	16915.39
693.383	16857.31
693.73	16859.34
694.077	16770.99
694.423	16722.4
694.769	16677.2
695.116	16702.51
695.462	16755.17
695.808	16645.34
696.155	16694.6
696.501	16630.65
696.847	16556.3
697.193	16479.92
697.539	16487.38
697.885	16411
698.231	16332.13
698.577	16396.31
698.923	16275.41
699.269	16255.07
699.614	16168.74
699.96	16209.87
700.306	16224.79
700.651	16068.41
700.997	16032.47
701.342	16059.82
701.688	16024.56
702.033	15996.99
702.379	15990.89
702.724	15881.29
703.069	15951.35
703.415	15780.96
703.76	15790.9
704.105	15828.41
704.45	15761.29
704.795	15753.16
705.14	15657.79
705.485	15688.75
705.83	15550.23
706.175	15651.24
706.52	15592.26
706.865	15489.44
707.209	15381.87
707.554	15403.34
707.899	15495.09
708.243	15443.56
708.588	15498.02
708.932	15228.43
709.277	15297.13
709.621	15334.41
709.966	15239.05
710.31	15252.83
710.654	15143.46
710.998	15203.34
711.342	15178.71
711.687	15190.46
712.031	15002.67
712.375	15003.12
712.719	15062.33
713.063	15002.22
713.407	15015.55
713.75	14944.82
714.094	14974.65
714.438	14919.51
714.782	14932.39
715.125	14917.47
715.469	14854.43
715.812	14769
716.156	14711.15
716.499	14693.75
716.843	14703.24
717.186	14628.67
717.53	14756.35
717.873	14718.61
718.216	14748.21
718.559	14652.17
718.902	14524.26
719.246	14598.84
719.589	14559.97
719.932	14498.73
720.275	14567.43
720.617	14486.75
720.96	14494.21
721.303	14480.88
721.646	14490.37
721.989	14340.09
722.331	14439.97
722.674	14405.17
723.016	14349.35
723.359	14270.94
723.701	14335.57
724.044	14406.98
724.386	14276.36
724.729	14341.44
725.071	14228.45
725.413	14299.19
725.755	14318.85
726.097	14215.8
726.439	14132.41
726.782	14179.64
727.124	14207.89
727.465	14103.26
727.807	14131.73
728.149	14096.71
728.491	14089.93
728.833	14057.61
729.175	14119.76
729.516	13976.03
729.858	14065.29
730.199	14053.09
730.541	13978.97
730.882	14111.17
731.224	14075.46
731.565	14014.67
731.906	14038.85
732.248	14017.61
732.589	13985.97
732.93	13910.27
733.271	13929.03
733.612	13935.81
733.953	14005.86
734.294	13849.03
734.635	13874.11
734.976	13875.47
735.317	13843.6
735.658	13847.22
735.999	13851.06
736.339	13789.82
736.68	13881.12
737.021	13701.24
737.361	13739.2
737.702	13885.86
738.042	13851.06
738.383	13703.72
738.723	13784.17
739.063	13732.42
739.404	13774.45
739.744	13588.7
740.084	13702.82
740.424	13625.53
740.764	13585.08
741.104	13748.69
741.444	13597.06
741.784	13528.13
742.124	13557.28
742.464	13610.16
742.804	13515.48
743.143	13530.62
743.483	13595.93
743.823	13486.55
744.162	13528.58
744.502	13478.64
744.841	13437.29
745.181	13472.77
745.52	13394.13
745.86	13440.68
746.199	13369.95
746.538	13315.48
746.877	13480
747.216	13421.7
747.556	13363.84
747.895	13365.2
748.234	13223.96
748.573	13301.02
748.911	13354.58
749.25	13323.84
749.589	13245.43
749.928	13282.26
750.267	13300.34
750.605	13249.72
750.944	13186.67
751.283	13133.12
751.621	13147.35
751.96	13086.34
752.298	13084.3
752.636	13082.27
752.975	13033.23
753.313	12982.84
753.651	13035.72
753.989	12899.45
754.327	12988.49
754.666	12837.76
755.004	12922.5
755.342	12888.6
755.679	12890.64
756.017	12795.04
756.355	12866.23
756.693	12751.66
757.031	12765.67
757.368	12714.6
