Data from tablewood_brown_FLMS001491_037.txt Node
Date: Tue Feb 07 11:10:23 GMT 2017
User: dcchb
Spectrometer: FLMS00149
Trigger mode: 0
Integration Time (sec): 2.000000E-2
Scans to average: 10
Electric dark correction enabled: true
Nonlinearity correction enabled: false
Boxcar width: 0
XAxis mode: Wavelengths
Number of Pixels in Spectrum: 2048
>>>>>Begin Spectral Data<<<<<
341.393	-17.53
341.776	-17.53
342.16	-17.53
342.543	-53.46
342.927	-69.05
343.31	-63.63
343.693	-65.66
344.077	-55.27
344.46	-86.45
344.843	-48.71
345.226	-44.65
345.61	-26.57
345.993	-9.17
346.376	-23.4
346.759	9.36
347.142	31.06
347.525	36.48
347.908	57.5
348.291	75.13
348.674	98.18
349.057	115.8
349.44	125.52
349.823	136.37
350.206	162.58
350.588	202.81
350.971	217.95
351.354	235.35
351.737	253.65
352.119	259.3
352.502	278.06
352.884	274.89
353.267	291.62
353.65	326.42
354.032	316.93
354.414	320.09
354.797	310.37
355.179	330.03
355.562	319.41
355.944	342.69
356.326	351.73
356.709	343.59
357.091	348.11
357.473	360.99
357.855	350.82
358.238	346.3
358.62	333.2
359.002	363.71
359.384	369.35
359.766	360.09
360.148	332.29
360.53	348.56
360.912	358.51
361.294	342.46
361.676	364.38
362.057	351.05
362.439	325.29
362.821	352.41
363.203	349.02
363.584	341.11
363.966	343.59
364.348	346.76
364.729	350.6
365.111	324.61
365.493	338.4
365.874	325.06
366.256	318.06
366.637	344.27
367.019	329.13
367.4	327.77
367.781	349.69
368.163	326.42
368.544	352.18
368.925	339.3
369.306	310.15
369.688	344.95
370.069	337.94
370.45	340.43
370.831	346.53
371.212	342.24
371.593	334.1
371.974	362.35
372.355	315.57
372.736	322.12
373.117	343.82
373.498	342.91
373.879	354.44
374.26	347.66
374.641	335.46
375.021	338.4
375.402	344.27
375.783	352.18
376.163	379.52
376.544	359.64
376.925	337.04
377.305	341.56
377.686	365.06
378.066	360.09
378.447	353.31
378.827	369.13
379.208	376.13
379.588	380.2
379.968	360.09
380.349	361.45
380.729	382.24
381.109	376.59
381.489	371.39
381.87	346.3
382.25	417.72
382.63	401.44
383.01	396.02
383.39	381.56
383.77	377.49
384.15	387.66
384.53	397.6
384.91	403.93
385.29	403.7
385.67	404.83
386.049	390.37
386.429	395.79
386.809	413.87
387.189	385.4
387.568	391.05
387.948	424.95
388.328	420.65
388.707	411.84
389.087	419.07
389.466	435.34
389.846	433.76
390.225	419.97
390.605	428.79
390.984	445.28
391.363	435.12
391.743	431.5
392.122	420.65
392.501	452.97
392.881	448.9
393.26	451.61
393.639	455.23
394.018	475.79
394.397	454.55
394.776	448
395.155	492.06
395.534	474.44
395.913	462.91
396.292	463.82
396.671	477.6
397.05	491.16
397.429	492.06
397.808	466.98
398.186	491.84
398.565	501.1
398.944	485.06
399.323	497.26
399.701	518.05
400.08	496.13
400.458	514.89
400.837	488.22
401.215	525.28
401.594	520.76
401.972	530.48
402.351	518.96
402.729	512.63
403.107	539.52
403.486	546.3
403.864	540.42
404.242	521.44
404.62	556.92
404.999	557.6
405.377	551.95
405.755	562.34
406.133	575.45
406.511	567.32
406.889	583.81
407.267	588.78
407.645	606.41
408.023	611.16
408.401	579.52
408.779	592.4
409.156	630.36
409.534	599.86
409.912	625.85
410.29	626.52
410.667	636.69
411.045	649.35
411.422	659.29
411.8	657.26
412.178	669.46
412.555	673.75
412.933	661.78
413.31	678.27
413.687	684.37
414.065	693.64
414.442	687.54
414.819	713.98
415.197	686.63
415.574	728.22
415.951	720.53
416.328	726.41
416.705	726.86
417.082	743.36
417.46	734.54
417.837	748.78
418.214	760.08
418.591	750.36
418.967	755.79
419.344	800.3
419.721	737.71
420.098	757.59
420.475	776.12
420.852	789
421.228	800.76
421.605	795.11
421.982	793.3
422.358	837.59
422.735	824.03
423.111	829.46
423.488	825.39
423.864	827.87
424.241	853.86
424.617	875.78
424.994	867.65
425.37	881.43
425.746	865.84
426.123	869.68
426.499	875.78
426.875	883.47
427.251	926.18
427.627	898.38
428.003	927.31
428.379	938.15
428.756	933.41
429.132	928.44
429.507	962.33
429.883	978.83
430.259	989.45
430.635	970.92
431.011	981.99
431.387	1012.73
431.763	1027.19
432.138	1039.62
432.514	1044.82
432.89	1058.6
433.265	1084.14
433.641	1071.94
434.016	1069.22
434.392	1088.88
434.767	1128.66
435.143	1151.48
435.518	1142.44
435.894	1141.09
436.269	1160.52
436.644	1165.27
437.02	1199.62
437.395	1175.21
437.77	1197.81
438.145	1224.02
438.52	1250.46
438.895	1227.86
439.271	1258.6
439.646	1252.04
440.021	1290.01
440.395	1265.6
440.77	1275.32
441.145	1310.8
441.52	1319.39
441.895	1312.83
442.27	1333.85
442.645	1340.63
443.019	1356.9
443.394	1339.5
443.769	1347.86
444.143	1359.16
444.518	1379.72
444.892	1382.66
445.267	1367.29
445.641	1421.98
446.016	1390.57
446.39	1403.23
446.764	1433.73
447.139	1431.47
447.513	1426.95
447.887	1455.88
448.262	1462.21
448.636	1475.31
449.01	1467.18
449.384	1492.26
449.758	1492.26
450.132	1490.91
450.506	1524.8
450.88	1543.34
451.254	1561.19
451.628	1572.49
452.002	1575.42
452.376	1596.67
452.75	1626.5
453.123	1615.2
453.497	1622.43
453.871	1665.14
454.244	1683.22
454.618	1658.36
454.992	1711.47
455.365	1737.91
455.739	1748.3
456.112	1777
456.486	1782.42
456.859	1774.29
457.232	1807.73
457.606	1817.9
457.979	1859.94
458.352	1868.07
458.725	1888.18
459.099	1867.39
459.472	1938.58
459.845	1962.53
460.218	1954.17
460.591	1982.42
460.964	2009.99
461.337	2036.88
461.71	2042.76
462.083	2060.61
462.456	2127.5
462.829	2111.23
463.201	2161.4
463.574	2159.82
463.947	2202.75
464.32	2263.77
464.692	2263.09
465.065	2297.44
465.438	2335.18
465.81	2385.12
466.183	2368.4
466.555	2413.59
466.928	2447.04
467.3	2454.72
467.672	2474.84
468.045	2547.38
468.417	2582.86
468.789	2570.2
469.161	2649.75
469.534	2675.96
469.906	2721.84
470.278	2761.38
470.65	2783.75
471.022	2828.95
471.394	2882.51
471.766	2951.89
472.138	2949.17
472.51	3016.52
472.882	3091.09
473.253	3101.94
473.625	3169.96
473.997	3270.75
474.369	3265.78
474.74	3309.84
475.112	3389.16
475.484	3454.7
475.855	3506.45
476.227	3566.33
476.598	3695.37
476.97	3705.54
477.341	3802.48
477.713	3876.83
478.084	3887.91
478.455	3997.51
478.827	4040.67
479.198	4157.5
479.569	4195.92
479.94	4289.48
480.311	4407.44
480.682	4514.78
481.053	4603.14
481.424	4650.15
481.795	4736.25
482.166	4799.52
482.537	4876.81
482.908	5011.04
483.279	5059.17
483.65	5180.3
484.021	5250.81
484.391	5317.7
484.762	5378.94
485.133	5490.12
485.503	5587.75
485.874	5669.55
486.244	5734.19
486.615	5825.93
486.985	5935.76
487.356	6036.1
487.726	6091.92
488.097	6216.43
488.467	6201.74
488.837	6382.3
489.207	6404.22
489.578	6539.81
489.948	6630.21
490.318	6717.66
490.688	6742.52
491.058	6858
491.428	6929.18
491.798	7025
492.168	7123.98
492.538	7190.19
492.908	7287.14
493.278	7392.9
493.648	7363.52
494.017	7563.52
494.387	7603.74
494.757	7698.2
495.126	7777.75
495.496	7786.33
495.866	7896.84
496.235	7936.39
496.605	8020.23
496.974	8051.41
497.344	8102.03
497.713	8208.92
498.082	8308.58
498.452	8333.44
498.821	8457.73
499.19	8464.74
499.559	8546.99
499.928	8642.81
500.298	8683.71
500.667	8761
501.036	8773.88
501.405	8912.63
501.774	8870.37
502.143	8966.19
502.512	8997.38
502.88	9102.68
503.249	9159.86
503.618	9208.67
503.987	9302
504.356	9302.68
504.724	9388.78
505.093	9426.52
505.462	9550.13
505.83	9575.44
506.199	9646.62
506.567	9713.06
506.936	9756.23
507.304	9880.52
507.672	9946.05
508.041	10051.81
508.409	10063.11
508.777	10164.35
509.145	10273.5
509.514	10248.42
509.882	10437.11
510.25	10497.9
510.618	10541.29
510.986	10634.62
511.354	10666.49
511.722	10695.86
512.09	10852.02
512.458	10914.84
512.826	10973.82
513.193	11151.9
513.561	11169.97
513.929	11315.73
514.297	11368.16
514.664	11409.06
515.032	11507.37
515.4	11643.18
515.767	11666.68
516.135	11810.18
516.502	11713.92
516.869	11948.94
517.237	12006.56
517.604	11980.12
517.972	12186.45
518.339	12304.41
518.706	12323.62
519.073	12439.77
519.44	12495.82
519.808	12684.74
520.175	12708.69
520.542	12881.57
520.909	12968.12
521.276	12977.84
521.643	13129.25
522.009	13229.13
522.376	13321.33
522.743	13448.11
523.11	13619.4
523.477	13778.27
523.843	13843.58
524.21	13947.98
524.577	14053.51
524.943	14171.93
525.31	14251.48
525.676	14368.76
526.043	14438.14
526.409	14557.23
526.776	14652.14
527.142	14689.88
527.508	14866.15
527.874	15057.1
528.241	15084.67
528.607	15153.15
528.973	15364.44
529.339	15316.31
529.705	15521.27
530.071	15600.59
530.437	15692.12
530.803	15766.01
531.169	15837.87
531.535	15899.57
531.901	15955.16
532.267	16020.69
532.632	16174.36
532.998	16308.82
533.364	16329.61
533.73	16341.36
534.095	16530.96
534.461	16603.96
534.826	16690.06
535.192	16822.93
535.557	16896.38
535.923	16902.48
536.288	17027.9
536.653	17095.92
537.019	17088.24
537.384	17139.99
537.749	17224.05
538.114	17437.38
538.479	17365.97
538.845	17438.28
539.21	17390.15
539.575	17476.48
539.94	17568.9
540.305	17740.2
540.67	17829.46
541.034	17821.55
541.399	17898.84
541.764	17877.59
542.129	18089.11
542.494	18069
542.858	18131.15
543.223	18092.5
543.587	18294.53
543.952	18238.94
544.316	18321.43
544.681	18273.97
545.045	18415.21
545.41	18638.48
545.774	18665.82
546.138	18729.55
546.503	18787.63
546.867	18779.04
547.231	19060.84
547.595	18950.11
547.959	19073.27
548.324	19082.99
548.688	19198.01
549.052	19357.1
549.416	19328.63
549.779	19384.9
550.143	19375.18
550.507	19537.66
550.871	19687.04
551.235	19699.92
551.599	19870.08
551.962	19955.28
552.326	20025.79
552.689	20075.5
553.053	20168.83
553.417	20273.46
553.78	20454.93
554.143	20427.13
554.507	20527.24
554.87	20718.2
555.234	20953.9
555.597	20859.66
555.96	21104.85
556.323	21084.52
556.686	21227.11
557.05	21457.39
557.413	21442.7
557.776	21627.1
558.139	21891.27
558.502	21911.84
558.865	22051.5
559.228	22192.06
559.59	22281.09
559.953	22436.12
560.316	22750.46
560.679	22711.37
561.041	22927.41
561.404	23101.64
561.767	23355.42
562.129	23277.23
562.492	23615.75
562.854	23706.14
563.217	23760.38
563.579	23869.3
563.941	24055.51
564.304	24222.06
564.666	24477.42
565.028	24582.28
565.39	24735.27
565.753	24968.71
566.115	25053.68
566.477	25245.31
566.839	25328.92
567.201	25624.74
567.563	25768.23
567.925	26013.2
568.287	26101.11
568.648	26155.57
569.01	26400.53
569.372	26697.93
569.734	26659.51
570.095	26856.12
570.457	27172.27
570.819	27255.2
571.18	27348.31
571.542	27596.89
571.903	27639.37
572.265	27974.05
572.626	27950.55
572.987	28227.61
573.349	28431.44
573.71	28640.93
574.071	28735.84
574.432	28863.97
574.794	29167.92
575.155	29293.79
575.516	29157.98
575.877	29412.88
576.238	29575.14
576.599	29677.28
576.96	29851.74
577.32	29956.83
577.681	30184.39
578.042	30344.39
578.403	30293.54
578.763	30459.64
579.124	30602.46
579.485	30924.94
579.845	31006.06
580.206	30962.45
580.566	31149.11
580.927	31204.25
581.287	31416.9
581.648	31316.34
582.008	31531.02
582.368	31578.7
582.728	31658.25
583.089	31683.33
583.449	31623.67
583.809	31905.93
584.169	31874.52
584.529	32059.14
584.889	32228.63
585.249	32014.17
585.609	32068.18
585.969	32234.05
586.329	32199.25
586.688	32312.7
587.048	32307.72
587.408	32342.07
587.768	32370.1
588.127	32434.05
588.487	32528.28
588.846	32731.44
589.206	32540.26
589.565	32658
589.925	32765.11
590.284	32772.8
590.643	32862.96
591.003	32727.15
591.362	33027.03
591.721	32972.57
592.08	32995.16
592.44	33146.35
592.799	33140.7
593.158	33013.24
593.517	33057.53
593.876	33088.72
594.235	33033.81
594.593	33124.43
594.952	33123.07
595.311	33144.76
595.67	33234.71
596.029	33250.75
596.387	33495.04
596.746	33485.77
597.104	33360.8
597.463	33308.83
597.822	33536.84
598.18	33447.36
598.538	33453.23
598.897	33741.81
599.255	33373.23
599.613	33827.91
599.972	33613.9
600.33	33744.07
600.688	33583.62
601.046	33586.33
601.404	33849.6
601.762	33777.97
602.12	33959.43
602.478	33844.41
602.836	33899.55
603.194	33734.35
603.552	33741.81
603.91	33814.35
604.268	33913.56
604.625	33761.47
604.983	34008.7
605.341	33942.94
605.698	34052.31
606.056	34204.4
606.413	34023.61
606.771	34304.28
607.128	34184.28
607.485	34045.53
607.843	34109.26
608.2	34333.21
608.557	34352.19
608.914	34236.71
609.272	34441.68
609.629	34371.85
609.986	34462.92
610.343	34422.24
610.7	34632.18
611.057	34566.65
611.414	34513.77
611.771	34702.92
612.127	34871.05
612.484	34819.52
612.841	34937.71
613.198	34864.04
613.554	34839.41
613.911	35090.02
614.267	35066.3
614.624	34972.74
614.98	34935.68
615.337	35147.65
615.693	35120.53
616.05	35111.94
616.406	35196.01
616.762	35231.94
617.118	35156.01
617.475	35148.1
617.831	35295.89
618.187	35380.64
618.543	35325.05
618.899	35478.04
619.255	35416.12
619.611	35275.56
619.967	35441.88
620.323	35519.62
620.678	35335.21
621.034	35488.43
621.39	35313.75
621.746	35389.22
622.101	35800.74
622.457	35638.26
622.812	35683.23
623.168	35639.61
623.523	35608.88
623.879	35760.74
624.234	35485.95
624.589	35543.57
624.945	35684.13
625.3	35667.64
625.655	35626.73
626.01	35689.78
626.365	35647.98
626.72	35740.85
627.075	35652.49
627.43	35577.02
627.785	35504.02
628.14	35495.89
628.495	35550.58
628.85	35546.96
629.205	35490.69
629.559	35617.24
629.914	35391.94
630.269	35572.27
630.623	35360.07
630.978	35409.79
631.332	35537.02
631.687	35542.67
632.041	35405.5
632.396	35380.86
632.75	35261.54
633.104	35376.12
633.459	35279.4
633.813	35205.5
634.167	35129.12
634.521	35279.62
634.875	35196.46
635.229	35017.71
635.583	34838.73
635.937	35044.6
636.291	34944.72
636.645	35076.46
636.999	34698.85
637.352	34814.1
637.706	34740.2
638.06	34874.66
638.413	34697.27
638.767	34783.37
639.121	34845.96
639.474	34608.23
639.828	34642.8
640.181	34769.35
640.534	34629.47
640.888	34341.57
641.241	34504.95
641.594	34490.72
641.947	34433.54
642.301	34317.39
642.654	34439.65
643.007	34411.4
643.36	34353.55
643.713	34356.48
644.066	34281.68
644.419	34170.73
644.771	34075.36
645.124	33671.3
645.477	33713.34
645.83	33464.76
646.182	33203.29
646.535	33234.93
646.888	33297.75
647.24	33074.26
647.593	33325.1
647.945	33380.01
648.298	33140.24
648.65	32947.03
649.002	32947.71
649.355	33096.86
649.707	33094.37
650.059	33036.74
650.411	33485.09
650.763	33506.34
651.115	33867
651.467	33750.4
651.819	33827.68
652.171	33784.07
652.523	33727.8
652.875	33738.42
653.227	33680.34
653.578	33877.4
653.93	33709.95
654.282	33537.75
654.633	33521.93
654.985	33679.67
655.337	33582.94
655.688	33731.42
656.039	33683.06
656.391	33462.27
656.742	33540.91
657.094	33647.8
657.445	33529.84
657.796	33597.18
658.147	33428.6
658.498	33444.64
658.849	33592.66
659.2	33556.5
659.551	33443.97
659.902	33524.19
660.253	33396.96
660.604	33566.67
660.955	33411.2
661.306	33563.28
661.656	33440.35
662.007	33498.88
662.358	33386.79
662.708	33476.96
663.059	33302.5
663.409	33373.23
663.76	33402.61
664.11	33390.63
664.461	33476.28
664.811	33429.5
665.161	33383.63
665.511	33345.21
665.862	33440.35
666.212	33478.09
666.562	33429.05
666.912	33338.66
667.262	33299.11
667.612	33381.82
667.962	33359
668.312	33324.87
668.662	33495.94
669.011	33276.74
669.361	33397.64
669.711	33321.93
670.06	33198.32
670.41	33126.69
670.76	33168.49
671.109	33352.22
671.459	33167.59
671.808	33130.3
672.157	33149.74
672.507	33021.6
672.856	32943.87
673.205	32928.27
673.554	33105.9
673.904	32845.11
674.253	33210.53
674.602	32943.19
674.951	32548.17
675.3	32373.03
675.649	32941.38
675.998	32854.6
676.346	32821.83
676.695	32901.15
677.044	32691.89
677.393	32866.35
677.741	32827.26
678.09	32670.43
678.438	32698.9
678.787	32681.27
679.135	32610.77
679.484	32449.87
679.832	32506.14
680.181	32189.76
680.529	32443.99
680.877	32283.77
681.225	32187.73
681.573	32494.16
681.922	32303.43
682.27	32144.11
682.618	32228.63
682.966	32081.29
683.314	32196.99
683.661	31985.02
684.009	31864.8
684.357	31762.65
684.705	31667.29
685.053	31764.24
685.4	31712.71
685.748	31660.74
686.095	31555.43
686.443	31362.21
686.79	31362.21
687.138	31519.04
687.485	31300.97
687.832	31274.76
688.18	31234.76
688.527	31239.28
688.874	31188.43
689.221	31096.46
689.568	30855.78
689.915	30826.86
690.262	30821.89
690.609	30732.4
690.956	30626.86
691.303	30554.55
691.65	30460.99
691.997	30359.75
692.344	30167.22
692.69	30126.76
693.037	30203.15
693.383	29896.26
693.73	30014.9
694.077	29813.55
694.423	29780.11
694.769	29627.34
695.116	29563.62
695.462	29472.77
695.808	29407.01
696.155	29450.17
696.501	29322.49
696.847	29237.97
697.193	28948.49
697.539	28942.39
697.885	28835.95
698.231	28607.48
698.577	28664.66
698.923	28749.63
699.269	28585.11
699.614	28405.45
699.96	28318.68
700.306	28316.64
700.651	28238.9
700.997	28080.72
701.342	28054.95
701.688	28089.98
702.033	27882.98
702.379	27814.06
702.724	27744.23
703.069	27827.39
703.415	27436.67
703.76	27473.05
704.105	27405.48
704.45	27408.87
704.795	27143.57
705.14	27215.43
705.485	27073.29
705.83	27035.32
706.175	27031.25
706.52	26935.21
706.865	26866.74
707.209	26798.04
707.554	26625.84
707.899	26759.4
708.243	26612.28
708.588	26525.05
708.932	26263.14
709.277	26343.81
709.621	26314.44
709.966	26211.61
710.31	26293.87
710.654	26031.28
710.998	26033.99
711.342	26026.76
711.687	25867.89
712.031	25754
712.375	25714
712.719	25852.53
713.063	25636.94
713.407	25726.43
713.75	25674.9
714.094	25570.95
714.438	25449.6
714.782	25415.7
715.125	25339.09
715.469	25346.78
715.812	25184.75
716.156	25165.31
716.499	25195.59
716.843	25178.87
717.186	25050.06
717.53	25196.5
717.873	25144.3
718.216	25157.4
718.559	25029.27
718.902	24874.25
719.246	25019.1
719.589	24856.85
719.932	24794.25
720.275	24726.91
720.617	24778.43
720.96	24756.96
721.303	24732.33
721.646	24803.74
721.989	24615.04
722.331	24684.65
722.674	24575.05
723.016	24561.26
723.359	24562.39
723.701	24573.46
724.044	24403.98
724.386	24305.67
724.729	24431.32
725.071	24401.49
725.413	24283.3
725.755	24439.68
726.097	24237.88
726.439	24243.08
726.782	24198.11
727.124	24366.01
727.465	24265
727.807	24112.46
728.149	24098.45
728.491	24140.93
728.833	24246.02
729.175	24068.39
729.516	23981.16
729.858	24093.93
730.199	24076.53
730.541	24116.3
730.882	23881.05
731.224	23972.8
731.565	23912.46
731.906	23970.32
732.248	23947.04
732.589	23886.48
732.93	23850.32
733.271	23795.18
733.612	23969.86
733.953	23867.27
734.294	23901.84
734.635	23846.25
734.976	23845.8
735.317	23694.84
735.658	23736.65
735.999	23811
736.339	23743.2
736.68	23835.86
737.021	23811
737.361	23580.04
737.702	23864.56
738.042	23765.58
738.383	23767.38
738.723	23867.04
739.063	23738.46
739.404	23775.29
739.744	23740.27
740.084	23702.98
740.424	23598.12
740.764	23739.36
741.104	23735.97
741.444	23533.04
741.784	23575.75
742.124	23631.12
742.464	23518.58
742.804	23492.59
743.143	23488.75
743.483	23561.74
743.823	23479.48
744.162	23471.57
744.502	23497.11
744.841	23454.17
745.181	23508.18
745.52	23413.72
745.86	23599.93
746.199	23490.55
746.538	23413.95
746.877	23615.75
747.216	23556.99
747.556	23435.87
747.895	23529.2
748.234	23458.69
748.573	23476.77
748.911	23313.61
749.25	23286.49
749.589	23337.11
749.928	23378.69
750.267	23259.37
750.605	23267.51
750.944	23319.26
751.283	23262.54
751.621	23232.26
751.96	23115.2
752.298	23172.6
752.636	23195.2
752.975	23086.05
753.313	23011.02
753.651	23130.56
753.989	22996.1
754.327	22920.4
754.666	22783.45
755.004	22910.68
755.342	22991.58
755.679	22923.79
756.017	22837.01
756.355	22767.18
