Data from tablewood_brown_FLMS001491_081.txt Node
Date: Tue Feb 07 11:11:07 GMT 2017
User: dcchb
Spectrometer: FLMS00149
Trigger mode: 0
Integration Time (sec): 2.000000E-2
Scans to average: 10
Electric dark correction enabled: true
Nonlinearity correction enabled: false
Boxcar width: 0
XAxis mode: Wavelengths
Number of Pixels in Spectrum: 2048
>>>>>Begin Spectral Data<<<<<
341.393	-4.62
341.776	-4.62
342.16	-4.62
342.543	-68.35
342.927	-76.48
343.31	-88.01
343.693	-61.79
344.077	-80.55
344.46	-58.85
344.843	-44.84
345.226	-27.44
345.61	-36.48
345.993	-42.58
346.376	-4.39
346.759	25.21
347.142	12.78
347.525	50.97
347.908	64.31
348.291	78.54
348.674	102.27
349.057	110.86
349.44	130.29
349.823	146.56
350.206	177.3
350.588	206.45
350.971	218.88
351.354	230.86
351.737	249.61
352.119	235.83
352.502	259.1
352.884	288.71
353.267	275.6
353.65	291.87
354.032	301.81
354.414	316.95
354.797	312.89
355.179	314.02
355.562	332.55
355.944	342.49
356.326	327.58
356.709	354.69
357.091	342.94
357.473	339.1
357.855	344.75
358.238	350.4
358.62	373.9
359.002	351.08
359.384	360.8
359.766	360.57
360.148	360.57
360.53	349.27
360.912	346.11
361.294	342.04
361.676	335.49
362.057	341.14
362.439	329.61
362.821	339.33
363.203	331.19
363.584	353.56
363.966	338.42
364.348	345.65
364.729	327.35
365.111	307.01
365.493	337.29
365.874	338.88
366.256	334.58
366.637	330.29
367.019	335.03
367.4	343.62
367.781	328.71
368.163	333.9
368.544	336.84
368.925	326.22
369.306	309.27
369.688	325.09
370.069	330.74
370.45	320.57
370.831	347.46
371.212	338.42
371.593	323.28
371.974	336.39
372.355	344.52
372.736	327.35
373.117	356.73
373.498	336.62
373.879	314.47
374.26	336.62
374.641	340.91
375.021	321.25
375.402	361.02
375.783	350.85
376.163	333.9
376.544	339.33
376.925	351.3
377.305	341.14
377.686	346.56
378.066	351.3
378.447	370.29
378.827	343.17
379.208	368.7
379.588	372.09
379.968	345.88
380.349	369.16
380.729	376.39
381.109	379.78
381.489	377.52
381.87	367.35
382.25	376.84
382.63	370.51
383.01	361.47
383.39	383.85
383.77	380.23
384.15	362.15
384.53	388.37
384.91	373.9
385.29	380.23
385.67	379.33
386.049	398.76
386.429	391.98
386.809	384.98
387.189	385.43
387.568	379.55
387.948	400.12
388.328	401.02
388.707	396.95
389.087	399.44
389.466	411.42
389.846	408.93
390.225	417.74
390.605	419.33
390.984	413.9
391.363	410.51
391.743	442.38
392.122	427.01
392.501	437.4
392.881	441.25
393.26	436.27
393.639	444.86
394.018	439.44
394.397	451.19
394.776	480.11
395.155	442.38
395.534	447.8
395.913	443.73
396.292	467.23
396.671	462.71
397.05	471.75
397.429	460
397.808	491.41
398.186	479.89
398.565	457.74
398.944	486.22
399.323	483.28
399.701	473.34
400.08	498.65
400.458	477.4
400.837	515.14
401.215	511.07
401.594	505.65
401.972	512.43
402.351	530.28
402.729	532.54
403.107	507.68
403.486	544.52
403.864	525.99
404.242	537.29
404.62	536.61
404.999	532.54
405.377	543.39
405.755	534.8
406.133	544.52
406.511	567.8
406.889	573.22
407.267	566.21
407.645	568.93
408.023	572.54
408.401	609.15
408.779	588.59
409.156	605.53
409.534	619.55
409.912	591.98
410.29	632.88
410.667	622.26
411.045	631.3
411.422	643.5
411.8	637.17
412.178	649.38
412.555	624.97
412.933	649.38
413.31	664.74
413.687	680.56
414.065	656.83
414.442	694.57
414.819	689.83
415.197	703.39
415.574	685.76
415.951	713.55
416.328	726.21
416.705	699.77
417.082	689.15
417.46	696.61
417.837	721.01
418.214	754.68
418.591	724.85
418.967	728.7
419.344	743.61
419.721	761.01
420.098	738.19
420.475	763.5
420.852	749.94
421.228	764.85
421.605	750.39
421.982	759.43
422.358	802.14
422.735	791.07
423.111	775.47
423.488	819.54
423.864	801.69
424.241	803.04
424.617	801.24
424.994	831.29
425.37	835.36
425.746	845.98
426.123	845.75
426.499	844.85
426.875	859.09
427.251	865.64
427.627	881.69
428.003	898.63
428.379	924.4
428.756	875.58
429.132	903.38
429.507	929.82
429.883	929.82
430.259	936.15
430.635	935.47
431.011	938.41
431.387	982.47
431.763	991.06
432.138	987.9
432.514	1003.94
432.89	1031.74
433.265	1022.7
433.641	1058.4
434.016	1051.85
434.392	1052.3
434.767	1056.37
435.143	1066.31
435.518	1098.86
435.894	1101.79
436.269	1127.56
436.644	1126.88
437.02	1145.63
437.395	1114.9
437.77	1167.55
438.145	1168.01
438.52	1176.37
438.895	1197.61
439.271	1205.97
439.646	1231.06
440.021	1240.32
440.395	1232.86
440.77	1246.42
441.145	1249.36
441.52	1257.95
441.895	1286.65
442.27	1239.19
442.645	1281.68
443.019	1283.94
443.394	1321.67
443.769	1313.99
444.143	1289.36
444.518	1322.35
444.892	1330.26
445.267	1338.85
445.641	1342.92
446.016	1378.62
446.39	1352.63
446.764	1375.91
447.139	1378.4
447.513	1394.44
447.887	1374.55
448.262	1384.72
448.636	1408.23
449.01	1430.15
449.384	1448.68
449.758	1448
450.132	1464.95
450.506	1452.97
450.88	1490.94
451.254	1446.42
451.628	1502.69
452.002	1507.21
452.376	1503.36
452.75	1511.27
453.123	1543.59
453.497	1553.31
453.871	1582.23
454.244	1611.38
454.618	1640.99
454.992	1617.26
455.365	1625.17
455.739	1678.95
456.112	1691.83
456.486	1699.07
456.859	1720.53
457.232	1737.48
457.606	1742.68
457.979	1774.09
458.352	1798.5
458.725	1841.21
459.099	1801.66
459.472	1873.98
459.845	1887.08
460.218	1896.57
460.591	1927.31
460.964	1936.8
461.337	1945.61
461.71	1995.78
462.083	2019.51
462.456	2041.2
462.829	2052.05
463.201	2093.86
463.574	2085.27
463.947	2125.72
464.32	2173.63
464.692	2190.58
465.065	2222.89
465.438	2217.02
465.81	2264.25
466.183	2301.31
466.555	2344.92
466.928	2353.51
467.3	2325.04
467.672	2388.31
468.045	2422.89
468.417	2431.25
468.789	2497.69
469.161	2555.54
469.534	2547.18
469.906	2642.09
470.278	2667.63
470.65	2694.52
471.022	2737
471.394	2775.42
471.766	2827.4
472.138	2842.09
472.51	2912.37
472.882	3012.48
473.253	3069.42
473.625	3079.82
473.997	3105.13
474.369	3165.47
474.74	3217.67
475.112	3274.39
475.484	3368.4
475.855	3411.56
476.227	3449.75
476.598	3555.74
476.97	3577.89
477.341	3691.1
477.713	3726.36
478.084	3780.14
478.455	3901.95
478.827	3933.58
479.198	4059.68
479.569	4092.9
479.94	4190.3
480.311	4231.65
480.682	4327.24
481.053	4431.87
481.424	4517.97
481.795	4567.92
482.166	4685.65
482.537	4752.32
482.908	4841.13
483.279	4924.52
483.65	5040.45
484.021	5105.98
484.391	5149.82
484.762	5178.52
485.133	5246.99
485.503	5376.26
485.874	5498.51
486.244	5560.43
486.615	5611.5
486.985	5701.9
487.356	5846.08
487.726	5909.35
488.097	5963.81
488.467	6100.08
488.837	6188.21
489.207	6242.9
489.578	6337.81
489.948	6439.05
490.318	6483.8
490.688	6526.74
491.058	6652.83
491.428	6707.97
491.798	6788.42
492.168	6986.61
492.538	6996.78
492.908	7085.82
493.278	7169.2
493.648	7159.71
494.017	7287.17
494.387	7365.13
494.757	7462.76
495.126	7504.11
495.496	7572.81
495.866	7646.03
496.235	7719.92
496.605	7780.71
496.974	7892.35
497.344	7886.25
497.713	7973.25
498.082	8036.98
498.452	8030.2
498.821	8116.98
499.19	8169.4
499.559	8276.52
499.928	8322.62
500.298	8412.34
500.667	8512.45
501.036	8545.44
501.405	8593.8
501.774	8606.23
502.143	8615.72
502.512	8664.53
502.88	8775.72
503.249	8793.57
503.618	8932.1
503.987	8997.63
504.356	9019.78
504.724	9103.62
505.093	9197.17
505.462	9229.71
505.83	9324.18
506.199	9394.68
506.567	9436.04
506.936	9490.95
507.304	9608.91
507.672	9664.51
508.041	9815.46
508.409	9812.52
508.777	9875.57
509.145	9960.09
509.514	9925.06
509.882	10031.73
510.25	10163.7
510.618	10241.89
510.986	10261.1
511.354	10399.18
511.722	10491.6
512.09	10592.39
512.458	10586.29
512.826	10693.41
513.193	10738.15
513.561	10854.3
513.929	10947.64
514.297	11016.33
514.664	11138.59
515.032	11087.29
515.4	11264.01
515.767	11281.41
516.135	11442.99
516.502	11396.21
516.869	11636.43
517.237	11594.4
517.604	11644.57
517.972	11821.96
518.339	11845.47
518.706	11992.58
519.073	12066.48
519.44	12164.78
519.808	12321.39
520.175	12324.77
520.542	12473.47
520.909	12621.04
521.276	12530.65
521.643	12703.97
522.009	12792.33
522.376	13007.02
522.743	13034.36
523.11	13121.59
523.477	13320.45
523.843	13380.57
524.21	13583.05
524.577	13600.9
524.943	13784.85
525.31	13720.9
525.676	13957.05
526.043	14041.57
526.409	14123.82
526.776	14274.1
527.142	14306.64
527.508	14485.4
527.874	14526.52
528.241	14619.18
528.607	14690.81
528.973	14875.67
529.339	14874.99
529.705	15026.17
530.071	15161.76
530.437	15252.61
530.803	15304.58
531.169	15451.25
531.535	15501.41
531.901	15557.23
532.267	15524.24
532.632	15646.95
532.998	15743.22
533.364	15817.11
533.73	15902.53
534.095	16034.96
534.461	16006.26
534.826	16190.66
535.192	16223.66
535.557	16381.17
535.923	16311.34
536.288	16399.92
536.653	16583.87
537.019	16511.56
537.384	16528.51
537.749	16744.55
538.114	16739.12
538.479	16819.8
538.845	16930.76
539.21	16851.89
539.575	17076.97
539.94	17098.43
540.305	17180.01
540.67	17161.71
541.034	17195.83
541.399	17354.7
541.764	17303.4
542.129	17446.22
542.494	17464.3
542.858	17610.74
543.223	17626.56
543.587	17676.27
543.952	17838.3
544.316	17864.52
544.681	17840.34
545.045	17966.66
545.41	17990.84
545.774	18050.5
546.138	18090.27
546.503	18256.14
546.867	18137.5
547.231	18374.56
547.595	18357.16
547.959	18469.25
548.324	18524.39
548.688	18575.68
549.052	18544.05
549.416	18685.06
549.779	18738.84
550.143	18861.1
550.507	18986.97
550.871	19052.28
551.235	19090.7
551.599	19267.87
551.962	19391.93
552.326	19390.13
552.689	19577.92
553.053	19496.56
553.417	19579.05
553.78	19803
554.143	19748.99
554.507	19948.53
554.87	20125.02
555.234	20294.28
555.597	20224
555.96	20431.68
556.323	20515.97
556.686	20564.33
557.05	20729.75
557.413	20909.18
557.776	20909.86
558.139	21235.05
558.502	21252
558.865	21390.53
559.228	21639.78
559.59	21626.9
559.953	21729.05
560.316	22105.08
560.679	22087.23
561.041	22232.54
561.404	22445.19
561.767	22639.53
562.129	22595.92
562.492	22822.8
562.854	22979.64
563.217	22994.1
563.579	23155
563.941	23315.9
564.304	23532.39
564.666	23637.02
565.028	23868.65
565.39	23906.84
565.753	24163.79
566.115	24266.61
566.477	24483.33
566.839	24685.81
567.201	24904.11
567.563	24923.09
567.925	25104.1
568.287	25310.42
568.648	25467.71
569.01	25683.52
569.372	25784.53
569.734	25830.86
570.095	26129.61
570.457	26276.72
570.819	26451.63
571.18	26596.04
571.542	26818.41
571.903	27022.69
572.265	27090.04
572.626	27240.77
572.987	27344.49
573.349	27535.45
573.71	27768.66
574.071	27945.38
574.432	28092.27
574.794	28351.92
575.155	28445.25
575.516	28318.03
575.877	28637.79
576.238	28773.16
576.599	28959.37
576.96	29117.55
577.32	29128.4
577.681	29385.8
578.042	29456.53
578.403	29574.49
578.763	29818.33
579.124	29828.5
579.485	30092.22
579.845	30162.72
580.206	30059
580.566	30292.44
580.927	30345.09
581.287	30524.3
581.648	30426.9
582.008	30903.95
582.368	30624.41
582.728	30939.2
583.089	30871.63
583.449	30922.03
583.809	30995.24
584.169	31219.42
584.529	31079.99
584.889	31471.62
585.249	31335.35
585.609	31331.51
585.969	31555.46
586.329	31517.04
586.688	31428
587.048	31534.21
587.408	31613.99
587.768	31635.45
588.127	31699.63
588.487	31573.53
588.846	31943.92
589.206	31753.64
589.565	31700.31
589.925	31892.4
590.284	31880.19
590.643	32081.32
591.003	32030.25
591.362	32174.42
591.721	32194.99
592.08	32138.27
592.44	32280.63
592.799	32210.35
593.158	32236.79
593.517	32194.76
593.876	32431.14
594.235	32288.54
594.593	32374.64
594.952	32415.09
595.311	32343.01
595.67	32409.67
596.029	32763.11
596.387	32622.32
596.746	32700.96
597.104	32597.46
597.463	32559.5
597.822	32695.76
598.18	32624.81
598.538	32612.15
598.897	32850.34
599.255	32676.78
599.613	32935.98
599.972	32815.99
600.33	32870.68
600.688	32699.38
601.046	33016.21
601.404	33076.77
601.762	33066.15
602.12	33052.59
602.478	33140.5
602.836	33114.51
603.194	32982.99
603.552	33246.03
603.91	33020.73
604.268	33204.68
604.625	33127.17
604.983	33286.26
605.341	32995.87
605.698	33354.96
606.056	33366.26
606.413	33203.55
606.771	33384.11
607.128	33322.64
607.485	33268.18
607.843	33295.97
608.2	33440.6
608.557	33636.08
608.914	33583.42
609.272	33705
609.629	33728.28
609.986	33890.54
610.343	33688.28
610.7	34019.12
611.057	33710.43
611.414	33690.31
611.771	33844.43
612.127	33976.41
612.484	33959.91
612.841	34083.07
613.198	34007.82
613.554	34013.7
613.911	34272.22
614.267	34165.33
614.624	34201.04
614.98	34129.63
615.337	34379.79
615.693	34254.59
616.05	34309.73
616.406	34485.1
616.762	34372.56
617.118	34424.08
617.475	34362.61
617.831	34478.99
618.187	34632.89
618.543	34618.65
618.899	34699.1
619.255	34651.65
619.611	34578.88
619.967	34681.48
620.323	34791.75
620.678	34777.52
621.034	34619.1
621.39	34664.53
621.746	34661.14
622.101	35030.84
622.457	34744.75
622.812	34677.86
623.168	34844.63
623.523	34888.02
623.879	35069.26
624.234	34753.11
624.589	34844.41
624.945	34903.62
625.3	34953.78
625.655	34948.59
626.01	34915.82
626.365	35052.54
626.72	34841.7
627.075	34982.03
627.43	34844.41
627.785	34774.35
628.14	34808.25
628.495	34930.51
628.85	34867.91
629.205	34608.71
629.559	34925.08
629.914	34748.14
630.269	34808.03
630.623	34663.17
630.978	34566
631.332	34782.49
631.687	34689.38
632.041	34659.33
632.396	34793.56
632.75	34497.98
633.104	34598.99
633.459	34455.49
633.813	34474.7
634.167	34392.67
634.521	34333.46
634.875	34368.26
635.229	34493.46
635.583	34251.88
635.937	34197.87
636.291	34404.42
636.645	34210.75
636.999	34029.29
637.352	34323.29
637.706	34060.25
638.06	34260.47
638.413	34091.66
638.767	34073.81
639.121	34097.54
639.474	33841.05
639.828	33748.17
640.181	33788.39
640.534	33883.3
640.888	33771.67
641.241	33629.98
641.594	33666.36
641.947	33746.36
642.301	33724.89
642.654	33709.75
643.007	33627.72
643.36	33712.46
643.713	33661.16
644.066	33642.63
644.419	33507.49
644.771	33394.05
645.124	33217.11
645.477	32966.94
645.83	32951.8
646.182	32663.9
646.535	32577.8
646.888	32566.73
647.24	32431.59
647.593	32644.92
647.945	32446.28
648.298	32427.98
648.65	32253.29
649.002	32271.59
649.355	32491.93
649.707	32357.24
650.059	32652.83
650.411	32844.91
650.763	32940.96
651.115	33307.05
651.467	33148.86
651.819	33107.51
652.171	33114.96
652.523	33183.89
652.875	33044
653.227	32895.53
653.578	33019.6
653.93	33185.24
654.282	32786.16
654.633	32921.3
654.985	32958.36
655.337	32908.41
655.688	33022.31
656.039	33110.22
656.391	32841.98
656.742	32909.77
657.094	32939.6
657.445	33086.71
657.796	32846.95
658.147	32944.8
658.498	32867.74
658.849	32947.74
659.2	32884.91
659.551	32690.12
659.902	32827.29
660.253	32847.85
660.604	32826.61
660.955	32742.99
661.306	32881.3
661.656	32750.68
662.007	32833.61
662.358	32784.12
662.708	32770.34
663.059	32732.6
663.409	32528.76
663.76	32721.07
664.11	32797
664.461	32804.69
664.811	32755.65
665.161	32761.98
665.511	32696.67
665.862	32761.53
666.212	32886.27
666.562	32732.37
666.912	32762.43
667.262	32844.91
667.612	32683.34
667.962	32715.2
668.312	32752.26
668.662	32794.07
669.011	32623.45
669.361	32634.75
669.711	32644.92
670.06	32504.58
670.41	32618.7
670.76	32557.69
671.109	32560.17
671.459	32487.86
671.808	32514.75
672.157	32539.61
672.507	32326.28
672.856	32446.05
673.205	32449.44
673.554	32490.57
673.904	32284.48
674.253	32510.91
674.602	32449.44
674.951	31992.73
675.3	31718.39
675.649	32341.65
675.998	32293.06
676.346	32381.65
676.695	32415.55
677.044	32095.1
677.393	32198.6
677.741	32224.36
678.09	32151.37
678.438	31877.71
678.787	32069.34
679.135	31972.39
679.484	31876.8
679.832	31930.36
680.181	31689.92
680.529	31784.6
680.877	31753.64
681.225	31740.54
681.573	31823.25
681.922	31691.95
682.27	31455.57
682.618	31558.85
682.966	31513.65
683.314	31485.63
683.661	31470.71
684.009	31286.31
684.357	31125.41
684.705	31112.98
685.053	31310.04
685.4	31184.39
685.748	31087.9
686.095	31068.24
686.443	30745.99
686.79	30716.16
687.138	30835.93
687.485	30714.57
687.832	30642.03
688.18	30666.89
688.527	30501.47
688.874	30467.57
689.221	30363.4
689.568	30214.7
689.915	30126.11
690.262	30281.36
690.609	30072.78
690.956	30007.7
691.303	30016.96
691.65	29940.13
691.997	29864.2
692.344	29625.79
692.69	29529.07
693.037	29487.49
693.383	29441.84
693.73	29506.24
694.077	29348.06
694.423	29211.34
694.769	29104.9
695.116	29123.2
695.462	29151
695.808	28886.15
696.155	28916.2
696.501	28754.17
696.847	28680.28
697.193	28419.94
697.539	28567.29
697.885	28383.79
698.231	28312.6
698.577	28261.98
698.923	28127.3
699.269	28097.24
699.614	27910.58
699.96	27905.16
700.306	27809.34
700.651	27586.52
700.997	27729.12
701.342	27546.3
701.688	27430.59
702.033	27459.29
702.379	27342.69
702.724	27262.91
703.069	27211.84
703.415	27045.29
703.76	26956.71
704.105	26961.23
704.45	26901.34
704.795	26672.87
705.14	26480.11
705.485	26511.97
705.83	26370.28
706.175	26451.63
706.52	26410.51
706.865	26268.14
707.209	26270.4
707.554	26231.53
707.899	26144.07
708.243	25987.69
708.588	26036.73
708.932	25852.55
709.277	25804.65
709.621	25904.53
709.966	25587.02
710.31	25749.96
710.654	25512.9
710.998	25568.72
711.342	25574.82
711.687	25406.24
712.031	25341.61
712.375	25168.73
712.719	25300.48
713.063	25204.21
713.407	25301.83
713.75	25134.38
714.094	25077.66
714.438	25089.18
714.782	24971.67
715.125	24844.67
715.469	24957.44
715.812	24855.74
716.156	24685.58
716.499	24775.97
716.843	24822.53
717.186	24649.2
717.53	24684
717.873	24640.38
718.216	24538.46
718.559	24490.56
718.902	24444.91
719.246	24454.63
719.589	24410.11
719.932	24313.84
720.275	24279.71
720.617	24205.14
720.96	24333.27
721.303	24172.37
721.646	24300.96
721.989	24168.76
722.331	24197.46
722.674	24037.24
723.016	24109.55
723.359	24111.81
723.701	24146.38
724.044	24048.99
724.386	23936.9
724.729	23971.7
725.071	23987.52
725.413	23933.06
725.755	23960.18
726.097	23786.17
726.439	23733.51
726.782	23792.72
727.124	23911.36
727.465	23755.43
727.807	23725.6
728.149	23689.22
728.491	23648.32
728.833	23745.72
729.175	23640.18
729.516	23590.92
729.858	23686.06
730.199	23631.37
730.541	23597.7
730.882	23541.88
731.224	23682.89
731.565	23523.58
731.906	23532.16
732.248	23457.82
732.589	23369
732.93	23317.25
733.271	23416.69
733.612	23538.27
733.953	23551.82
734.294	23474.99
734.635	23405.61
734.976	23377.82
735.317	23404.03
735.658	23443.35
735.999	23401.55
736.339	23381.89
736.68	23570.81
737.021	23337.82
737.361	23368.1
737.702	23453.3
738.042	23387.99
738.383	23332.39
738.723	23343.24
739.063	23342.34
739.404	23407.65
739.744	23218.05
740.084	23238.39
740.424	23314.09
740.764	23219.86
741.104	23351.15
741.444	23218.5
741.784	23115
742.124	23232.28
742.464	23203.58
742.804	23344.15
743.143	23108.9
743.483	23150.03
743.823	23107.77
744.162	23182.79
744.502	23081.1
744.841	23098.5
745.181	23166.52
745.52	23090.59
745.86	23112.29
746.199	23108.45
746.538	23126.3
746.877	23113.42
747.216	23062.12
747.556	23190.03
747.895	23099.63
748.234	23135.34
748.573	22969.24
748.911	23052.4
749.25	23125.85
749.589	22962.69
749.928	22959.98
750.267	23056.24
750.605	22989.35
750.944	22913.2
751.283	22992.97
751.621	22995.91
751.96	22798.85
752.298	22792.52
752.636	22831.17
752.975	22795.91
753.313	22709.81
753.651	22865.29
753.989	22677.5
754.327	22729.25
754.666	22590.49
755.004	22719.53
755.342	22574.67
755.679	22684.73
756.017	22505.98
756.355	22504.17
