Data from tablewood_brown_FLMS001491_095.txt Node
Date: Tue Feb 07 11:11:17 GMT 2017
User: dcchb
Spectrometer: FLMS00149
Trigger mode: 0
Integration Time (sec): 2.000000E-2
Scans to average: 10
Electric dark correction enabled: true
Nonlinearity correction enabled: false
Boxcar width: 0
XAxis mode: Wavelengths
Number of Pixels in Spectrum: 2048
>>>>>Begin Spectral Data<<<<<
341.393	11.78
341.776	11.78
342.16	11.78
342.543	-50.59
342.927	-70.93
343.31	-73.42
343.693	-69.12
344.077	-71.83
344.46	-46.07
344.843	-50.82
345.226	-49.01
345.61	-13.53
345.993	-19.41
346.376	-13.3
346.759	-4.94
347.142	35.96
347.525	43.87
347.908	68.95
348.291	76.86
348.674	80.7
349.057	105.11
349.44	114.38
349.823	139.46
350.206	176.75
350.588	194.83
350.971	218.1
351.354	243.19
351.737	253.35
352.119	245.67
352.502	254.71
352.884	273.02
353.267	285.22
353.65	296.07
354.032	286.8
354.414	327.7
354.797	317.99
355.179	316.18
355.562	327.7
355.944	304.65
356.326	357.98
356.709	343.52
357.091	326.35
357.473	338.32
357.855	346.46
358.238	338.78
358.62	323.18
359.002	342.84
359.384	350.08
359.766	355.95
360.148	353.01
360.53	350.98
360.912	334.48
361.294	349.4
361.676	352.11
362.057	358.44
362.439	339.91
362.821	338.78
363.203	341.26
363.584	334.26
363.966	321.15
364.348	334.03
364.729	321.38
365.111	334.26
365.493	337.87
365.874	320.92
366.256	320.92
366.637	320.47
367.019	346.69
367.4	319.79
367.781	310.75
368.163	341.26
368.544	325.44
368.925	317.99
369.306	345.78
369.688	337.87
370.069	334.48
370.45	332.45
370.831	350.98
371.212	318.21
371.593	321.6
371.974	343.07
372.355	350.53
372.736	331.09
373.117	350.75
373.498	341.49
373.879	350.75
374.26	328.38
374.641	369.74
375.021	325.44
375.402	334.26
375.783	333.13
376.163	354.82
376.544	358.66
376.925	343.52
377.305	350.53
377.686	323.86
378.066	357.53
378.447	357.53
378.827	349.4
379.208	360.47
379.588	356.4
379.968	359.57
380.349	357.53
380.729	343.97
381.109	370.87
381.489	380.81
381.87	360.02
382.25	372.9
382.63	377.42
383.01	370.19
383.39	384.88
383.77	352.34
384.15	378.55
384.53	398.44
384.91	386.68
385.29	392.11
385.67	389.17
386.049	392.11
386.429	389.4
386.809	392.33
387.189	373.8
387.568	404.54
387.948	408.15
388.328	401.37
388.707	419.45
389.087	421.26
389.466	398.89
389.846	414.93
390.225	433.01
390.605	436.17
390.984	427.14
391.363	441.6
391.743	420.81
392.122	433.92
392.501	432.56
392.881	427.36
393.26	454.48
393.639	442.73
394.018	437.08
394.397	443.18
394.776	449.51
395.155	468.49
395.534	472.33
395.913	491.31
396.292	458.1
396.671	480.69
397.05	492.44
397.429	490.64
397.808	467.36
398.186	468.04
398.565	508.26
398.944	488.15
399.323	501.94
399.701	491.99
400.08	495.61
400.458	508.72
400.837	488.83
401.215	499.45
401.594	518.43
401.972	539.68
402.351	526.57
402.729	543.06
403.107	537.19
403.486	541.93
403.864	543.74
404.242	541.93
404.62	556.17
404.999	526.57
405.377	554.59
405.755	557.98
406.133	577.64
406.511	561.14
406.889	594.14
407.267	583.29
407.645	582.39
408.023	597.3
408.401	581.26
408.779	599.56
409.156	607.7
409.534	608.83
409.912	598.43
410.29	614.7
410.667	634.81
411.045	632.33
411.422	653.12
411.8	663.29
412.178	636.4
412.555	651.76
412.933	691.54
413.31	672.78
413.687	679.56
414.065	691.31
414.442	692.67
414.819	694.25
415.197	683.17
415.574	729.5
415.951	700.35
416.328	734.25
416.705	724.98
417.082	728.82
417.46	718.43
417.837	731.08
418.214	725.88
418.591	761.59
418.967	760.23
419.344	786.67
419.721	780.8
420.098	761.36
420.475	770.4
420.852	773.57
421.228	818.54
421.605	757.97
421.982	790.06
422.358	818.99
422.735	814.24
423.111	814.47
423.488	828.71
423.864	820.8
424.241	829.84
424.617	836.84
424.994	844.53
425.37	838.65
425.746	836.39
426.123	866.9
426.499	860.12
426.875	870.06
427.251	886.33
427.627	905.32
428.003	917.07
428.379	896.73
428.756	921.36
429.132	955.26
429.507	935.6
429.883	965.43
430.259	983.05
430.635	990.51
431.011	994.8
431.387	1011.3
431.763	1006.1
432.138	1002.94
432.514	1032.54
432.89	1033.45
433.265	1041.81
433.641	1097.4
434.016	1064.63
434.392	1126.78
434.767	1133.11
435.143	1107.8
435.518	1136.5
435.894	1147.34
436.269	1127.91
436.644	1178.08
437.02	1180.56
437.395	1174.23
437.77	1214.69
438.145	1186.89
438.52	1207.23
438.895	1218.98
439.271	1238.64
439.646	1264.63
440.021	1263.72
440.395	1245.87
440.77	1270.28
441.145	1274.57
441.52	1300.11
441.895	1296.72
442.27	1317.28
442.645	1334.46
443.019	1319.99
443.394	1329.71
443.769	1353.21
444.143	1339.65
444.518	1382.14
444.892	1372.42
445.267	1373.1
445.641	1398.86
446.016	1397.73
446.39	1405.42
446.764	1384.17
447.139	1424.62
447.513	1423.72
447.887	1414.45
448.262	1433.44
448.636	1426.21
449.01	1454.91
449.384	1448.8
449.758	1490.84
450.132	1495.13
450.506	1527.67
450.88	1522.02
451.254	1510.05
451.628	1560.67
452.002	1543.94
452.376	1577.84
452.75	1594.34
453.123	1601.79
453.497	1616.93
453.871	1647.22
454.244	1633.21
454.618	1690.38
454.992	1678.18
455.365	1684.96
455.739	1713.43
456.112	1731.28
456.486	1754.11
456.859	1732.41
457.232	1802.47
457.606	1782.81
457.979	1829.81
458.352	1897.15
458.725	1877.04
459.099	1897.15
459.472	1943.71
459.845	1929.24
460.218	1957.94
460.591	1988.9
460.964	1990.48
461.337	2035.91
461.71	2089.92
462.083	2077.49
462.456	2110.71
462.829	2095.79
463.201	2163.14
463.574	2118.84
463.947	2181.44
464.32	2195.22
464.692	2247.88
465.065	2237.48
465.438	2280.19
465.81	2356.12
466.183	2345.28
466.555	2413.07
466.928	2401.32
467.3	2465.73
467.672	2469.79
468.045	2508.44
468.417	2545.95
468.789	2565.16
469.161	2611.94
469.534	2682.44
469.906	2726.74
470.278	2752.5
470.65	2759.28
471.022	2821.42
471.394	2882.66
471.766	2906.84
472.138	2955.43
472.51	3023.9
472.882	3050.8
473.253	3117.01
473.625	3175.31
473.997	3209.44
474.369	3281.75
474.74	3309.09
475.112	3376.89
475.484	3451.69
475.855	3526.72
476.227	3524.68
476.598	3690.78
476.97	3711.34
477.341	3772.81
477.713	3852.81
478.084	3910.43
478.455	3998.79
478.827	4088.28
479.198	4136.42
479.569	4170.99
479.94	4346.58
480.311	4346.58
480.682	4489.4
481.053	4601.49
481.424	4649.85
481.795	4724.65
482.166	4761.26
482.537	4860.47
482.908	4989.5
483.279	5050.74
483.65	5143.62
484.021	5284.41
484.391	5310.4
484.762	5339.32
485.133	5481.01
485.503	5497.51
485.874	5646.89
486.244	5701.57
486.615	5843.72
486.985	5874.45
487.356	6005.97
487.726	6062.02
488.097	6208.68
488.467	6220.66
488.837	6397.6
489.207	6454.77
489.578	6546.97
489.948	6640.31
490.318	6687.76
490.688	6763.01
491.058	6819.51
491.428	6981.99
491.798	7031.71
492.168	7119.84
492.538	7184.47
492.908	7264.7
493.278	7379.04
493.648	7436.44
494.017	7483.67
494.387	7594.18
494.757	7671.46
495.126	7768.41
495.496	7752.14
495.866	7830.1
496.235	7926.6
496.605	8014.96
496.974	8071.23
497.344	8120.04
497.713	8234.16
498.082	8372.92
498.452	8404.78
498.821	8450.65
499.19	8490.2
499.559	8536.53
499.928	8572.46
500.298	8664.66
500.667	8777.88
501.036	8765.45
501.405	8901.94
501.774	8884.31
502.143	8924.54
502.512	8997.53
502.88	9077.98
503.249	9108.72
503.618	9182.61
503.987	9241.59
504.356	9275.04
504.724	9435.71
505.093	9467.8
505.462	9497.86
505.83	9539.44
506.199	9688.81
506.567	9772.2
506.936	9736.04
507.304	9927.9
507.672	9963.16
508.041	9974.46
508.409	10148.69
508.777	10179.87
509.145	10236.37
509.514	10315.01
509.882	10425.52
510.25	10437.49
510.618	10534.44
510.986	10616.25
511.354	10717.49
511.722	10764.04
512.09	10858.73
512.458	10857.82
512.826	10995.22
513.193	11109.34
513.561	11138.94
513.929	11209.23
514.297	11413.74
514.664	11424.13
515.032	11641.98
515.4	11687.18
515.767	11746.16
516.135	11838.36
516.502	11734.86
516.869	12001.07
517.237	12028.19
517.604	12055.98
517.972	12282.19
518.339	12320.83
518.706	12345.47
519.073	12469.08
519.44	12603.99
519.808	12719.02
520.175	12709.3
520.542	12955.62
520.909	13153.13
521.276	13044.21
521.643	13194.48
522.009	13279.68
522.376	13441.03
522.743	13500.46
523.11	13583.4
523.477	13729.16
523.843	13868.59
524.21	14020.45
524.577	14040.79
524.943	14165.76
525.31	14277.39
525.676	14397.39
526.043	14612.3
526.409	14636.03
526.776	14749.02
527.142	14918.51
527.508	14956.02
527.874	15023.36
528.241	15196.01
528.607	15238.72
528.973	15440.53
529.339	15443.92
529.705	15537.25
530.071	15689.79
530.437	15726.85
530.803	15937.46
531.169	15953.73
531.535	15931.36
531.901	16069.66
532.267	16183.33
532.632	16277.11
532.998	16337.68
533.364	16411.35
533.73	16492.48
534.095	16619.48
534.461	16643.21
534.826	16763.66
535.192	16965.91
535.557	17029.41
535.923	17008.62
536.288	17085.45
536.653	17248.39
537.019	17202.06
537.384	17299.46
537.749	17325.22
538.114	17366.35
538.479	17390.53
538.845	17520.92
539.21	17526.12
539.575	17622.16
539.94	17769.96
540.305	17836.17
540.67	17794.59
541.034	17971.76
541.399	18033.9
541.764	17962.49
542.129	18125.65
542.494	18145.77
542.858	18304.41
543.223	18315.03
543.587	18380.11
543.952	18390.73
544.316	18545.08
544.681	18511.18
545.045	18620.78
545.41	18745.3
545.774	18797.95
546.138	18871.4
546.503	18901.23
546.867	18918.63
547.231	19117.72
547.595	19205.85
547.959	19203.82
548.324	19270.26
548.688	19235.23
549.052	19397.48
549.416	19458.05
549.779	19578.27
550.143	19521.32
550.507	19671.83
550.871	19790.69
551.235	19780.07
551.599	20083.57
551.962	20134.41
552.326	20152.04
552.689	20354.52
553.053	20274.07
553.417	20329.66
553.78	20677.45
554.143	20685.59
554.507	20789.31
554.87	20839.03
555.234	21104.33
555.597	21198.79
555.96	21178
556.323	21388.39
556.686	21482.18
557.05	21600.82
557.413	21794.71
557.776	21905.21
558.139	22001.94
558.502	22236.51
558.865	22264.08
559.228	22478.08
559.59	22490.96
559.953	22714.01
560.316	22945.19
560.679	22965.3
561.041	23220.89
561.404	23284.61
561.767	23591.72
562.129	23571.84
562.492	23810.7
562.854	23898.16
563.217	24013.41
563.579	24174.99
563.941	24453.4
564.304	24528.65
564.666	24720.06
565.028	24889.32
565.39	25034.17
565.753	25110.1
566.115	25303.32
566.477	25480.04
566.839	25596.42
567.201	25886.35
567.563	25911.44
567.925	26322.05
568.287	26336.96
568.648	26498.31
569.01	26785.31
569.372	27049.03
569.734	26974.46
570.095	27282.93
570.457	27453.09
570.819	27622.13
571.18	27662.35
571.542	27989.12
571.903	28011.5
572.265	28361.54
572.626	28333.97
572.987	28577.36
573.349	28661.87
573.71	28925.14
574.071	29085.14
574.432	29271.57
574.794	29505.92
575.155	29602.64
575.516	29608.29
575.877	29858.23
576.238	29984.1
576.599	30100.03
576.96	30326.69
577.32	30424.09
577.681	30563.74
578.042	30772.33
578.403	30819.78
578.763	31041.7
579.124	31017.52
579.485	31219.77
579.845	31411.63
580.206	31342.25
580.566	31442.14
580.927	31573.66
581.287	31653.89
581.648	31570.5
582.008	31880.77
582.368	31824.95
582.728	32092.07
583.089	32077.6
583.449	32121.9
583.809	32269.91
584.169	32470.36
584.529	32359.18
584.889	32668.55
585.249	32452.96
585.609	32529.57
585.969	32686.85
586.329	32641.43
586.688	32699.73
587.048	32679.39
587.408	32780.86
587.768	32873.29
588.127	32867.41
588.487	32825.15
588.846	33115.54
589.206	32902.21
589.565	33075.09
589.925	33243
590.284	33195.99
590.643	33230.11
591.003	33313.05
591.362	33322.77
591.721	33415.65
592.08	33426.72
592.44	33585.81
592.799	33524.34
593.158	33609.99
593.517	33537
593.876	33680.5
594.235	33592.59
594.593	33596.43
594.952	33596.43
595.311	33592.37
595.67	33641.86
596.029	33822.64
596.387	33922.07
596.746	33918.91
597.104	33785.58
597.463	33901.28
597.822	34004.78
598.18	33892.24
598.538	33923.43
598.897	34049.98
599.255	33751.46
599.613	34179.92
599.972	34081.84
600.33	34148.51
600.688	33956.2
601.046	34127.49
601.404	34413.81
601.762	34260.37
602.12	34376.98
602.478	34339.01
602.836	34408.39
603.194	34310.54
603.552	34315.96
603.91	34262.63
604.268	34513.92
604.625	34261.5
604.983	34448.16
605.341	34342.85
605.698	34512.79
606.056	34581.49
606.413	34510.53
606.771	34601.83
607.128	34791.43
607.485	34542.85
607.843	34660.36
608.2	34872.78
608.557	34856.29
608.914	34737.87
609.272	35049.28
609.629	34968.37
609.986	35055.15
610.343	34910.3
610.7	35154.81
611.057	35166.79
611.414	35202.94
611.771	35129.5
612.127	35250.85
612.484	35060.8
612.841	35270.51
613.198	35185.54
613.554	35235.03
613.911	35504.86
614.267	35535.59
614.624	35399.55
614.98	35500.11
615.337	35613.56
615.693	35543.95
616.05	35508.02
616.406	35726.55
616.762	35577.4
617.118	35689.03
617.475	35758.86
617.831	35796.38
618.187	35830.95
618.543	35861.23
618.899	36069.36
619.255	36048.35
619.611	35980.78
619.967	36005.64
620.323	36216.03
620.678	36025.97
621.034	36042.02
621.39	36038.4
621.746	35815.13
622.101	36325.85
622.457	35926.09
622.812	36016.26
623.168	36202.47
623.523	36043.37
623.879	36155.46
624.234	36011.96
624.589	36090.6
624.945	36195.69
625.3	36148.23
625.655	36176.25
626.01	36249.7
626.365	36206.99
626.72	36234.33
627.075	36138.51
627.43	36058.29
627.785	36111.4
628.14	36101
628.495	36152.98
628.85	36066.88
629.205	36028.69
629.559	36171.28
629.914	35967.22
630.269	36043.37
630.623	35986.2
630.978	36014.22
631.332	36042.02
631.687	36111.85
632.041	35942.13
632.396	35914.56
632.75	35872.76
633.104	35871.18
633.459	35727
633.813	35683.16
634.167	35790.05
634.521	35766.32
634.875	35712.76
635.229	35567.23
635.583	35516.61
635.937	35465.54
636.291	35473.9
636.645	35525.87
636.999	35362.49
637.352	35443.16
637.706	35153
638.06	35384.41
638.413	35262.38
638.767	35263.51
639.121	35222.83
639.474	35080.91
639.828	35048.6
640.181	35150.06
640.534	35293.79
640.888	35072.78
641.241	35114.36
641.594	35009.73
641.947	35057.64
642.301	34970.63
642.654	34883.63
643.007	35153.23
643.36	34889.05
643.713	34802.5
644.066	34993.46
644.419	34783.29
644.771	34512.34
645.124	34254.27
645.477	34192.8
645.83	33888.4
646.182	33947.84
646.535	33621.74
646.888	33746.94
647.24	33541.29
647.593	33747.84
647.945	33730.44
648.298	33434.86
648.65	33579.71
649.002	33320.96
649.355	33564.8
649.707	33614.51
650.059	33755.75
650.411	33981.28
650.763	34211.56
651.115	34515.28
651.467	34427.15
651.819	34313.25
652.171	34276.42
652.523	34108.28
652.875	34165.91
653.227	34119.81
653.578	34367.03
653.93	34169.3
654.282	34029.42
654.633	33990.77
654.985	34050.66
655.337	34010.66
655.688	34010.89
656.039	34135.18
656.391	33881.4
656.742	33962.75
657.094	34008.63
657.445	34123.2
657.796	34040.04
658.147	33970.66
658.498	33962.75
658.849	34066.93
659.2	33924.56
659.551	33876.43
659.902	33999.13
660.253	33922.3
660.604	33964.56
660.955	33776.32
661.306	33891.57
661.656	33865.35
662.007	33912.13
662.358	33952.58
662.708	33829.65
663.059	33864
663.409	33672.82
663.76	33911.68
664.11	33986.25
664.461	33942.19
664.811	33880.04
665.161	33806.82
665.511	33702.87
665.862	33798.24
666.212	33850.21
666.562	33939.02
666.912	33936.99
667.262	33860.61
667.612	33834.39
667.962	33898.57
668.312	33740.84
668.662	33885.46
669.011	33788.29
669.361	33699.48
669.711	33702.19
670.06	33664.45
670.41	33499.49
670.76	33553.95
671.109	33600.73
671.459	33529.09
671.808	33584.68
672.157	33526.15
672.507	33337.23
672.856	33471.92
673.205	33546.26
673.554	33609.77
673.904	33364.35
674.253	33616.32
674.602	33521.18
674.951	32838.71
675.3	32873.74
675.649	33343.11
675.998	33282.54
676.346	33208.42
676.695	33375.2
677.044	33086.16
677.393	33199.16
677.741	33188.99
678.09	33211.36
678.438	32973.85
678.787	33066.5
679.135	33064.47
679.484	32763.69
679.832	33027.18
680.181	32760.3
680.529	32793.29
680.877	32774.31
681.225	32773.18
681.573	32892.04
681.922	32741.09
682.27	32540.87
682.618	32486.18
682.966	32539.51
683.314	32510.59
683.661	32393.98
684.009	32311.5
684.357	32250.25
684.705	32237.82
685.053	32128
685.4	32073.54
685.748	31969.13
686.095	31933.2
686.443	31829.02
686.79	31679.42
687.138	31785.18
687.485	31690.27
687.832	31693.88
688.18	31643.94
688.527	31485.75
688.874	31371.86
689.221	31349.26
689.568	31181.58
689.915	31196.27
690.262	31162.37
690.609	31064.75
690.956	31085.54
691.303	30996.95
691.65	30702.5
691.997	30652.56
692.344	30507.7
692.69	30471.32
693.037	30519.23
693.383	30169.63
693.73	30408.49
694.077	30167.6
694.423	30078.56
694.769	30023.65
695.116	30012.12
695.462	29947.04
695.808	29755.18
696.155	29838.79
696.501	29526.03
696.847	29609.87
697.193	29343.21
697.539	29512.92
697.885	29197.45
698.231	29088.98
698.577	29080.62
698.923	29064.35
699.269	29079.49
699.614	28719.95
699.96	28716.11
700.306	28697.58
700.651	28542.78
700.997	28582.1
701.342	28394.08
701.688	28432.95
702.033	28173.3
702.379	28164.71
702.724	28007.2
703.069	28183.02
703.415	27866.64
703.76	27852.86
704.105	27864.61
704.45	27788.22
704.795	27513.43
705.14	27498.29
705.485	27493.09
705.83	27258.52
706.175	27363.83
706.52	27189.82
706.865	26948.25
707.209	27042.26
707.554	27000.45
707.899	26980.34
708.243	26842.49
708.588	26797.97
708.932	26570.63
709.277	26657.63
709.621	26604.07
709.966	26408.83
710.31	26559.1
710.654	26336.51
710.998	26499.22
711.342	26308.49
711.687	26265.1
712.031	26111.88
712.375	26006.8
712.719	26057.2
713.063	25961.61
713.407	26146.46
713.75	25965.9
714.094	25905.56
714.438	25732.68
714.782	25772.01
715.125	25596.87
715.469	25722.52
715.812	25652.01
716.156	25449.53
716.499	25490.88
716.843	25486.14
717.186	25411.56
717.53	25509.64
717.873	25443.65
718.216	25365.01
718.559	25260.61
718.902	25104.45
719.246	25159.37
719.589	25166.15
719.932	25035.75
720.275	25022.87
720.617	25045.7
720.96	25015.19
721.303	25007.05
721.646	25007.05
721.989	24804.8
722.331	24875.08
722.674	24893.61
723.016	24968.41
723.359	24826.49
723.701	24807.74
724.044	24719.38
724.386	24563.68
724.729	24824.01
725.071	24651.58
725.413	24558.7
725.755	24617.01
726.097	24490.91
726.439	24491.59
726.782	24525.26
727.124	24567.29
727.465	24398.71
727.807	24501.3
728.149	24313.51
728.491	24460.85
728.833	24403.23
729.175	24226.28
729.516	24354.64
729.858	24294.76
730.199	24295.21
730.541	24253.63
730.882	24212.72
731.224	24435.32
731.565	24213.85
731.906	24339.28
732.248	24250.01
732.589	24164.59
732.93	24029.9
733.271	24166.4
733.612	24095.21
733.953	24179.28
734.294	24041.2
734.635	23984.71
734.976	24166.62
735.317	24058.83
735.658	24035.55
735.999	24038.72
736.339	23972.05
736.68	24096.8
737.021	23950.36
737.361	23961.66
737.702	24031.94
738.042	23946.52
738.383	23988.55
738.723	24073.75
739.063	23932.73
739.404	23891.6
739.744	23927.31
740.084	23748.33
740.424	23913.98
740.764	23825.62
741.104	23906.29
741.444	23822.68
741.784	23797.14
742.124	23758.5
742.464	23858.16
742.804	23854.09
743.143	23763.92
743.483	23869.46
743.823	23767.31
744.162	23797.37
744.502	23830.81
744.841	23665.17
745.181	23866.07
745.52	23691.61
745.86	23693.87
746.199	23700.65
746.538	23648.67
746.877	23809.57
747.216	23775.45
747.556	23713.53
747.895	23644.6
748.234	23641.67
748.573	23626.98
748.911	23600.09
749.25	23616.81
749.589	23459.52
749.928	23632.85
750.267	23552.18
750.605	23539.97
750.944	23540.88
751.283	23489.81
751.621	23492.52
751.96	23332.3
752.298	23373.65
752.636	23277.83
752.975	23365.06
753.313	23224.28
753.651	23458.17
753.989	23259.76
754.327	23178.4
754.666	23109.93
755.004	23184.96
755.342	23268.79
755.679	23183.83
