Data from tablewood_brown_FLMS001491_042.txt Node
Date: Tue Feb 07 11:10:30 GMT 2017
User: dcchb
Spectrometer: FLMS00149
Trigger mode: 0
Integration Time (sec): 2.000000E-2
Scans to average: 10
Electric dark correction enabled: true
Nonlinearity correction enabled: false
Boxcar width: 0
XAxis mode: Wavelengths
Number of Pixels in Spectrum: 2048
>>>>>Begin Spectral Data<<<<<
341.393	-5.42
341.776	-5.42
342.16	-5.42
342.543	-41.13
342.927	-72.77
343.31	-51.3
343.693	-58.76
344.077	-65.54
344.46	-70.28
344.843	-54.91
345.226	-35.48
345.61	-41.13
345.993	-2.03
346.376	-9.72
346.759	26.67
347.142	10.4
347.525	30.73
347.908	60.79
348.291	80.68
348.674	84.07
349.057	95.82
349.44	123.39
349.823	134.69
350.206	158.87
350.588	201.35
350.971	206.77
351.354	246.32
351.737	231.41
352.119	259.65
352.502	260.11
352.884	273.21
353.267	292.87
353.65	287.9
354.032	315.47
354.414	310.27
354.797	324.74
355.179	298.98
355.562	338.97
355.944	335.36
356.326	324.06
356.709	331.74
357.091	335.58
357.473	351.63
357.855	336.26
358.238	340.56
358.62	363.38
359.002	334.91
359.384	348.01
359.766	333.1
360.148	330.84
360.53	342.82
360.912	360.22
361.294	337.62
361.676	331.29
362.057	329.48
362.439	335.36
362.821	329.93
363.203	324.06
363.584	330.39
363.966	321.35
364.348	334.91
364.729	322.25
365.111	347.34
365.493	344.4
365.874	323.83
366.256	313.89
366.637	332.87
367.019	322.03
367.4	333.78
367.781	312.31
368.163	341.46
368.544	316.15
368.925	315.02
369.306	336.49
369.688	322.48
370.069	305.08
370.45	314.34
370.831	311.63
371.212	313.89
371.593	322.48
371.974	329.71
372.355	326.09
372.736	363.15
373.117	322.48
373.498	329.93
373.879	341.91
374.26	328.58
374.641	312.08
375.021	323.61
375.402	336.49
375.783	347.79
376.163	358.86
376.544	322.03
376.925	353.21
377.305	362.7
377.686	371.74
378.066	350.95
378.447	365.87
378.827	344.62
379.208	358.63
379.588	362.02
379.968	361.35
380.349	336.49
380.729	367.22
381.109	334.23
381.489	334.23
381.87	353.44
382.25	347.79
382.63	362.93
383.01	368.8
383.39	368.8
383.77	368.35
384.15	358.63
384.53	377.62
384.91	378.52
385.29	381.68
385.67	371.52
386.049	370.84
386.429	401.12
386.809	411.06
387.189	364.96
387.568	370.39
387.948	376.94
388.328	403.83
388.707	381.23
389.087	381.46
389.466	396.6
389.846	391.18
390.225	395.92
390.605	395.24
390.984	414.45
391.363	424.62
391.743	409.48
392.122	413.32
392.501	411.74
392.881	422.14
393.26	441.12
393.639	438.63
394.018	426.66
394.397	430.5
394.776	432.31
395.155	433.43
395.534	461.68
395.913	453.1
396.292	455.58
396.671	442.25
397.05	468.91
397.429	457.16
397.808	441.34
398.186	482.93
398.565	448.58
398.944	479.31
399.323	463.26
399.701	447.9
400.08	470.95
400.458	496.71
400.837	488.57
401.215	477.95
401.594	477.73
401.972	484.51
402.351	500.1
402.729	502.13
403.107	529.48
403.486	490.16
403.864	509.14
404.242	515.47
404.62	511.85
404.999	516.37
405.377	511.4
405.755	524.28
406.133	512.75
406.511	537.16
406.889	556.14
407.267	538.97
407.645	575.35
408.023	560.89
408.401	554.56
408.779	570.15
409.156	551.17
409.534	558.63
409.912	600.89
410.29	599.08
410.667	599.08
411.045	595.92
411.422	569.02
411.8	579.65
412.178	606.09
412.555	619.42
412.933	614.9
413.31	618.97
413.687	647.89
414.065	638.18
414.442	635.69
414.819	645.18
415.197	630.94
415.574	650.15
415.951	664.84
416.328	640.89
416.705	660.77
417.082	669.81
417.46	665.29
417.837	678.63
418.214	712.07
418.591	699.42
418.967	686.54
419.344	690.38
419.721	711.85
420.098	724.73
420.475	728.12
420.852	719.53
421.228	722.01
421.605	730.83
421.982	731.05
422.358	744.39
422.735	759.53
423.111	756.36
423.488	745.07
423.864	768.12
424.241	765.18
424.617	767.21
424.994	765.18
425.37	806.53
425.746	800.2
426.123	778.28
426.499	805.85
426.875	818.06
427.251	810.83
427.627	840.88
428.003	848.34
428.379	838.85
428.756	841.11
429.132	868.9
429.507	885.17
429.883	857.6
430.259	878.17
430.635	883.14
431.011	896.7
431.387	943.48
431.763	927.43
432.138	918.62
432.514	929.24
432.89	943.93
433.265	925.63
433.641	944.16
434.016	990.93
434.392	998.17
434.767	990.26
435.143	1011.5
435.518	1001.78
435.894	1043.14
436.269	1024.38
436.644	1026.64
437.02	1060.31
437.395	1073.87
437.77	1077.94
438.145	1086.53
438.52	1091.04
438.895	1107.77
439.271	1128.56
439.646	1139.86
440.021	1137.37
440.395	1136.24
440.77	1134.43
441.145	1137.6
441.52	1154.32
441.895	1154.55
442.27	1162.23
442.645	1195.9
443.019	1187.54
443.394	1204.49
443.769	1190.25
444.143	1220.98
444.518	1237.48
444.892	1215.56
445.267	1230.48
445.641	1240.19
446.016	1261.44
446.39	1253.98
446.764	1281.1
447.139	1258.5
447.513	1276.12
447.887	1278.38
448.262	1273.64
448.636	1304.15
449.01	1290.14
449.384	1318.84
449.758	1346.63
450.132	1345.05
450.506	1366.74
450.88	1356.12
451.254	1351.15
451.628	1385.27
452.002	1400.19
452.376	1420.3
452.75	1432.5
453.123	1399.96
453.497	1437.48
453.871	1457.36
454.244	1480.64
454.618	1452.84
454.992	1453.97
455.365	1480.64
455.739	1518.83
456.112	1548.21
456.486	1551.6
456.859	1570.81
457.232	1579.39
457.606	1584.82
457.979	1605.61
458.352	1653.74
458.725	1625.95
459.099	1645.83
459.472	1675.89
459.845	1681.99
460.218	1719.28
460.591	1741.2
460.964	1696.68
461.337	1797.47
461.71	1819.39
462.083	1825.71
462.456	1831.36
462.829	1858.71
463.201	1847.64
463.574	1861.87
463.947	1911.59
464.32	1986.84
464.692	1979.38
465.065	1989.33
465.438	2036.78
465.81	2050.57
466.183	2062.54
466.555	2119.72
466.928	2135.31
467.3	2119.94
467.672	2158.81
468.045	2233.84
468.417	2200.62
468.789	2244.01
469.161	2290.11
469.534	2300.28
469.906	2391.58
470.278	2396.32
470.65	2431.8
471.022	2502.31
471.394	2490.33
471.766	2555.86
472.138	2556.09
472.51	2632.02
472.882	2696.2
473.253	2699.36
473.625	2783.66
473.997	2874.5
474.369	2849.42
474.74	2913.82
475.112	2983.88
475.484	3049.19
475.855	3042.18
476.227	3139.13
476.598	3209.86
476.97	3263.19
477.341	3326.92
477.713	3342.74
478.084	3417.76
478.455	3545.44
478.827	3527.36
479.198	3640.36
479.569	3648.04
479.94	3788.83
480.311	3823.85
480.682	3890.52
481.053	4052.77
481.424	4066.56
481.795	4168.48
482.166	4187.91
482.537	4284.41
482.908	4375.25
483.279	4408.25
483.65	4514.01
484.021	4608.47
484.391	4652.08
484.762	4709.48
485.133	4749.48
485.503	4845.07
485.874	4976.37
486.244	5004.84
486.615	5094.1
486.985	5214.78
487.356	5228.79
487.726	5330.26
488.097	5471.95
488.467	5467.65
488.837	5629.23
489.207	5669.68
489.578	5707.65
489.948	5789.9
490.318	5891.6
490.688	5881.65
491.058	5972.27
491.428	6097.01
491.798	6133.85
492.168	6245.03
492.538	6311.25
492.908	6319.83
493.278	6502.2
493.648	6480.96
494.017	6569.32
494.387	6637.34
494.757	6603.89
495.126	6752.36
495.496	6807.5
495.866	6881.63
496.235	6943.32
496.605	6940.38
496.974	7047.5
497.344	7106.71
497.713	7167.5
498.082	7238.23
498.452	7341.5
498.821	7304.89
499.19	7336.3
499.559	7427.6
499.928	7529.97
500.298	7527.03
500.667	7643.41
501.036	7605.68
501.405	7747.82
501.774	7731.32
502.143	7867.14
502.512	7861.26
502.88	7993.69
503.249	7956.63
503.618	8016.06
503.987	8087.47
504.356	8171.08
504.724	8157.75
505.093	8214.25
505.462	8254.25
505.83	8296.73
506.199	8357.52
506.567	8519.1
506.936	8570.4
507.304	8621.02
507.672	8680
508.041	8741.69
508.409	8806.32
508.777	8871.18
509.145	8958.86
509.514	8973.32
509.882	9075.47
510.25	9128.8
510.618	9188.23
510.986	9198.4
511.354	9421.45
511.722	9404.05
512.09	9504.38
512.458	9571.27
512.826	9668.9
513.193	9699.18
513.561	9776.24
513.929	9817.14
514.297	9938.04
514.664	10023.47
515.032	10025.95
515.4	10239.96
515.767	10261.2
516.135	10281.54
516.502	10280.18
516.869	10493.96
517.237	10528.54
517.604	10514.53
517.972	10613.28
518.339	10710.9
518.706	10866.15
519.073	10806.72
519.44	10948.86
519.808	11052.82
520.175	11048.07
520.542	11254.85
520.909	11344.56
521.276	11392.02
521.643	11535.97
522.009	11525.8
522.376	11672.01
522.743	11774.38
523.11	11873.81
523.477	11992.23
523.843	12111.55
524.21	12145.67
524.577	12325.33
524.943	12387.7
525.31	12476.51
525.676	12603.96
526.043	12709.5
526.409	12712.43
526.776	12873.56
527.142	12903.84
527.508	13010.73
527.874	13171.41
528.241	13245.53
528.607	13276.26
528.973	13410.72
529.339	13365.3
529.705	13582.69
530.071	13649.13
530.437	13713.99
530.803	13754.67
531.169	13919.86
531.535	13911.5
531.901	14007.99
532.267	14082.34
532.632	14173.41
532.998	14276.91
533.364	14384.03
533.73	14356.23
534.095	14469.9
534.461	14528.66
534.826	14586.28
535.192	14660.63
535.557	14869.89
535.923	14731.14
536.288	14883
536.653	14943.79
537.019	14905.82
537.384	15058.36
537.749	15139.26
538.114	15202.31
538.479	15066.72
538.845	15323.89
539.21	15339.48
539.575	15382.42
539.94	15552.13
540.305	15545.35
540.67	15464.45
541.034	15632.81
541.399	15668.74
541.764	15735.63
542.129	15846.59
542.494	15850.2
542.858	15891.33
543.223	15915.29
543.587	16073.93
543.952	16030.31
544.316	16181.5
544.681	16096.3
545.045	16210.2
545.41	16283.19
545.774	16362.06
546.138	16449.51
546.503	16370.64
546.867	16502.16
547.231	16652.22
547.595	16654.48
547.959	16818.31
548.324	16812.67
548.688	16858.31
549.052	16945.09
549.416	17036.61
549.779	16977.86
550.143	17086.78
550.507	17268.7
550.871	17358.19
551.235	17382.37
551.599	17550.5
551.962	17660.55
552.326	17640.89
552.689	17744.17
553.053	17701.91
553.417	17808.12
553.78	18133.08
554.143	18060.54
554.507	18302.8
554.87	18323.81
555.234	18519.74
555.597	18438.61
555.96	18665.72
556.323	18760.41
556.686	18734.65
557.05	19062.55
557.413	19000.18
557.776	19132.15
558.139	19278.14
558.502	19449.88
558.865	19449.88
559.228	19624.57
559.59	19726.49
559.953	19791.34
560.316	20014.61
560.679	20113.82
561.041	20215.97
561.404	20504.55
561.767	20588.39
562.129	20578.44
562.492	20835.61
562.854	20997.19
563.217	21022.05
563.579	21141.59
563.941	21391.53
564.304	21527.12
564.666	21747.9
565.028	21749.26
565.39	21942.47
565.753	22124.16
566.115	22218.4
566.477	22397.83
566.839	22637.82
567.201	22887.99
567.563	22851.15
567.925	23172.72
568.287	23117.36
568.648	23261.99
569.01	23578.59
569.372	23709.43
569.734	23765.48
570.095	23965.25
570.457	24201.85
570.819	24273.26
571.18	24408.85
571.542	24549.19
571.903	24759.57
572.265	24918.21
572.626	25062.39
572.987	25144.65
573.349	25391.65
573.71	25473.68
574.071	25695.82
574.432	25621.02
574.794	26095.59
575.155	26156.15
575.516	26071.4
575.877	26452.64
576.238	26602.24
576.599	26700.54
576.96	26764.72
577.32	26864.6
577.681	27043.58
578.042	27115.67
578.403	27183.47
578.763	27421.2
579.124	27426.17
579.485	27645.83
579.845	27712.49
580.206	27750.46
580.566	27780.51
580.927	27989.55
581.287	28183.67
581.648	28242.2
582.008	28364
582.368	28394.73
582.728	28538.68
583.089	28547.95
583.449	28531.23
583.809	28598.34
584.169	28774.16
584.529	28787.72
584.889	29069.52
585.249	28910.88
585.609	29000.59
585.969	29022.06
586.329	29016.19
586.688	29201.49
587.048	29143.87
587.408	29084.21
587.768	29258.44
588.127	29331.21
588.487	29236.97
588.846	29560.58
589.206	29345.67
589.565	29366.91
589.925	29564.87
590.284	29559.67
590.643	29574.14
591.003	29674.47
591.362	29693
591.721	29726.9
592.08	29814.36
592.44	29808.03
592.799	29922.83
593.158	29803.06
593.517	29869.27
593.876	29839.44
594.235	29742.27
594.593	29892.55
594.952	29876.73
595.311	29829.72
595.67	29881.02
596.029	30156.95
596.387	30172.09
596.746	30260
597.104	30216.83
597.463	30148.36
597.822	30379.31
598.18	30161.47
598.538	30129.38
598.897	30208.02
599.255	30106.1
599.613	30461.8
599.972	30272.2
600.33	30487.33
600.688	30421.8
601.046	30577.05
601.404	30597.61
601.762	30525.75
602.12	30701.11
602.478	30627.9
602.836	30615.24
603.194	30520.78
603.552	30709.25
603.91	30463.15
604.268	30694.33
604.625	30544.28
604.983	30703.83
605.341	30556.94
605.698	30831.96
606.056	30925.74
606.413	30811.62
606.771	30953.99
607.128	31013.87
607.485	30796.03
607.843	30942.24
608.2	31020.65
608.557	31149.92
608.914	30984.95
609.272	31107.66
609.629	31164.15
609.986	31296.35
610.343	31186.75
610.7	31352.17
611.057	31310.59
611.414	31342.23
611.771	31454.54
612.127	31544.26
612.484	31598.04
612.841	31600.98
613.198	31416.35
613.554	31669.22
613.911	31715.55
614.267	31735.21
614.624	31689.79
614.98	31800.97
615.337	31882.1
615.693	31775.21
616.05	31814.08
616.406	31809.11
616.762	31767.75
617.118	31683.23
617.475	31861.31
617.831	31913.06
618.187	31955.54
618.543	31963.23
618.899	32069.21
619.255	32064.47
619.611	32108.53
619.967	32148.99
620.323	32109.21
620.678	32283.22
621.034	32050.46
621.39	32113.51
621.746	32066.5
622.101	32403.22
622.457	32058.82
622.812	32287.74
623.168	32150.34
623.523	32280.96
623.879	32290
624.234	32167.74
624.589	32244.58
624.945	32373.39
625.3	32250
625.655	32318.25
626.01	32303.33
626.365	32393.27
626.72	32333.61
627.075	32393.95
627.43	32341.75
627.785	32200.74
628.14	32388.98
628.495	32403.67
628.85	32454.51
629.205	32287.96
629.559	32423.1
629.914	32153.28
630.269	32195.99
630.623	32136.56
630.978	32034.86
631.332	32254.97
631.687	32272.37
632.041	31981.98
632.396	32082.32
632.75	31999.16
633.104	31902.21
633.459	31946.05
633.813	31917.13
634.167	31793.29
634.521	31829.45
634.875	31995.54
635.229	31905.38
635.583	31767.53
635.937	31676.68
636.291	31686.17
636.645	31724.82
636.999	31469.46
637.352	31741.76
637.706	31503.35
638.06	31647.98
638.413	31586.29
638.767	31444.37
639.121	31440.53
639.474	31315.79
639.828	31364.83
640.181	31316.46
640.534	31518.27
640.888	31344.26
641.241	31127.32
641.594	31351.04
641.947	31262.23
642.301	31222.46
642.654	31177.94
643.007	31123.48
643.36	31145.17
643.713	31072.18
644.066	31199.41
644.419	30889.58
644.771	30820.88
645.124	30531.4
645.477	30568.91
645.83	30348.81
646.182	30142.71
646.535	30091.86
646.888	30257.96
647.24	29961.7
647.593	30302.25
647.945	30211.18
648.298	29965.54
648.65	29942.26
649.002	29845.54
649.355	30184.74
649.707	30010.96
650.059	30136.16
650.411	30384.96
650.763	30469.48
651.115	30861.79
651.467	30609.14
651.819	30737.95
652.171	30529.82
652.523	30595.13
652.875	30683.71
653.227	30479.2
653.578	30762.58
653.93	30662.47
654.282	30490.05
654.633	30403.49
654.985	30505.86
655.337	30494.11
655.688	30592.19
656.039	30674.9
656.391	30309.71
656.742	30334.34
657.094	30550.38
657.445	30509.25
657.796	30418.41
658.147	30395.81
658.498	30410.5
658.849	30576.37
659.2	30421.12
659.551	30248.47
659.902	30515.81
660.253	30383.61
660.604	30398.07
660.955	30383.16
661.306	30400.1
661.656	30328.02
662.007	30297.73
662.358	30287.57
662.708	30277.62
663.059	30345.19
663.409	30246.44
663.76	30427
664.11	30325.3
664.461	30495.47
664.811	30285.31
665.161	30401.46
665.511	30252.54
665.862	30306.77
666.212	30513.55
666.562	30429.93
666.912	30337.06
667.262	30450.27
667.612	30409.37
667.962	30458.18
668.312	30215.02
668.662	30406.43
669.011	30350.84
669.361	30210.05
669.711	30297.28
670.06	30259.32
670.41	30081.02
670.76	29971.42
671.109	30185.2
671.459	30066.1
671.808	30020.23
672.157	30106.1
672.507	29848.25
672.856	29915.15
673.205	30064.29
673.554	30016.84
673.904	30002.15
674.253	30154.69
674.602	29918.08
674.951	29658.66
675.3	29521.48
675.649	29898.2
675.998	29935.48
676.346	29817.97
676.695	30010.06
677.044	29710.63
677.393	29793.57
677.741	29832.44
678.09	29726.68
678.438	29745.88
678.787	29732.78
679.135	29649.62
679.484	29532.56
679.832	29663.63
680.181	29297.99
680.529	29587.47
680.877	29417.53
681.225	29453.91
681.573	29434.25
681.922	29304.77
682.27	29344.77
682.618	29178.22
682.966	29173.24
683.314	29213.02
683.661	29121.04
684.009	29035.85
684.357	28959.24
684.705	28901.84
685.053	28852.35
685.4	29006.92
685.748	28760.83
686.095	28747.27
686.443	28608.51
686.79	28499.59
687.138	28669.3
687.485	28518.35
687.832	28410.78
688.18	28402.42
688.527	28260.05
688.874	28191.58
689.221	28150.45
689.568	28057.57
689.915	28042.2
690.262	27910.23
690.609	27940.73
690.956	27781.87
691.303	27774.64
691.65	27655.54
691.997	27547.75
692.344	27409.67
692.69	27416.91
693.037	27386.4
693.383	27137.59
693.73	27339.39
694.077	27127.42
694.423	27037.71
694.769	27030.25
695.116	26806.53
695.462	26819.63
695.808	26666.87
696.155	26798.84
696.501	26454.22
696.847	26515.46
697.193	26348.46
697.539	26573.76
697.885	26162.93
698.231	26176.49
698.577	26160.89
698.923	26131.52
699.269	25938.98
699.614	25811.98
699.96	25775.14
700.306	25751.87
700.651	25692.21
700.997	25440.91
701.342	25519.78
701.688	25317.98
702.033	25240.69
702.379	25336.51
702.724	25142.16
703.069	25216.51
703.415	24841.15
703.76	24926.12
704.105	24986.46
704.45	24768.39
704.795	24596.42
705.14	24572.01
705.485	24687.03
705.83	24516.42
706.175	24462.63
706.52	24478
706.865	24289.98
707.209	24202.53
707.554	24193.71
707.899	24259.93
708.243	24050.67
708.588	24058.12
708.932	23915.3
709.277	23904.68
709.621	23885.7
709.966	23753.05
710.31	23842.31
710.654	23513.51
710.998	23566.61
711.342	23633.05
711.687	23511.92
712.031	23466.28
712.375	23368.88
712.719	23388.09
713.063	23375.88
713.407	23406.62
713.75	23270.57
714.094	23253.63
714.438	23159.84
714.782	23175.89
715.125	23040.07
715.469	23161.88
715.812	23054.08
716.156	22873.3
716.499	22946.74
716.843	22965.5
717.186	22817.03
717.53	22862.45
717.873	22850.7
718.216	22838.72
718.559	22741.1
718.902	22587.2
719.246	22643.47
719.589	22530.71
719.932	22480.31
720.275	22454.32
720.617	22461.1
720.96	22380.43
721.303	22476.92
721.646	22469.01
721.989	22283.48
722.331	22324.38
722.674	22348.79
723.016	22292.75
723.359	22387.21
723.701	22289.81
724.044	22205.29
724.386	22216.14
724.729	22346.53
725.071	22183.37
725.413	22220.21
725.755	22301.56
726.097	22139.98
726.439	21964.85
726.782	22084.17
727.124	22152.64
727.465	22078.06
727.807	21985.41
728.149	21991.96
728.491	21965.3
728.833	22003.72
729.175	21912.64
729.516	21911.74
729.858	21943.38
730.199	21917.84
730.541	21820.44
730.882	21882.59
731.224	21960.55
731.565	21857.05
731.906	21847.11
732.248	21811.86
732.589	21836.71
732.93	21799.88
733.271	21678.98
733.612	21760.11
733.953	21807.56
734.294	21719.88
734.635	21629.94
734.976	21864.74
735.317	21710.16
735.658	21663.61
735.999	21621.58
736.339	21727.79
736.68	21711.07
737.021	21725.98
737.361	21608.92
737.702	21725.08
738.042	21714.91
738.383	21574.12
738.723	21742.71
739.063	21660.67
739.404	21690.73
739.744	21723.95
740.084	21594.69
740.424	21682.14
740.764	21710.39
741.104	21791.52
741.444	21653.89
741.784	21512.2
742.124	21597.4
742.464	21689.37
742.804	21578.19
743.143	21502.71
743.483	21551.75
743.823	21478.08
744.162	21493.9
744.502	21660.22
744.841	21427.46
745.181	21634.01
745.52	21524.41
745.86	21540.9
746.199	21455.93
746.538	21432.88
746.877	21530.96
747.216	21386.1
747.556	21430.62
747.895	21466.33
748.234	21495.25
748.573	21459.32
748.911	21509.94
749.25	21489.15
749.589	21363.05
749.928	21452.09
750.267	21550.85
750.605	21481.92
750.944	21373.45
751.283	21333.68
751.621	21438.98
751.96	21204.19
752.298	21298.65
752.636	21308.59
752.975	21195.83
753.313	21105.21
753.651	21267.01
753.989	21115.38
754.327	21115.15
754.666	20984.76
755.004	21144.08
755.342	21184.3
755.679	21172.32
756.017	20983.4
