Data from tablewood_dark_bookshelf_FLMS001491_00086.txt Node
Date: Wed Feb 08 14:15:50 GMT 2017
User: dcchb
Spectrometer: FLMS00149
Trigger mode: 0
Integration Time (sec): 2.000000E-2
Scans to average: 10
Electric dark correction enabled: true
Nonlinearity correction enabled: false
Boxcar width: 0
XAxis mode: Wavelengths
Number of Pixels in Spectrum: 2048
>>>>>Begin Spectral Data<<<<<
341.393	-18.16
341.776	-18.16
342.16	-18.16
342.543	-74.21
342.927	-66.75
343.31	-72.17
343.693	-71.95
344.077	-58.39
344.46	-77.6
344.843	-59.52
345.226	-34.66
345.61	-26.98
345.993	-14.55
346.376	2.18
346.759	-4.15
347.142	35.39
347.525	41.27
347.908	63.19
348.291	70.42
348.674	109.29
349.057	98.22
349.44	119.69
349.823	128.27
350.206	178.89
350.588	196.97
350.971	197.2
351.354	220.7
351.737	225.67
352.119	246.46
352.502	239.01
352.884	273.13
353.267	286.46
353.65	272.9
354.032	282.62
354.414	294.6
354.797	291.88
355.179	333.01
355.562	298.21
355.944	334.82
356.326	330.53
356.709	326.69
357.091	317.65
357.473	325.33
357.855	339.57
358.238	348.61
358.62	348.38
359.002	338.21
359.384	318.1
359.766	345.22
360.148	353.35
360.53	360.36
360.912	333.01
361.294	320.58
361.676	323.97
362.057	333.24
362.439	340.47
362.821	334.14
363.203	323.75
363.584	304.09
363.966	331.88
364.348	306.12
364.729	329.85
365.111	312
365.493	325.56
365.874	316.29
366.256	323.97
366.637	327.59
367.019	321.49
367.4	316.97
367.781	327.14
368.163	313.35
368.544	309.06
368.925	342.05
369.306	310.64
369.688	300.02
370.069	312.68
370.45	342.51
370.831	319.23
371.212	314.48
371.593	309.29
371.974	321.26
372.355	340.47
372.736	343.18
373.117	321.49
373.498	335.5
373.879	325.56
374.26	343.18
374.641	297.31
375.021	319.91
375.402	350.19
375.783	341.15
376.163	357.65
376.544	340.47
376.925	349.28
377.305	338.21
377.686	331.88
378.066	347.7
378.447	335.5
378.827	337.99
379.208	346.12
379.588	355.84
379.968	338.89
380.349	361.49
380.729	343.86
381.109	337.31
381.489	354.26
381.87	366.23
382.25	368.49
382.63	374.82
383.01	380.92
383.39	393.13
383.77	368.27
384.15	375.27
384.53	386.8
384.91	366.46
385.29	376.63
385.67	386.57
386.049	399.68
386.429	391.32
386.809	376.63
387.189	399.9
387.568	386.8
387.948	386.57
388.328	388.83
388.707	425.89
389.087	400.36
389.466	405.78
389.846	416.4
390.225	408.04
390.605	396.97
390.984	404.88
391.363	411.66
391.743	419.34
392.122	433.35
392.501	408.94
392.881	433.58
393.26	416.4
393.639	433.58
394.018	430.64
394.397	418.89
394.776	438.32
395.155	442.16
395.534	438.77
395.913	467.93
396.292	448.49
396.671	446.91
397.05	438.32
397.429	460.47
397.808	465.44
398.186	455.27
398.565	460.69
398.944	469.51
399.323	466.8
399.701	447.14
400.08	484.42
400.458	469.73
400.837	476.51
401.215	469.06
401.594	502.05
401.972	494.37
402.351	497.53
402.729	502.5
403.107	483.52
403.486	500.69
403.864	509.96
404.242	501.6
404.62	495.04
404.999	503.18
405.377	528.26
405.755	541.37
406.133	516.74
406.511	522.84
406.889	543.18
407.267	533.01
407.645	539.11
408.023	555.61
408.401	551.54
408.779	577.98
409.156	580.46
409.534	554.7
409.912	543.63
410.29	577.98
410.667	601.26
411.045	582.72
411.422	584.98
411.8	591.76
412.178	611.88
412.555	612.1
412.933	628.6
413.31	613.01
413.687	622.5
414.065	636.28
414.442	650.97
414.819	637.86
415.197	645.55
415.574	641.48
415.951	650.52
416.328	667.92
416.705	660.01
417.082	677.19
417.46	675.83
417.837	683.51
418.214	703.85
418.591	697.75
418.967	717.41
419.344	703.63
419.721	714.47
420.098	732.78
420.475	738.43
420.852	720.12
421.228	746.11
421.605	756.96
421.982	737.3
422.358	746.34
422.735	749.5
423.111	764.87
423.488	766
423.864	798.31
424.241	793.34
424.617	791.31
424.994	773.45
425.37	799.22
425.746	822.94
426.123	820.01
426.499	834.02
426.875	843.28
427.251	865.2
427.627	856.84
428.003	858.42
428.379	860.23
428.756	858.88
429.132	887.12
429.507	901.59
429.883	881.47
430.259	909.95
430.635	915.6
431.011	910.63
431.387	947.91
431.763	931.42
432.138	961.47
432.514	954.69
432.89	983.17
433.265	983.17
433.641	998.99
434.016	1022.94
434.392	1011.64
434.767	1022.49
435.143	1019.32
435.518	1083.5
435.894	1045.76
436.269	1068.36
436.644	1079.43
437.02	1086.44
437.395	1111.75
437.77	1111.3
438.145	1125.99
438.52	1132.99
438.895	1135.93
439.271	1171.86
439.646	1151.75
440.021	1182.03
440.395	1198.08
440.77	1171.64
441.145	1183.16
441.52	1198.3
441.895	1215.93
442.27	1227.68
442.645	1196.49
443.019	1233.1
443.394	1230.39
443.769	1241.24
444.143	1226.1
444.518	1257.74
444.892	1267
445.267	1237.62
445.641	1283.27
446.016	1288.47
446.39	1285.31
446.764	1291.86
447.139	1313.78
447.513	1331.41
447.887	1324.17
448.262	1337.96
448.636	1345.19
449.01	1353.33
449.384	1354
449.758	1367.11
450.132	1418.86
450.506	1410.5
450.88	1398.97
451.254	1407.11
451.628	1409.37
452.002	1443.27
452.376	1438.97
452.75	1471.97
453.123	1487.56
453.497	1484.62
453.871	1514
454.244	1520.78
454.618	1566.43
454.992	1533.21
455.365	1535.47
455.739	1619.99
456.112	1630.15
456.486	1644.17
456.859	1629.25
457.232	1666.31
457.606	1667.67
457.979	1687.55
458.352	1722.13
458.725	1728.91
459.099	1751.28
459.472	1775.91
459.845	1791.96
460.218	1825.63
460.591	1827.66
460.964	1814.1
461.337	1887.55
461.71	1893.88
462.083	1916.02
462.456	1905.85
462.829	1928.23
463.201	1996.7
463.574	1999.41
463.947	2010.71
464.32	2060.43
464.692	2048.67
465.065	2077.15
465.438	2153.76
465.81	2121.22
466.183	2158.73
466.555	2173.87
466.928	2257.48
467.3	2180.42
467.672	2257.26
468.045	2312.17
468.417	2305.39
468.789	2316.69
469.161	2325.05
469.534	2381.55
469.906	2412.96
470.278	2461.32
470.65	2488.44
471.022	2495.89
471.394	2556.23
471.766	2587.19
472.138	2638.94
472.51	2652.27
472.882	2692.5
473.253	2690.69
473.625	2778.6
473.997	2822.44
474.369	2832.84
474.74	2833.74
475.112	2926.39
475.484	2961.87
475.855	3025.37
476.227	3036.9
476.598	3161.87
476.97	3113.96
477.341	3231.02
477.713	3275.76
478.084	3252.94
478.455	3354.4
478.827	3398.7
479.198	3489.09
479.569	3500.61
479.94	3567.73
480.311	3581.29
480.682	3692.02
481.053	3740.61
481.424	3777.9
481.795	3849.76
482.166	3866.48
482.537	3958.68
482.908	4000.49
483.279	4081.39
483.65	4148.96
484.021	4202.06
484.391	4280.48
484.762	4292.23
485.133	4329.97
485.503	4357.31
485.874	4471.44
486.244	4568.38
486.615	4638.66
486.985	4659.91
487.356	4787.59
487.726	4787.59
488.097	4900.8
488.467	4889.5
488.837	4977.86
489.207	5023.51
489.578	5123.17
489.948	5182.83
490.318	5181.25
490.688	5238.87
491.058	5355.71
491.428	5399.55
491.798	5472.54
492.168	5585.53
492.538	5569.94
492.908	5679.09
493.278	5709.37
493.648	5723.83
494.017	5846.09
494.387	5892.64
494.757	5865.52
495.126	6000.89
495.496	5982.36
495.866	6024.62
496.235	6105.29
496.605	6138.51
496.974	6129.7
497.344	6246.08
497.713	6266.19
498.082	6262.35
498.452	6368.34
498.821	6411.27
499.19	6460.76
499.559	6526.98
499.928	6611.04
500.298	6580.99
500.667	6675.67
501.036	6700.98
501.405	6744.82
501.774	6730.13
502.143	6789.79
502.512	6769.91
502.88	6910.47
503.249	6953.86
503.618	7004.93
503.987	7051.26
504.356	7141.65
504.724	7168.99
505.093	7141.87
505.462	7229.56
505.83	7278.82
506.199	7312.72
506.567	7380.96
506.936	7410.57
507.304	7593.61
507.672	7547.51
508.041	7632.48
508.409	7621.18
508.777	7693.5
509.145	7805.13
509.514	7795.87
509.882	7880.39
510.25	7884.91
510.618	7971.68
510.986	7951.12
511.354	8071.34
511.722	8097.1
512.09	8183.2
512.458	8212.58
512.826	8233.15
513.193	8361.73
513.561	8293.03
513.929	8416.64
514.297	8521.05
514.664	8542.74
515.032	8567.83
515.4	8679.91
515.767	8717.88
516.135	8755.62
516.502	8752.45
516.869	8945.44
517.237	8976.63
517.604	8876.07
517.972	9056.85
518.339	9051.43
518.706	9155.15
519.073	9215.94
519.44	9304.08
519.808	9328.03
520.175	9334.81
520.542	9468.59
520.909	9544.3
521.276	9568.7
521.643	9669.49
522.009	9738.19
522.376	9857.74
522.743	9929.6
523.11	10023.61
523.477	10033.1
523.843	10089.14
524.21	10266.31
524.577	10303.37
524.943	10368.46
525.31	10455.46
525.676	10571.39
526.043	10602.57
526.409	10689.35
526.776	10742.23
527.142	10780.87
527.508	10921.44
527.874	10917.14
528.241	10972.06
528.607	11064.26
528.973	11185.16
529.339	11160.75
529.705	11256.12
530.071	11331.37
530.437	11404.81
530.803	11539.05
531.169	11553.96
531.535	11487.3
531.901	11687.97
532.267	11754.41
532.632	11813.62
532.998	11827.63
533.364	11823.79
533.73	11955.99
534.095	12002.99
534.461	12050.67
534.826	12182.42
535.192	12191.23
535.557	12242.76
535.923	12257.9
536.288	12331.57
536.653	12374.05
537.019	12416.99
537.384	12521.17
537.749	12543.77
538.114	12593.48
538.479	12626.25
538.845	12676.42
539.21	12605.23
539.575	12717.77
539.94	12784.66
540.305	12851.55
540.67	12924.55
541.034	12848.62
541.399	12983.53
541.764	13021.27
542.129	13114.82
542.494	13109.4
542.858	13164.09
543.223	13209.96
543.587	13161.38
543.952	13287.93
544.316	13346.01
544.681	13362.73
545.045	13359.79
545.41	13431.43
545.774	13519.56
546.138	13583.29
546.503	13574.25
546.867	13704.87
547.231	13767.91
547.595	13743.28
547.959	13831.42
548.324	13821.25
548.688	13799.78
549.052	13953.45
549.416	13935.59
549.779	13969.04
550.143	14028.25
550.507	14128.81
550.871	14118.19
551.235	14181.24
551.599	14287.22
551.962	14292.65
552.326	14429.59
552.689	14399.54
553.053	14489.25
553.417	14463.94
553.78	14682.24
554.143	14573.09
554.507	14750.04
554.87	14716.14
555.234	14926.98
555.597	14764.5
555.96	14975.57
556.323	14975.57
556.686	15029.35
557.05	15159.06
557.413	15203.81
557.776	15209.01
558.139	15349.57
558.502	15392.96
558.865	15438.83
559.228	15553.4
559.59	15538.94
559.953	15612.84
560.316	15790.69
560.679	15867.97
561.041	15865.49
561.404	15898.03
561.767	16133.28
562.129	16027.52
562.492	16151.13
562.854	16167.4
563.217	16282.2
563.579	16333.27
563.941	16424.12
564.304	16564.9
564.666	16727.84
565.028	16751.34
565.39	16780.26
565.753	16837.89
566.115	16936.87
566.477	17027.72
566.839	17074.27
567.201	17125.57
567.563	17119.24
567.925	17370.98
568.287	17368.72
568.648	17427.93
569.01	17604.65
569.372	17611.2
569.734	17577.98
570.095	17707.92
570.457	17781.37
570.819	17804.64
571.18	17847.58
571.542	18010.97
571.903	18039.89
572.265	18126.9
572.626	18210.28
572.987	18199.44
573.349	18291.41
573.71	18411.18
574.071	18412.54
574.432	18423.39
574.794	18649.14
575.155	18646.66
575.516	18582.48
575.877	18763.26
576.238	18766.65
576.599	18857.5
576.96	18906.76
577.32	19019.08
577.681	19056.82
578.042	19085.97
578.403	19154.67
578.763	19237.38
579.124	19162.12
579.485	19210.94
579.845	19399.63
580.206	19325.28
580.566	19356.92
580.927	19361.44
581.287	19525.96
581.648	19436.69
582.008	19589.91
582.368	19608.67
582.728	19665.84
583.089	19592.39
583.449	19677.36
583.809	19744.93
584.169	19764.37
584.529	19627.87
584.889	19829
585.249	19785.16
585.609	19776.8
585.969	19871.94
586.329	19837.36
586.688	19873.74
587.048	19831.71
587.408	19848.43
587.768	19954.42
588.127	19915.55
588.487	19916.45
588.846	20046.39
589.206	20055.21
589.565	20046.85
589.925	20126.39
590.284	20147.41
590.643	20154.19
591.003	20221.76
591.362	20328.19
591.721	20180.4
592.08	20206.39
592.44	20313.51
592.799	20204.36
593.158	20235.09
593.517	20384.92
593.876	20265.82
594.235	20358.7
594.593	20350.57
594.952	20408.19
595.311	20425.59
595.67	20428.76
596.029	20681.41
596.387	20548.53
596.746	20645.25
597.104	20490.9
597.463	20619.49
597.822	20677.56
598.18	20553.73
598.538	20685.93
598.897	20707.39
599.255	20657.23
599.613	20956.43
599.972	20812.7
600.33	20812.48
600.688	20782.42
601.046	20821.97
601.404	20959.59
601.762	20933.83
602.12	21069.19
602.478	21096.08
602.836	21023.32
603.194	20904.45
603.552	21011.11
603.91	21034.39
604.268	21142.64
604.625	21014.28
604.983	21082.75
605.341	21007.5
605.698	21176.31
606.056	21246.59
606.413	21238.9
606.771	21275.06
607.128	21316.19
607.485	21287.49
607.843	21233.93
608.2	21477.77
608.557	21482.97
608.914	21346.25
609.272	21511.21
609.629	21464.89
609.986	21537.65
610.343	21590.99
610.7	21685.45
611.057	21635.5
611.414	21682.73
611.771	21636.41
612.127	21717.99
612.484	21702.62
612.841	21813.35
613.198	21762.73
613.554	21745.78
613.911	21846.57
614.267	21783.52
614.624	21929.73
614.98	21892.9
615.337	22063.97
615.693	21904.65
616.05	21863.3
616.406	22044.08
616.762	22022.39
617.118	21977.42
617.475	22129.28
617.831	22021.48
618.187	22124.98
618.543	22180.35
618.899	22269.61
619.255	22249.5
619.611	22306.22
619.967	22301.7
620.323	22233.68
620.678	22218.54
621.034	22182.61
621.39	22298.54
621.746	22253.79
622.101	22477.29
622.457	22247.24
622.812	22377.18
623.168	22350.97
623.523	22457.18
623.879	22527.23
624.234	22270.29
624.589	22357.29
624.945	22380.8
625.3	22529.49
625.655	22415.37
626.01	22351.42
626.365	22415.82
626.72	22317.29
627.075	22391.19
627.43	22327.92
627.785	22352.55
628.14	22375.15
628.495	22430.29
628.85	22435.94
629.205	22270.52
629.559	22371.53
629.914	22315.94
630.269	22278.65
630.623	22277.07
630.978	22230.74
631.332	22242.49
631.687	22397.29
632.041	22197.75
632.396	22365.2
632.75	22196.17
633.104	22189.61
633.459	22150.75
633.813	22130.18
634.167	22101.48
634.521	22107.13
634.875	22015.83
635.229	21965.44
635.583	21999.11
635.937	21955.5
636.291	21951.88
636.645	21923.86
636.999	21930.19
637.352	21950.75
637.706	21691.1
638.06	21849.51
638.413	21774.03
638.767	21746.69
639.121	21842.28
639.474	21770.87
639.828	21663.3
640.181	21750.3
640.534	21737.87
640.888	21668.27
641.241	21570.87
641.594	21656.07
641.947	21667.82
642.301	21594.83
642.654	21587.82
643.007	21550.31
643.36	21697.2
643.713	21527.94
644.066	21665.56
644.419	21427.6
644.771	21265.57
645.124	21118.91
645.477	21104.67
645.83	21028.97
646.182	20839.37
646.535	20818.58
646.888	20793.72
647.24	20667.17
647.593	20806.15
647.945	20720.73
648.298	20559.6
648.65	20549.66
649.002	20531.13
649.355	20621.07
649.707	20583.1
650.059	20739.93
650.411	21003.43
650.763	20865.13
651.115	21212.01
651.467	21153.26
651.819	21206.82
652.171	21183.09
652.523	21036.65
652.875	21030.32
653.227	20943.55
653.578	20962.08
653.93	21046.14
654.282	20884.56
654.633	20884.34
654.985	20860.16
655.337	20847.73
655.688	20904.68
656.039	20878.24
656.391	20652.03
656.742	20894.73
657.094	20703.78
657.445	20904.9
657.796	20915.75
658.147	20792.36
658.498	20908.07
658.849	20880.72
659.2	20825.58
659.551	20758.47
659.902	20852.02
660.253	20878.69
660.604	20782.19
660.955	20713.72
661.306	20870.1
661.656	20791.91
662.007	20788.52
662.358	20711.46
662.708	20745.13
663.059	20718.92
663.409	20555.08
663.76	20665.81
664.11	20695.64
664.461	20772.48
664.811	20756.66
665.161	20757.34
665.511	20583.78
665.862	20642.76
666.212	20748.52
666.562	20847.73
666.912	20686.38
667.262	20675.3
667.612	20676.43
667.962	20624.46
668.312	20627.17
668.662	20758.01
669.011	20726.83
669.361	20701.74
669.711	20628.53
670.06	20681.18
670.41	20503.33
670.76	20579.94
671.109	20638.24
671.459	20647.51
671.808	20579.71
672.157	20564.12
672.507	20395.54
672.856	20411.58
673.205	20666.94
673.554	20566.38
673.904	20462.65
674.253	20593.95
674.602	20407.51
674.951	20189.44
675.3	20160.06
675.649	20451.13
675.998	20431.02
676.346	20383.56
676.695	20468.08
677.044	20260.85
677.393	20347.4
677.741	20355.31
678.09	20348.08
678.438	20273.73
678.787	20304.69
679.135	20270.34
679.484	20303.56
679.832	20229.67
680.181	20186.96
680.529	20201.19
680.877	20171.59
681.225	20181.31
681.573	20269.89
681.922	20107.41
682.27	20099.73
682.618	20050.91
682.966	20033.51
683.314	20038.26
683.661	19997.58
684.009	19927.98
684.357	19865.16
684.705	19802.33
685.053	19882.1
685.4	19863.35
685.748	19678.72
686.095	19759.62
686.443	19684.14
686.79	19583.81
687.138	19650.25
687.485	19719.4
687.832	19625.16
688.18	19654.09
688.527	19450.7
688.874	19535.22
689.221	19503.36
689.568	19474.43
689.915	19384.72
690.262	19348.56
690.609	19330.03
690.956	19300.42
691.303	19249.8
691.65	19083.26
691.997	19120.99
692.344	19018.85
692.69	18978.4
693.037	19078.06
693.383	18859.53
693.73	18887.78
694.077	18808.46
694.423	18866.54
694.769	18768.91
695.116	18683.49
695.462	18605.98
695.808	18549.48
696.155	18638.07
696.501	18468.36
696.847	18457.74
697.193	18322.15
697.539	18351.75
697.885	18271.53
698.231	18125.99
698.577	18163.96
698.923	18159.89
699.269	18118.53
699.614	17976.17
699.96	18055.26
700.306	18022.72
700.651	17896.62
700.997	17905.43
701.342	17913.12
701.688	17845.32
702.033	17714.7
702.379	17761.03
702.724	17679.45
703.069	17726.91
703.415	17499.57
703.76	17465.67
704.105	17547.48
704.45	17450.98
704.795	17263.87
705.14	17211.44
705.485	17349.74
705.83	17238.56
706.175	17338.22
706.52	17260.25
706.865	17108.62
707.209	17131.22
707.554	17079.69
707.899	17065
708.243	16941.62
708.588	17020.03
708.932	16831.11
709.277	16868.17
709.621	16826.82
709.966	16758.8
710.31	16771.68
710.654	16661.4
710.998	16729.87
711.342	16621.17
711.687	16628.86
712.031	16603.77
712.375	16543.21
712.719	16445.58
713.063	16467.5
713.407	16571
713.75	16449.65
714.094	16475.64
714.438	16317.68
714.782	16390.67
715.125	16324.46
715.469	16307.28
715.812	16224.12
716.156	16155.65
716.499	16206.04
716.843	16137.8
717.186	16095.31
717.53	16231.58
717.873	16226.83
718.216	16192.26
718.559	16117.68
718.902	16018.7
719.246	16016.9
719.589	16034.07
719.932	15806.05
720.275	15990.91
720.617	15895.09
720.96	15893.73
721.303	15903.9
721.646	15895.32
721.989	15803.34
722.331	15835.43
722.674	15696.23
723.016	15848.31
723.359	15732.83
723.701	15724.7
724.044	15724.02
724.386	15555.89
724.729	15647.87
725.071	15595.89
725.413	15660.29
725.755	15649.22
726.097	15543.69
726.439	15394.76
726.782	15470.02
727.124	15536.46
727.465	15479.28
727.807	15452.16
728.149	15379.4
728.491	15375.1
728.833	15364.93
729.175	15315.22
729.516	15365.16
729.858	15354.09
730.199	15339.17
730.541	15275.9
730.882	15299.17
731.224	15282
731.565	15207.88
731.906	15226.63
732.248	15174.43
732.589	15178.27
732.93	15157.71
733.271	15127.88
733.612	15246.07
733.953	15142.12
734.294	15115.9
734.635	15131.04
734.976	15138.73
735.317	15081.1
735.658	15064.38
735.999	15080.2
736.339	15054.66
736.68	15121.1
737.021	15042.01
737.361	14837.72
737.702	14988.67
738.042	14940.09
738.383	14900.77
738.723	14926.53
739.063	14936.02
739.404	14912.97
739.744	14901.9
740.084	14891.73
740.424	14812.18
740.764	14808.34
741.104	14917.72
741.444	14724.95
741.784	14802.24
742.124	14841.11
742.464	14813.54
742.804	14819.19
743.143	14707.78
743.483	14821.22
743.823	14634.56
744.162	14732.64
744.502	14693.31
744.841	14636.14
745.181	14651.51
745.52	14672.98
745.86	14698.29
746.199	14581.68
746.538	14505.07
746.877	14604.05
747.216	14570.38
747.556	14543.49
747.895	14539.87
748.234	14464.39
748.573	14475.01
748.911	14338.75
749.25	14472.3
749.589	14389.14
749.928	14378.97
750.267	14399.08
750.605	14379.88
750.944	14298.07
751.283	14296.94
751.621	14372.19
751.96	14292.65
752.298	14246.77
752.636	14244.96
752.975	14210.84
753.313	14150.96
753.651	14197.96
753.989	14207.9
754.327	14062.82
754.666	14087.45
755.004	14141.69
755.342	14031.41
755.679	14009.49
756.017	13979.66
756.355	13985.76
