Data from tablewood_dark_bookshelf_FLMS001491_00013.txt Node
Date: Wed Feb 08 14:13:43 GMT 2017
User: dcchb
Spectrometer: FLMS00149
Trigger mode: 0
Integration Time (sec): 2.000000E-2
Scans to average: 10
Electric dark correction enabled: true
Nonlinearity correction enabled: false
Boxcar width: 0
XAxis mode: Wavelengths
Number of Pixels in Spectrum: 2048
>>>>>Begin Spectral Data<<<<<
341.393	-16
341.776	-16
342.16	-16
342.543	-56.91
342.927	-91.71
343.31	-75.21
343.693	-91.48
344.077	-66.4
344.46	-43.35
344.843	-30.69
345.226	-45.61
345.61	-42.44
345.993	-18.49
346.376	-0.64
346.759	20.83
347.142	13.38
347.525	39.36
347.908	57.22
348.291	51.57
348.674	97.21
349.057	134.73
349.44	128.17
349.823	132.69
350.206	154.39
350.588	171.56
350.971	190.77
351.354	218.79
351.737	235.74
352.119	228.74
352.502	267.83
352.884	273.48
353.267	261.28
353.65	301.73
354.032	298.57
354.414	296.31
354.797	299.7
355.179	292.24
355.562	325.46
355.944	321.39
356.326	329.98
356.709	325.46
357.091	327.94
357.473	339.47
357.855	317.77
358.238	358.9
358.62	321.39
359.002	321.62
359.384	346.25
359.766	335.4
360.148	319.81
360.53	343.76
360.912	331.79
361.294	335.85
361.676	320.26
362.057	356.87
362.439	317.77
362.821	318.68
363.203	311.45
363.584	313.93
363.966	328.62
364.348	332.46
364.729	323.2
365.111	323.88
365.493	325.91
365.874	328.4
366.256	313.93
366.637	323.2
367.019	313.03
367.4	305.57
367.781	297.21
368.163	329.3
368.544	309.41
368.925	317.32
369.306	327.04
369.688	306.02
370.069	299.02
370.45	312.35
370.831	326.14
371.212	321.39
371.593	303.76
371.974	311.45
372.355	311.22
372.736	300.6
373.117	331.33
373.498	320.49
373.879	335.4
374.26	324.55
374.641	317.1
375.021	341.95
375.402	331.11
375.783	312.35
376.163	336.3
376.544	338.34
376.925	325.91
377.305	329.98
377.686	331.56
378.066	326.81
378.447	348.51
378.827	350.32
379.208	303.31
379.588	354.84
379.968	333.37
380.349	343.54
380.729	338.11
381.109	341.95
381.489	349.19
381.87	363.87
382.25	367.72
382.63	336.08
383.01	355.74
383.39	345.8
383.77	347.6
384.15	367.49
384.53	371.56
384.91	358.68
385.29	372.69
385.67	369.52
386.049	380.82
386.429	350.54
386.809	365.46
387.189	366.13
387.568	373.14
387.948	374.5
388.328	386.92
388.707	388.05
389.087	380.82
389.466	378.56
389.846	381.95
390.225	382.63
390.605	375.85
390.984	397.09
391.363	397.55
391.743	415.4
392.122	379.24
392.501	403.87
392.881	387.15
393.26	429.41
393.639	419.01
394.018	410.43
394.397	414.72
394.776	416.08
395.155	432.8
395.534	423.08
395.913	421.05
396.292	414.72
396.671	395.29
397.05	418.79
397.429	426.02
397.808	440.71
398.186	428.51
398.565	443.65
398.944	441.84
399.323	432.12
399.701	444.1
400.08	445.68
400.458	456.53
400.837	448.17
401.215	434.83
401.594	441.84
401.972	475.96
402.351	450.2
402.729	463.76
403.107	459.24
403.486	486.36
403.864	469.18
404.242	468.5
404.62	479.35
404.999	460.14
405.377	487.94
405.755	498.79
406.133	496.3
406.511	504.89
406.889	474.38
407.267	483.65
407.645	498.79
408.023	510.54
408.401	499.01
408.779	513.7
409.156	515.06
409.534	531.33
409.912	536.07
410.29	522.06
410.667	523.64
411.045	541.05
411.422	548.5
411.8	559.35
412.178	553.93
412.555	559.12
412.933	559.58
413.31	571.1
413.687	571.1
414.065	556.19
414.442	597.77
414.819	590.31
415.197	586.47
415.574	595.05
415.951	576.3
416.328	613.59
416.705	592.8
417.082	601.83
417.46	633.02
417.837	610.2
418.214	599.35
418.591	635.96
418.967	628.95
419.344	625.79
419.721	644.09
420.098	642.96
420.475	636.86
420.852	640.93
421.228	655.84
421.605	658.33
421.982	663.08
422.358	664.88
422.735	683.64
423.111	660.36
423.488	679.12
423.864	697.2
424.241	696.75
424.617	699.91
424.994	709.85
425.37	705.11
425.746	702.17
426.123	709.18
426.499	714.15
426.875	707.82
427.251	743.07
427.627	754.37
428.003	733.81
428.379	761.83
428.756	752.56
429.132	774.49
429.507	775.16
429.883	814.03
430.259	797.54
430.635	793.47
431.011	808.38
431.387	806.57
431.763	822.62
432.138	827.37
432.514	827.59
432.89	839.12
433.265	844.99
433.641	864.2
434.016	862.62
434.392	874.6
434.767	878.44
435.143	900.81
435.518	897.87
435.894	910.53
436.269	905.78
436.644	937.42
437.02	943.52
437.395	934.93
437.77	943.29
438.145	966.12
438.52	976.06
438.895	941.03
439.271	957.76
439.646	996.85
440.021	998.89
440.395	987.81
440.77	999.34
441.145	1004.31
441.52	1021.71
441.895	1006.34
442.27	1018.55
442.645	999.34
443.019	1021.48
443.394	1032.78
443.769	1034.14
444.143	1055.16
444.518	1038.89
444.892	1053.12
445.267	1070.07
445.641	1094.25
446.016	1072.78
446.39	1114.82
446.764	1088.15
447.139	1085.89
447.513	1102.39
447.887	1109.39
448.262	1136.51
448.636	1095.15
449.01	1127.24
449.384	1167.24
449.758	1129.28
450.132	1156.62
450.506	1165.21
450.88	1159.79
451.254	1151.65
451.628	1204.98
452.002	1193.01
452.376	1197.75
452.75	1235.26
453.123	1210.18
453.497	1245.43
453.871	1277.3
454.244	1255.6
454.618	1286.56
454.992	1308.03
455.365	1307.8
455.739	1319.78
456.112	1338.99
456.486	1333.57
456.859	1380.57
457.232	1384.41
457.606	1370.63
457.979	1403.85
458.352	1401.36
458.725	1432.77
459.099	1437.74
459.472	1462.38
459.845	1498.99
460.218	1508.7
460.591	1504.86
460.964	1505.77
461.337	1548.25
461.71	1540.34
462.083	1570.85
462.456	1579.21
462.829	1596.61
463.201	1628.25
463.574	1611.3
463.947	1628.93
464.32	1659.66
464.692	1687
465.065	1692.2
465.438	1704.4
465.81	1739.43
466.183	1774.46
466.555	1794.8
466.928	1796.15
467.3	1800
467.672	1819.43
468.045	1846.77
468.417	1856.94
468.789	1872.31
469.161	1903.5
469.534	1943.04
469.906	1974.23
470.278	1978.52
470.65	2014.9
471.022	2023.49
471.394	2099.2
471.766	2075.69
472.138	2096.71
472.51	2138.29
472.882	2180.32
473.253	2195.92
473.625	2221.68
473.997	2266.88
474.369	2275.46
474.74	2284.05
475.112	2337.61
475.484	2355.23
475.855	2404.05
476.227	2428.23
476.598	2506.42
476.97	2502.8
477.341	2542.8
477.713	2570.82
478.084	2609.24
478.455	2680.42
478.827	2685.4
479.198	2784.38
479.569	2779.4
479.94	2811.27
480.311	2870.7
480.682	2898.5
481.053	2942.34
481.424	2996.57
481.795	3021.43
482.166	3073.41
482.537	3134.65
482.908	3188.89
483.279	3205.38
483.65	3279.5
484.021	3322.89
484.391	3360.86
484.762	3430.01
485.133	3403.34
485.503	3508.2
485.874	3503.23
486.244	3551.14
486.615	3632.49
486.985	3677.23
487.356	3718.81
487.726	3710
488.097	3831.81
488.467	3848.3
488.837	3888.3
489.207	3992.93
489.578	4028.41
489.948	4067.96
490.318	4117.22
490.688	4133.27
491.058	4184.79
491.428	4222.08
491.798	4289.65
492.168	4348.4
492.538	4410.1
492.908	4425.91
493.278	4463.88
493.648	4460.26
494.017	4515.86
494.387	4541.62
494.757	4576.87
495.126	4648.28
495.496	4656.42
495.866	4758.79
496.235	4783.87
496.605	4805.79
496.974	4825.23
497.344	4863.19
497.713	4866.36
498.082	4912.46
498.452	4961.49
498.821	5005.33
499.19	4998.33
499.559	5069.97
499.928	5077.2
500.298	5126.46
500.667	5121.94
501.036	5186.35
501.405	5291.2
501.774	5260.7
502.143	5273.35
502.512	5308.6
502.88	5390.86
503.249	5402.16
503.618	5434.7
503.987	5467.92
504.356	5478.09
504.724	5541.14
505.093	5618.2
505.462	5585.43
505.83	5639.44
506.199	5652.1
506.567	5716.05
506.936	5714.24
507.304	5781.81
507.672	5829.72
508.041	5868.59
508.409	5871.98
508.777	5947.23
509.145	6031.97
509.514	5971.41
509.882	6093.67
510.25	6097.51
510.618	6125.53
510.986	6173.67
511.354	6222.48
511.722	6264.96
512.09	6338.86
512.458	6336.37
512.826	6395.81
513.193	6424.28
513.561	6455.92
513.929	6531.4
514.297	6566.42
514.664	6557.38
515.032	6653.43
515.4	6753.99
515.767	6719.41
516.135	6784.5
516.502	6786.3
516.869	6909.01
517.237	6949.46
517.604	6918.96
517.972	7020.65
518.339	7046.41
518.706	7043.25
519.073	7132.74
519.44	7146.97
519.808	7242.79
520.175	7201.66
520.542	7366.4
520.909	7373.41
521.276	7385.84
521.643	7495.44
522.009	7570.24
522.376	7648.65
522.743	7627.86
523.11	7750.12
523.477	7796.22
523.843	7912.15
524.21	7920.51
524.577	7967.74
524.943	8037.8
525.31	8051.58
525.676	8164.8
526.043	8176.32
526.409	8252.48
526.776	8382.42
527.142	8339.48
527.508	8419.71
527.874	8428.3
528.241	8532.7
528.607	8561.63
528.973	8664.45
529.339	8648.85
529.705	8768.63
530.071	8835.52
530.437	8864.44
530.803	8886.81
531.169	8976.76
531.535	8969.3
531.901	9006.59
532.267	9031.9
532.632	9106.24
532.998	9163.42
533.364	9201.38
533.73	9238.9
534.095	9319.12
534.461	9336.29
534.826	9400.47
535.192	9446.8
535.557	9537.64
535.923	9477.31
536.288	9485.89
536.653	9609.06
537.019	9603.41
537.384	9650.18
537.749	9749.16
538.114	9758.88
538.479	9767.7
538.845	9830.29
539.21	9768.83
539.575	9910.52
539.94	9953
540.305	10043.39
540.67	10016.28
541.034	10061.02
541.399	10068.7
541.764	10148.93
542.129	10147.12
542.494	10174.24
542.858	10285.87
543.223	10285.87
543.587	10294.91
543.952	10268.02
544.316	10364.97
544.681	10432.99
545.045	10431.18
545.41	10521.35
545.774	10470.5
546.138	10564.96
546.503	10584.85
546.867	10618.07
547.231	10663.04
547.595	10749.82
547.959	10709.37
548.324	10790.27
548.688	10772.41
549.052	10856.93
549.416	10882.69
549.779	10920.43
550.143	10977.83
550.507	10983.71
550.871	11107.77
551.235	11036.81
551.599	11209.01
551.962	11152.29
552.326	11252.4
552.689	11384.15
553.053	11274.55
553.417	11357.71
553.78	11442.23
554.143	11466.18
554.507	11525.16
554.87	11578.95
555.234	11660.53
555.597	11700.3
555.96	11708.44
556.323	11827.53
556.686	11873.85
557.05	11852.84
557.413	11872.72
557.776	11978.94
558.139	11981.65
558.502	12152.49
558.865	12116.33
559.228	12242.88
559.59	12265.93
559.953	12337.35
560.316	12472.26
560.679	12462.99
561.041	12580.5
561.404	12646.26
561.767	12729.2
562.129	12728.97
562.492	12843.55
562.854	12894.62
563.217	12884.9
563.579	12998.57
563.941	13065.46
564.304	13173.93
564.666	13191.79
565.028	13265.68
565.39	13285.79
565.753	13425.23
566.115	13406.47
566.477	13472.46
566.839	13617.54
567.201	13674.03
567.563	13641.04
567.925	13735.95
568.287	13903.86
568.648	13860.69
569.01	13941.6
569.372	14029.73
569.734	14095.26
570.095	14242.38
570.457	14195.83
570.819	14281.93
571.18	14308.14
571.542	14394.47
571.903	14439.21
572.265	14593.56
572.626	14544.74
572.987	14616.38
573.349	14720.56
573.71	14801.91
574.071	14907.22
574.432	14953.1
574.794	15113.77
575.155	15003.26
575.516	15009.59
575.877	15087.78
576.238	15178.4
576.599	15296.59
576.96	15244.16
577.32	15351.96
577.681	15445.74
578.042	15513.76
578.403	15452.74
578.763	15510.82
579.124	15494.78
579.485	15660.65
579.845	15800.98
580.206	15709.01
580.566	15785.39
580.927	15771.61
581.287	15961.88
581.648	15865.61
582.008	15947.65
582.368	15991.94
582.728	16053.63
583.089	16149.22
583.449	16012.95
583.809	16023.58
584.169	16182.22
584.529	16179.28
584.889	16306.28
585.249	16234.42
585.609	16299.5
585.969	16439.84
586.329	16415.2
586.688	16421.53
587.048	16446.39
587.408	16421.98
587.768	16527.74
588.127	16478.48
588.487	16515.09
588.846	16553.51
589.206	16598.93
589.565	16633.28
589.925	16604.8
590.284	16578.59
590.643	16673.28
591.003	16682.32
591.362	16758.47
591.721	16847.06
592.08	16814.29
592.44	16995.08
592.799	16856.55
593.158	16924.8
593.517	16938.58
593.876	17081.63
594.235	17007.73
594.593	17063.32
594.952	17108.75
595.311	17085.47
595.67	17047.96
596.029	17191.23
596.387	17242.75
596.746	17333.15
597.104	17239.82
597.463	17212.7
597.822	17402.97
598.18	17391
598.538	17318.91
598.897	17364.56
599.255	17354.84
599.613	17606.81
599.972	17552.8
600.33	17540.37
600.688	17479.58
601.046	17600.48
601.404	17704.21
601.762	17655.85
602.12	17725.23
602.478	17700.59
602.836	17776.98
603.194	17766.13
603.552	17765.68
603.91	17714.83
604.268	17900.81
604.625	17908.05
604.983	17959.8
605.341	17818.33
605.698	18053.35
606.056	18050.64
606.413	18050.42
606.771	18157.98
607.128	18167.02
607.485	17989.85
607.843	18128.83
608.2	18179.45
608.557	18321.82
608.914	18164.99
609.272	18236.4
609.629	18357.3
609.986	18503.28
610.343	18298.54
610.7	18501.48
611.057	18378.32
611.414	18402.95
611.771	18513.91
612.127	18507.35
612.484	18564.3
612.841	18670.06
613.198	18597.52
613.554	18557.29
613.911	18699.44
614.267	18631.87
614.624	18679.78
614.98	18759.32
615.337	18876.16
615.693	18867.79
616.05	18811.75
616.406	18927.45
616.762	18888.36
617.118	18901.92
617.475	18798.64
617.831	18917.96
618.187	18988.92
618.543	19025.76
618.899	19077.05
619.255	18965.19
619.611	18987.57
619.967	19112.76
620.323	19169.03
620.678	19049.94
621.034	18993.89
621.39	19066.66
621.746	19053.33
622.101	19252.19
622.457	19162.25
622.812	19215.81
623.168	19243.83
623.523	19277.95
623.879	19445.18
624.234	19223.04
624.589	19280.89
624.945	19270.5
625.3	19267.56
625.655	19232.53
626.01	19275.47
626.365	19180.55
626.72	19235.47
627.075	19263.26
627.43	19228.46
627.785	19197.5
628.14	19157.28
628.495	19268.01
628.85	19179.88
629.205	19195.02
629.559	19324.73
629.914	19167
630.269	19154.79
630.623	19153.89
630.978	19113.66
631.332	19319.53
631.687	19214
632.041	19191.18
632.396	19206.32
632.75	19182.81
633.104	19165.19
633.459	19050.16
633.813	19119.77
634.167	19035.93
634.521	19140.78
634.875	19053.33
635.229	19089.03
635.583	18896.49
635.937	18943.27
636.291	18963.16
636.645	18882.48
636.999	18859.21
637.352	19003.84
637.706	18786.44
638.06	18955.25
638.413	18899.21
638.767	18865.31
639.121	18842.48
639.474	18783.96
639.828	18671.19
640.181	18845.2
640.534	18836.84
640.888	18776.5
641.241	18682.04
641.594	18599.33
641.947	18781.7
642.301	18553.68
642.654	18684.52
643.007	18697.4
643.36	18721.81
643.713	18637.29
644.066	18691.08
644.419	18703.96
644.771	18508.26
645.124	18349.62
645.477	18263.06
645.83	18164.54
646.182	18061.94
646.535	18124.31
646.888	18019.91
647.24	17976.74
647.593	18082.28
647.945	18011.09
648.298	17958.67
648.65	17908.5
649.002	18013.81
649.355	17979.23
649.707	17921.38
650.059	18008.83
650.411	18174.93
650.763	18257.64
651.115	18467.13
651.467	18396.85
651.819	18413.8
652.171	18317.3
652.523	18337.64
652.875	18330.86
653.227	18255.38
653.578	18361.14
653.93	18341.26
654.282	18250.18
654.633	18171.99
654.985	18256.29
655.337	18255.61
655.688	18217.87
656.039	18384.87
656.391	18205.67
656.742	18191.43
657.094	18216.96
657.445	18340.8
657.796	18335.61
658.147	18250.18
658.498	18182.39
658.849	18233.46
659.2	18201.37
659.551	18127.02
659.902	18242.73
660.253	18106.46
660.604	18252.22
660.955	18026.91
661.306	18230.3
661.656	18115.05
662.007	18131.09
662.358	18148.27
662.708	18086.57
663.059	18075.27
663.409	18098.55
663.76	18232.78
664.11	18152.33
664.461	18157.76
664.811	18144.2
665.161	18164.31
665.511	18120.02
665.862	18163.18
666.212	18139.68
666.562	18148.94
666.912	18129.96
667.262	18237.3
667.612	18101.26
667.962	18154.37
668.312	18102.84
668.662	18161.37
669.011	18214.93
669.361	18155.05
669.711	18097.19
670.06	18120.24
670.41	18059.91
670.76	18063.75
671.109	18225.33
671.459	18143.75
671.808	18156.85
672.157	18110.07
672.507	18040.02
672.856	18035.73
673.205	18013.58
673.554	18048.61
673.904	18093.58
674.253	18098.78
674.602	18071.88
674.951	17811.33
675.3	17721.61
675.649	18072.56
675.998	17978.78
676.346	18012
676.695	18056.29
677.044	17932.68
677.393	17969.06
677.741	18010.42
678.09	17939.91
678.438	17914.83
678.787	18013.58
679.135	17948.95
679.484	17866.47
679.832	17903.98
680.181	17930.87
680.529	17908.95
680.877	17856.3
681.225	17824.88
681.573	18037.76
681.922	17830.53
682.27	17794.83
682.618	17826.47
682.966	17759.58
683.314	17798.9
683.661	17765.9
684.009	17629.41
684.357	17671.67
684.705	17475.52
685.053	17635.06
685.4	17578.34
685.748	17570.43
686.095	17569.98
686.443	17403.2
686.79	17333.15
687.138	17447.49
687.485	17465.35
687.832	17420.38
688.18	17397.78
688.527	17352.81
688.874	17339.25
689.221	17333.6
689.568	17245.01
689.915	17275.52
690.262	17209.53
690.609	17125.69
690.956	17179.03
691.303	17085.47
691.65	17004.12
691.997	17026.04
692.344	16961.4
692.69	16971.35
693.037	16936.55
693.383	16791.24
693.73	16862.2
694.077	16777.45
694.423	16759.6
694.769	16792.14
695.116	16680.28
695.462	16699.49
695.808	16677.34
696.155	16524.58
696.501	16628.76
696.847	16538.59
697.193	16439.84
697.539	16578.36
697.885	16297.47
698.231	16383.57
698.577	16342.66
698.923	16371.59
699.269	16250.69
699.614	16156
699.96	16157.36
700.306	16131.6
700.651	16141.76
700.997	15968.44
701.342	16081.88
701.688	16003.46
702.033	15994.88
702.379	15998.04
702.724	15871.49
703.069	15915.33
703.415	15760.76
703.76	15840.53
704.105	15846.41
704.45	15688.44
704.795	15726.18
705.14	15713.98
705.485	15714.43
705.83	15613.19
706.175	15553.98
706.52	15560.99
706.865	15546.53
707.209	15479.64
707.554	15477.83
707.899	15530.48
708.243	15410.71
708.588	15424.95
708.932	15264.05
709.277	15298.4
709.621	15284.16
709.966	15155.35
710.31	15371.16
710.654	15135.69
710.998	15106.76
711.342	15242.13
711.687	15116.93
712.031	15068.35
712.375	15041.23
712.719	14955.81
713.063	15021.57
713.407	15012.75
713.75	14917.84
714.094	14958.29
714.438	14826.77
714.782	14957.84
715.125	14868.13
715.469	14828.58
715.812	14838.97
716.156	14725.76
716.499	14793.78
716.843	14754.46
717.186	14674.46
717.53	14702.93
717.873	14782.25
718.216	14662.26
718.559	14556.95
718.902	14558.76
719.246	14571.86
719.589	14649.83
719.932	14457.97
720.275	14579.55
720.617	14483.73
720.96	14546.78
721.303	14478.08
721.646	14368.7
721.989	14407.8
722.331	14462.94
722.674	14487.35
723.016	14513.33
723.359	14407.57
723.701	14392.66
724.044	14253.45
724.386	14260.68
724.729	14372.55
725.071	14311.76
725.413	14429.49
725.755	14267.01
726.097	14236.73
726.439	14248.26
726.782	14077.64
727.124	14211.19
727.465	14161.7
727.807	14083.97
728.149	14097.3
728.491	14055.27
728.833	14076.06
729.175	14071.08
729.516	14044.42
729.858	14006.91
730.199	14052.1
730.541	13988.38
730.882	13972.56
731.224	14042.61
731.565	13965.55
731.906	13911.32
732.248	13932.33
732.589	13972.78
732.93	13899.34
733.271	14022.72
733.612	13907.7
733.953	14011.2
734.294	13927.13
734.635	13872.22
734.976	13949.96
735.317	13805.1
735.658	13868.83
735.999	13821.6
736.339	13769.62
736.68	13785.67
737.021	13830.87
737.361	13769.4
737.702	13859.34
738.042	13705.67
738.383	13797.87
738.723	13770.75
739.063	13744.31
739.404	13754.71
739.744	13651.89
740.084	13614.37
740.424	13750.64
740.764	13631.1
741.104	13612.57
741.444	13608.72
741.784	13548.16
742.124	13580.7
742.464	13617.76
742.804	13552.91
743.143	13550.42
743.483	13476.98
743.823	13545.9
744.162	13456.64
744.502	13488.5
744.841	13408.96
745.181	13563.3
745.52	13397.43
745.86	13426.36
746.199	13432.23
746.538	13365.11
746.877	13375.51
747.216	13452.57
747.556	13361.95
747.895	13380.71
748.234	13385.68
748.573	13319.24
748.911	13320.6
749.25	13286.47
749.589	13215.51
749.928	13296.64
750.267	13279.69
750.605	13202.63
750.944	13220.03
751.283	13202.86
751.621	13225.91
751.96	13047.83
752.298	13132.13
752.636	13019.14
752.975	13046.03
753.313	12981.85
753.651	13097.33
753.989	12948.85
754.327	12970.55
754.666	12900.72
755.004	12885.81
755.342	12908.18
755.679	12840.61
756.017	12770.33
756.355	12858.24
756.693	12852.13
757.031	12757.67
757.368	12753.83
757.706	12732.14
758.044	12683.1
