Data from tablewood_dark_bookshelf_FLMS001491_00097.txt Node
Date: Wed Feb 08 14:16:02 GMT 2017
User: dcchb
Spectrometer: FLMS00149
Trigger mode: 0
Integration Time (sec): 2.000000E-2
Scans to average: 10
Electric dark correction enabled: true
Nonlinearity correction enabled: false
Boxcar width: 0
XAxis mode: Wavelengths
Number of Pixels in Spectrum: 2048
>>>>>Begin Spectral Data<<<<<
341.393	12.56
341.776	12.56
342.16	12.56
342.543	-48.69
342.927	-52.53
343.31	-69.93
343.693	-56.59
344.077	-78.51
344.46	-46.65
344.843	-53.66
345.226	-27.44
345.61	-35.58
345.993	-36.48
346.376	14.36
346.759	23.63
347.142	22.73
347.525	42.61
347.908	53.46
348.291	53.01
348.674	85.55
349.057	109.5
349.44	104.08
349.823	158.54
350.206	151.99
350.588	212.32
350.971	191.53
351.354	209.16
351.737	239.44
352.119	261.14
352.502	274.24
352.884	267.46
353.267	261.14
353.65	291.64
354.032	295.49
354.414	307.46
354.797	306.79
355.179	324.19
355.562	317.41
355.944	330.29
356.326	321.93
356.709	329.16
357.091	311.98
357.473	353.11
357.855	354.02
358.238	323.06
358.62	340.46
359.002	331.19
359.384	338.65
359.766	348.37
360.148	349.95
360.53	353.11
360.912	344.52
361.294	334.58
361.676	316.5
362.057	338.42
362.439	320.57
362.821	326.22
363.203	318.08
363.584	319.89
363.966	321.02
364.348	323.28
364.729	312.89
365.111	321.93
365.493	326.22
365.874	323.73
366.256	325.54
366.637	323.96
367.019	318.76
367.4	326.22
367.781	322.15
368.163	311.76
368.544	330.29
368.925	301.14
369.306	323.06
369.688	331.87
370.069	317.41
370.45	334.36
370.831	319.67
371.212	305.88
371.593	303.85
371.974	322.6
372.355	329.38
372.736	318.08
373.117	333.9
373.498	331.87
373.879	328.48
374.26	315.6
374.641	337.75
375.021	328.25
375.402	323.73
375.783	350.17
376.163	316.05
376.544	366.9
376.925	335.03
377.305	346.56
377.686	339.55
378.066	335.26
378.447	332.77
378.827	330.51
379.208	370.29
379.588	349.72
379.968	334.36
380.349	363.28
380.729	346.33
381.109	356.5
381.489	369.83
381.87	352.43
382.25	384.75
382.63	349.72
383.01	358.99
383.39	359.21
383.77	357.18
384.15	351.53
384.53	368.93
384.91	390.85
385.29	357.86
385.67	350.17
386.049	380.91
386.429	359.67
386.809	348.82
387.189	388.37
387.568	370.51
387.948	382.72
388.328	376.39
388.707	387.69
389.087	385.88
389.466	383.39
389.846	389.04
390.225	380.46
390.605	417.52
390.984	394.47
391.363	380.91
391.743	389.5
392.122	390.4
392.501	415.26
392.881	412.09
393.26	409.83
393.639	412.32
394.018	407.57
394.397	421.81
394.776	417.74
395.155	416.84
395.534	435.6
395.913	425.43
396.292	436.73
396.671	423.39
397.05	435.37
397.429	419.55
397.808	421.58
398.186	443.51
398.565	429.04
398.944	445.09
399.323	429.95
399.701	444.86
400.08	420
400.458	455.26
400.837	430.4
401.215	454.8
401.594	453
401.972	452.32
402.351	455.26
402.729	470.85
403.107	449.83
403.486	487.57
403.864	477.18
404.242	462.94
404.62	474.69
404.999	471.98
405.377	485.54
405.755	472.43
406.133	526.67
406.511	521.24
406.889	505.42
407.267	504.07
407.645	513.11
408.023	509.49
408.401	501.58
408.779	520.79
409.156	510.4
409.534	502.26
409.912	523.5
410.29	529.6
410.667	521.7
411.045	532.32
411.422	535.48
411.8	563.5
412.178	555.59
412.555	550.17
412.933	590.62
413.31	558.53
413.687	570.51
414.065	572.77
414.442	554.69
414.819	561.47
415.197	571.41
415.574	606.66
415.951	596.72
416.328	604.41
416.705	611.86
417.082	622.03
417.46	608.92
417.837	616.38
418.214	616.16
418.591	616.38
418.967	611.18
419.344	631.75
419.721	631.52
420.098	665.19
420.475	651.64
420.852	662.93
421.228	650.05
421.605	633.56
421.982	683.5
422.358	667.91
422.735	680.11
423.111	642.82
423.488	683.95
423.864	669.49
424.241	736.83
424.617	701.13
424.994	704.06
425.37	701.58
425.746	721.92
426.123	719.66
426.499	725.08
426.875	730.73
427.251	745.64
427.627	735.7
428.003	743.38
428.379	760.56
428.756	763.95
429.132	774.12
429.507	774.57
429.883	786.1
430.259	797.17
430.635	792.65
431.011	799.2
431.387	793.78
431.763	844.62
432.138	838.3
432.514	838.52
432.89	839.88
433.265	878.52
433.641	863.83
434.016	880.1
434.392	869.93
434.767	909.03
435.143	882.14
435.518	922.81
435.894	915.13
436.269	902.7
436.644	940.67
437.02	949.48
437.395	935.7
437.77	982.25
438.145	967.33
438.52	983.15
438.895	984.96
439.271	1002.13
439.646	986.54
440.021	999.87
440.395	1001
440.77	1021.57
441.145	989.71
441.52	1026.54
441.895	1038.29
442.27	1019.76
442.645	1034.22
443.019	1045.52
443.394	1056.6
443.769	1062.7
444.143	1053.88
444.518	1069.25
444.892	1056.14
445.267	1081.68
445.641	1100.66
446.016	1093.88
446.39	1095.92
446.764	1096.14
447.139	1102.47
447.513	1125.52
447.887	1140.21
448.262	1149.93
448.636	1127.56
449.01	1142.02
449.384	1162.36
449.758	1170.49
450.132	1179.31
450.506	1151.06
450.88	1184.28
451.254	1197.84
451.628	1219.3
452.002	1209.13
452.376	1220.66
452.75	1222.69
453.123	1260.88
453.497	1273.09
453.871	1272.18
454.244	1290.26
454.618	1314.67
454.992	1295.46
455.365	1319.87
455.739	1375.23
456.112	1348.57
456.486	1375.01
456.859	1389.7
457.232	1402.12
457.606	1412.29
457.979	1433.76
458.352	1462.01
458.725	1478.51
459.099	1490.48
459.472	1494.78
459.845	1523.25
460.218	1515.12
460.591	1516.25
460.964	1526.64
461.337	1578.16
461.71	1592.4
462.083	1616.13
462.456	1626.75
462.829	1631.27
463.201	1653.64
463.574	1659.52
463.947	1627.65
464.32	1704.26
464.692	1725.28
465.065	1720.31
465.438	1758.95
465.81	1772.06
466.183	1810.93
466.555	1840.3
466.928	1823.58
467.3	1826.75
467.672	1863.35
468.045	1932.73
468.417	1904.48
468.789	1922.56
469.161	1968.21
469.534	1968.21
469.906	2003.46
470.278	2023.58
470.65	2056.34
471.022	2099.96
471.394	2162.33
471.766	2151.26
472.138	2174.99
472.51	2206.62
472.882	2236.23
473.253	2250.92
473.625	2265.38
473.997	2316.68
474.369	2326.62
474.74	2375.66
475.112	2379.27
475.484	2461.08
475.855	2482.32
476.227	2521.42
476.598	2560.51
476.97	2588.53
477.341	2615.88
477.713	2690.23
478.084	2665.82
478.455	2755.53
478.827	2761.64
479.198	2872.59
479.569	2827.17
479.94	2929.77
480.311	2943.78
480.682	3044.11
481.053	3047.73
481.424	3093.38
481.795	3150.33
482.166	3240.27
482.537	3230.1
482.908	3259.25
483.279	3352.13
483.65	3406.82
484.021	3453.14
484.391	3493.59
484.762	3487.49
485.133	3544.89
485.503	3587.83
485.874	3647.49
486.244	3672.8
486.615	3751.89
486.985	3795.28
487.356	3846.58
487.726	3914.83
488.097	3939.91
488.467	3940.59
488.837	4035.28
489.207	4102.17
489.578	4188.04
489.948	4160.92
490.318	4210.19
490.688	4266.46
491.058	4350.3
491.428	4363.18
491.798	4406.34
492.168	4553.23
492.538	4511.65
492.908	4557.97
493.278	4622.83
493.648	4638.42
494.017	4723.17
494.387	4758.42
494.757	4781.02
495.126	4815.82
495.496	4813.33
495.866	4935.36
496.235	4930.17
496.605	4985.31
496.974	5025.31
497.344	5053.1
497.713	5074.57
498.082	5107.79
498.452	5174.68
498.821	5206.54
499.19	5234.79
499.559	5301.46
499.928	5275.24
500.298	5364.96
500.667	5414
501.036	5390.95
501.405	5449.48
501.774	5480.89
502.143	5478.63
502.512	5512.3
502.88	5569.47
503.249	5616.25
503.618	5669.81
503.987	5652.63
504.356	5704.84
504.724	5815.34
505.093	5792.52
505.462	5807.88
505.83	5863.7
506.199	5919.75
506.567	5988.22
506.936	5977.82
507.304	6064.15
507.672	6073.41
508.041	6086.29
508.409	6122
508.777	6204.71
509.145	6233.18
509.514	6206.52
509.882	6338.94
510.25	6357.93
510.618	6347.08
510.986	6405.83
511.354	6477.47
511.722	6531.25
512.09	6592.04
512.458	6657.58
512.826	6625.04
513.193	6678.14
513.561	6730.8
513.929	6822.55
514.297	6847.18
514.664	6861.87
515.032	6891.47
515.4	7004.01
515.767	7071.35
516.135	7078.81
516.502	6977.57
516.869	7140.05
517.237	7212.59
517.604	7197.23
517.972	7268.64
518.339	7300.73
518.706	7323.78
519.073	7375.3
519.44	7455.98
519.808	7493.04
520.175	7538.91
520.542	7612.81
520.909	7696.87
521.276	7706.82
521.643	7743.2
522.009	7822.75
522.376	7919.92
522.743	7959.69
523.11	8058.45
523.477	8097.99
523.843	8129.4
524.21	8212.11
524.577	8308.84
524.943	8350.64
525.31	8410.75
525.676	8479.9
526.043	8561.48
526.409	8567.59
526.776	8703.18
527.142	8648.94
527.508	8794.7
527.874	8870.18
528.241	8859.56
528.607	8930.97
528.973	8978.42
529.339	8990.85
529.705	9097.06
530.071	9163.95
530.437	9129.15
530.803	9299.77
531.169	9407.56
531.535	9342.71
531.901	9353.78
532.267	9436.72
532.632	9515.58
532.998	9568.46
533.364	9558.52
533.73	9574.79
534.095	9669.7
534.461	9750.38
534.826	9763.03
535.192	9851.39
535.557	9880.32
535.923	9852.75
536.288	9889.58
536.653	10048
537.019	9971.16
537.384	9977.49
537.749	10075.57
538.114	10110.82
538.479	10115.57
538.845	10265.85
539.21	10229.01
539.575	10267.2
539.94	10357.14
540.305	10370.25
540.67	10292.51
541.034	10388.55
541.399	10464.71
541.764	10543.13
542.129	10525.05
542.494	10555.1
542.858	10619.73
543.223	10574.76
543.587	10729.11
543.952	10711.03
544.316	10772.5
544.681	10726.62
545.045	10796.68
545.41	10873.29
545.774	10911.48
546.138	10929.11
546.503	11019.72
546.867	10973.4
547.231	11030.57
547.595	11086.62
547.959	11119.38
548.324	11164.35
548.688	11160.51
549.052	11208.65
549.416	11193.96
549.779	11313.05
550.143	11318.25
550.507	11404.57
550.871	11465.81
551.235	11436.21
551.599	11530.22
551.962	11569.54
552.326	11620.84
552.689	11679.59
553.053	11628.52
553.417	11732.7
553.78	11916.65
554.143	11861.96
554.507	11903.54
554.87	11957.78
555.234	12026.25
555.597	12076.65
555.96	12068.06
556.323	12165.23
556.686	12202.07
557.05	12240.48
557.413	12247.71
557.776	12357.99
558.139	12500.36
558.502	12394.83
558.865	12524.09
559.228	12643.41
559.59	12635.73
559.953	12659.91
560.316	12742.62
560.679	12709.17
561.041	12833.01
561.404	12989.39
561.767	13153.91
562.129	13043.63
562.492	13168.14
562.854	13187.58
563.217	13157.52
563.579	13226.45
563.941	13400.45
564.304	13406.55
564.666	13505.99
565.028	13556.61
565.39	13716.15
565.753	13727.22
566.115	13732.2
566.477	13821.91
566.839	13954.79
567.201	14044.28
567.563	13952.3
567.925	14116.59
568.287	14163.6
568.648	14163.14
569.01	14229.81
569.372	14393.87
569.734	14298.96
570.095	14521.78
570.457	14552.74
570.819	14581.21
571.18	14597.26
571.542	14714.77
571.903	14813.3
572.265	14836.8
572.626	14919.73
572.987	14973.97
573.349	14967.87
573.71	15025.95
574.071	15212.61
574.432	15176.68
574.794	15401.53
575.155	15309.78
575.516	15312.94
575.877	15507.52
576.238	15498.93
576.599	15584.12
576.96	15597.23
577.32	15580.51
577.681	15713.39
578.042	15756.1
578.403	15800.16
578.763	15859.37
579.124	15839.71
579.485	16069.99
579.845	16025.24
580.206	16049.42
580.566	16136.43
580.927	16087.16
581.287	16242.41
581.648	16232.02
582.008	16287.61
582.368	16270.43
582.728	16367.61
583.089	16323.77
583.449	16429.75
583.809	16417.1
584.169	16510.2
584.529	16496.42
584.889	16668.84
585.249	16538.22
585.609	16589.97
585.969	16667.94
586.329	16635.17
586.688	16742.74
587.048	16707.03
587.408	16757.2
587.768	16758.56
588.127	16822.74
588.487	16807.37
588.846	16974.6
589.206	16969.17
589.565	16893.92
589.925	17131.65
590.284	17119.23
590.643	17066.35
591.003	17124.65
591.362	17196.29
591.721	17178.21
592.08	17215.72
592.44	17196.29
592.799	17257.07
593.158	17343.85
593.517	17295.94
593.876	17388.6
594.235	17451.19
594.593	17330.74
594.952	17532.55
595.311	17461.36
595.67	17483.51
596.029	17590.17
596.387	17632.21
596.746	17671.98
597.104	17615.48
597.463	17598.08
597.822	17797.85
598.18	17645.31
598.538	17683.96
598.897	17800.56
599.255	17752.2
599.613	18000.33
599.972	17857.96
600.33	17898.87
600.688	17917.17
601.046	17998.98
601.404	18083.95
601.762	17983.84
602.12	18071.29
602.478	18085.98
602.836	18112.42
603.194	18064.51
603.552	18111.74
603.91	18200.55
604.268	18185.86
604.625	18103.15
604.983	18269.03
605.341	18235.35
605.698	18361
606.056	18330.04
606.413	18365.75
606.771	18302.47
607.128	18460.88
607.485	18333.66
607.843	18465.63
608.2	18553.99
608.557	18562.8
608.914	18485.97
609.272	18684.61
609.629	18556.7
609.986	18761.22
610.343	18675.12
610.7	18795.79
611.057	18774.32
611.414	18826.75
611.771	18840.76
612.127	18874.89
612.484	18970.02
612.841	18924.15
613.198	18965.73
613.554	18944.04
613.911	19015.22
614.267	18982
614.624	19058.84
614.98	19048.44
615.337	19115.1
615.693	19049.57
616.05	19125.5
616.406	19190.58
616.762	19101.55
617.118	19134.99
617.475	19157.36
617.831	19255.21
618.187	19228.55
618.543	19246.17
618.899	19398.04
619.255	19381.99
619.611	19419.05
619.967	19477.81
620.323	19407.98
620.678	19425.83
621.034	19429.22
621.39	19425.38
621.746	19468.32
622.101	19614.98
622.457	19375.44
622.812	19460.63
623.168	19536.56
623.523	19471.48
623.879	19452.05
624.234	19396.68
624.589	19571.14
624.945	19553.96
625.3	19546.96
625.655	19522.78
626.01	19628.54
626.365	19613.85
626.72	19653.85
627.075	19575.88
627.43	19606.62
627.785	19508.54
628.14	19503.57
628.495	19489.78
628.85	19594.41
629.205	19500.41
629.559	19571.59
629.914	19433.29
630.269	19587.18
630.623	19530.01
630.978	19377.47
631.332	19532.95
631.687	19530.91
632.041	19482.78
632.396	19545.6
632.75	19385.15
633.104	19377.47
633.459	19360.07
633.813	19512.83
634.167	19288.66
634.521	19379.5
634.875	19358.49
635.229	19449.11
635.583	19295.66
635.937	19332.05
636.291	19298.38
636.645	19383.12
636.999	19207.76
637.352	19324.36
637.706	19208.44
638.06	19210.47
638.413	19182.9
638.767	19134.31
639.121	19145.84
639.474	19075.78
639.828	19005.28
640.181	19144.93
640.534	19164.14
640.888	18946.97
641.241	18931.38
641.594	18910.59
641.947	19044.37
642.301	19015.22
642.654	19011.38
643.007	18968.22
643.36	19001.44
643.713	18951.72
644.066	19011.38
644.419	18947.65
644.771	18784.27
645.124	18657.49
645.477	18624.04
645.83	18452.52
646.182	18425.86
646.535	18339.98
646.888	18535.23
647.24	18261.34
647.593	18321.68
647.945	18235.13
648.298	18230.38
648.65	18185.86
649.002	18107
649.355	18266.31
649.707	18249.82
650.059	18309.48
650.411	18516.25
650.763	18546.31
651.115	18726.19
651.467	18655
651.819	18627.21
652.171	18721.89
652.523	18705.4
652.875	18541.56
653.227	18485.06
653.578	18589.02
653.93	18560.32
654.282	18491.62
654.633	18483.26
654.985	18555.12
655.337	18608.23
655.688	18606.64
656.039	18544.5
656.391	18449.59
656.742	18486.65
657.094	18467.66
657.445	18550.83
657.796	18524.84
658.147	18488.23
658.498	18397.38
658.849	18533.43
659.2	18448
659.551	18375.24
659.902	18520.09
660.253	18451.39
660.604	18455.91
660.955	18376.14
661.306	18477.61
661.656	18417.95
662.007	18516.02
662.358	18405.97
662.708	18361.45
663.059	18422.24
663.409	18401.45
663.76	18473.09
664.11	18431.73
664.461	18511.05
664.811	18399.19
665.161	18529.81
665.511	18399.87
665.862	18407.55
666.212	18632.63
666.562	18434.9
666.912	18531.17
667.262	18403.26
667.612	18489.36
667.962	18516.02
668.312	18442.35
668.662	18511.5
669.011	18484.61
669.361	18436.7
669.711	18344.28
670.06	18379.98
670.41	18371.62
670.76	18356.93
671.109	18396.48
671.459	18401.9
671.808	18315.13
672.157	18401.23
672.507	18203.26
672.856	18428.12
673.205	18349.48
673.554	18420.66
673.904	18405.74
674.253	18478.96
674.602	18461.34
674.951	18114.68
675.3	18054.12
675.649	18313.09
675.998	18188.35
676.346	18351.73
676.695	18434.67
677.044	18243.04
677.393	18161.91
677.741	18267.9
678.09	18314.67
678.438	18186.32
678.787	18332.53
679.135	18322.81
679.484	18177.05
679.832	18225.41
680.181	18179.76
680.529	18153.32
680.877	18211.85
681.225	18079.2
681.573	18258.86
681.922	18005.3
682.27	18120.33
682.618	18100.44
682.966	18027.68
683.314	18076.94
683.661	18054.79
684.009	17894.57
684.357	17845.08
684.705	17876.72
685.053	17869.04
685.4	17821.58
685.748	17787.91
686.095	17714.01
686.443	17718.08
686.79	17698.19
687.138	17704.75
687.485	17709.04
687.832	17726.44
688.18	17649.61
688.527	17524.64
688.874	17476.96
689.221	17597.63
689.568	17610.51
689.915	17500.68
690.262	17448.93
690.609	17428.6
690.956	17347.02
691.303	17302.27
691.65	17212.1
691.997	17301.82
692.344	17109.28
692.69	17172.33
693.037	17020.24
693.383	17031.32
693.73	17031.54
694.077	16999.91
694.423	16955.84
694.769	16946.8
695.116	16821.83
695.462	16884.88
695.808	16754.94
696.155	16848.05
696.501	16707.03
696.847	16740.03
697.193	16613.48
697.539	16581.16
697.885	16523.53
698.231	16549.97
698.577	16459.36
698.923	16406.7
699.269	16396.98
699.614	16332.35
699.96	16244.67
700.306	16284.9
700.651	16215.29
700.997	16180.72
701.342	16162.19
701.688	16085.58
702.033	16036.32
702.379	16004.9
702.724	16006.49
703.069	16071.57
703.415	15919.48
703.76	15908.86
704.105	15817.79
704.45	15809.88
704.795	15762.88
705.14	15738.7
705.485	15739.37
705.83	15676.33
706.175	15675.87
706.52	15622.99
706.865	15580.06
707.209	15537.8
707.554	15515.88
707.899	15601.98
708.243	15440.17
708.588	15355.43
708.932	15236.56
709.277	15339.84
709.621	15338.25
709.966	15191.14
710.31	15340.29
710.654	15118.37
710.998	15173.97
711.342	15259.39
711.687	15124.93
712.031	15024.59
712.375	15022.11
712.719	15001.77
713.063	15072.73
713.407	15100.97
713.75	14992.28
714.094	14952.73
714.438	14980.52
714.782	14991.6
715.125	14874.76
715.469	14928.77
715.812	14836.8
716.156	14743.24
716.499	14803.58
716.843	14731.49
717.186	14722
717.53	14836.12
717.873	14707.09
718.216	14779.17
718.559	14678.61
718.902	14511.84
719.246	14618.73
719.589	14489.46
719.932	14492.4
720.275	14551.83
720.617	14492.63
720.96	14502.57
721.303	14493.31
721.646	14514.32
721.989	14476.36
722.331	14529.24
722.674	14434.78
723.016	14497.15
723.359	14423.93
723.701	14437.26
724.044	14330.6
724.386	14277.72
724.729	14411.95
725.071	14383.03
725.413	14345.96
725.755	14235.91
726.097	14310.94
726.439	14210.37
726.782	14249.7
727.124	14301.9
727.465	14206.31
727.807	14178.29
728.149	14160.66
728.491	14160.88
728.833	14281.56
729.175	14102.36
729.516	14119.53
729.858	14196.14
730.199	14129.47
730.541	14136.7
730.882	14077.05
731.224	14037.95
731.565	14012.19
731.906	14003.15
732.248	14018.29
732.589	13980.78
732.93	13963.6
733.271	13978.74
733.612	14000.89
733.953	14017.39
734.294	13970.16
734.635	13992.98
734.976	13954.56
735.317	13904.39
735.658	13857.16
735.999	13932.19
736.339	13904.17
736.68	13917.95
737.021	13842.7
737.361	13842.02
737.702	13838.41
738.042	13843.38
738.383	13888.8
738.723	13937.16
739.063	13751.86
739.404	13816.49
739.744	13837.28
740.084	13743.72
740.424	13783.04
740.764	13764.06
741.104	13804.74
741.444	13770.61
741.784	13686.55
742.124	13782.14
742.464	13796.37
742.804	13799.76
743.143	13694.46
743.483	13756.38
743.823	13628.47
744.162	13628.02
744.502	13684.74
744.841	13520.9
745.181	13690.61
745.52	13599.54
745.86	13623.05
746.199	13568.81
746.538	13616.27
746.877	13648.58
747.216	13602.03
747.556	13625.98
747.895	13477.29
748.234	13548.7
748.573	13518.87
748.911	13462.6
749.25	13557.06
749.589	13487.23
749.928	13508.47
750.267	13451.3
750.605	13495.82
750.944	13405.65
751.283	13433.45
751.621	13442.49
751.96	13394.8
752.298	13374.24
752.636	13353.22
752.975	13277.74
753.313	13285.65
753.651	13369.49
753.989	13235.03
754.327	13221.25
754.666	13182.83
755.004	13155.71
755.342	13200.68
755.679	13165.88
756.017	13129.73
756.355	13167.92
756.693	13046.34
757.031	13133.34
757.368	13095.6
