Data from tablewood_dark_bookshelf_FLMS001491_00093.txt Node
Date: Wed Feb 08 14:16:01 GMT 2017
User: dcchb
Spectrometer: FLMS00149
Trigger mode: 0
Integration Time (sec): 2.000000E-2
Scans to average: 10
Electric dark correction enabled: true
Nonlinearity correction enabled: false
Boxcar width: 0
XAxis mode: Wavelengths
Number of Pixels in Spectrum: 2048
>>>>>Begin Spectral Data<<<<<
341.393	2.06
341.776	2.06
342.16	2.06
342.543	-52.63
342.927	-51.72
343.31	-63.02
343.693	-59.18
344.077	-53.76
344.46	-76.13
344.843	-31.16
345.226	-34.1
345.61	-39.52
345.993	-13.08
346.376	-15.79
346.759	0.03
347.142	37.09
347.525	20.37
347.908	54.49
348.291	75.51
348.674	99.69
349.057	98.56
349.44	140.59
349.823	127.48
350.206	167.03
350.588	179.91
350.971	204.99
351.354	220.81
351.737	223.07
352.119	216.97
352.502	243.64
352.884	258.33
353.267	263.3
353.65	271.21
354.032	294.03
354.414	297.65
354.797	292.9
355.179	301.94
355.562	317.53
355.944	316.18
356.326	315.95
356.709	324.31
357.091	316.86
357.473	367.02
357.855	317.53
358.238	327.25
358.62	332.67
359.002	328.38
359.384	331.32
359.766	324.77
360.148	335.39
360.53	316.4
360.912	331.77
361.294	325.67
361.676	324.99
362.057	345.1
362.439	336.52
362.821	322.96
363.203	333.8
363.584	323.64
363.966	325.67
364.348	338.1
364.729	317.53
365.111	321.15
365.493	302.85
365.874	331.54
366.256	308.04
366.637	321.15
367.019	332.9
367.4	320.7
367.781	316.18
368.163	317.31
368.544	302.85
368.925	317.99
369.306	304.2
369.688	305.1
370.069	307.59
370.45	311.88
370.831	302.17
371.212	324.99
371.593	323.41
371.974	329.51
372.355	318.44
372.736	335.39
373.117	313.24
373.498	323.86
373.879	312.56
374.26	318.89
374.641	323.41
375.021	311.88
375.402	322.05
375.783	326.12
376.163	341.49
376.544	329.51
376.925	330.42
377.305	322.96
377.686	332.45
378.066	320.7
378.447	308.49
378.827	344.2
379.208	359.79
379.588	343.07
379.968	349.85
380.349	333.13
380.729	345.33
381.109	338.1
381.489	332.45
381.87	358.21
382.25	338.1
382.63	355.73
383.01	363.63
383.39	352.56
383.77	343.75
384.15	351.88
384.53	346.69
384.91	364.31
385.29	374.71
385.67	361.83
386.049	379.23
386.429	374.26
386.809	356.86
387.189	373.13
387.568	367.93
387.948	378.32
388.328	390.53
388.707	383.97
389.087	387.14
389.466	389.85
389.846	396.85
390.225	388.27
390.605	400.24
390.984	398.21
391.363	389.4
391.743	380.36
392.122	381.04
392.501	391.66
392.881	417.42
393.26	412.67
393.639	408.61
394.018	403.63
394.397	406.57
394.776	411.99
395.155	418.77
395.534	419
395.913	415.61
396.292	429.85
396.671	422.62
397.05	426.68
397.429	441.15
397.808	448.83
398.186	435.72
398.565	438.43
398.944	419.23
399.323	433.69
399.701	430.75
400.08	450.86
400.458	432.33
400.837	459.45
401.215	440.92
401.594	453.58
401.972	438.89
402.351	456.06
402.729	469.17
403.107	465.1
403.486	448.83
403.864	467.36
404.242	467.13
404.62	481.37
404.999	488.83
405.377	462.39
405.755	478.89
406.133	493.35
406.511	473.46
406.889	486.12
407.267	500.81
407.645	502.61
408.023	495.61
408.401	513.24
408.779	519.56
409.156	518.88
409.534	494.25
409.912	543.06
410.29	529.73
410.667	560.01
411.045	556.85
411.422	543.52
411.8	548.49
412.178	547.13
412.555	551.43
412.933	548.49
413.31	564.99
413.687	575.83
414.065	569.05
414.442	569.28
414.819	585.78
415.197	581.93
415.574	573.12
415.951	597.98
416.328	570.18
416.705	599.79
417.082	585.78
417.46	613.35
417.837	614.93
418.214	604.08
418.591	609.96
418.967	618.32
419.344	630.97
419.721	645.89
420.098	610.18
420.475	635.04
420.852	641.82
421.228	659.22
421.605	682.95
421.982	656.51
422.358	669.39
422.735	668.03
423.111	661.48
423.488	693.34
423.864	686.56
424.241	681.37
424.617	685.89
424.994	716.17
425.37	712.55
425.746	709.61
426.123	712.33
426.499	731.76
426.875	740.8
427.251	740.35
427.627	757.52
428.003	758.43
428.379	770.86
428.756	769.5
429.132	741.03
429.507	771.08
429.883	763.62
430.259	804.53
430.635	798.65
431.011	786.67
431.387	809.72
431.763	827.35
432.138	823.28
432.514	845.88
432.89	850.63
433.265	838.88
433.641	866.67
434.016	851.98
434.392	876.39
434.767	889.5
435.143	890.17
435.518	901.93
435.894	897.86
436.269	920.91
436.644	902.15
437.02	934.24
437.395	953.68
437.77	943.28
438.145	960.23
438.52	976.27
438.895	975.6
439.271	978.76
439.646	980.34
440.021	982.6
440.395	1023.05
440.77	972.88
441.145	1033.22
441.52	1028.25
441.895	1042.94
442.27	1042.94
442.645	1040.68
443.019	1039.1
443.394	1049.94
443.769	1064.86
444.143	1058.08
444.518	1104.86
444.892	1083.39
445.267	1079.77
445.641	1086.55
446.016	1097.17
446.39	1101.92
446.764	1115.71
447.139	1093.33
447.513	1103.5
447.887	1136.95
448.262	1150.73
448.636	1128.36
449.01	1153.44
449.384	1163.61
449.758	1168.36
450.132	1169.49
450.506	1196.38
450.88	1192.31
451.254	1201.35
451.628	1195.03
452.002	1231.18
452.376	1210.62
452.75	1233.44
453.123	1236.38
453.497	1256.27
453.871	1276.38
454.244	1284.97
454.618	1302.82
454.992	1333.33
455.365	1290.39
455.739	1354.57
456.112	1369.71
456.486	1376.94
456.859	1352.54
457.232	1387.11
457.606	1401.57
457.979	1417.84
458.352	1458.52
458.725	1443.61
459.099	1462.36
459.472	1480.22
459.845	1499.42
460.218	1519.76
460.591	1505.98
460.964	1536.03
461.337	1555.24
461.71	1587.56
462.083	1598.86
462.456	1609.93
462.829	1625.07
463.201	1628.69
463.574	1630.95
463.947	1655.13
464.32	1700.77
464.692	1694.45
465.065	1713.88
465.438	1744.62
465.81	1757.72
466.183	1787.1
466.555	1817.61
466.928	1820.32
467.3	1818.29
467.672	1855.12
468.045	1897.83
468.417	1884.05
468.789	1915.23
469.161	1937.83
469.534	1988.68
469.906	1996.36
470.278	2012.4
470.65	2063.02
471.022	2088.79
471.394	2105.51
471.766	2142.8
472.138	2153.19
472.51	2173.98
472.882	2225.05
473.253	2226.18
473.625	2293.98
473.997	2318.39
474.369	2336.92
474.74	2360.64
475.112	2401.32
475.484	2434.99
475.855	2481.54
476.227	2484.48
476.598	2551.83
476.97	2560.19
477.341	2594.76
477.713	2663.91
478.084	2675.66
478.455	2726.06
478.827	2758.83
479.198	2807.19
479.569	2853.96
479.94	2903.91
480.311	2929.67
480.682	2989.78
481.053	3056.9
481.424	3105.03
481.795	3083.79
482.166	3161.53
482.537	3225.48
482.908	3276.78
483.279	3271.81
483.65	3414.85
484.021	3423.67
484.391	3459.15
484.762	3485.59
485.133	3533.27
485.503	3549.99
485.874	3663.43
486.244	3650.55
486.615	3720.61
486.985	3764.22
487.356	3845.12
487.726	3922.86
488.097	3920.15
488.467	3904.33
488.837	4054.61
489.207	4110.65
489.578	4150.65
489.948	4215.74
490.318	4264.32
490.688	4233.14
491.058	4310.65
491.428	4372.12
491.798	4439.46
492.168	4517.2
492.538	4501.6
492.908	4566.69
493.278	4617.31
493.648	4643.75
494.017	4701.37
494.387	4768.72
494.757	4737.98
495.126	4797.42
495.496	4812.11
495.866	4956.28
496.235	4947.47
496.605	4980.01
496.974	4969.39
497.344	5080.12
497.713	5138.2
498.082	5089.16
498.452	5112.89
498.821	5218.87
499.19	5207.8
499.559	5292.54
499.928	5310.62
500.298	5342.49
500.667	5410.96
501.036	5420.45
501.405	5424.97
501.774	5462.48
502.143	5480.34
502.512	5512.43
502.88	5527.11
503.249	5561.01
503.618	5701.35
503.987	5629.03
504.356	5677.85
504.724	5748.13
505.093	5783.6
505.462	5797.84
505.83	5844.17
506.199	5897.95
506.567	6012.07
506.936	5982.24
507.304	6049.13
507.672	6059.08
508.041	6103.14
508.409	6135.69
508.777	6230.15
509.145	6227.44
509.514	6213.2
509.882	6322.35
510.25	6286.87
510.618	6316.25
510.986	6397.83
511.354	6469.01
511.722	6530.25
512.09	6573.41
512.458	6605.5
512.826	6641.66
513.193	6654.09
513.561	6703.13
513.929	6811.15
514.297	6838.94
514.664	6920.75
515.032	6902.9
515.4	6925.04
515.767	6967.75
516.135	7079.16
516.502	7000.52
516.869	7165.49
517.237	7176.11
517.604	7132.04
517.972	7316.67
518.339	7319.16
518.706	7336.56
519.073	7394.86
519.44	7470.79
519.808	7572.71
520.175	7552.37
520.542	7635.76
520.909	7716.89
521.276	7738.13
521.643	7760.05
522.009	7830.56
522.376	7896.54
522.743	7931.57
523.11	7997.78
523.477	8036.88
523.843	8178.12
524.21	8259.47
524.577	8282.52
524.943	8359.13
525.31	8340.6
525.676	8463.31
526.043	8517.32
526.409	8611.33
526.776	8636.19
527.142	8710.53
527.508	8713.47
527.874	8813.81
528.241	8822.85
528.607	8917.99
528.973	8979.91
529.339	8998.44
529.705	8988.04
530.071	9160.01
530.437	9179
530.803	9258.99
531.169	9253.34
531.535	9334.47
531.901	9373.79
532.267	9363.17
532.632	9462.38
532.998	9514.35
533.364	9588.48
533.73	9523.17
534.095	9692.65
534.461	9703.5
534.826	9747.12
535.192	9736.72
535.557	9892.88
535.923	9818.75
536.288	9981.69
536.653	9923.84
537.019	10002.93
537.384	10081.57
537.749	10114.34
538.114	10086.99
538.479	10143.04
538.845	10178.29
539.21	10204.51
539.575	10248.57
539.94	10272.98
540.305	10324.95
540.67	10396.37
541.034	10391.85
541.399	10463.93
541.764	10457.15
542.129	10555.23
542.494	10527.66
542.858	10626.19
543.223	10598.17
543.587	10725.4
543.952	10701.67
544.316	10733.98
544.681	10698.96
545.045	10831.83
545.41	10944.6
545.774	10895.11
546.138	10965.84
546.503	10915.67
546.867	10929.46
547.231	10986.63
547.595	11081.32
547.959	11084.03
548.324	11188.43
548.688	11146.18
549.052	11165.61
549.416	11263.46
549.779	11273.86
550.143	11336.23
550.507	11401.08
550.871	11479.27
551.235	11405.15
551.599	11547.3
551.962	11512.72
552.326	11594.3
552.689	11703.22
553.053	11632.49
553.417	11754.07
553.78	11885.14
554.143	11820.28
554.507	11870.22
554.87	11883.78
555.234	12059.15
555.597	11961.3
555.96	12067.73
556.323	12126.72
556.686	12107.28
557.05	12217.56
557.413	12239.03
557.776	12339.14
558.139	12457.1
558.502	12486.93
558.865	12504.56
559.228	12563.31
559.59	12622.07
559.953	12666.59
560.316	12802.4
560.679	12872.68
561.041	12959.91
561.404	13052.79
561.767	13059.57
562.129	13000.36
562.492	13173.24
562.854	13185.44
563.217	13206.91
563.579	13222.73
563.941	13455.72
564.304	13444.19
564.666	13455.72
565.028	13546.34
565.39	13632.21
565.753	13722.38
566.115	13802.83
566.477	13835.6
566.839	13838.53
567.201	13902.26
567.563	13942.03
567.925	14092.31
568.287	14082.14
568.648	14226.09
569.01	14255.25
569.372	14339.76
569.734	14341.8
570.095	14439.87
570.457	14501.79
570.819	14616.59
571.18	14639.87
571.542	14708.79
571.903	14833.31
572.265	14855.46
572.626	14921.67
572.987	14984.04
573.349	15023.14
573.71	15105.85
574.071	15161.66
574.432	15241.44
574.794	15355.33
575.155	15309.68
575.516	15313.07
575.877	15400.3
576.238	15545.16
576.599	15569.34
576.96	15538.15
577.32	15632.84
577.681	15680.29
578.042	15739.73
578.403	15721.2
578.763	15767.52
579.124	15856.79
579.485	15965.94
579.845	16002.77
580.206	16064.01
580.566	16068.08
580.927	16159.15
581.287	16256.1
581.648	16226.49
582.008	16318.47
582.368	16330.67
582.728	16331.58
583.089	16391.46
583.449	16395.53
583.809	16426.26
584.169	16449.99
584.529	16515.07
584.889	16667.39
585.249	16513.72
585.609	16535.64
585.969	16709.87
586.329	16614.73
586.688	16733.37
587.048	16747.84
587.408	16646.82
587.768	16830.77
588.127	16807.72
588.487	16749.19
588.846	17014.95
589.206	16883.88
589.565	16830.32
589.925	17070.77
590.284	17050.2
590.643	17109.63
591.003	17094.27
591.362	17172.91
591.721	17079.81
592.08	17164.77
592.44	17251.1
592.799	17362.28
593.158	17216.98
593.517	17297.65
593.876	17411.77
594.235	17414.71
594.593	17389.4
594.952	17457.42
595.311	17392.34
595.67	17516.86
596.029	17654.25
596.387	17547.14
596.746	17602.73
597.104	17562.05
597.463	17648.83
597.822	17681.82
598.18	17658.55
598.538	17702.84
598.897	17855.6
599.255	17784.87
599.613	17977.18
599.972	17861.93
600.33	17918.88
600.688	17835.27
601.046	18000.01
601.404	18030.51
601.762	18056.05
602.12	18063.73
602.478	18050.4
602.836	18175.6
603.194	18057.41
603.552	18143.05
603.91	18045.66
604.268	18229.15
604.625	18093.34
604.983	18176.05
605.341	18124.07
605.698	18347.79
606.056	18403.16
606.413	18400.9
606.771	18313.22
607.128	18418.08
607.485	18402.93
607.843	18403.39
608.2	18631.4
608.557	18559.77
608.914	18447.45
609.272	18684.06
609.629	18645.41
609.986	18768.12
610.343	18669.59
610.7	18802.7
611.057	18849.02
611.414	18781.23
611.771	18800.89
612.127	18943.03
612.484	18841.79
612.841	18953.65
613.198	18879.08
613.554	18909.59
613.911	18968.57
614.267	19105.06
614.624	18989.81
614.98	18954.78
615.337	19099.64
615.693	19131.73
616.05	19120.2
616.406	19134.21
616.762	19206.3
617.118	19111.84
617.475	19180.09
617.831	19124.95
618.187	19257.6
618.543	19265.28
618.899	19412.17
619.255	19349.35
619.611	19353.42
619.967	19415.79
620.323	19414.88
620.678	19417.14
621.034	19363.59
621.39	19391.83
621.746	19327.2
622.101	19570.36
622.457	19355.45
622.812	19509.57
623.168	19431.16
623.523	19548.67
623.879	19550.47
624.234	19496.01
624.589	19461.89
624.945	19492.85
625.3	19541.21
625.655	19574.43
626.01	19592.28
626.365	19633.41
626.72	19526.75
627.075	19687.42
627.43	19555.9
627.785	19635.9
628.14	19562.23
628.495	19580.3
628.85	19523.13
629.205	19444.71
629.559	19634.09
629.914	19548.44
630.269	19537.59
630.623	19583.24
630.978	19502.57
631.332	19487.88
631.687	19512.28
632.041	19515.9
632.396	19467.76
632.75	19392.51
633.104	19427.09
633.459	19377.37
633.813	19347.54
634.167	19340.31
634.521	19401.55
634.875	19351.38
635.229	19449.01
635.583	19227.09
635.937	19284.72
636.291	19267.54
636.645	19357.71
636.999	19313.64
637.352	19284.72
637.706	19314.55
638.06	19288.11
638.413	19237.04
638.767	19110.94
639.121	19211.5
639.474	19064.61
639.828	19021
640.181	19109.13
640.534	19116.59
640.888	19025.06
641.241	18967.44
641.594	18993.43
641.947	19063.71
642.301	18912.07
642.654	18987.1
643.007	18891.28
643.36	18989.59
643.713	18953.2
644.066	18955.46
644.419	18847.67
644.771	18834.11
645.124	18689.93
645.477	18639.54
645.83	18536.04
646.182	18536.04
646.535	18377.4
646.888	18359.32
647.24	18253.56
647.593	18399.32
647.945	18229.15
648.298	18136.73
648.65	18199.1
649.002	18095.37
649.355	18295.59
649.707	18186.67
650.059	18240
650.411	18620.33
650.763	18549.15
651.115	18701.46
651.467	18626.66
651.819	18666.43
652.171	18610.39
652.523	18606.09
652.875	18592.08
653.227	18478.19
653.578	18643.15
653.93	18607.9
654.282	18577.39
654.633	18468.02
654.985	18515.93
655.337	18465.08
655.688	18496.94
656.039	18582.14
656.391	18427.79
656.742	18558.41
657.094	18529.26
657.445	18465.98
657.796	18491.97
658.147	18366.1
658.498	18478.41
658.849	18535.81
659.2	18474.34
659.551	18484.06
659.902	18518.41
660.253	18429.83
660.604	18475.93
660.955	18377.85
661.306	18496.04
661.656	18413.78
662.007	18495.36
662.358	18365.65
662.708	18385.99
663.059	18364.29
663.409	18323.39
663.76	18518.86
664.11	18392.31
664.461	18483.38
664.811	18457.17
665.161	18420.79
665.511	18443.16
665.862	18448.13
666.212	18484.97
666.562	18485.19
666.912	18511.18
667.262	18458.75
667.612	18393.22
667.962	18396.83
668.312	18307.57
668.662	18483.38
669.011	18432.99
669.361	18378.3
669.711	18418.75
670.06	18448.36
670.41	18499.43
670.76	18350.05
671.109	18368.36
671.459	18267.34
671.808	18270.96
672.157	18411.52
672.507	18355.7
672.856	18331.98
673.205	18335.59
673.554	18479.77
673.904	18372.65
674.253	18517.73
674.602	18306.89
674.951	18119.55
675.3	18020.35
675.649	18285.88
675.998	18258.53
676.346	18314.57
676.695	18345.99
677.044	18179.89
677.393	18302.15
677.741	18337.85
678.09	18237.06
678.438	18145.77
678.787	18203.62
679.135	18250.4
679.484	18184.63
679.832	18178.53
680.181	18046.56
680.529	18187.35
680.877	18096.95
681.225	18128.82
681.573	18288.59
681.922	18060.34
682.27	18031.64
682.618	18054.47
682.966	17932.66
683.314	17985.09
683.661	17925.43
684.009	17825.77
684.357	17889.95
684.705	17875.94
685.053	17840.01
685.4	17806.79
685.748	17757.3
686.095	17735.38
686.443	17669.39
686.79	17650.64
687.138	17738.54
687.485	17620.36
687.832	17583.52
688.18	17685.66
688.527	17594.14
688.874	17594.82
689.221	17514.82
689.568	17431.21
689.915	17461.49
690.262	17517.53
690.609	17319.8
690.956	17284.77
691.303	17338.78
691.65	17222.63
691.997	17245.68
692.344	17176.07
692.69	17083.87
693.037	17190.31
693.383	16963.65
693.73	17187.37
694.077	16887.95
694.423	16987.38
694.769	16906.93
695.116	16826.7
695.462	16862.41
695.808	16854.05
696.155	16814.73
696.501	16593.72
696.847	16739.25
697.193	16620.61
697.539	16652.02
697.885	16484.79
698.231	16422.2
698.577	16477.56
698.923	16452.93
699.269	16435.08
699.614	16316.89
699.96	16301.29
700.306	16221.75
700.651	16270.79
700.997	16123.67
701.342	16157.57
701.688	16156.21
702.033	16024.47
702.379	16028.99
702.724	16072.83
703.069	16073.73
703.415	15881.42
703.76	15900.18
704.105	15938.14
704.45	15803.23
704.795	15739.28
705.14	15710.58
705.485	15730.01
705.83	15622.89
706.175	15659.5
706.52	15642.1
706.865	15557.13
707.209	15541.31
707.554	15528.21
707.899	15572.27
708.243	15345.84
708.588	15433.07
708.932	15287.08
709.277	15213.19
709.621	15351.04
709.966	15174.77
710.31	15235.33
710.654	15133.87
710.998	15054.1
711.342	15138.84
711.687	15104.04
712.031	15054.32
712.375	15010.93
712.719	15063.59
713.063	15037.15
713.407	15155.79
713.75	14893.42
714.094	15063.59
714.438	15008
714.782	14940.65
715.125	14930.03
715.469	14928.45
715.812	14844.38
716.156	14744.5
716.499	14744.27
716.843	14793.76
717.186	14717.83
717.53	14682.13
717.873	14785.4
718.216	14688
718.559	14589.7
718.902	14492.75
719.246	14529.14
719.589	14545.18
719.932	14495.24
720.275	14548.8
720.617	14459.99
720.96	14476.94
721.303	14496.37
721.646	14469.25
721.989	14381.35
722.331	14461.57
722.674	14346.32
723.016	14414.79
723.359	14430.61
723.701	14458.86
724.044	14298.86
724.386	14282.82
724.729	14379.99
725.071	14376.15
725.413	14288.92
725.755	14338.41
726.097	14272.2
726.439	14194.01
726.782	14293.89
727.124	14297.05
727.465	14287.56
727.807	14197.62
728.149	14115.82
728.491	14114.91
728.833	14204.17
729.175	14110.39
729.516	14153.78
729.858	14084.86
730.199	14173.44
730.541	14078.53
730.882	14092.77
731.224	14083.5
731.565	13982.49
731.906	14044.63
732.248	14063.39
732.589	14017.06
732.93	13968.02
733.271	13973.67
733.612	14029.26
733.953	14003.05
734.294	13901.13
734.635	13878.31
734.976	14022.03
735.317	13924.41
735.658	13933.45
735.999	13963.73
736.339	13845.54
736.68	13955.59
737.021	13865.2
737.361	13909.04
737.702	13913.79
738.042	13877.18
738.383	13845.09
738.723	13866.56
739.063	13798.54
739.404	13801.25
739.744	13769.16
740.084	13773.23
740.424	13764.19
740.764	13742.94
741.104	13745.88
741.444	13756.05
741.784	13706.33
742.124	13694.81
742.464	13714.7
742.804	13737.52
743.143	13730.97
743.483	13714.24
743.823	13714.47
744.162	13639.22
744.502	13693.91
744.841	13665.21
745.181	13662.49
745.52	13617.75
745.86	13605.09
746.199	13587.47
746.538	13564.64
746.877	13554.25
747.216	13588.82
747.556	13566.45
747.895	13559.67
748.234	13589.05
748.573	13516.96
748.911	13521.25
749.25	13474.7
749.589	13480.58
749.928	13450.97
750.267	13462.05
750.605	13552.44
750.944	13535.27
751.283	13449.39
751.621	13403.29
751.96	13377.98
752.298	13349.96
752.636	13314.48
752.975	13387.7
753.313	13313.8
753.651	13343.18
753.989	13167.14
754.327	13244.43
754.666	13256.85
755.004	13243.3
755.342	13264.54
755.679	13193.35
756.017	13076.29
756.355	13237.87
756.693	13117.2
757.031	13103.86
