Data from tablewood_brown_FLMS001491_098.txt Node
Date: Tue Feb 07 11:11:18 GMT 2017
User: dcchb
Spectrometer: FLMS00149
Trigger mode: 0
Integration Time (sec): 2.000000E-2
Scans to average: 10
Electric dark correction enabled: true
Nonlinearity correction enabled: false
Boxcar width: 0
XAxis mode: Wavelengths
Number of Pixels in Spectrum: 2048
>>>>>Begin Spectral Data<<<<<
341.393	-19.36
341.776	-19.36
342.16	-19.36
342.543	-55.3
342.927	-54.84
343.31	-70.21
343.693	-76.09
344.077	-53.94
344.46	-74.73
344.843	-59.59
345.226	-47.61
345.61	-18.91
345.993	-20.04
346.376	-4.9
346.759	18.6
347.142	28.32
347.525	30.58
347.908	60.86
348.291	67.19
348.674	101.99
349.057	118.49
349.44	112.38
349.823	136.56
350.206	172.72
350.588	200.29
350.971	193.06
351.354	239.16
351.737	242.55
352.119	256.56
352.502	278.26
352.884	271.48
353.267	293.85
353.65	301.31
354.032	312.83
354.414	319.61
354.797	324.13
355.179	329.33
355.562	315.32
355.944	326.84
356.326	321.87
356.709	331.59
357.091	330.68
357.473	357.12
357.855	343.34
358.238	334.98
358.62	330.68
359.002	341.76
359.384	351.47
359.766	350.57
360.148	353.06
360.53	348.08
360.912	325.49
361.294	340.17
361.676	342.66
362.057	329.33
362.439	336.33
362.821	337.91
363.203	339.04
363.584	345.37
363.966	343.56
364.348	352.38
364.729	354.41
365.111	359.16
365.493	330.91
365.874	343.34
366.256	332.49
366.637	325.03
367.019	327.29
367.4	345.82
367.781	312.83
368.163	325.26
368.544	318.03
368.925	352.15
369.306	346.28
369.688	314.19
370.069	327.52
370.45	321.42
370.831	342.21
371.212	315.09
371.593	358.03
371.974	342.43
372.355	319.61
372.736	337.69
373.117	317.58
373.498	339.95
373.879	339.5
374.26	334.53
374.641	316.22
375.021	333.4
375.402	337.24
375.783	337.24
376.163	337.46
376.544	366.61
376.925	345.37
377.305	361.87
377.686	352.6
378.066	358.03
378.447	349.89
378.827	340.17
379.208	377.24
379.588	349.89
379.968	364.58
380.349	367.07
380.729	353.73
381.109	376.78
381.489	376.78
381.87	368.2
382.25	393.96
382.63	370.68
383.01	370.68
383.39	371.13
383.77	370.91
384.15	382.89
384.53	373.17
384.91	392.6
385.29	397.12
385.67	383.11
386.049	386.73
386.429	391.7
386.809	394.64
387.189	398.25
387.568	391.47
387.948	398.48
388.328	424.69
388.707	377.91
389.087	420.4
389.466	418.82
389.846	433.51
390.225	428.76
390.605	419.72
390.984	415.43
391.363	432.6
391.743	442.09
392.122	443.45
392.501	430.12
392.881	438.03
393.26	437.8
393.639	450.23
394.018	468.08
394.397	435.54
394.776	450
395.155	448.87
395.534	473.73
395.913	466.5
396.292	491.36
396.671	466.05
397.05	472.6
397.429	474.18
397.808	478.02
398.186	472.6
398.565	484.13
398.944	480.74
399.323	489.78
399.701	508.08
400.08	490.91
400.458	497.91
400.837	515.31
401.215	490.68
401.594	525.25
401.972	509.44
402.351	524.8
402.729	529.1
403.107	517.12
403.486	547.4
403.864	533.39
404.242	541.98
404.62	549.43
404.999	554.86
405.377	533.39
405.755	561.19
406.133	562.32
406.511	546.27
406.889	574.29
407.267	580.62
407.645	573.39
408.023	589.66
408.401	605.7
408.779	604.57
409.156	599.15
409.534	607.96
409.912	619.26
410.29	628.53
410.667	626.95
411.045	616.1
411.422	635.76
411.8	647.06
412.178	648.19
412.555	642.09
412.933	667.17
413.31	658.58
413.687	669.21
414.065	674.63
414.442	692.48
414.819	680.28
415.197	716.21
415.574	712.82
415.951	713.05
416.328	708.98
416.705	720.05
417.082	724.35
417.46	736.55
417.837	737.9
418.214	739.94
418.591	727.06
418.967	751.46
419.344	773.16
419.721	753.27
420.098	765.25
420.475	759.6
420.852	793.04
421.228	805.02
421.605	789.43
421.982	792.59
422.358	787.39
422.735	810.67
423.111	811.8
423.488	832.82
423.864	808.86
424.241	856.55
424.617	839.6
424.994	831.91
425.37	854.51
425.746	857.22
426.123	874.17
426.499	869.2
426.875	884.34
427.251	915.07
427.627	897.22
428.003	907.39
428.379	939.71
428.756	937.22
429.132	964.79
429.507	975.64
429.883	958.92
430.259	967.5
430.635	951.23
431.011	986.03
431.387	1013.83
431.763	1018.35
432.138	1011.34
432.514	1030.33
432.89	1031.68
433.265	1066.03
433.641	1088.86
434.016	1059.7
434.392	1070.32
434.767	1082.53
435.143	1093.15
435.518	1128.18
435.894	1151.45
436.269	1132.47
436.644	1174.73
437.02	1163.43
437.395	1158.23
437.77	1179.7
438.145	1218.8
438.52	1228.29
438.895	1222.41
439.271	1207.04
439.646	1267.38
440.021	1281.39
440.395	1276.65
440.77	1248.4
441.145	1289.98
441.52	1301.51
441.895	1308.96
442.27	1330.43
442.645	1311.67
443.019	1337.21
443.394	1347.61
443.769	1349.41
444.143	1365.46
444.518	1352.13
444.892	1359.81
445.267	1373.59
445.641	1386.93
446.016	1414.5
446.39	1415.63
446.764	1432.58
447.139	1415.17
447.513	1415.85
447.887	1447.26
448.262	1444.1
448.636	1458.34
449.01	1481.39
449.384	1486.36
449.758	1482.74
450.132	1495.4
450.506	1484.33
450.88	1529.07
451.254	1542.63
451.628	1551.44
452.002	1550.76
452.376	1575.62
452.75	1598.9
453.123	1612.91
453.497	1611.55
453.871	1641.38
454.244	1641.84
454.618	1654.04
454.992	1698.33
455.365	1680.93
455.739	1710.31
456.112	1757.31
456.486	1753.02
456.859	1767.03
457.232	1817.42
457.606	1773.58
457.979	1812.68
458.352	1868.72
458.725	1861.72
459.099	1934.48
459.472	1934.03
459.845	1922.73
460.218	1939.23
460.591	2008.83
460.964	1999.34
461.337	2041.15
461.71	2063.75
462.083	2095.61
462.456	2089.28
462.829	2075.27
463.201	2152.1
463.574	2149.17
463.947	2191.65
464.32	2257.19
464.692	2248.6
465.065	2265.77
465.438	2303.51
465.81	2304.64
466.183	2373.12
466.555	2416.73
466.928	2416.96
467.3	2442.49
467.672	2442.94
468.045	2549.83
468.417	2552.77
468.789	2583.51
469.161	2663.5
469.534	2690.17
469.906	2690.17
470.278	2716.16
470.65	2809.94
471.022	2788.7
471.394	2884.74
471.766	2915.25
472.138	2918.86
472.51	3024.17
472.882	3087.22
473.253	3113.44
473.625	3129.48
473.997	3267.1
474.369	3267.33
474.74	3326.08
475.112	3398.85
475.484	3434.1
475.855	3482.24
476.227	3524.72
476.598	3654.44
476.97	3715.91
477.341	3798.84
477.713	3865.05
478.084	3865.51
478.455	4003.58
478.827	4080.64
479.198	4174.65
479.569	4196.34
479.94	4315.66
480.311	4374.42
480.682	4441.08
481.053	4620.06
481.424	4653.96
481.795	4764.47
482.166	4763.56
482.537	4840.17
482.908	4992.71
483.279	5029.54
483.65	5099.37
484.021	5245.13
484.391	5292.13
484.762	5351.34
485.133	5453.71
485.503	5514.05
485.874	5660.26
486.244	5719.02
486.615	5772.35
486.985	5921.5
487.356	6034.94
487.726	6021.16
488.097	6222.51
488.467	6269.06
488.837	6384.54
489.207	6383.18
489.578	6482.16
489.948	6612.78
490.318	6723.96
490.688	6772.1
491.058	6822.26
491.428	6926.44
491.798	7001.92
492.168	7156.94
492.538	7222.25
492.908	7264.51
493.278	7376.6
493.648	7404.85
494.017	7512.19
494.387	7517.39
494.757	7652.75
495.126	7739.75
495.496	7858.62
495.866	7832.18
496.235	7994.66
496.605	7956.7
496.974	8037.6
497.344	8118.28
497.713	8253.41
498.082	8291.6
498.452	8364.37
498.821	8412.05
499.19	8458.15
499.559	8505.38
499.928	8571.14
500.298	8643.91
500.667	8727.52
501.036	8743.57
501.405	8873.28
501.774	8898.14
502.143	8975.43
502.512	8966.61
502.88	9111.7
503.249	9127.51
503.618	9261.52
503.987	9221.3
504.356	9367.73
504.724	9449.54
505.093	9420.39
505.462	9532.02
505.83	9574.51
506.199	9591
506.567	9769.76
506.936	9778.57
507.304	9968.17
507.672	9974.27
508.041	10003.2
508.409	10137.43
508.777	10135.4
509.145	10284.09
509.514	10335.17
509.882	10440.47
510.25	10445.22
510.618	10616.74
510.986	10605.44
511.354	10737.87
511.722	10771.76
512.09	10894.7
512.458	10908.71
512.826	10978.99
513.193	11081.36
513.561	11181.7
513.929	11309.6
514.297	11455.59
514.664	11522.71
515.032	11544.63
515.4	11675.24
515.767	11699.65
516.135	11759.99
516.502	11840.66
516.869	12030.49
517.237	12082.46
517.604	12040.43
517.972	12212.86
518.339	12327.88
518.706	12409.46
519.073	12460.53
519.44	12658.27
519.808	12702.34
520.175	12687.42
520.542	12905.27
520.909	13018.03
521.276	13126.73
521.643	13176
522.009	13318.59
522.376	13351.81
522.743	13497.57
523.11	13566.04
523.477	13730.11
523.843	13806.71
524.21	14062.98
524.577	14117.89
524.943	14145.91
525.31	14266.81
525.676	14467.26
526.043	14518.56
526.409	14565.79
526.776	14820.47
527.142	14755.16
527.508	14888.49
527.874	15120.35
528.241	15170.52
528.607	15232.66
528.973	15345.66
529.339	15389.72
529.705	15599.89
530.071	15708.81
530.437	15757.62
530.803	15877.62
531.169	16025.41
531.535	16057.73
531.901	15975.02
532.267	16114.45
532.632	16296.37
532.998	16341.34
533.364	16372.75
533.73	16607.77
534.095	16685.73
534.461	16661.78
534.826	16805.5
535.192	16909.46
535.557	17036.23
535.923	17054.09
536.288	17091.37
536.653	17195.1
537.019	17121.88
537.384	17297.92
537.749	17312.16
538.114	17351.48
538.479	17383.79
538.845	17671.02
539.21	17613.62
539.575	17631.02
539.94	17649.32
540.305	17854.29
540.67	17846.61
541.034	17962.08
541.399	18014.51
541.764	18031.01
542.129	18125.47
542.494	18168.63
542.858	18339.48
543.223	18317.56
543.587	18384.67
543.952	18487.49
544.316	18427.61
544.681	18440.72
545.045	18657.43
545.41	18797.54
545.774	18792.12
546.138	18875.28
546.503	18820.14
546.867	18904.21
547.231	19136.97
547.595	19160.02
547.959	19195.72
548.324	19218.1
548.688	19271.65
549.052	19455.15
549.416	19527.69
549.779	19568.14
550.143	19647.01
550.507	19851.53
550.871	19787.12
551.235	19815.37
551.599	20117.73
551.962	20181.69
552.326	20191.63
552.689	20263.27
553.053	20290.38
553.417	20475.46
553.78	20685.18
554.143	20674.1
554.507	20908.22
554.87	20820.09
555.234	21221.43
555.597	21153.19
555.96	21228.21
556.323	21424.14
556.686	21523.35
557.05	21670.24
557.413	21783.23
557.776	21894.86
558.139	22069.55
558.502	22102.54
558.865	22241.29
559.228	22472.7
559.59	22572.36
559.953	22642.41
560.316	22946.81
560.679	23014.83
561.041	23267.26
561.404	23304.09
561.767	23529.85
562.129	23629.96
562.492	23938.88
562.854	23935.26
563.217	23982.04
563.579	24292.54
563.941	24274.01
564.304	24452.31
564.666	24717.84
565.028	24777.95
565.39	24963.93
565.753	25175.23
566.115	25287.99
566.477	25441.66
566.839	25685.72
567.201	25939.5
567.563	26002.1
567.925	26216.78
568.287	26230.12
568.648	26527.96
569.01	26788.97
569.372	27037.55
569.734	26966.59
570.095	27152.8
570.457	27374.27
570.819	27618.55
571.18	27679.57
571.542	27868.72
571.903	28068.94
572.265	28195.49
572.626	28425.76
572.987	28512.54
573.349	28784.62
573.71	28935.13
574.071	29017.61
574.432	29219.42
574.794	29564.04
575.155	29511.61
575.516	29655.56
575.877	29792.06
576.238	29806.07
576.599	30154.76
576.96	30338.48
577.32	30394.75
577.681	30538.02
578.042	30765.14
578.403	30825.7
578.763	30944.79
579.124	31154.96
579.485	31236.99
579.845	31464.55
580.206	31463.2
580.566	31475.85
580.927	31592.01
581.287	31799.91
581.648	31803.75
582.008	31953.13
582.368	31820.93
582.728	32055.72
583.089	32081.26
583.449	32173.46
583.809	32365.32
584.169	32347.24
584.529	32417.3
584.889	32646.67
585.249	32445.77
585.609	32521.93
585.969	32691.87
586.329	32631.98
586.688	32891.18
587.048	32656.84
587.408	32848.25
587.768	32868.58
588.127	32828.81
588.487	32843.95
588.846	33159.65
589.206	32977.51
589.565	33166.2
589.925	33160.1
590.284	33271.96
590.643	33343.83
591.003	33378.63
591.362	33329.14
591.721	33434.45
592.08	33565.74
592.44	33595.12
592.799	33676.47
593.158	33408.68
593.517	33567.55
593.876	33576.81
594.235	33661.78
594.593	33579.98
594.952	33692.29
595.311	33560.77
595.67	33698.39
596.029	33939.07
596.387	33941.33
596.746	34053.19
597.104	33823.14
597.463	33838.05
597.822	34067.2
598.18	33793.98
598.538	33789.69
598.897	34100.87
599.255	33825.17
599.613	34328.66
599.972	34004.37
600.33	34166.4
600.688	33995.56
601.046	34226.52
601.404	34378.15
601.762	34214.76
602.12	34505.6
602.478	34532.5
602.836	34298.83
603.194	34240.07
603.552	34356.46
603.91	34209.11
604.268	34374.53
604.625	34319.85
604.983	34503.57
605.341	34319.17
605.698	34568.88
606.056	34598.03
606.413	34496.56
606.771	34720.06
607.128	34719.84
607.485	34564.13
607.843	34745.82
608.2	34876.22
608.557	34939.04
608.914	34869.66
609.272	35045.93
609.629	35113.05
609.986	34966.38
610.343	34967.74
610.7	35207.96
611.057	35140.39
611.414	35150.33
611.771	35094.74
612.127	35216.77
612.484	35292.02
612.841	35350.55
613.198	35370.44
613.554	35334.51
613.911	35395.98
614.267	35606.37
614.624	35361.85
614.98	35449.53
615.337	35693.14
615.693	35683.43
616.05	35811.33
616.406	35847.72
616.762	35800.94
617.118	35826.02
617.475	35678
617.831	35847.94
618.187	35874.61
618.543	35858.34
618.899	36086.13
619.255	35883.19
619.611	35890.65
619.967	36174.26
620.323	36145.56
620.678	36050.42
621.034	35882.29
621.39	35963.19
621.746	35883.87
622.101	36336.52
622.457	35920.93
622.812	36095.84
623.168	36102.85
623.523	36056.52
623.879	36366.12
624.234	36000.71
624.589	36185.11
624.945	36164.09
625.3	36339.45
625.655	36229.4
626.01	36207.93
626.365	36262.39
626.72	36215.84
627.075	36143.08
627.43	36194.37
627.785	36150.31
628.14	36309.17
628.495	36185.33
628.85	36119.57
629.205	35968.84
629.559	36183.53
629.914	36002.51
630.269	36019.46
630.623	35947.37
630.978	35875.51
631.332	36013.36
631.687	36108.73
632.041	35934.72
632.396	36070.08
632.75	35830.77
633.104	35973.36
633.459	35735.4
633.813	35696.53
634.167	35732.92
634.521	35655.4
634.875	35816.08
635.229	35635.29
635.583	35505.8
635.937	35553.94
636.291	35474.17
636.645	35495.86
636.999	35336.32
637.352	35515.75
637.706	35299.71
638.06	35489.98
638.413	35366.82
638.767	35246.83
639.121	35248.86
639.474	35131.12
639.828	35244.57
640.181	35232.59
640.534	35364.79
640.888	35028.75
641.241	34845.26
641.594	35058.36
641.947	35287.05
642.301	34950.34
642.654	34979.49
643.007	34900.17
643.36	35017.68
643.713	34875.76
644.066	34941.98
644.419	34646.62
644.771	34561.42
645.124	34163.01
645.477	34330.24
645.83	33971.83
646.182	33763.7
646.535	33648.23
646.888	33714.44
647.24	33636.25
647.593	33769.8
647.945	33763.93
648.298	33542.01
648.65	33366.88
649.002	33320.1
649.355	33533.43
649.707	33574.33
650.059	33705.4
650.411	34143.35
650.763	34204.14
651.115	34541.31
651.467	34445.72
651.819	34358.04
652.171	34224.48
652.523	34153.75
652.875	34118.5
653.227	34065.39
653.578	34278.04
653.93	34159.62
654.282	34158.95
654.633	33848.22
654.985	34190.58
655.337	34093.86
655.688	34010.48
656.039	34104.48
656.391	33848.22
656.742	34011.15
657.094	33944.26
657.445	34072.62
657.796	33930.93
658.147	33840.54
658.498	33804.83
658.849	33884.83
659.2	33915.79
659.551	33869.91
659.902	34014.77
660.253	33918.05
660.604	34050.02
660.955	33807.77
661.306	33975.45
661.656	33765.28
662.007	33939.29
662.358	33963.25
662.708	33883.02
663.059	33745.85
663.409	33652.29
663.76	33917.37
664.11	33862.68
664.461	33993.75
664.811	33802.57
665.161	33727.09
665.511	33872.63
665.862	33772.29
666.212	33812.97
666.562	33864.72
666.912	33859.97
667.262	33742.69
667.612	33760.09
667.962	33983.58
668.312	33732.07
668.662	33898.16
669.011	33746.3
669.361	33752.63
669.711	33774.78
670.06	33590.37
670.41	33573.43
670.76	33681.67
671.109	33778.84
671.459	33537.04
671.808	33511.96
672.157	33756.02
672.507	33325.52
672.856	33405.07
673.205	33477.38
673.554	33477.38
673.904	33412.3
674.253	33352.87
674.602	33586.76
674.951	33031.97
675.3	32766.21
675.649	33336.14
675.998	33265.64
676.346	33316.26
676.695	33264.51
677.044	33009.82
677.393	33217.5
677.741	33203.49
678.09	33047.79
678.438	33053.44
678.787	33196.26
679.135	33078.97
679.484	32866.1
679.832	33075.81
680.181	32888.02
680.529	32900.45
680.877	32784.75
681.225	32758.31
681.573	33013.67
681.922	32609.83
682.27	32714.46
682.618	32685.31
682.966	32490.29
683.314	32535.71
683.661	32384.98
684.009	32382.72
684.357	32333.23
684.705	32253.46
685.053	32183.63
685.4	32115.16
685.748	31914.49
686.095	31924.43
686.443	31810.53
686.79	31760.37
687.138	31871.32
687.485	31758.33
687.832	31595.62
688.18	31671.78
688.527	31451.67
688.874	31560.14
689.221	31275.63
689.568	31177.78
689.915	31089.2
690.262	31157.22
690.609	31132.81
690.956	31021.18
691.303	30996.77
691.65	30714.07
691.997	30699.6
692.344	30714.52
692.69	30515.88
693.037	30533.96
693.383	30283.34
693.73	30364.47
694.077	30154.98
694.423	30089
694.769	30058.94
695.116	30025.04
695.462	29949.11
695.808	29847.87
696.155	29863.69
696.501	29629.57
696.847	29679.29
697.193	29326.98
697.539	29429.58
697.885	29218.51
698.231	29136.48
698.577	29093.09
698.923	29084.73
699.269	28938.52
699.614	28814.23
699.96	28699.88
700.306	28671.86
700.651	28567.46
700.997	28449.27
701.342	28396.39
701.688	28486.1
702.033	28276.16
702.379	28171.76
702.724	28080.69
703.069	28195.94
703.415	27920.92
703.76	27855.38
704.105	27816.51
704.45	27755.05
704.795	27606.58
705.14	27465.11
705.485	27526.58
705.83	27204.33
706.175	27329.07
706.52	27159.81
706.865	26925.69
707.209	27028.74
707.554	26955.75
707.899	27045.91
708.243	26838.01
708.588	26852.7
708.932	26614.96
709.277	26635.53
709.621	26529.32
709.966	26481.86
710.31	26562.76
710.654	26328.42
710.998	26280.28
711.342	26332.49
711.687	26234.86
712.031	26070.12
712.375	25996.68
712.719	26068.99
713.063	25959.61
713.407	25980.63
713.75	25883.46
714.094	25940.18
714.438	25890.46
714.782	25871.03
715.125	25756.68
715.469	25725.72
715.812	25585.61
716.156	25544.03
716.499	25485.05
716.843	25473.98
717.186	25283.47
717.53	25531.6
717.873	25426.97
718.216	25404.6
718.559	25267.88
718.902	25068.79
719.246	25379.52
719.589	25170.26
719.932	25039.64
720.275	25122.8
720.617	25032.18
720.96	24924.61
721.303	24941.79
721.646	24877.83
721.989	24917.83
722.331	24986.08
722.674	24888.23
723.016	24832.86
723.359	24920.09
723.701	24888
724.044	24737.95
724.386	24545.19
724.729	24731.17
725.071	24702.02
725.413	24640.1
725.755	24658.18
726.097	24615.92
726.439	24406.66
726.782	24382.71
727.124	24471.07
727.465	24410.28
727.807	24466.09
728.149	24447.79
728.491	24346.1
728.833	24389.03
729.175	24303.61
729.516	24303.84
729.858	24230.62
730.199	24324.63
730.541	24269.94
730.882	24241.47
731.224	24344.29
731.565	24068.36
731.906	24238.98
732.248	24254.12
732.589	24067.69
732.93	24123.5
733.271	24126.89
733.612	24223.16
733.953	24108.82
734.294	24075.37
734.635	24013.45
734.976	24165.08
735.317	23996.73
735.658	24090.28
735.999	24081.02
736.339	24048.7
736.68	24061.13
737.021	24118.31
737.361	24019.33
737.702	24057.29
738.042	23945.43
738.383	23995.6
738.723	23977.29
739.063	24009.16
739.404	23947.92
739.744	23940.68
740.084	23758.99
740.424	23857.52
740.764	23809.61
741.104	23977.07
741.444	23937.52
741.784	23813
742.124	23765.55
742.464	23903.17
742.804	23821.59
743.143	23820.24
743.483	23817.52
743.823	23722.16
744.162	23681.71
744.502	23779.78
744.841	23762.38
745.181	23759.9
745.52	23669.96
745.86	23763.06
746.199	23856.39
746.538	23698.66
746.877	23751.31
747.216	23817.98
747.556	23791.99
747.895	23736.17
748.234	23610.98
748.573	23567.36
748.911	23638.09
749.25	23526.23
749.589	23580.69
749.928	23613.69
750.267	23587.92
750.605	23591.54
750.944	23435.84
751.283	23451.43
751.621	23547.02
751.96	23410.08
752.298	23395.84
752.636	23460.47
752.975	23441.04
753.313	23206.69
753.651	23435.39
753.989	23260.02
754.327	23202.4
754.666	23187.03
755.004	23160.14
