Data from tablewood_dark_bookshelf_FLMS001491_00058.txt Node
Date: Wed Feb 08 14:15:05 GMT 2017
User: dcchb
Spectrometer: FLMS00149
Trigger mode: 0
Integration Time (sec): 2.000000E-2
Scans to average: 10
Electric dark correction enabled: true
Nonlinearity correction enabled: false
Boxcar width: 0
XAxis mode: Wavelengths
Number of Pixels in Spectrum: 2048
>>>>>Begin Spectral Data<<<<<
341.393	-23.22
341.776	-23.22
342.16	-23.22
342.543	-80.39
342.927	-87.85
343.31	-75.87
343.693	-70.9
344.077	-62.54
344.46	-57.8
344.843	-56.67
345.226	-44.91
345.61	-38.36
345.993	-30.68
346.376	-3.11
346.759	8.19
347.142	26.04
347.525	45.93
347.908	66.5
348.291	91.13
348.674	97.23
349.057	105.82
349.44	109.21
349.823	105.14
350.206	158.24
350.588	157.34
350.971	206.38
351.354	220.84
351.737	216.1
352.119	252.71
352.502	240.95
352.884	258.13
353.267	282.76
353.65	284.34
354.032	291.12
354.414	294.51
354.797	304.46
355.179	320.05
355.562	311.69
355.944	307.62
356.326	316.88
356.709	317.34
357.091	316.66
357.473	336.77
357.855	315.53
358.238	323.89
358.62	332.25
359.002	340.61
359.384	321.4
359.766	332.03
360.148	303.33
360.53	311.23
360.912	327.96
361.294	321.86
361.676	334.74
362.057	313.27
362.439	321.4
362.821	336.32
363.203	316.66
363.584	311.91
363.966	305.59
364.348	316.88
364.729	297.45
365.111	318.47
365.493	320.95
365.874	318.24
366.256	314.17
366.637	315.98
367.019	329.99
367.4	324.34
367.781	315.3
368.163	296.77
368.544	298.58
368.925	321.18
369.306	302.87
369.688	324.12
370.069	323.21
370.45	275.53
370.831	331.35
371.212	297.22
371.593	321.18
371.974	314.62
372.355	313.27
372.736	302.65
373.117	316.88
373.498	327.51
373.879	322.76
374.26	292.48
374.641	320.73
375.021	304.68
375.402	313.27
375.783	317.56
376.163	317.11
376.544	341.97
376.925	318.24
377.305	346.71
377.686	337
378.066	345.58
378.447	340.61
378.827	338.35
379.208	345.81
379.588	351.46
379.968	336.32
380.349	334.96
380.729	340.61
381.109	354.4
381.489	343.1
381.87	355.08
382.25	352.36
382.63	345.81
383.01	350.33
383.39	339.03
383.77	391.01
384.15	356.66
384.53	369.99
384.91	384.45
385.29	369.99
385.67	361.85
386.049	370.22
386.429	379.93
386.809	377.67
387.189	363.44
387.568	374.51
387.948	379.71
388.328	387.62
388.707	382.42
389.087	379.26
389.466	375.19
389.846	392.36
390.225	389.65
390.605	400.72
390.984	390.55
391.363	379.48
391.743	389.88
392.122	410.89
392.501	380.16
392.881	395.75
393.26	393.94
393.639	405.7
394.018	402.31
394.397	423.32
394.776	401.85
395.155	419.93
395.534	419.03
395.913	409.99
396.292	403.44
396.671	418.8
397.05	416.09
397.429	428.97
397.808	407.05
398.186	428.97
398.565	426.71
398.944	433.72
399.323	443.43
399.701	454.51
400.08	442.08
400.458	463.32
400.837	434.17
401.215	437.56
401.594	455.86
401.972	455.86
402.351	455.41
402.729	466.48
403.107	441.85
403.486	454.73
403.864	479.82
404.242	467.39
404.62	478.01
404.999	505.13
405.377	472.59
405.755	487.05
406.133	493.15
406.511	478.46
406.889	482.76
407.267	501.29
407.645	508.97
408.023	510.55
408.401	527.27
408.779	495.41
409.156	525.24
409.534	531.57
409.912	512.81
410.29	562.75
410.667	522.3
411.045	564.79
411.422	535.18
411.8	526.82
412.178	553.49
412.555	566.14
412.933	548.97
413.31	576.76
413.687	560.27
414.065	584
414.442	573.83
414.819	588.97
415.197	603.66
415.574	566.37
415.951	599.14
416.328	607.72
416.705	626.25
417.082	608.85
417.46	622.64
417.837	620.83
418.214	616.31
418.591	626.48
418.967	626.71
419.344	628.74
419.721	641.4
420.098	639.14
420.475	633.26
420.852	652.47
421.228	673.49
421.605	686.82
421.982	683.88
422.358	668.74
422.735	710.32
423.111	683.65
423.488	683.65
423.864	691.34
424.241	675.52
424.617	729.08
424.994	729.3
425.37	713.94
425.746	725.91
426.123	737.66
426.499	750.09
426.875	731.56
427.251	737.21
427.627	770.43
428.003	760.71
428.379	799.81
428.756	777.44
429.132	799.36
429.507	800.04
429.883	784.89
430.259	828.74
430.635	824.67
431.011	813.59
431.387	829.19
431.763	875.06
432.138	845.23
432.514	847.04
432.89	853.14
433.265	857.89
433.641	901.28
434.016	879.13
434.392	927.26
434.767	922.52
435.143	914.61
435.518	904.44
435.894	936.53
436.269	941.27
436.644	963.87
437.02	953.03
437.395	956.19
437.77	976.98
438.145	1001.39
438.52	988.05
438.895	1012.23
439.271	994.15
439.646	1025.11
440.021	1004.55
440.395	1043.64
440.77	1000.03
441.145	1034.83
441.52	1040.93
441.895	1031.44
442.27	1039.35
442.645	1066.47
443.019	1108.28
443.394	1054.27
443.769	1090.88
444.143	1080.71
444.518	1114.6
444.892	1096.75
445.267	1100.82
445.641	1106.92
446.016	1132.23
446.39	1155.73
446.764	1103.53
447.139	1154.83
447.513	1143.08
447.887	1168.39
448.262	1154.38
448.636	1174.04
449.01	1168.16
449.384	1190.99
449.758	1180.59
450.132	1213.81
450.506	1207.26
450.88	1215.62
451.254	1250.19
451.628	1252.9
452.002	1257.42
452.376	1263.3
452.75	1302.4
453.123	1283.64
453.497	1294.71
453.871	1291.77
454.244	1340.36
454.618	1350.76
454.992	1335.39
455.365	1359.57
455.739	1405.67
456.112	1387.36
456.486	1385.78
456.859	1398.21
457.232	1434.37
457.606	1461.71
457.979	1464.65
458.352	1497.87
458.725	1508.27
459.099	1530.19
459.472	1546
459.845	1562.95
460.218	1576.74
460.591	1615.38
460.964	1603.4
461.337	1589.62
461.71	1641.37
462.083	1691.09
462.456	1669.84
462.829	1666
463.201	1696.06
463.574	1674.81
463.947	1726.34
464.32	1765.89
464.692	1764.98
465.065	1798.65
465.438	1830.06
465.81	1856.28
466.183	1849.5
466.555	1898.99
466.928	1886.56
467.3	1897.86
467.672	1933.34
468.045	1992.77
468.417	1923.17
468.789	1970.4
469.161	2003.39
469.534	2083.39
469.906	2096.05
470.278	2096.72
470.65	2111.87
471.022	2190.06
471.394	2188.47
471.766	2191.64
472.138	2223.05
472.51	2266.89
472.882	2313.89
473.253	2342.59
473.625	2388.69
473.997	2418.07
474.369	2409.71
474.74	2455.81
475.112	2466.88
475.484	2512.53
475.855	2568.12
476.227	2614.23
476.598	2658.97
476.97	2693.77
477.341	2747.33
477.713	2762.24
478.084	2768.8
478.455	2850.83
478.827	2885.86
479.198	2951.39
479.569	2953.65
479.94	3038.85
480.311	3063.48
480.682	3107.55
481.053	3214.21
481.424	3230.03
481.795	3274.32
482.166	3300.53
482.537	3326.3
482.908	3429.8
483.279	3470.7
483.65	3506.18
484.021	3559.06
484.391	3582.79
484.762	3654.65
485.133	3669.56
485.503	3706.85
485.874	3821.2
486.244	3839.5
486.615	3915.43
486.985	3949.56
487.356	4020.29
487.726	4094.19
488.097	4149.33
488.467	4147.29
488.837	4241.07
489.207	4261.64
489.578	4280.85
489.948	4346.61
490.318	4402.2
490.688	4417.57
491.058	4500.28
491.428	4577.34
491.798	4641.29
492.168	4696.43
492.538	4724.45
492.908	4784.34
493.278	4819.59
493.648	4858.46
494.017	4901.4
494.387	4954.5
494.757	4956.54
495.126	5011.9
495.496	5074.27
495.866	5083.54
496.235	5144.78
496.605	5159.69
496.974	5219.35
497.344	5259.35
497.713	5308.62
498.082	5342.51
498.452	5413.7
498.821	5350.65
499.19	5472
499.559	5497.99
499.928	5588.61
500.298	5597.2
500.667	5681.49
501.036	5596.07
501.405	5691.43
501.774	5676.52
502.143	5801.94
502.512	5822.95
502.88	5855.27
503.249	5869.96
503.618	5904.53
503.987	5905.89
504.356	6002.16
504.724	6019.33
505.093	6034.02
505.462	6036.28
505.83	6074.7
506.199	6188.59
506.567	6229.27
506.936	6205.54
507.304	6289.83
507.672	6297.07
508.041	6365.76
508.409	6413.45
508.777	6474.91
509.145	6547.91
509.514	6542.03
509.882	6598.75
510.25	6616.61
510.618	6634.46
510.986	6718.3
511.354	6760.33
511.722	6850.72
512.09	6894.79
512.458	6862.93
512.826	6926.43
513.193	6949.7
513.561	7041.45
513.929	7094.33
514.297	7136.14
514.664	7171.39
515.032	7249.81
515.4	7285.74
515.767	7304.72
516.135	7365.51
516.502	7350.15
516.869	7489.8
517.237	7528.45
517.604	7553.98
517.972	7603.47
518.339	7692.96
518.706	7677.37
519.073	7765.95
519.44	7809.12
519.808	7890.24
520.175	7869.45
520.542	8042.33
520.909	8080.07
521.276	8011.37
521.643	8182.89
522.009	8218.82
522.376	8293.4
522.743	8313.74
523.11	8412.49
523.477	8501.08
523.843	8585.59
524.21	8652.48
524.577	8702.43
524.943	8759.83
525.31	8786.04
525.676	8823.78
526.043	8956.43
526.409	9015.41
526.776	9052.02
527.142	9043.66
527.508	9099.03
527.874	9211.57
528.241	9260.38
528.607	9245.92
528.973	9451.11
529.339	9419.47
529.705	9435.74
530.071	9614.72
530.437	9593.02
530.803	9782.62
531.169	9763.19
531.535	9705.79
531.901	9789.4
532.267	9844.32
532.632	9881.6
532.998	9955.73
533.364	9975.16
533.73	10038.89
534.095	10162.5
534.461	10163.18
534.826	10223.06
535.192	10262.39
535.557	10342.84
535.923	10392.55
536.288	10405.43
536.653	10443.17
537.019	10422.83
537.384	10501.93
537.749	10521.36
538.114	10539.44
538.479	10592.77
538.845	10631.42
539.21	10603.39
539.575	10741.69
539.94	10693.56
540.305	10789.6
540.67	10807.46
541.034	10860.34
541.399	10898.08
541.764	10950.73
542.129	11024.63
542.494	11051.52
542.858	11076.15
543.223	11046.55
543.587	11121.35
543.952	11186.2
544.316	11168.8
544.681	11150.5
545.045	11344.84
545.41	11352.3
545.774	11388.68
546.138	11428
546.503	11492.18
546.867	11429.59
547.231	11589.58
547.595	11579.64
547.959	11576.48
548.324	11583.93
548.688	11704.83
549.052	11720.43
549.416	11752.97
549.779	11795
550.143	11800.65
550.507	11825.96
550.871	11929.46
551.235	11984.6
551.599	12032.06
551.962	12095.33
552.326	12172.17
552.689	12229.57
553.053	12133.52
553.417	12226.63
553.78	12461.65
554.143	12331.94
554.507	12389.56
554.87	12450.12
555.234	12536.9
555.597	12645.83
555.96	12576.45
556.323	12652.61
556.686	12680.4
557.05	12745.71
557.413	12800.17
557.776	12905.71
558.139	12878.59
558.502	12990.22
558.865	13002.88
559.228	13073.61
559.59	13088.07
559.953	13292.36
560.316	13278.35
560.679	13398.12
561.041	13445.35
561.404	13465.69
561.767	13577.78
562.129	13596.54
562.492	13751.33
562.854	13713.37
563.217	13706.14
563.579	13800.82
563.941	13941.61
564.304	14027.71
564.666	14069.07
565.028	14143.64
565.39	14138.67
565.753	14252.56
566.115	14287.14
566.477	14431.09
566.839	14434.48
567.201	14497.53
567.563	14558.09
567.925	14680.57
568.287	14608.94
568.648	14752.21
569.01	14822.04
569.372	14975.71
569.734	14911.53
570.095	15099.09
570.457	15168.47
570.819	15154.91
571.18	15212.54
571.542	15363.95
571.903	15314.46
572.265	15506.32
572.626	15467.9
572.987	15434.23
573.349	15636.93
573.71	15658.4
574.071	15675.35
574.432	15840.54
574.794	15963.7
575.155	15927.55
575.516	15884.84
575.877	16018.39
576.238	16074.89
576.599	16180.2
576.96	16133.87
577.32	16279.63
577.681	16327.99
578.042	16426.29
578.403	16421.09
578.763	16377.7
579.124	16462.45
579.485	16610.92
579.845	16644.14
580.206	16753.06
580.566	16700.63
580.927	16759.84
581.287	16909.89
581.648	16848.2
582.008	16890.69
582.368	16933.62
582.728	16920.06
583.089	16968.2
583.449	17050
583.809	17140.85
584.169	17208.19
584.529	17192.6
584.889	17271.24
585.249	17144.92
585.609	17137.68
585.969	17359.6
586.329	17246.61
586.688	17377.68
587.048	17383.55
587.408	17361.86
587.768	17439.82
588.127	17436.43
588.487	17365.25
588.846	17613.6
589.206	17550.78
589.565	17529.77
589.925	17697.9
590.284	17603.44
590.643	17681.4
591.003	17822.19
591.362	17879.59
591.721	17737.22
592.08	17797.1
592.44	17917.1
592.799	17966.36
593.158	17903.31
593.517	17876.42
593.876	18020.15
594.235	18000.04
594.593	18038.45
594.952	18056.08
595.311	18061.5
595.67	18172.46
596.029	18234.15
596.387	18221.72
596.746	18300.82
597.104	18169.52
597.463	18176.75
597.822	18352.79
598.18	18280.93
598.538	18347.37
598.897	18494.49
599.255	18300.59
599.613	18610.87
599.972	18458.1
600.33	18507.14
600.688	18568.61
601.046	18630.98
601.404	18706.91
601.762	18681.6
602.12	18755.72
602.478	18889.28
602.836	18825.55
603.194	18747.13
603.552	18845.44
603.91	18745.78
604.268	18838.21
604.625	18767.47
604.983	18957.3
605.341	18780.81
605.698	18996.62
606.056	18960.24
606.413	18959.78
606.771	19104.86
607.128	19013.12
607.485	19112.32
607.843	19107.12
608.2	19211.75
608.557	19239.55
608.914	19157.74
609.272	19276.39
609.629	19290.4
609.986	19301.7
610.343	19327.23
610.7	19499.43
611.057	19503.72
611.414	19461.24
611.771	19533.33
612.127	19532.42
612.484	19561.8
612.841	19666.88
613.198	19596.38
613.554	19599.09
613.911	19680.67
614.267	19668.24
614.624	19680.67
614.98	19768.12
615.337	19814.9
615.693	19765.41
616.05	19720.44
616.406	19944.62
616.762	19731.97
617.118	19866.2
617.475	19902.58
617.831	19934.22
618.187	19949.59
618.543	19936.03
618.899	20064.16
619.255	19920.66
619.611	20067.78
619.967	20059.42
620.323	20148.91
620.678	20073.88
621.034	20062.58
621.39	20017.84
621.746	20027.78
622.101	20300.54
622.457	20165.18
622.812	20184.61
623.168	20198.17
623.523	20185.97
623.879	20268.68
624.234	20141
624.589	20175.8
624.945	20221.67
625.3	20328.11
625.655	20260.09
626.01	20285.85
626.365	20215.57
626.72	20195.91
627.075	20149.58
627.43	20247.43
627.785	20014.22
628.14	20153.65
628.495	20155.68
628.85	20214.21
629.205	20150.49
629.559	20231.84
629.914	20175.12
630.269	20160.88
630.623	20150.04
630.978	20117.27
631.332	20229.58
631.687	20136.93
632.041	20070.72
632.396	20108.23
632.75	20148.68
633.104	20103.03
633.459	19963.15
633.813	19966.99
634.167	19979.19
634.521	20002.24
634.875	19969.02
635.229	19973.99
635.583	19840.44
635.937	19991.4
636.291	19895.58
636.645	19811.29
636.999	19786.65
637.352	19944.62
637.706	19834.79
638.06	19774.9
638.413	19820.1
638.767	19745.53
639.121	19771.74
639.474	19622.59
639.828	19731.06
640.181	19621.91
640.534	19738.75
640.888	19601.12
641.241	19570.16
641.594	19661.01
641.947	19725.19
642.301	19588.92
642.654	19600.67
643.007	19697.84
643.36	19628.47
643.713	19594.8
644.066	19652.65
644.419	19545.08
644.771	19428.7
645.124	19261.7
645.477	19224.86
645.83	19032.78
646.182	18990.97
646.535	18938.09
646.888	19009.73
647.24	18743.52
647.593	18976.28
647.945	18842.27
648.298	18763.4
648.65	18735.16
649.002	18766.79
649.355	18774.7
649.707	18817.87
650.059	18870.75
650.411	19037.52
650.763	19040.69
651.115	19358.87
651.467	19318.42
651.819	19252.88
652.171	19198.42
652.523	19160.46
652.875	19171.98
653.227	19017.18
653.578	19225.31
653.93	19182.83
654.282	19090.85
654.633	19151.64
654.985	19065.09
655.337	19174.02
655.688	19173.11
656.039	19198.65
656.391	19011.76
656.742	19091.08
657.094	19065.77
657.445	19093.34
657.796	19167.46
658.147	19036.62
658.498	19105.99
658.849	19045.43
659.2	19031.19
659.551	18971.54
659.902	19074.36
660.253	19014.02
660.604	19121.36
660.955	19051.31
661.306	19051.08
661.656	18966.79
662.007	18995.72
662.358	19077.97
662.708	19079.1
663.059	19039.1
663.409	18911.42
663.76	19174.47
664.11	19080.68
664.461	19092.21
664.811	18981.7
665.161	19015.38
665.511	18914.81
665.862	19141.47
666.212	19064.41
666.562	19068.03
666.912	18953.68
667.262	19088.59
667.612	19036.84
667.962	19076.17
668.312	19078.65
668.662	19094.7
669.011	19103.73
669.361	19072.1
669.711	19046.79
670.06	18977.41
670.41	19011.76
670.76	18871.42
671.109	19062.38
671.459	18957.75
671.808	18901.25
672.157	18977.64
672.507	18829.62
672.856	18946.68
673.205	18888.37
673.554	18958.88
673.904	18943.51
674.253	18828.49
674.602	18924.98
674.951	18587.36
675.3	18539.23
675.649	18851.09
675.998	18837.08
676.346	18799.11
676.695	18899.9
677.044	18840.01
677.393	18904.42
677.741	18867.13
678.09	18856.28
678.438	18745.33
678.787	18861.03
679.135	18873.46
679.484	18663.07
679.832	18796.17
680.181	18705.78
680.529	18651.09
680.877	18642.05
681.225	18620.13
681.573	18743.97
681.922	18630.3
682.27	18581.26
682.618	18536.97
682.966	18497.2
683.314	18633.01
683.661	18488.84
684.009	18435.73
684.357	18452
684.705	18426.46
685.053	18330.87
685.4	18415.17
685.748	18272.57
686.095	18227.83
686.443	18251.1
686.79	18207.49
687.138	18249.97
687.485	18186.02
687.832	18164.55
688.18	18079.36
688.527	18048.85
688.874	18104.67
689.221	18110.54
689.568	17983.76
689.915	17935.86
690.262	17941.73
690.609	17885.01
690.956	17888.63
691.303	17783.77
691.65	17722.53
691.997	17662.64
692.344	17633.04
692.69	17612.7
693.037	17542.42
693.383	17498.13
693.73	17647.95
694.077	17469.88
694.423	17449.54
694.769	17419.26
695.116	17447.28
695.462	17409.77
695.808	17279.83
696.155	17239.15
696.501	17212.03
696.847	17144.92
697.193	17053.62
697.539	17147.4
697.885	17016.33
698.231	17024.47
698.577	16992.83
698.923	16892.04
699.269	16844.59
699.614	16806.85
699.96	16685.04
700.306	16749.45
700.651	16644.59
700.997	16623.12
701.342	16551.49
701.688	16539.51
702.033	16444.6
702.379	16512.62
702.724	16437.59
703.069	16558.72
703.415	16252.51
703.76	16292.28
704.105	16330.7
704.45	16179.29
704.795	16181.1
705.14	16047.54
705.485	16163.93
705.83	16142.68
706.175	16077.37
706.52	16053.42
706.865	15991.5
707.209	15934.33
707.554	15947.66
707.899	15918.06
708.243	15914.67
708.588	15836.93
708.932	15763.71
709.277	15724.16
709.621	15766.87
709.966	15709.93
710.31	15757.16
710.654	15558.74
710.998	15669.93
711.342	15582.7
711.687	15527.56
712.031	15461.8
712.375	15421.57
712.719	15423.15
713.063	15433.32
713.407	15534.11
713.75	15429.71
714.094	15368.92
714.438	15362.59
714.782	15241.46
715.125	15220.9
715.469	15244.63
715.812	15183.16
716.156	15064.52
716.499	15078.76
716.843	15144.29
717.186	15087.57
717.53	15117.4
717.873	15084.86
718.216	15032.66
718.559	14945.43
718.902	14870.17
719.246	14964.63
719.589	14924.18
719.932	14936.84
720.275	14947.01
720.617	14871.08
720.96	14860.23
721.303	14888.93
721.646	14849.16
721.989	14751.08
722.331	14892.55
722.674	14837.41
723.016	14876.5
723.359	14750.86
723.701	14756.28
724.044	14662.27
724.386	14708.82
724.729	14707.92
725.071	14704.08
725.413	14657.52
725.755	14714.92
726.097	14687.81
726.439	14468.83
726.782	14543.63
727.124	14660.91
727.465	14522.84
727.807	14582.72
728.149	14573.91
728.491	14528.71
728.833	14495.72
729.175	14470.41
729.516	14450.98
729.858	14453.01
730.199	14410.07
730.541	14391.77
730.882	14390.86
731.224	14515.61
731.565	14330.53
731.906	14317.42
732.248	14398.32
732.589	14393.58
732.93	14315.84
733.271	14336.18
733.612	14316.97
733.953	14304.09
734.294	14321.94
734.635	14288.27
734.976	14306.8
735.317	14221.83
735.658	14275.16
735.999	14295.73
736.339	14253.92
736.68	14207.59
737.021	14262.28
737.361	14253.47
737.702	14231.32
738.042	14285.33
738.383	14196.07
738.723	14281.49
739.063	14208.27
739.404	14373.69
739.744	14136.41
740.084	14186.58
740.424	14235.84
740.764	14221.38
741.104	14248.5
741.444	14249.63
741.784	14046.47
742.124	14095.28
742.464	14091.44
742.804	14065.9
743.143	13960.37
743.483	14081.72
743.823	14030.42
744.162	13988.16
744.502	13948.16
744.841	14034.49
745.181	14028.39
745.52	13953.14
745.86	14022.29
746.199	14016.41
746.538	14005.79
746.877	14004.66
747.216	13969.86
747.556	13909.75
747.895	14001.04
748.234	13962.63
748.573	13886.7
748.911	13830.43
749.25	13914.27
749.589	13814.83
749.928	13830.65
750.267	13844.21
750.605	13869.75
750.944	13832.69
751.283	13829.52
751.621	13859.81
751.96	13771.22
752.298	13758.34
752.636	13728.06
752.975	13765.57
753.313	13663.43
753.651	13766.7
753.989	13660.04
754.327	13752.46
754.666	13582.52
755.004	13623.43
755.342	13642.18
755.679	13643.09
756.017	13581.62
756.355	13524.9
756.693	13492.13
757.031	13599.25
