Data from tablewood_dark_bookshelf_FLMS001491_00040.txt Node
Date: Wed Feb 08 14:14:27 GMT 2017
User: dcchb
Spectrometer: FLMS00149
Trigger mode: 0
Integration Time (sec): 2.000000E-2
Scans to average: 10
Electric dark correction enabled: true
Nonlinearity correction enabled: false
Boxcar width: 0
XAxis mode: Wavelengths
Number of Pixels in Spectrum: 2048
>>>>>Begin Spectral Data<<<<<
341.393	-22.26
341.776	-22.26
342.16	-22.26
342.543	-56.38
342.927	-82.14
343.31	-73.78
343.693	-78.3
344.077	-67
344.46	-58.19
344.843	-51.64
345.226	-28.13
345.61	-28.59
345.993	-21.58
346.376	-8.02
346.759	28.81
347.142	25.88
347.525	51.41
347.908	53.44
348.291	78.53
348.674	66.1
349.057	111.07
349.44	114.46
349.823	133.22
350.206	173.89
350.588	191.52
350.971	193.55
351.354	212.08
351.737	220.9
352.119	228.36
352.502	257.73
352.884	265.87
353.267	259.32
353.65	285.08
354.032	283.04
354.414	303.83
354.797	310.61
355.179	313.55
355.562	307.68
355.944	329.6
356.326	320.56
356.709	338.64
357.091	323.72
357.473	335.92
357.855	325.53
358.238	322.36
358.62	315.81
359.002	341.8
359.384	325.08
359.766	317.39
360.148	334.79
360.53	304.06
360.912	331.63
361.294	316.49
361.676	330.05
362.057	316.94
362.439	343.83
362.821	327.79
363.203	315.13
363.584	334.57
363.966	328.24
364.348	313.55
364.729	333.66
365.111	306.55
365.493	312.65
365.874	309.94
366.256	340.67
366.637	321.69
367.019	319.65
367.4	309.03
367.781	304.96
368.163	318.3
368.544	319.2
368.925	315.58
369.306	311.97
369.688	321.01
370.069	311.07
370.45	310.16
370.831	322.36
371.212	324.85
371.593	323.95
371.974	317.39
372.355	324.4
372.736	319.2
373.117	314
373.498	329.82
373.879	328.01
374.26	321.01
374.641	317.84
375.021	320.33
375.402	316.04
375.783	328.92
376.163	337.96
376.544	354.68
376.925	336.38
377.305	331.4
377.686	340.67
378.066	322.59
378.447	340.67
378.827	338.41
379.208	336.15
379.588	338.64
379.968	337.73
380.349	349.71
380.729	354.23
381.109	347.22
381.489	349.48
381.87	337.05
382.25	368.46
382.63	345.41
383.01	336.83
383.39	351.97
383.77	379.99
384.15	368.46
384.53	359.2
384.91	368.01
385.29	356.71
385.67	381.57
386.049	379.09
386.429	360.78
386.809	351.29
387.189	360.1
387.568	374.11
387.948	381.12
388.328	370.72
388.707	370.5
389.087	375.7
389.466	386.32
389.846	374.34
390.225	390.84
390.605	403.49
390.984	394
391.363	378.41
391.743	396.94
392.122	384.74
392.501	403.04
392.881	391.74
393.26	415.92
393.639	432.42
394.018	415.47
394.397	405.07
394.776	407.11
395.155	418.86
395.534	418.86
395.913	428.12
396.292	437.84
396.671	410.05
397.05	414.34
397.429	431.97
397.808	412.76
398.186	436.26
398.565	436.71
398.944	424.28
399.323	440.78
399.701	434.9
400.08	429.03
400.458	436.26
400.837	425.86
401.215	432.19
401.594	457.28
401.972	472.64
402.351	444.85
402.729	452.3
403.107	451.4
403.486	455.69
403.864	465.64
404.242	491.4
404.62	474.45
404.999	475.13
405.377	466.54
405.755	456.37
406.133	485.3
406.511	499.53
406.889	483.72
407.267	473.77
407.645	527.78
408.023	513.32
408.401	508.57
408.779	493.89
409.156	508.35
409.534	516.03
409.912	504.05
410.29	511.29
410.667	521.46
411.045	527.33
411.422	513.77
411.8	549.48
412.178	536.14
412.555	567.33
412.933	546.99
413.31	539.53
413.687	566.2
414.065	548.57
414.442	551.06
414.819	563.04
415.197	579.98
415.574	581.34
415.951	604.39
416.328	566.43
416.705	578.85
417.082	602.81
417.46	582.47
417.837	598.06
418.214	591.28
418.591	602.13
418.967	602.81
419.344	598.97
419.721	613.88
420.098	627.67
420.475	590.83
420.852	626.09
421.228	632.86
421.605	619.31
421.982	620.21
422.358	646.88
422.735	642.81
423.111	647.55
423.488	663.15
423.864	666.08
424.241	674.45
424.617	684.16
424.994	664.5
425.37	666.76
425.746	678.51
426.123	683.03
426.499	694.78
426.875	685.74
427.251	717.38
427.627	700.43
428.003	717.16
428.379	732.07
428.756	724.84
429.132	746.99
429.507	749.02
429.883	773.65
430.259	760.54
430.635	770.04
431.011	756.48
431.387	777.95
431.763	794.44
432.138	788.79
432.514	815.91
432.89	820.43
433.265	805.97
433.641	837.38
434.016	821.79
434.392	832.86
434.767	852.75
435.143	853.65
435.518	865.85
435.894	863.82
436.269	865.17
436.644	864.72
437.02	871.73
437.395	873.08
437.77	882.35
438.145	925.96
438.52	922.8
438.895	918.96
439.271	925.51
439.646	914.44
440.021	926.42
440.395	933.87
440.77	961.22
441.145	942.46
441.52	991.95
441.895	940.2
442.27	961.67
442.645	956.92
443.019	986.08
443.394	972.29
443.769	979.3
444.143	1009.8
444.518	1010.71
444.892	1018.84
445.267	1003.02
445.641	1033.31
446.016	992.86
446.39	1023.14
446.764	1020.88
447.139	1027.66
447.513	1031.27
447.887	1052.29
448.262	1076.24
448.636	1056.81
449.01	1052.74
449.384	1070.82
449.758	1078.05
450.132	1103.36
450.506	1097.94
450.88	1092.51
451.254	1110.59
451.628	1136.81
452.002	1142.23
452.376	1119.18
452.75	1129.35
453.123	1146.3
453.497	1183.13
453.871	1172.29
454.244	1176.58
454.618	1191.95
454.992	1217.26
455.365	1212.96
455.739	1217.03
456.112	1266.97
456.486	1263.81
456.859	1266.07
457.232	1289.34
457.606	1323.24
457.979	1295.67
458.352	1318.72
458.725	1333.64
459.099	1325.05
459.472	1361.21
459.845	1346.74
460.218	1380.19
460.591	1398.27
460.964	1391.26
461.337	1419.06
461.71	1418.38
462.083	1465.16
462.456	1466.52
462.829	1450.02
463.201	1447.76
463.574	1515.55
463.947	1505.16
464.32	1542.45
464.692	1571.6
465.065	1599.62
465.438	1585.61
465.81	1601.88
466.183	1603.23
466.555	1635.1
466.928	1685.27
467.3	1659.05
467.672	1677.58
468.045	1721.88
468.417	1727.75
468.789	1701.09
469.161	1758.71
469.534	1777.02
469.906	1790.8
470.278	1820.18
470.65	1862.44
471.022	1872.38
471.394	1906.96
471.766	1905.15
472.138	1938.37
472.51	1963.45
472.882	1993.05
473.253	1993.96
473.625	2051.58
473.997	2059.04
474.369	2090.68
474.74	2097.23
475.112	2133.39
475.484	2157.8
475.855	2223.11
476.227	2210.9
476.598	2261.52
476.97	2252.94
477.341	2319.15
477.713	2342.42
478.084	2411.8
478.455	2419.26
478.827	2468.07
479.198	2470.1
479.569	2480.73
479.94	2572.7
480.311	2614.06
480.682	2642.08
481.053	2694.28
481.424	2773.6
481.795	2785.35
482.166	2789.87
482.537	2872.13
482.908	2898.34
483.279	2883.65
483.65	2964.1
484.021	2994.38
484.391	3031.9
484.762	3059.02
485.133	3087.26
485.503	3107.38
485.874	3205.23
486.244	3172.01
486.615	3259.24
486.985	3342.62
487.356	3333.58
487.726	3386.01
488.097	3480.25
488.467	3470.76
488.837	3544.2
489.207	3572.22
489.578	3576.29
489.948	3652.67
490.318	3711.2
490.688	3739.45
491.058	3786.91
491.428	3811.09
491.798	3839.56
492.168	3929.05
492.538	3925.66
492.908	3989.39
493.278	4024.87
493.648	3975.83
494.017	4098.08
494.387	4089.95
494.757	4122.26
495.126	4129.5
495.496	4228.7
495.866	4296.5
496.235	4225.09
496.605	4308.7
496.974	4294.01
497.344	4367.91
497.713	4378.3
498.082	4420.56
498.452	4442.48
498.821	4484.74
499.19	4504.18
499.559	4562.93
499.928	4559.09
500.298	4588.92
500.667	4640.44
501.036	4622.82
501.405	4678.63
501.774	4720.21
502.143	4741.68
502.512	4749.59
502.88	4787.56
503.249	4824.39
503.618	4902.36
503.987	4884.5
504.356	4924.28
504.724	4897.39
505.093	4965.41
505.462	4966.54
505.83	5000.43
506.199	5081.34
506.567	5099.87
506.936	5097.38
507.304	5167.66
507.672	5192.74
508.041	5208.11
508.409	5229.81
508.777	5334.21
509.145	5369.69
509.514	5393.42
509.882	5399.75
510.25	5393.19
510.618	5446.52
510.986	5498.95
511.354	5551.83
511.722	5556.35
512.09	5628.44
512.458	5646.29
512.826	5682.45
513.193	5670.25
513.561	5740.08
513.929	5753.86
514.297	5858.49
514.664	5843.35
515.032	5872.05
515.4	5918.83
515.767	5981.42
516.135	6016.45
516.502	6041.99
516.869	6096.45
517.237	6166.73
517.604	6096.45
517.972	6188.65
518.339	6252.38
518.706	6292.38
519.073	6320.85
519.44	6404.69
519.808	6428.19
520.175	6439.27
520.542	6542.09
520.909	6552.03
521.276	6565.82
521.643	6652.14
522.009	6698.92
522.376	6735.3
522.743	6773.27
523.11	6842.87
523.477	6862.76
523.843	6956.77
524.21	7039.93
524.577	7076.99
524.943	7054.84
525.31	7172.35
525.676	7222.52
526.043	7257.1
526.409	7344.55
526.776	7423.19
527.142	7429.52
527.508	7453.7
527.874	7542.51
528.241	7566.69
528.607	7572.12
528.973	7667.93
529.339	7708.16
529.705	7782.51
530.071	7876.29
530.437	7860.47
530.803	7899.79
531.169	7956.06
531.535	7945.44
531.901	7994.71
532.267	8051.65
532.632	8086
532.998	8090.07
533.364	8180.91
533.73	8252.33
534.095	8289.61
534.461	8209.39
534.826	8313.79
535.192	8398.08
535.557	8439.67
535.923	8420.91
536.288	8482.6
536.653	8475.6
537.019	8499.78
537.384	8564.63
537.749	8587.01
538.114	8612.09
538.479	8637.4
538.845	8704.06
539.21	8682.37
539.575	8809.15
539.94	8790.16
540.305	8861.35
540.67	8866.55
541.034	8923.49
541.399	8941.57
541.764	8971.4
542.129	8979.76
542.494	9054.56
542.858	9080.33
543.223	9104.73
543.587	9156.48
543.952	9124.17
544.316	9182.47
544.681	9224.73
545.045	9265.41
545.41	9292.98
545.774	9319.64
546.138	9350.38
546.503	9389.47
546.867	9387.66
547.231	9440.32
547.595	9505.63
547.959	9504.95
548.324	9536.36
548.688	9624.04
549.052	9596.47
549.416	9626.98
549.779	9646.64
550.143	9678.95
550.507	9797.14
550.871	9798.95
551.235	9779.29
551.599	9908.55
551.962	9869.01
552.326	9903.81
552.689	10011.83
553.053	9995.33
553.417	10066.29
553.78	10215.66
554.143	10122.11
554.507	10101.54
554.87	10199.17
555.234	10330.91
555.597	10266.28
555.96	10377.24
556.323	10450.01
556.686	10411.36
557.05	10460.85
557.413	10525.49
557.776	10603.45
558.139	10709.44
558.502	10779.04
558.865	10747.18
559.228	10852.93
559.59	10820.62
559.953	10856.55
560.316	11029.43
560.679	11005.93
561.041	11076.43
561.404	11174.51
561.767	11236.65
562.129	11263.09
562.492	11287.73
562.854	11304.22
563.217	11375.86
563.579	11430.32
563.941	11533.6
564.304	11602.07
564.666	11656.53
565.028	11727.04
565.39	11699.47
565.753	11836.41
566.115	11883.42
566.477	11941.27
566.839	11941.72
567.201	12102.85
567.563	12093.58
567.925	12207.93
568.287	12215.39
568.648	12279.79
569.01	12400.24
569.372	12476.85
569.734	12440.46
570.095	12496.73
570.457	12596.84
570.819	12576.96
571.18	12641.59
571.542	12749.16
571.903	12778.53
572.265	12855.37
572.626	12879.77
572.987	12897.18
573.349	13074.57
573.71	13083.84
574.071	13205.42
574.432	13170.16
574.794	13331.51
575.155	13224.62
575.516	13190.95
575.877	13353.66
576.238	13408.35
576.599	13395.24
576.96	13504.84
577.32	13597.5
577.681	13647.66
578.042	13686.08
578.403	13682.47
578.763	13749.13
579.124	13773.31
579.485	13797.49
579.845	13876.13
580.206	13919.07
580.566	13905.06
580.927	13965.4
581.287	14036.58
581.648	14053.98
582.008	14016.69
582.368	14052.17
582.728	14104.83
583.089	14108.22
583.449	14124.26
583.809	14245.84
584.169	14312.05
584.529	14308.21
584.889	14441.32
585.249	14383.92
585.609	14274.99
585.969	14407.19
586.329	14426.17
586.688	14422.33
587.048	14494.87
587.408	14512.27
587.768	14524.25
588.127	14553.85
588.487	14565.38
588.846	14689.9
589.206	14626.4
589.565	14664.13
589.925	14718.82
590.284	14733.28
590.643	14717.92
591.003	14759.05
591.362	14937.12
591.721	14884.47
592.08	14913.39
592.44	14967.63
592.799	14887.41
593.158	14900.29
593.517	14958.36
593.876	14992.71
594.235	14985.93
594.593	15039.49
594.952	15082.43
595.311	15097.12
595.67	15102.54
596.029	15197.91
596.387	15148.19
596.746	15301.41
597.104	15222.31
597.463	15239.94
597.822	15357.68
598.18	15234.97
598.538	15328.75
598.897	15467.95
599.255	15356.32
599.613	15578.01
599.972	15387.73
600.33	15457.79
600.688	15393.61
601.046	15549.31
601.404	15634.96
601.762	15580.04
602.12	15657.1
602.478	15658.01
602.836	15678.8
603.194	15578.69
603.552	15618.23
603.91	15631.79
604.268	15735.07
604.625	15768.51
604.983	15740.04
605.341	15769.87
605.698	15819.36
606.056	15829.98
606.413	15777.78
606.771	15919.92
607.128	15870.88
607.485	15854.61
607.843	15995.62
608.2	15990.65
608.557	16086.24
608.914	16001.95
609.272	16084.89
609.629	16180.48
609.986	16177.31
610.343	16084.89
610.7	16251.44
611.057	16116.75
611.414	16319.91
611.771	16144.55
612.127	16367.37
612.484	16359.91
612.841	16434.03
613.198	16310.42
613.554	16267.71
613.911	16397.2
614.267	16431.77
614.624	16410.53
614.98	16510.87
615.337	16537.31
615.693	16508.61
616.05	16504.76
616.406	16692.1
616.762	16609.17
617.118	16657.75
617.475	16624.31
617.831	16677.41
618.187	16614.59
618.543	16733.01
618.899	16848.26
619.255	16791.31
619.611	16745.89
619.967	16877.41
620.323	16863.85
620.678	16820.46
621.034	16699.56
621.39	16746.11
621.746	16797.86
622.101	16893.68
622.457	16917.41
622.812	16758.09
623.168	16853.46
623.523	16826.11
623.879	17002.15
624.234	16656.4
624.589	16873.34
624.945	16914.92
625.3	16959.44
625.655	16874.47
626.01	16936.16
626.365	16952.89
626.72	16936.39
627.075	16827.02
627.43	16892.32
627.785	16871.08
628.14	16974.13
628.495	17005.09
628.85	16824.08
629.205	16792.44
629.559	16908.82
629.914	16807.81
630.269	16858.65
630.623	16777.75
630.978	16780.91
631.332	16911.53
631.687	16821.14
632.041	16780.01
632.396	16824.53
632.75	16694.14
633.104	16765.32
633.459	16715.15
633.813	16736.62
634.167	16809.61
634.521	16814.81
634.875	16715.15
635.229	16809.84
635.583	16595.38
635.937	16639.68
636.291	16556.97
636.645	16738.43
636.999	16587.93
637.352	16652.1
637.706	16614.14
638.06	16656.4
638.413	16535.05
638.767	16459.34
639.121	16592.45
639.474	16511.09
639.828	16530.07
640.181	16486.46
640.534	16564.42
640.888	16391.09
641.241	16328.05
641.594	16426.57
641.947	16419.79
642.301	16318.33
642.654	16430.87
643.007	16371.21
643.36	16408.27
643.713	16348.84
644.066	16453.47
644.419	16327.37
644.771	16264.09
645.124	16024.55
645.477	15936.19
645.83	15861.39
646.182	15804.22
646.535	15868.62
646.888	15876.76
647.24	15872.01
647.593	15952.24
647.945	15879.92
648.298	15820.94
648.65	15814.84
649.002	15773.71
649.355	15816.42
649.707	15749.3
650.059	15775.52
650.411	15986.13
650.763	16043.98
651.115	16153.59
651.467	16169.63
651.819	16144.1
652.171	16108.84
652.523	16095.51
652.875	16039.69
653.227	16043.53
653.578	16118.33
653.93	16079.24
654.282	15960.82
654.633	16002.18
654.985	15937.55
655.337	16083.98
655.688	15980.03
656.039	16098.9
656.391	15895.51
656.742	15961.95
657.094	15960.15
657.445	16010.31
657.796	16064.1
658.147	16016.87
658.498	15976.87
658.849	16012.8
659.2	15939.81
659.551	16003.31
659.902	16013.48
660.253	15922.63
660.604	15934.84
660.955	15922.41
661.306	15959.92
661.656	16052.57
662.007	15920.37
662.358	15992.69
662.708	15935.51
663.059	16001.5
663.409	15789.75
663.76	15989.52
664.11	15940.71
664.461	15942.52
664.811	15977.77
665.161	15904.55
665.511	15880.6
665.862	15988.39
666.212	15952.91
666.562	16034.04
666.912	15941.39
667.262	15756.53
667.612	15907.94
667.962	15903.2
668.312	15912.01
668.662	16013.25
669.011	15836.98
669.361	15919.69
669.711	15926.02
670.06	15849.19
670.41	15958.79
670.76	15831.56
671.109	15928.51
671.459	15865.91
671.808	15873.14
672.157	15956.53
672.507	15854.39
672.856	15804.22
673.205	15834.5
673.554	15959.92
673.904	15893.25
674.253	15867.72
674.602	15874.27
674.951	15644
675.3	15618.01
675.649	15760.6
675.998	15804.22
676.346	15822.3
676.695	15907.94
677.044	15735.97
677.393	15820.04
677.741	15903.2
678.09	15724.9
678.438	15706.14
678.787	15752.92
679.135	15821.17
679.484	15695.29
679.832	15758.57
680.181	15648.52
680.529	15795.86
680.877	15740.49
681.225	15618.23
681.573	15773.94
681.922	15676.08
682.27	15565.81
682.618	15576.65
682.966	15605.58
683.314	15671.57
683.661	15512.02
684.009	15538.91
684.357	15556.54
684.705	15382.53
685.053	15493.72
685.4	15394.96
685.748	15322.65
686.095	15352.25
686.443	15326.72
686.79	15276.32
687.138	15315.19
687.485	15246.27
687.832	15187.28
688.18	15236.32
688.527	15153.84
688.874	15120.85
689.221	15164.01
689.568	15063.22
689.915	15062.99
690.262	15044.24
690.609	15031.81
690.956	14978.02
691.303	15036.78
691.65	14844.02
691.997	14849.89
692.344	14848.99
692.69	14715.88
693.037	14834.98
693.383	14696.22
693.73	14717.69
694.077	14757.01
694.423	14670.46
694.769	14672.04
695.116	14577.13
695.462	14568.09
695.808	14521.31
696.155	14472.5
696.501	14395.44
696.847	14394.08
697.193	14380.3
697.539	14404.03
697.885	14305.5
698.231	14220.3
698.577	14325.84
698.923	14278.61
699.269	14180.53
699.614	14107.31
699.96	14147.09
700.306	14134.88
700.651	13989.12
700.997	13926.75
701.342	13919.97
701.688	14029.12
702.033	13968.79
702.379	13925.85
702.724	13872.06
703.069	13920.2
703.415	13699.19
703.76	13710.49
704.105	13729.24
704.45	13758.85
704.795	13636.14
705.14	13547.55
705.485	13642.92
705.83	13516.37
706.175	13591.39
706.52	13555.46
706.865	13481.11
707.209	13477.72
707.554	13414.68
707.899	13486.09
708.243	13386.43
708.588	13334.45
708.932	13254.91
709.277	13238.63
709.621	13199.54
709.966	13272.31
710.31	13246.32
710.654	13124.29
710.998	13139.2
711.342	13143.27
711.687	13084.51
712.031	13220.33
712.375	13058.3
712.719	13057.17
713.063	13050.17
713.407	13117.28
713.75	13018.3
714.094	13080
714.438	12941.92
714.782	12916.84
715.125	12867.12
715.469	12879.55
715.812	12796.84
716.156	12779.89
716.499	12739.21
716.843	12845.2
717.186	12709.38
717.53	12839.55
717.873	12786.44
718.216	12779.89
718.559	12736.05
718.902	12695.15
719.246	12730.85
719.589	12628.03
719.932	12701.02
720.275	12668.25
720.617	12648.37
720.96	12661.47
721.303	12614.7
721.646	12587.13
721.989	12578.54
722.331	12593.23
722.674	12522.95
723.016	12530.63
723.359	12557.97
723.701	12519.33
724.044	12397.08
724.386	12377.41
724.729	12569.95
725.071	12430.29
725.413	12480.91
725.755	12432.1
726.097	12340.35
726.439	12324.08
726.782	12283.63
727.124	12394.59
727.465	12341.71
727.807	12331.09
728.149	12277.98
728.491	12253.8
728.833	12336.51
729.175	12311.2
729.516	12235.27
729.858	12269.62
730.199	12260.81
730.541	12231.88
730.882	12158.66
731.224	12246.8
731.565	12194.14
731.906	12212.67
732.248	12256.29
732.589	12138.1
732.93	12125.22
733.271	12143.3
733.612	12169.96
733.953	12138.78
734.294	12140.36
734.635	12100.81
734.976	12119.79
735.317	12007.25
735.658	12082.73
735.999	12059.46
736.339	12017.2
736.68	12176.52
737.021	12046.12
737.361	12029.85
737.702	12103.3
738.042	12076.63
738.383	12122.28
738.723	12097.65
739.063	11961.38
739.404	12074.37
739.744	12052
740.084	12014.94
740.424	12003.41
740.764	11953.47
741.104	12021.49
741.444	11899.24
741.784	11940.59
742.124	11882.51
742.464	11920.03
742.804	11894.49
743.143	11928.16
743.483	11913.02
743.823	11779.46
744.162	11874.6
744.502	11947.37
744.841	11800.25
745.181	11900.59
745.52	11847.03
745.86	11838.45
746.199	11877.31
746.538	11821.5
746.877	11873.47
747.216	11795.28
747.556	11845.23
747.895	11817.88
748.234	11786.7
748.573	11784.66
748.911	11767.49
749.25	11786.92
749.589	11697.43
749.928	11735.17
750.267	11767.71
750.605	11774.04
750.944	11678
751.283	11706.92
751.621	11724.55
751.96	11619.92
752.298	11606.36
752.636	11678
752.975	11580.6
753.313	11633.25
753.651	11623.76
753.989	11517.1
754.327	11609.75
754.666	11446.59
755.004	11547.83
755.342	11496.99
755.679	11480.26
756.017	11502.86
756.355	11486.82
756.693	11331.34
757.031	11428.74
757.368	11297.44
757.706	11318.69
758.044	11334.05
