Data from tablewood_brown_FLMS001491_082.txt Node
Date: Tue Feb 07 11:11:07 GMT 2017
User: dcchb
Spectrometer: FLMS00149
Trigger mode: 0
Integration Time (sec): 2.000000E-2
Scans to average: 10
Electric dark correction enabled: true
Nonlinearity correction enabled: false
Boxcar width: 0
XAxis mode: Wavelengths
Number of Pixels in Spectrum: 2048
>>>>>Begin Spectral Data<<<<<
341.393	-16.69
341.776	-16.69
342.16	-16.69
342.543	-59.86
342.927	-58.95
343.31	-72.96
343.693	-76.13
344.077	-63.92
344.46	-48.33
344.843	-53.98
345.226	-41.33
345.61	-21.89
345.993	-11.5
346.376	-14.21
346.759	5.23
347.142	25.56
347.525	37.99
347.908	66.47
348.291	75.51
348.674	102.4
349.057	91.1
349.44	116.18
349.823	139.01
350.206	176.52
350.588	214.49
350.971	214.71
351.354	224.88
351.737	252.68
352.119	266.01
352.502	254.26
352.884	283.41
353.267	290.42
353.65	325.22
354.032	305.56
354.414	313.92
354.797	309.4
355.179	331.54
355.562	317.99
355.944	330.87
356.326	346.23
356.709	357.98
357.091	334.03
357.473	348.95
357.855	338.78
358.238	336.52
358.62	347.82
359.002	348.95
359.384	365.22
359.766	359.57
360.148	346.69
360.53	355.27
360.912	339.23
361.294	327.48
361.676	360.47
362.057	341.49
362.439	357.76
362.821	328.83
363.203	327.03
363.584	329.06
363.966	353.69
364.348	333.58
364.729	359.34
365.111	323.18
365.493	339.23
365.874	340.13
366.256	326.8
366.637	313.24
367.019	336.74
367.4	326.35
367.781	334.48
368.163	328.83
368.544	322.51
368.925	311.21
369.306	340.13
369.688	339
370.069	331.32
370.45	338.32
370.831	337.42
371.212	349.62
371.593	321.15
371.974	323.18
372.355	334.71
372.736	340.81
373.117	343.3
373.498	341.26
373.879	335.39
374.26	339.45
374.641	335.16
375.021	334.03
375.402	328.16
375.783	341.04
376.163	362.28
376.544	351.66
376.925	345.78
377.305	362.5
377.686	354.6
378.066	375.61
378.447	388.27
378.827	354.6
379.208	350.75
379.588	358.44
379.968	352.79
380.349	388.27
380.729	366.8
381.109	371.54
381.489	366.57
381.87	355.27
382.25	356.86
382.63	389.62
383.01	372.45
383.39	380.36
383.77	358.66
384.15	362.73
384.53	381.94
384.91	375.39
385.29	406.8
385.67	401.37
386.049	405.44
386.429	405.22
386.809	387.14
387.189	357.76
387.568	416.97
387.948	405.67
388.328	424.65
388.707	432.33
389.087	418.55
389.466	416.29
389.846	416.06
390.225	404.54
390.605	409.96
390.984	432.33
391.363	447.7
391.743	427.36
392.122	418.1
392.501	440.24
392.881	433.01
393.26	439.11
393.639	432.56
394.018	459.45
394.397	446.57
394.776	447.02
395.155	457.42
395.534	473.69
395.913	467.13
396.292	490.64
396.671	482.95
397.05	465.33
397.429	461.03
397.808	461.03
398.186	486.57
398.565	481.15
398.944	482.95
399.323	487.02
399.701	497.64
400.08	513.91
400.458	495.83
400.837	499.45
401.215	489.51
401.594	525.66
401.972	502.84
402.351	493.57
402.729	512.56
403.107	519.11
403.486	531.09
403.864	534.48
404.242	541.93
404.62	546
404.999	570.41
405.377	564.76
405.755	553.23
406.133	547.81
406.511	581.93
406.889	570.41
407.267	582.16
407.645	588.26
408.023	585.32
408.401	585.78
408.779	588.49
409.156	580.13
409.534	600.46
409.912	604.98
410.29	586.23
410.667	612.67
411.045	619.45
411.422	614.93
411.8	654.25
412.178	662.61
412.555	655.83
412.933	665.1
413.31	644.08
413.687	673
414.065	664.64
414.442	664.19
414.819	667.81
415.197	673.23
415.574	710.29
415.951	688.15
416.328	683.63
416.705	729.73
417.082	711.87
417.46	693.8
417.837	728.14
418.214	753
418.591	721.82
418.967	742.83
419.344	741.48
419.721	770.18
420.098	735.15
420.475	788.26
420.852	782.83
421.228	778.54
421.605	768.14
421.982	807.46
422.358	775.38
422.735	814.92
423.111	810.4
423.488	803.4
423.864	795.71
424.241	844.53
424.617	836.84
424.994	838.2
425.37	814.47
425.746	821.7
426.123	838.42
426.499	844.98
426.875	863.06
427.251	879.1
427.627	906.22
428.003	896.95
428.379	891.98
428.756	884.98
429.132	905.99
429.507	906.9
429.883	947.35
430.259	943.28
430.635	938.08
431.011	967.23
431.387	970.85
431.763	1020.79
432.138	989.38
432.514	994.35
432.89	1028.02
433.265	1051.07
433.641	1042.71
434.016	1045.42
434.392	1059.89
434.767	1077.97
435.143	1072.09
435.518	1103.5
435.894	1080.68
436.269	1108.93
436.644	1140.34
437.02	1111.64
437.395	1134.24
437.77	1187.57
438.145	1194.8
438.52	1187.79
438.895	1160.45
439.271	1196.61
439.646	1209.71
440.021	1238.19
440.395	1204.74
440.77	1224.18
441.145	1234.12
441.52	1259.66
441.895	1270.28
442.27	1277.73
442.645	1280.9
443.019	1288.81
443.394	1288.81
443.769	1322.48
444.143	1303.72
444.518	1336.49
444.892	1316.15
445.267	1346.43
445.641	1348.02
446.016	1348.69
446.39	1384.62
446.764	1382.59
447.139	1382.82
447.513	1386.88
447.887	1391.18
448.262	1412.65
448.636	1399.99
449.01	1442.02
449.384	1437.5
449.758	1447.67
450.132	1460.1
450.506	1473.89
450.88	1495.36
451.254	1488.12
451.628	1498.75
452.002	1500.78
452.376	1514.34
452.75	1537.16
453.123	1515.69
453.497	1561.57
453.871	1593.66
454.244	1615.13
454.618	1617.61
454.992	1629.82
455.365	1642.02
455.739	1672.53
456.112	1694.67
456.486	1696.93
456.859	1719.53
457.232	1775.35
457.606	1747.1
457.979	1759.08
458.352	1804.5
458.725	1834.56
459.099	1850.38
459.472	1869.13
459.845	1865.06
460.218	1891.73
460.591	1924.72
460.964	1933.76
461.337	2011.5
461.71	2013.08
462.083	2005.17
462.456	2070.71
462.829	2028.22
463.201	2096.92
463.574	2081.33
463.947	2119.75
464.32	2161.33
464.692	2202.46
465.065	2203.13
465.438	2231.83
465.81	2262.34
466.183	2281.1
466.555	2312.28
466.928	2318.16
467.3	2368.55
467.672	2382.56
468.045	2451.04
468.417	2453.75
468.789	2506.85
469.161	2529.91
469.534	2557.48
469.906	2637.7
470.278	2642.9
470.65	2660.98
471.022	2747.53
471.394	2797.02
471.766	2803.57
472.138	2863.23
472.51	2939.61
472.882	2979.16
473.253	3020.97
473.625	3103.45
473.997	3125.37
474.369	3174.18
474.74	3212.83
475.112	3292.6
475.484	3339.6
475.855	3359.94
476.227	3447.4
476.598	3558.35
476.97	3604.68
477.341	3691.68
477.713	3746.37
478.084	3799.7
478.455	3887.16
478.827	3935.97
479.198	4091.45
479.569	4053.93
479.94	4178.45
480.311	4262.74
480.682	4345.22
481.053	4416.18
481.424	4522.62
481.795	4592
482.166	4647.59
482.537	4700.7
482.908	4854.82
483.279	4881.93
483.65	4982.72
484.021	5086.45
484.391	5179.55
484.762	5261.58
485.133	5305.2
485.503	5371.19
485.874	5513.33
486.244	5550.16
486.615	5642.82
486.985	5745.41
487.356	5808.24
487.726	5903.38
488.097	6038.29
488.467	6138.4
488.837	6176.59
489.207	6307.88
489.578	6312.86
489.948	6413.19
490.318	6520.76
490.688	6538.39
491.058	6699.97
491.428	6687.31
491.798	6838.94
492.168	7000.97
492.538	6960.75
492.908	7125.49
493.278	7099.28
493.648	7189.22
494.017	7325.26
494.387	7330.68
494.757	7449.55
495.126	7602.99
495.496	7577
495.866	7604.8
496.235	7671.01
496.605	7805.92
496.974	7878.69
497.344	7918.92
497.713	7915.07
498.082	8007.5
498.452	8151
498.821	8179.47
499.19	8189.19
499.559	8289.53
499.928	8393.71
500.298	8385.57
500.667	8498.11
501.036	8533.82
501.405	8561.16
501.774	8606.81
502.143	8709.63
502.512	8746.24
502.88	8818.55
503.249	8856.29
503.618	8903.07
503.987	8968.38
504.356	9057.87
504.724	9123.4
505.093	9204.98
505.462	9244.98
505.83	9298.31
506.199	9346.45
506.567	9493.56
506.936	9491.53
507.304	9630.28
507.672	9644.07
508.041	9728.81
508.409	9715.93
508.777	9899.43
509.145	9955.7
509.514	10076.15
509.882	10045.41
510.25	10102.59
510.618	10219.87
510.986	10308.46
511.354	10368.57
511.722	10442.01
512.09	10572.41
512.458	10550.94
512.826	10690.37
513.193	10729.24
513.561	10775.11
513.929	11016.46
514.297	11084.71
514.664	11123.13
515.032	11139.17
515.4	11206.74
515.767	11248.77
516.135	11364.02
516.502	11394.98
516.869	11538.03
517.237	11669.1
517.604	11625.26
517.972	11754.52
518.339	11915.87
518.706	11915.87
519.073	12012.14
519.44	12105.92
519.808	12290.33
520.175	12395.86
520.542	12391.57
520.909	12575.06
521.276	12518.34
521.643	12668.85
522.009	12792.01
522.376	12855.74
522.743	13073.81
523.11	13165.78
523.477	13300.24
523.843	13383.41
524.21	13560.8
524.577	13682.83
524.943	13747.24
525.31	13755.37
525.676	13992.88
526.043	13984.52
526.409	14083.5
526.776	14343.38
527.142	14298.64
527.508	14436.26
527.874	14508.12
528.241	14555.35
528.607	14602.81
528.973	14820.2
529.339	14856.36
529.705	15024.72
530.071	15170.93
530.437	15228.55
530.803	15258.61
531.169	15289.8
531.535	15371.83
531.901	15515.33
532.267	15639.17
532.632	15703.12
532.998	15747.18
533.364	15826.5
533.73	15813.62
534.095	16037.8
534.461	16082.54
534.826	16198.92
535.192	16202.77
535.557	16339.94
535.923	16374.74
536.288	16430.1
536.653	16530.67
537.019	16532.02
537.384	16527.28
537.749	16778.8
538.114	16714.39
538.479	16795.52
538.845	16960.03
539.21	16889.75
539.575	17065.12
539.94	17034.38
540.305	17222.4
540.67	17227.37
541.034	17287.94
541.399	17334.71
541.764	17347.37
542.129	17363.41
542.494	17512.34
542.858	17629.85
543.223	17601.15
543.587	17750.52
543.952	17573.58
544.316	17765.21
544.681	17839.33
545.045	17967.69
545.41	18036.39
545.774	18058.54
546.138	18128.82
546.503	18123.85
546.867	18218.08
547.231	18372.2
547.595	18330.39
547.959	18531.52
548.324	18515.02
548.688	18547.11
549.052	18606.32
549.416	18692.87
549.779	18755.69
550.143	18822.81
550.507	18905.52
550.871	19067.32
551.235	19110.71
551.599	19257.15
551.962	19219.41
552.326	19420.31
552.689	19594.09
553.053	19519.29
553.417	19554.54
553.78	19859.62
554.143	19890.13
554.507	19952.05
554.87	20014.64
555.234	20349.78
555.597	20268.2
555.96	20410.34
556.323	20464.8
556.686	20601.52
557.05	20774.17
557.413	20863.21
557.776	20954.51
558.139	21196.08
558.502	21260.03
558.865	21333.25
559.228	21484.44
559.59	21679.68
559.953	21768.95
560.316	21999.68
560.679	22067.7
561.041	22229.95
561.404	22427.24
561.767	22602.82
562.129	22624.07
562.492	22810.73
562.854	22895.02
563.217	22953.32
563.579	23302.47
563.941	23382.92
564.304	23532.97
564.666	23753.98
565.028	23863.13
565.39	24017.02
565.753	24236
566.115	24242.1
566.477	24435.32
566.839	24695.65
567.201	24903.1
567.563	24869.43
567.925	25176.09
568.287	25236.2
568.648	25423.99
569.01	25622.18
569.372	25807.03
569.734	25868.05
570.095	26222.39
570.457	26298.55
570.819	26390.75
571.18	26603.62
571.542	26741.7
571.903	26875.71
572.265	27050.62
572.626	27146.66
572.987	27428.01
573.349	27544.39
573.71	27680.2
574.071	27904.38
574.432	28039.97
574.794	28341.66
575.155	28334.2
575.516	28491.03
575.877	28724.02
576.238	28739.39
576.599	28968.08
576.96	29015.08
577.32	29129.88
577.681	29319.48
578.042	29438.12
578.403	29578.46
578.763	29715.86
579.124	29808.96
579.485	29936.42
579.845	30145.9
580.206	30170.76
580.566	30272
580.927	30415.73
581.287	30557.42
581.648	30547.93
582.008	30746.11
582.368	30789.73
582.728	30804.19
583.089	30800.35
583.449	30935.49
583.809	31005.99
584.169	31169.38
584.529	31139.55
584.889	31387.45
585.249	31230.17
585.609	31247.12
585.969	31420.45
586.329	31384.97
586.688	31609.37
587.048	31641.68
587.408	31429.03
587.768	31610.95
588.127	31593.77
588.487	31659.76
588.846	31932.52
589.206	31665.18
589.565	31816.14
589.925	31917.61
590.284	31826.76
590.643	32023.82
591.003	32131.84
591.362	32180.88
591.721	32195.79
592.08	32016.81
592.44	32206.19
592.799	32228.11
593.158	32221.1
593.517	32286.86
593.876	32278.28
594.235	32179.97
594.593	32343.58
594.952	32411.38
595.311	32445.28
595.67	32361.66
596.029	32642.56
596.387	32682.11
596.746	32634.65
597.104	32525.5
597.463	32495.22
597.822	32653.41
598.18	32614.76
598.538	32631.03
598.897	32793.06
599.255	32516.69
599.613	32997.58
599.972	32831.71
600.33	32878.49
600.688	32870.58
601.046	32933.63
601.404	33104.24
601.762	32876.23
602.12	33133.39
602.478	33133.62
602.836	33230.34
603.194	32974.75
603.552	33019.5
603.91	33032.38
604.268	33202.55
604.625	32986.96
604.983	33099.5
605.341	33077.12
605.698	33315.31
606.056	33429.21
606.413	33303.11
606.771	33388.3
607.128	33571.8
607.485	33337.23
607.843	33366.83
608.2	33652.93
608.557	33584.46
608.914	33431.92
609.272	33645.25
609.629	33784.45
609.986	33973.6
610.343	33551.46
610.7	33839.14
611.057	33764.79
611.414	33802.98
611.771	33921.17
612.127	33980.83
612.484	33964.56
612.841	34104.89
613.198	33962.07
613.554	34044.78
613.911	34274.83
614.267	34194.16
614.624	34127.94
614.98	34244.55
615.337	34347.6
615.693	34382.4
616.05	34281.61
616.406	34545.33
616.762	34387.6
617.118	34477.99
617.475	34503.08
617.831	34642.28
618.187	34559.57
618.543	34539.46
618.899	34847.7
619.255	34638.21
619.611	34685.67
619.967	34800.24
620.323	34850.19
620.678	34686.12
621.034	34605.22
621.39	34724.09
621.746	34515.05
622.101	35130.86
622.457	34769.51
622.812	34748.72
623.168	34963.63
623.523	34916.4
623.879	34969.73
624.234	34727.25
624.589	34895.38
624.945	34855.61
625.3	34824.42
625.655	34992.1
626.01	35074.81
626.365	34911.2
626.72	34890.86
627.075	34915.04
627.43	34874.59
627.785	34855.83
628.14	34928.15
628.495	34770.87
628.85	34775.61
629.205	34716.63
629.559	34921.14
629.914	34603.19
630.269	34904.87
630.623	34753.24
630.978	34630.3
631.332	34713.47
631.687	34788.04
632.041	34574.71
632.396	34760.24
632.75	34539.69
633.104	34596.86
633.459	34318.9
633.813	34385.79
634.167	34445
634.521	34417.43
634.875	34519.8
635.229	34364.1
635.583	34259.92
635.937	34181.5
636.291	34269.86
636.645	34252.69
636.999	34219.02
637.352	34135.63
637.706	34043.88
638.06	34203.87
638.413	34141.96
638.767	34072.13
639.121	34119.36
639.474	33863.32
639.828	33864.67
640.181	33948.06
640.534	33711.68
640.888	33795.52
641.241	33595.53
641.594	33763.21
641.947	33781.96
642.301	33640.95
642.654	33709.88
643.007	33731.34
643.36	33673.27
643.713	33569.32
644.066	33725.7
644.419	33615.19
644.771	33371.13
645.124	33166.39
645.477	33143.34
645.83	32729.56
646.182	32754.65
646.535	32515.33
646.888	32547.2
647.24	32433.53
647.593	32528.66
647.945	32464.03
648.298	32412.74
648.65	32324.83
649.002	32266.52
649.355	32330.25
649.707	32312.62
650.059	32502.22
650.411	32949.9
650.763	32846.4
651.115	33332.49
651.467	33121.64
651.819	33114.19
652.171	33158.93
652.523	33004.36
652.875	33101.98
653.227	32954.87
653.578	33082.55
653.93	33114.41
654.282	32923
654.633	32914.87
654.985	33016.11
655.337	33003.91
655.688	32930.01
656.039	33185.37
656.391	32723.01
656.742	32878.03
657.094	32946.51
657.445	33028.99
657.796	33008.88
658.147	32868.99
658.498	32890.24
658.849	32859.5
659.2	32922.78
659.551	32861.09
659.902	32953.06
660.253	32797.81
660.604	33009.1
660.955	32805.04
661.306	32909.22
661.656	32715.1
662.007	32713.74
662.358	32867.19
662.708	32829.9
663.059	32731.15
663.409	32572.73
663.76	32860.63
664.11	32740.86
664.461	32767.75
664.811	32755.78
665.161	32680.52
665.511	32778.83
665.862	32682.11
666.212	32784.93
666.562	32882.33
666.912	32678.27
667.262	32665.38
667.612	32742.9
667.962	32791.03
668.312	32690.24
668.662	32753.52
669.011	32665.84
669.361	32575.89
669.711	32665.16
670.06	32558.49
670.41	32684.59
670.76	32643.24
671.109	32495.45
671.459	32586.97
671.808	32480.53
672.157	32573.18
672.507	32387.2
672.856	32317.37
673.205	32405.05
673.554	32453.19
673.904	32342.45
674.253	32528.21
674.602	32549.68
674.951	31972.52
675.3	31707.22
675.649	32308.33
675.998	32160.31
676.346	32152.86
676.695	32366.86
677.044	32019.3
677.393	32228.33
677.741	32123.48
678.09	32042.58
678.438	31937.72
678.787	32022.24
679.135	32032.41
679.484	31782.92
679.832	31887.33
680.181	31669.48
680.529	31846.2
680.877	31676.71
681.225	31565.53
681.573	31723.04
681.922	31545.87
682.27	31450.05
682.618	31588.35
682.966	31480.33
683.314	31434.46
683.661	31370.05
684.009	31213.44
684.357	31111.53
684.705	31123.5
685.053	31156.95
685.4	31051.42
685.748	31062.71
686.095	31053.9
686.443	30797.64
686.79	30889.61
687.138	30842.61
687.485	30746.79
687.832	30639.9
688.18	30591.54
688.527	30399.91
688.874	30497.53
689.221	30295.28
689.568	30269.51
689.915	30223.41
690.262	30159.46
690.609	30128.73
690.956	30025.91
691.303	29911.78
691.65	29787.72
691.997	29850.54
692.344	29520.16
692.69	29699.36
693.037	29554.73
693.383	29386.37
693.73	29516.77
694.077	29237.68
694.423	29272.25
694.769	29142.31
695.116	29076.78
695.462	29018.02
695.808	29047.4
696.155	28917.69
696.501	28700.97
696.847	28771.7
697.193	28490.13
697.539	28561.09
697.885	28250.58
698.231	28178.27
698.577	28188.44
698.923	28095.79
699.269	28041.32
699.614	27799.75
699.96	27891.72
700.306	27795.46
700.651	27739.41
700.997	27610.83
701.342	27530.83
701.688	27591.17
702.033	27385.97
702.379	27370.16
702.724	27237.96
703.069	27350.72
703.415	26937.85
703.76	27016.04
704.105	26944.4
704.45	26802.26
704.795	26749.38
705.14	26620.35
705.485	26573.11
705.83	26498.09
706.175	26334.7
706.52	26416.96
706.865	26253.58
707.209	26213.35
707.554	26208.15
707.899	26032.56
708.243	26083.41
708.588	26059.91
708.932	25896.75
709.277	25882.06
709.621	25860.59
709.966	25777.43
710.31	25698.79
710.654	25600.03
710.998	25458.79
711.342	25454.05
711.687	25356.42
712.031	25300.38
712.375	25170.21
712.719	25312.13
713.063	25170.21
713.407	25237.1
713.75	25145.36
714.094	25231
714.438	24985.81
714.782	25095.87
715.125	24912.59
715.469	25031.91
715.812	24859.94
716.156	24741.75
716.499	24731.58
716.843	24779.49
717.186	24617.46
717.53	24658.14
717.873	24687.29
718.216	24654.75
718.559	24441.19
718.902	24353.29
719.246	24456.11
719.589	24397.58
719.932	24270.35
720.275	24212.95
720.617	24163.69
720.96	24220.18
721.303	24206.62
721.646	24161.65
721.989	24060.64
722.331	24139.05
722.674	24053.18
723.016	24076.46
723.359	24081.43
723.701	24104.03
724.044	23923.47
724.386	23879.4
724.729	24086.4
725.071	23871.94
725.413	23916.46
725.755	23799.63
726.097	23868.1
726.439	23795.33
726.782	23823.58
727.124	23866.07
727.465	23687.99
727.807	23723.02
728.149	23634.21
728.491	23714.88
728.833	23757.37
729.175	23543.36
729.516	23535
729.858	23642.8
730.199	23493.87
730.541	23616.81
730.882	23490.94
731.224	23635.56
731.565	23473.76
731.906	23578.39
732.248	23568.9
732.589	23465.4
732.93	23380.88
733.271	23426.76
733.612	23409.58
733.953	23490.26
734.294	23412.52
734.635	23462.91
734.976	23407.32
735.317	23422.69
735.658	23328
735.999	23421.33
736.339	23424.27
736.68	23492.07
737.021	23301.34
737.361	23321
737.702	23410.94
738.042	23294.56
738.383	23310.38
738.723	23364.39
739.063	23284.39
739.404	23349.92
739.744	23305.63
740.084	23208.91
740.424	23199.19
740.764	23241.9
741.104	23330.04
741.444	23255.24
741.784	23170.04
742.124	23334.78
742.464	23226.99
742.804	23146.09
743.143	23191.73
743.483	23290.49
743.823	23115.8
744.162	23155.8
744.502	23188.12
744.841	23111.74
745.181	23122.13
745.52	23145.41
745.86	23171.4
746.199	23024.28
746.538	23163.71
746.877	23144.28
747.216	23229.02
747.556	23155.35
747.895	23031.29
748.234	23199.19
748.573	23046.88
748.911	23089.82
749.25	23128.69
749.589	22959.88
749.928	22953.55
750.267	23080.33
750.605	23034.45
750.944	22904.74
751.283	22989.93
751.621	22967.11
751.96	22873.1
752.298	22910.84
752.636	22884.4
752.975	22832.87
753.313	22686.66
753.651	22820.22
753.989	22674.69
754.327	22716.04
754.666	22537.51
755.004	22589.26
755.342	22706.1
755.679	22666.32
756.017	22545.2
