Data from tablewood_brown_FLMS001491_063.txt Node
Date: Tue Feb 07 11:10:49 GMT 2017
User: dcchb
Spectrometer: FLMS00149
Trigger mode: 0
Integration Time (sec): 2.000000E-2
Scans to average: 10
Electric dark correction enabled: true
Nonlinearity correction enabled: false
Boxcar width: 0
XAxis mode: Wavelengths
Number of Pixels in Spectrum: 2048
>>>>>Begin Spectral Data<<<<<
341.393	15.23
341.776	15.23
342.16	15.23
342.543	-69.07
342.927	-59.12
343.31	-54.15
343.693	-54.83
344.077	-62.06
344.46	-61.16
344.843	-53.47
345.226	-40.59
345.61	-36.75
345.993	-32.23
346.376	-13.47
346.759	7.99
347.142	38.95
347.525	29.46
347.908	47.09
348.291	94.55
348.674	85.05
349.057	105.62
349.44	119.63
349.823	157.59
350.206	143.36
350.588	196.01
350.971	219.51
351.354	215.9
351.737	221.77
352.119	262.9
352.502	263.35
352.884	283.69
353.267	280.3
353.65	302.68
354.032	297.03
354.414	308.33
354.797	316.01
355.179	317.36
355.562	327.53
355.944	338.15
356.326	327.08
356.709	347.65
357.091	339.96
357.473	351.49
357.855	341.54
358.238	356.01
358.62	342
359.002	349.91
359.384	363.01
359.766	334.77
360.148	326.86
360.53	349.91
360.912	358.95
361.294	340.87
361.676	341.54
362.057	346.29
362.439	315.78
362.821	329.12
363.203	347.87
363.584	331.83
363.966	333.41
364.348	349.45
364.729	310.36
365.111	309.46
365.493	315.1
365.874	350.36
366.256	332.51
366.637	331.15
367.019	330.92
367.4	334.77
367.781	344.71
368.163	311.49
368.544	326.86
368.925	311.94
369.306	347.42
369.688	305.61
370.069	317.14
370.45	324.6
370.831	326.18
371.212	319.4
371.593	315.33
371.974	327.53
372.355	326.63
372.736	356.46
373.117	335.67
373.498	321.88
373.879	349
374.26	326.18
374.641	338.61
375.021	316.69
375.402	338.15
375.783	354.88
376.163	356.23
376.544	327.76
376.925	351.49
377.305	344.26
377.686	352.84
378.066	334.99
378.447	347.87
378.827	340.64
379.208	356.01
379.588	369.34
379.968	354.65
380.349	336.35
380.729	366.63
381.109	367.98
381.489	377.93
381.87	362.34
382.25	354.2
382.63	373.86
383.01	342.67
383.39	368.21
383.77	377.25
384.15	393.75
384.53	369.57
384.91	374.76
385.29	374.09
385.67	381.32
386.049	391.71
386.429	399.85
386.809	383.8
387.189	418.6
387.568	394.88
387.948	389.91
388.328	409.11
388.707	404.37
389.087	427.19
389.466	417.47
389.846	431.71
390.225	405.72
390.605	417.47
390.984	413.18
391.363	411.6
391.743	425.38
392.122	412.5
392.501	411.83
392.881	418.15
393.26	410.7
393.639	426.06
394.018	429
394.397	443.69
394.776	429
395.155	435.1
395.534	443.24
395.913	467.42
396.292	440.07
396.671	453.41
397.05	452.05
397.429	458.6
397.808	462.22
398.186	464.48
398.565	464.03
398.944	473.74
399.323	495.44
399.701	480.52
400.08	481.2
400.458	481.65
400.837	489.79
401.215	482.78
401.594	503.57
401.972	503.8
402.351	520.75
402.729	519.39
403.107	520.07
403.486	529.11
403.864	516.23
404.242	509.45
404.62	513.07
404.999	518.26
405.377	557.36
405.755	532.5
406.133	544.93
406.511	572.5
406.889	547.41
407.267	590.13
407.645	560.3
408.023	563.01
408.401	584.7
408.779	568.88
409.156	583.35
409.534	585.15
409.912	573.85
410.29	576.79
410.667	607.07
411.045	622.44
411.422	601.65
411.8	621.76
412.178	635.1
412.555	643.46
412.933	647.53
413.31	639.39
413.687	651.82
414.065	667.19
414.442	670.35
414.819	657.02
415.197	684.81
415.574	659.5
415.951	673.51
416.328	685.49
416.705	665.83
417.082	711.93
417.46	707.41
417.837	692.95
418.214	694.76
418.591	712.16
418.967	718.03
419.344	727.07
419.721	735.43
420.098	727.52
420.475	729.11
420.852	720.74
421.228	742.21
421.605	745.6
421.982	744.25
422.358	770.91
422.735	789.44
423.111	763.23
423.488	784.24
423.864	798.26
424.241	815.2
424.617	810.23
424.994	791.93
425.37	796
425.746	807.97
426.123	819.5
426.499	823.11
426.875	859.05
427.251	824.24
427.627	847.29
428.003	867.18
428.379	883.68
428.756	861.76
429.132	878.48
429.507	885.71
429.883	884.81
430.259	915.77
430.635	920.51
431.011	934.75
431.387	944.69
431.763	945.82
432.138	946.27
432.514	982.21
432.89	981.98
433.265	1006.16
433.641	1011.81
434.016	1009.78
434.392	1061.75
434.767	1065.82
435.143	1062.2
435.518	1046.61
435.894	1088.19
436.269	1077.57
436.644	1077.34
437.02	1106.04
437.395	1093.39
437.77	1140.17
438.145	1140.39
438.52	1129.77
438.895	1153.95
439.271	1158.25
439.646	1139.49
440.021	1177.91
440.395	1205.25
440.77	1146.27
441.145	1180.62
441.52	1226.95
441.895	1238.7
442.27	1215.19
442.645	1220.39
443.019	1258.13
443.394	1244.35
443.769	1271.69
444.143	1238.24
444.518	1272.82
444.892	1279.6
445.267	1323.21
445.641	1296.32
446.016	1311.24
446.39	1328.86
446.764	1295.64
447.139	1309.2
447.513	1343.1
447.887	1347.62
448.262	1375.42
448.636	1322.99
449.01	1355.98
449.384	1398.47
449.758	1384.46
450.132	1405.47
450.506	1391.01
450.88	1403.66
451.254	1412.93
451.628	1419.93
452.002	1494.06
452.376	1466.71
452.75	1478.01
453.123	1483.21
453.497	1492.47
453.871	1521.85
454.244	1532.25
454.618	1540.61
454.992	1576.31
455.365	1556.88
455.739	1609.31
456.112	1618.57
456.486	1607.5
456.859	1616.99
457.232	1668.97
457.606	1714.84
457.979	1692.24
458.352	1744.45
458.725	1717.33
459.099	1752.13
459.472	1788.74
459.845	1810.21
460.218	1802.52
460.591	1825.12
460.964	1837.55
461.337	1905.57
461.71	1918.68
462.083	1915.97
462.456	1954.16
462.829	1950.99
463.201	1989.41
463.574	1993.48
463.947	2037.09
464.32	2062.18
464.692	2083.19
465.065	2129.75
465.438	2113.25
465.81	2156.64
466.183	2211.78
466.555	2203.87
466.928	2229.4
467.3	2268.73
467.672	2247.26
468.045	2340.14
468.417	2346.92
468.789	2401.15
469.161	2421.49
469.534	2488.15
469.906	2508.95
470.278	2533.13
470.65	2551.66
471.022	2622.61
471.394	2656.96
471.766	2702.84
472.138	2740.13
472.51	2809.5
472.882	2849.5
473.253	2900.8
473.625	2937.41
473.997	2963.4
474.369	3054.24
474.74	3088.59
475.112	3141.25
475.484	3242.49
475.855	3274.12
476.227	3329.26
476.598	3400.22
476.97	3432.08
477.341	3573.32
477.713	3652.19
478.084	3633.66
478.455	3721.12
478.827	3796.37
479.198	3875.46
479.569	3906.42
479.94	4025.52
480.311	4132.86
480.682	4201.78
481.053	4331.95
481.424	4374.43
481.795	4444.26
482.166	4494.88
482.537	4508.67
482.908	4647.42
483.279	4729.68
483.65	4784.82
484.021	4939.39
484.391	4986.62
484.762	5060.74
485.133	5154.53
485.503	5174.64
485.874	5350.23
486.244	5354.07
486.615	5456.21
486.985	5541.18
487.356	5637.9
487.726	5701.63
488.097	5805.58
488.467	5884.9
488.837	5966.71
489.207	6055.52
489.578	6166.48
489.948	6183.65
490.318	6267.72
490.688	6327.6
491.058	6429.07
491.428	6496.86
491.798	6572.57
492.168	6754.26
492.538	6791.54
492.908	6808.72
493.278	6928.26
493.648	6957.19
494.017	7036.96
494.387	7181.59
494.757	7165.55
495.126	7287.8
495.496	7316.5
495.866	7344.07
496.235	7459.32
496.605	7555.37
496.974	7558.08
497.344	7628.36
497.713	7647.34
498.082	7724.63
498.452	7833.33
498.821	7887.11
499.19	7897.28
499.559	7988.58
499.928	8103.83
500.298	8095.01
500.667	8225.41
501.036	8260.43
501.405	8303.14
501.774	8410.03
502.143	8486.19
502.512	8509.92
502.88	8534.1
503.249	8628.11
503.618	8721.44
503.987	8784.94
504.356	8788.33
504.724	8763.47
505.093	8925.73
505.462	8992.39
505.83	9029.68
506.199	9147.19
506.567	9217.7
506.936	9226.73
507.304	9390.57
507.672	9356.45
508.041	9443.23
508.409	9511.93
508.777	9619.72
509.145	9714.86
509.514	9739.72
509.882	9745.14
510.25	9873.05
510.618	9938.58
510.986	10018.13
511.354	10144.45
511.722	10200.04
512.09	10308.97
512.458	10318.68
512.826	10433.71
513.193	10460.6
513.561	10531.11
513.929	10663.76
514.297	10786.24
514.664	10773.81
515.032	10904.2
515.4	10993.47
515.767	11078.66
516.135	11191.2
516.502	11021.94
516.869	11323.85
517.237	11358.43
517.604	11342.61
517.972	11552.1
518.339	11634.58
518.706	11692.43
519.073	11771.07
519.44	11882.94
519.808	11956.61
520.175	12100.78
520.542	12216.94
520.909	12270.95
521.276	12367.9
521.643	12400.66
522.009	12601.79
522.376	12647.66
522.743	12709.81
523.11	12828.67
523.477	13053.53
523.843	13168.78
524.21	13314.54
524.577	13413.07
524.943	13438.15
525.31	13550.01
525.676	13709.78
526.043	13751.14
526.409	13845.6
526.776	13957.68
527.142	14135.08
527.508	14026.16
527.874	14311.8
528.241	14374.17
528.607	14425.47
528.973	14618.23
529.339	14645.58
529.705	14733.93
530.071	14856.64
530.437	14959.69
530.803	15038.79
531.169	15183.41
531.535	15191.1
531.901	15195.39
532.267	15337.99
532.632	15454.82
532.998	15550.86
533.364	15587.02
533.73	15573.23
534.095	15713.8
534.461	15740.69
534.826	15894.13
535.192	15894.13
535.557	16064.07
535.923	16078.08
536.288	16222.03
536.653	16275.14
537.019	16196.27
537.384	16369.15
537.749	16344.29
538.114	16464.06
538.479	16579.99
538.845	16632.19
539.21	16617.5
539.575	16638.29
539.94	16753.32
540.305	16848.91
540.67	16848.68
541.034	16935.01
541.399	17017.94
541.764	17190.14
542.129	17131.61
542.494	17300.42
542.858	17290.48
543.223	17288.22
543.587	17463.81
543.952	17452.73
544.316	17542.9
544.681	17446.86
545.045	17529.79
545.41	17692.5
545.774	17831.03
546.138	17734.53
546.503	17861.99
546.867	17937.69
547.231	18010.68
547.595	18049.33
547.959	18127.97
548.324	18145.6
548.688	18246.16
549.052	18295.2
549.416	18414.97
549.779	18513.27
550.143	18526.6
550.507	18729.08
550.871	18691.57
551.235	18734.73
551.599	19033.48
551.962	19075.74
552.326	19114.38
552.689	19233.7
553.053	19253.59
553.417	19359.12
553.78	19674.6
554.143	19622.17
554.507	19656.97
554.87	19838.66
555.234	20105.32
555.597	19938.77
555.96	20177.18
556.323	20210.4
556.686	20373.56
557.05	20592.54
557.413	20601.58
557.776	20653.55
558.139	20870.04
558.502	21013.77
558.865	21055.58
559.228	21310.03
559.59	21494.43
559.953	21432.29
560.316	21918.15
560.679	21787.08
561.041	22046.74
561.404	22177.35
561.767	22384.35
562.129	22345.49
562.492	22742.09
562.854	22639.49
563.217	22785.02
563.579	22960.16
563.941	23130.32
564.304	23286.48
564.666	23547.94
565.028	23620.71
565.39	23758.78
565.753	24006.46
566.115	24041.49
566.477	24329.39
566.839	24382.49
567.201	24634.69
567.563	24719.21
567.925	24969.6
568.287	25098.86
568.648	25160.33
569.01	25524.16
569.372	25759.18
569.734	25728.45
570.095	26059.06
570.457	26243.69
570.819	26312.84
571.18	26407.75
571.542	26644.58
571.903	26680.06
572.265	26996.21
572.626	27082.54
572.987	27300.16
573.349	27369.31
573.71	27624.9
574.071	27726.81
574.432	28009.52
574.794	28172
575.155	28234.14
575.516	28294.71
575.877	28514.14
576.238	28609.05
576.599	28835.48
576.96	28785.77
577.32	29063.28
577.681	29268.47
578.042	29528.57
578.403	29527.44
578.763	29587.56
579.124	29731.51
579.485	29997.94
579.845	30056.47
580.206	30058.5
580.566	30189.57
580.927	30307.08
581.287	30383.24
581.648	30435.44
582.008	30627.53
582.368	30564.93
582.728	30724.47
583.089	30900.74
583.449	30833.17
583.809	30931.25
584.169	31136.22
584.529	31052.15
584.889	31365.59
585.249	31196.1
585.609	31225.03
585.969	31371.69
586.329	31302.76
586.688	31468.18
587.048	31425.7
587.408	31366.49
587.768	31577.33
588.127	31486.49
588.487	31550.44
588.846	31865.69
589.206	31577.33
589.565	31687.84
589.925	31918.34
590.284	31916.99
590.643	32012.58
591.003	32001.28
591.362	32067.72
591.721	32041.5
592.08	32003.31
592.44	32120.14
592.799	32207.6
593.158	32228.16
593.517	32223.19
593.876	32267.94
594.235	32204.89
594.593	32180.03
594.952	32332.57
595.311	32324.21
595.67	32430.64
596.029	32501.15
596.387	32634.25
596.746	32665.44
597.104	32435.84
597.463	32519
597.822	32613.69
598.18	32497.08
598.538	32450.98
598.897	32751.09
599.255	32489.85
599.613	32979.56
599.972	32619.11
600.33	32726
600.688	32640.36
601.046	32769.62
601.404	33012.1
601.762	32830.63
602.12	33045.32
602.478	33151.98
602.836	33096.16
603.194	32894.14
603.552	33003.28
603.91	32870.63
604.268	33072.66
604.625	32896.17
604.983	33075.15
605.341	32989.05
605.698	33149.27
606.056	33326.89
606.413	33246.89
606.771	33374.12
607.128	33283.28
607.485	33307.01
607.843	33271.98
608.2	33372.54
608.557	33567.79
608.914	33369.15
609.272	33620.44
609.629	33671.06
609.986	33698.18
610.343	33585.42
610.7	33827.22
611.057	33780.67
611.414	33699.99
611.771	33725.75
612.127	33817.5
612.484	33906.99
612.841	34076.7
613.198	33789.48
613.554	33937.72
613.911	34077.83
614.267	34032.86
614.624	34007.55
614.98	34220.88
615.337	34357.15
615.693	34231.5
616.05	34288.22
616.406	34531.61
616.762	34332.29
617.118	34358.73
617.475	34282.8
617.831	34415
618.187	34436.02
618.543	34494.32
618.899	34565.28
619.255	34586.97
619.611	34419.29
619.967	34665.61
620.323	34659.96
620.678	34469.46
621.034	34481.89
621.39	34500.87
621.746	34380.42
622.101	34973.4
622.457	34688.21
622.812	34800.75
623.168	34920.07
623.523	34869.45
623.879	35019.28
624.234	34641.43
624.589	34915.78
624.945	34827.19
625.3	34940.41
625.655	34879.17
626.01	34938.38
626.365	34878.72
626.72	34784.93
627.075	34766.63
627.43	34848.89
627.785	34696.12
628.14	34869.45
628.495	34787.42
628.85	34780.41
629.205	34660.87
629.559	34901.77
629.914	34713.97
630.269	34657.48
630.623	34605.28
630.978	34540.19
631.332	34736.35
631.687	34752.84
632.041	34627.65
632.396	34694.99
632.75	34527.09
633.104	34477.14
633.459	34322.8
633.813	34367.09
634.167	34382.23
634.521	34289.58
634.875	34427.65
635.229	34293.42
635.583	34241.67
635.937	34146.76
636.291	34246.87
636.645	34284.16
636.999	34074.44
637.352	34302.01
637.706	34058.85
638.06	34081.67
638.413	34062.92
638.767	33866.99
639.121	33910.83
639.474	33842.13
639.828	33977.27
640.181	33805.98
640.534	33995.8
640.888	33736.6
641.241	33781.57
641.594	33612.76
641.947	33643.04
642.301	33625.64
642.654	33648.01
643.007	33711.97
643.36	33677.39
643.713	33557.39
644.066	33437.4
644.419	33417.51
644.771	33268.81
645.124	33058.65
645.477	33038.54
645.83	32773.91
646.182	32643.75
646.535	32563.52
646.888	32683.07
647.24	32483.52
647.593	32600.81
647.945	32567.82
648.298	32391.55
648.65	32305
649.002	32318.33
649.355	32381.83
649.707	32389.29
650.059	32485.11
650.411	32745.44
650.763	32843.74
651.115	33113.56
651.467	33021.36
651.819	33098.65
652.171	33079.44
652.523	33051.19
652.875	32942.5
653.227	32902.04
653.578	33076.73
653.93	32932.1
654.282	32994.47
654.633	32777.08
654.985	32996.05
655.337	32883.06
655.688	32969.16
656.039	33019.1
656.391	32691.88
656.742	32837.19
657.094	32780.47
657.445	32989.27
657.796	32889.62
658.147	32789.51
658.498	32766
658.849	32932.33
659.2	32860.46
659.551	32700.24
659.902	32849.62
660.253	32740.47
660.604	32908.82
660.955	32624.09
661.306	32859.11
661.656	32603.97
662.007	32657.53
662.358	32740.92
662.708	32796.28
663.059	32741.6
663.409	32603.52
663.76	32721.48
664.11	32650.07
664.461	32709.73
664.811	32785.66
665.161	32758.09
665.511	32654.14
665.862	32518.1
666.212	32772.1
666.562	32780.92
666.912	32652.79
667.262	32652.56
667.612	32696.63
667.962	32736.63
668.312	32647.59
668.662	32776.62
669.011	32595.16
669.361	32690.52
669.711	32496.86
670.06	32455.05
670.41	32544.99
670.76	32515.39
671.109	32520.36
671.459	32495.73
671.808	32417.09
672.157	32458.89
672.507	32293.92
672.856	32368.5
673.205	32398.33
673.554	32365.79
673.904	32221.16
674.253	32348.39
674.602	32279.01
674.951	31854.39
675.3	31728.29
675.649	32233.59
675.998	32142.97
676.346	32227.94
676.695	32258.67
677.044	32019.13
677.393	32190.42
677.741	32265.45
678.09	32138.45
678.438	32054.84
678.787	32061.84
679.135	32046.7
679.484	31819.59
679.832	31955.85
680.181	31738.69
680.529	31870.21
680.877	31720.83
681.225	31713.15
681.573	31891.68
681.922	31548.41
682.27	31510.22
682.618	31542.53
682.966	31574.85
683.314	31461.18
683.661	31359.03
684.009	31228.87
684.357	31300.73
684.705	31198.81
685.053	31112.49
685.4	30997.24
685.748	30910.46
686.095	30983.22
686.443	30864.13
686.79	30824.13
687.138	30766.06
687.485	30682.89
687.832	30627.3
688.18	30718.83
688.527	30530.81
688.874	30399.96
689.221	30331.72
689.568	30204.26
689.915	30256.46
690.262	30225.05
690.609	30105.73
690.956	30035.68
691.303	29989.8
691.65	29761.79
691.997	29776.02
692.344	29609.02
692.69	29478.86
693.037	29610.83
693.383	29290.61
693.73	29481.8
694.077	29233.89
694.423	29185.31
694.769	29110.05
695.116	29097.62
695.462	28996.61
695.808	29018.3
696.155	28846.11
696.501	28769.95
696.847	28638.2
697.193	28563.18
697.539	28564.53
697.885	28378.1
698.231	28269.62
698.577	28289.28
698.923	28191.66
699.269	28060.82
699.614	27962.06
699.96	27865.79
700.306	27770.65
700.651	27626.25
700.997	27636.19
701.342	27453.15
701.688	27466.93
702.033	27355.3
702.379	27367.27
702.724	27197.79
703.069	27317.11
703.415	26972.93
703.76	27056.32
704.105	27036.89
704.45	26977.91
704.795	26728.87
705.14	26700.63
705.485	26697.91
705.83	26489.56
706.175	26553.51
706.52	26342.67
706.865	26214.99
707.209	26186.97
707.554	26134.54
707.899	26178.83
708.243	25934.77
708.588	25968.22
708.932	25916.01
709.277	25755.11
709.621	25901.55
709.966	25651.39
710.31	25733.42
710.654	25450.04
710.998	25557.6
711.342	25499.98
711.687	25474.67
712.031	25356.25
712.375	25272.87
712.719	25198.97
713.063	25239.42
713.407	25238.07
713.75	25195.58
714.094	25194.45
714.438	24970.05
714.782	24942.71
715.125	24830.84
715.469	24991.07
715.812	24820.68
716.156	24662.49
716.499	24601.25
716.843	24655.48
717.186	24514.47
717.53	24705.2
717.873	24678.31
718.216	24544.07
718.559	24594.47
718.902	24361.7
719.246	24521.25
719.589	24387.01
719.932	24321.48
720.275	24327.58
720.617	24300.69
720.96	24253.01
721.303	24232.44
721.646	24246.45
721.989	24085.78
722.331	24279.45
722.674	24061.6
723.016	24145.21
723.359	24147.25
723.701	24169.62
724.044	24039
724.386	23813.02
724.729	24036.74
725.071	23973.24
725.413	23853.24
725.755	23957.19
726.097	23841.27
726.439	23822.96
726.782	23842.4
727.124	23991.32
727.465	23798.33
727.807	23855.05
728.149	23776.18
728.491	23708.16
728.833	23731.66
729.175	23585.45
729.516	23570.54
729.858	23601.72
730.199	23693.93
730.541	23579.8
730.882	23569.86
731.224	23703.42
731.565	23530.77
731.906	23570.31
732.248	23635.17
732.589	23529.18
732.93	23589.52
733.271	23490.99
733.612	23551.56
733.953	23464.78
734.294	23453.48
734.635	23393.82
734.976	23476.3
735.317	23436.76
735.658	23473.37
735.999	23408.06
736.339	23426.36
736.68	23446.7
737.021	23422.52
737.361	23289.19
737.702	23418.23
738.042	23359.24
738.383	23224.56
738.723	23405.57
739.063	23378.68
739.404	23321.05
739.744	23283.99
740.084	23300.04
740.424	23241.73
740.764	23278.57
741.104	23300.49
741.444	23307.04
741.784	23250.09
742.124	23237.44
742.464	23151.79
742.804	23174.16
743.143	23186.37
743.483	23248.74
743.823	23097.33
744.162	23162.41
744.502	23181.4
744.841	23190.21
745.181	23166.03
745.52	23175.97
745.86	23084.22
746.199	23112.25
746.538	23120.38
746.877	23159.48
747.216	23132.58
747.556	22947.28
747.895	23089.87
748.234	22980.27
748.573	23067.5
748.911	23020.27
749.25	22964.9
749.589	22884.23
749.928	22942.53
750.267	23065.24
750.605	22908.86
750.944	22853.5
751.283	22888.07
751.621	22973.49
751.96	22830.22
752.298	22769.88
752.636	22883.1
752.975	22693.27
753.313	22557.46
753.651	22776.89
753.989	22612.82
754.327	22614.86
754.666	22526.5
755.004	22620.96
755.342	22645.82
755.679	22587.51
756.017	22405.37
