Data from tablewood_brown_FLMS001491_096.txt Node
Date: Tue Feb 07 11:11:18 GMT 2017
User: dcchb
Spectrometer: FLMS00149
Trigger mode: 0
Integration Time (sec): 2.000000E-2
Scans to average: 10
Electric dark correction enabled: true
Nonlinearity correction enabled: false
Boxcar width: 0
XAxis mode: Wavelengths
Number of Pixels in Spectrum: 2048
>>>>>Begin Spectral Data<<<<<
341.393	-0.06
341.776	-0.06
342.16	-0.06
342.543	-54.74
342.927	-70.56
343.31	-65.14
343.693	-74.63
344.077	-67.17
344.46	-56.78
344.843	-54.07
345.226	-22.43
345.61	-24.24
345.993	-33.73
346.376	-14.07
346.759	27.29
347.142	28.19
347.525	35.65
347.908	57.57
348.291	81.3
348.674	87.62
349.057	94.63
349.44	109.09
349.823	145.02
350.206	189.09
350.588	201.75
350.971	216.89
351.354	231.35
351.737	231.12
352.119	249.43
352.502	248.3
352.884	276.77
353.267	280.84
353.65	288.75
354.032	283.78
354.414	315.42
354.797	318.35
355.179	319.03
355.562	321.29
355.944	344.79
356.326	331.69
356.709	338.24
357.091	355.64
357.473	364.23
357.855	347.73
358.238	350.22
358.62	356.54
359.002	345.7
359.384	339.82
359.766	350.44
360.148	352.48
360.53	361.52
360.912	337.34
361.294	332.59
361.676	350.44
362.057	350.44
362.439	313.83
362.821	358.58
363.203	344.12
363.584	335.3
363.966	344.79
364.348	346.38
364.729	334.85
365.111	347.73
365.493	340.27
365.874	337.11
366.256	347.5
366.637	331.69
367.019	333.04
367.4	338.69
367.781	330.78
368.163	316.09
368.544	330.33
368.925	321.74
369.306	340.27
369.688	328.07
370.069	334.62
370.45	325.81
370.831	333.72
371.212	339.82
371.593	339.82
371.974	350.44
372.355	335.98
372.736	349.76
373.117	327.17
373.498	342.31
373.879	331.91
374.26	332.59
374.641	327.39
375.021	312.25
375.402	336.66
375.783	347.73
376.163	334.85
376.544	359.48
376.925	354.06
377.305	354.28
377.686	363.1
378.066	357.9
378.447	368.97
378.827	349.76
379.208	365.36
379.588	359.03
379.968	359.71
380.349	373.27
380.729	378.01
381.109	368.3
381.489	379.37
381.87	399.48
382.25	364.45
382.63	360.16
383.01	396.32
383.39	393.38
383.77	362.42
384.15	383.66
384.53	399.48
384.91	403.32
385.29	386.37
385.67	409.88
386.049	396.77
386.429	381.18
386.809	396.54
387.189	389.31
387.568	403.77
387.948	401.74
388.328	422.08
388.707	406.94
389.087	410.78
389.466	426.6
389.846	424.11
390.225	425.92
390.605	420.5
390.984	405.58
391.363	427.5
391.743	433.83
392.122	432.47
392.501	434.28
392.881	429.08
393.26	434.51
393.639	450.1
394.018	469.99
394.397	458.46
394.776	451.23
395.155	438.12
395.534	470.67
395.913	466.82
396.292	477.45
396.671	483.32
397.05	476.77
397.429	485.35
397.808	488.52
398.186	469.54
398.565	501.4
398.944	492.81
399.323	500.72
399.701	503.21
400.08	502.3
400.458	497.78
400.837	512.47
401.215	525.35
401.594	498.69
401.972	534.17
402.351	518.57
402.729	514.28
403.107	526.71
403.486	534.39
403.864	516.99
404.242	537.56
404.62	531.45
404.999	553.15
405.377	556.31
405.755	552.92
406.133	561.96
406.511	583.43
406.889	580.49
407.267	585.92
407.645	592.92
408.023	605.58
408.401	587.05
408.779	593.15
409.156	603.09
409.534	614.62
409.912	586.59
410.29	621.85
410.667	631.79
411.045	630.66
411.422	640.15
411.8	632.24
412.178	653.49
412.555	658.91
412.933	671.79
413.31	686.93
413.687	682.19
414.065	670.89
414.442	686.25
414.819	693.71
415.197	702.3
415.574	705.01
415.951	708.63
416.328	726.93
416.705	731.9
417.082	711.11
417.46	724.67
417.837	728.06
418.214	748.62
418.591	769.41
418.967	738.91
419.344	749.08
419.721	772.58
420.098	782.75
420.475	763.54
420.852	798.34
421.228	780.71
421.605	781.39
421.982	792.47
422.358	802.18
422.735	802.41
423.111	815.52
423.488	859.36
423.864	818.68
424.241	853.25
424.617	838.57
424.994	861.16
425.37	825.91
425.746	879.02
426.123	883.31
426.499	871.33
426.875	889.86
427.251	893.48
427.627	907.94
428.003	913.37
428.379	934.61
428.756	933.7
429.132	950.43
429.507	950.2
429.883	973.7
430.259	985.68
430.635	981.84
431.011	992.23
431.387	992.01
431.763	999.47
432.138	1022.29
432.514	1032.01
432.89	1036.75
433.265	1084.21
433.641	1064.55
434.016	1084.89
434.392	1112.23
434.767	1103.42
435.143	1109.52
435.518	1115.62
435.894	1144.32
436.269	1143.87
436.644	1150.2
437.02	1166.01
437.395	1169.63
437.77	1199.23
438.145	1197.88
438.52	1206.24
438.895	1204.88
439.271	1229.74
439.646	1255.5
440.021	1250.53
440.395	1286.01
440.77	1276.52
441.145	1280.14
441.52	1332.34
441.895	1312.45
442.27	1312.23
442.645	1350.87
443.019	1326.46
443.394	1342.51
443.769	1366.46
444.143	1335.73
444.518	1357.65
444.892	1358.78
445.267	1404.65
445.641	1402.39
446.016	1407.59
446.39	1413.01
446.764	1440.36
447.139	1407.59
447.513	1454.59
447.887	1424.54
448.262	1451.2
448.636	1438.78
449.01	1464.54
449.384	1469.96
449.758	1476.74
450.132	1492.11
450.506	1537.08
450.88	1519.9
451.254	1535.72
451.628	1532.56
452.002	1577.08
452.376	1555.38
452.75	1620.01
453.123	1593.57
453.497	1624.99
453.871	1631.09
454.244	1660.01
454.618	1665.21
454.992	1688.03
455.365	1667.7
455.739	1717.86
456.112	1749.05
456.486	1766
456.859	1782.5
457.232	1807.13
457.606	1774.59
457.979	1824.98
458.352	1856.17
458.725	1859.1
459.099	1889.84
459.472	1935.03
459.845	1912.66
460.218	1982.04
460.591	1953.56
460.964	2004.18
461.337	2048.48
461.71	2048.25
462.083	2072.88
462.456	2090.74
462.829	2104.29
463.201	2177.51
463.574	2141.36
463.947	2209.38
464.32	2235.36
464.692	2227.46
465.065	2262.48
465.438	2320.11
465.81	2356.49
466.183	2353.78
466.555	2383.38
466.928	2459.99
467.3	2437.17
467.672	2501.35
468.045	2549.26
468.417	2505.64
468.789	2570.72
469.161	2624.73
469.534	2704.05
469.906	2724.17
470.278	2713.54
470.65	2777.5
471.022	2868.12
471.394	2884.16
471.766	2912.86
472.138	2940.66
472.51	2999.64
472.882	3073.99
473.253	3116.47
473.625	3187.43
473.997	3228.56
474.369	3312.85
474.74	3316.01
475.112	3369.35
475.484	3480.3
475.855	3497.25
476.227	3533.64
476.598	3656.57
476.97	3673.29
477.341	3787.41
477.713	3887.75
478.084	3906.06
478.455	4029.89
478.827	4052.49
479.198	4188.08
479.569	4160.51
479.94	4327.74
480.311	4390.56
480.682	4448.87
481.053	4561.86
481.424	4685.47
481.795	4692.48
482.166	4787.16
482.537	4871.45
482.908	4973.6
483.279	5018.34
483.65	5169.75
484.021	5260.37
484.391	5315.28
484.762	5397.77
485.133	5460.36
485.503	5528.16
485.874	5680.92
486.244	5718.66
486.615	5833.69
486.985	5911.88
487.356	6022.84
487.726	6059.9
488.097	6175.15
488.467	6261.47
488.837	6356.84
489.207	6444.52
489.578	6598.87
489.948	6614.01
490.318	6731.74
490.688	6731.29
491.058	6857.16
491.428	6937.39
491.798	7040.21
492.168	7167.89
492.538	7200.66
492.908	7242.92
493.278	7374.89
493.648	7451.5
494.017	7511.38
494.387	7588.22
494.757	7633.64
495.126	7738.05
495.496	7791.83
495.866	7831.38
496.235	7943.46
496.605	8021.43
496.974	8058.49
497.344	8146.17
497.713	8261.2
498.082	8254.19
498.452	8359.72
498.821	8468.42
499.19	8408.31
499.559	8532.15
499.928	8586.61
500.298	8688.75
500.667	8755.19
501.036	8789.09
501.405	8817.79
501.774	8926.71
502.143	9000.84
502.512	9061.85
502.88	9136.88
503.249	9085.13
503.618	9197.22
503.987	9248.29
504.356	9377.1
504.724	9465.46
505.093	9464.33
505.462	9480.6
505.83	9557.43
506.199	9681.5
506.567	9829.06
506.936	9793.36
507.304	9845.56
507.672	9959.68
508.041	9981.38
508.409	10103.86
508.777	10198.32
509.145	10271.31
509.514	10323.97
509.882	10377.3
510.25	10450.97
510.618	10545.2
510.986	10611.64
511.354	10725.76
511.722	10836.04
512.09	10917.85
512.458	10869.26
512.826	10978.41
513.193	11095.7
513.561	11181.12
513.929	11277.16
514.297	11345.41
514.664	11522.8
515.032	11501.11
515.4	11722.12
515.767	11685.51
516.135	11774.55
516.502	11765.74
516.869	12007.31
517.237	12059.51
517.604	12061.55
517.972	12202.56
518.339	12357.81
518.706	12430.13
519.073	12538.6
519.44	12586.73
519.808	12708.99
520.175	12675.54
520.542	12965.25
520.909	12992.14
521.276	13075.08
521.643	13188.75
522.009	13303.1
522.376	13399.59
522.743	13449.53
523.11	13616.08
523.477	13781.95
523.843	13837.32
524.21	14048.39
524.577	14081.16
524.943	14138.33
525.31	14260.59
525.676	14490.64
526.043	14494.03
526.409	14555.04
526.776	14799.78
527.142	14829.16
527.508	14946.67
527.874	15084.74
528.241	15122.71
528.607	15180.34
528.973	15395.47
529.339	15372.65
529.705	15631.85
530.071	15750.49
530.437	15745.97
530.803	15789.81
531.169	15861.45
531.535	15924.5
531.901	16045.62
532.267	16112.29
532.632	16329.46
532.998	16296.01
533.364	16462.56
533.73	16514.76
534.095	16597.47
534.461	16626.17
534.826	16770.58
535.192	16919.05
535.557	16989.55
535.923	17121.98
536.288	17161.75
536.653	17298.02
537.019	17231.81
537.384	17257.34
537.749	17387.51
538.114	17429.77
538.479	17426.83
538.845	17601.51
539.21	17548.18
539.575	17724.22
539.94	17689.42
540.305	17836.31
540.67	17839.02
541.034	18018.9
541.399	17998.11
541.764	18024.78
542.129	18083.99
542.494	18241.72
542.858	18283.3
543.223	18279.91
543.587	18479.01
543.952	18377.99
544.316	18437.42
544.681	18521.72
545.045	18667.02
545.41	18788.38
545.774	18722.16
546.138	18866.34
546.503	18877.64
546.867	18982.27
547.231	19174.13
547.595	19162.83
547.959	19177.97
548.324	19246.67
548.688	19282.15
549.052	19390.17
549.416	19529.37
549.779	19520.79
550.143	19785.19
550.507	19748.58
550.871	19877.39
551.235	19897.5
551.599	19987.21
551.962	20170.49
552.326	20162.8
552.689	20411.84
553.053	20335.45
553.417	20330.03
553.78	20695.67
554.143	20690.92
554.507	20832.16
554.87	21020.18
555.234	21136.11
555.597	21174.53
555.96	21226.5
556.323	21356.9
556.686	21480.96
557.05	21599.15
557.413	21700.39
557.776	21883.21
558.139	22018.35
558.502	22205.01
558.865	22296.76
559.228	22454.72
559.59	22550.31
559.953	22809.06
560.316	22983.29
560.679	22961.83
561.041	23189.39
561.404	23413.57
561.767	23480.91
562.129	23661.47
562.492	23870.05
562.854	23944.17
563.217	24046.77
563.579	24103.49
563.941	24437.04
564.304	24536.47
564.666	24728.78
565.028	24937.37
565.39	25018.04
565.753	25204.7
566.115	25331.03
566.477	25450.8
566.839	25659.83
567.201	25918.58
567.563	26073.38
567.925	26311.34
568.287	26382.75
568.648	26477.67
569.01	26778.22
569.372	27027.93
569.734	26956.75
570.095	27250.53
570.457	27380.01
570.819	27549.95
571.18	27652.78
571.542	27885.09
571.903	28115.14
572.265	28279.2
572.626	28454.11
572.987	28586.76
573.349	28778.17
573.71	28841.67
574.071	29054.09
574.432	29229.23
574.794	29492.5
575.155	29525.04
575.516	29630.58
575.877	29921.19
576.238	29905.6
576.599	30376.77
576.96	30324.57
577.32	30377.22
577.681	30516.2
578.042	30766.59
578.403	30821.73
578.763	30987.83
579.124	31073.02
579.485	31343.07
579.845	31423.98
580.206	31368.16
580.566	31455.39
580.927	31582.62
581.287	31825.55
581.648	31616.97
582.008	31911.42
582.368	31950.29
582.728	32047.46
583.089	32160.91
583.449	32205.65
583.809	32246.1
584.169	32331.75
584.529	32270.73
584.889	32720.21
585.249	32626.66
585.609	32570.61
585.969	32709.14
586.329	32648.8
586.688	32804.28
587.048	32837.95
587.408	32872.98
587.768	32856.03
588.127	32900.32
588.487	32854.45
588.846	33020.09
589.206	32905.29
589.565	32995.91
589.925	33238.17
590.284	33204.95
590.643	33190.26
591.003	33372.17
591.362	33501.89
591.721	33350.71
592.08	33427.31
592.44	33536.69
592.799	33537.59
593.158	33513.41
593.517	33484.49
593.876	33586.18
594.235	33504.6
594.593	33666.4
594.952	33668.66
595.311	33593.18
595.67	33794.54
596.029	33862.56
596.387	33862.1
596.746	33972.84
597.104	33860.3
597.463	33783.46
597.822	33937.36
598.18	33853.52
598.538	33858.04
598.897	33957.69
599.255	33838.6
599.613	34357.91
599.972	34056
600.33	33969.22
600.688	34096
601.046	34168.76
601.404	34320.62
601.762	34288.08
602.12	34495.99
602.478	34414.63
602.836	34337.8
603.194	34356.1
603.552	34325.59
603.91	34261.19
604.268	34452.37
604.625	34232.94
604.983	34441.98
605.341	34271.58
605.698	34545.25
606.056	34485.82
606.413	34471.81
606.771	34635.42
607.128	34674.29
607.485	34611.91
607.843	34606.27
608.2	34766.04
608.557	34938.91
608.914	34772.14
609.272	34914.51
609.629	35038.12
609.986	35112.69
610.343	35003.32
610.7	35207.15
611.057	35109.3
611.414	35138.45
611.771	35111.11
612.127	35214.38
612.484	35208.96
612.841	35400.59
613.198	35196.76
613.554	35324.21
613.911	35638.33
614.267	35452.12
614.624	35450.54
614.98	35556.07
615.337	35637.88
615.693	35592
616.05	35600.82
616.406	35763.75
616.762	35672.23
617.118	35709.51
617.475	35776.4
617.831	35775.95
618.187	35869.96
618.543	35806.91
618.899	36067.02
619.255	35970.98
619.611	36006.91
619.967	36035.38
620.323	36192.89
620.678	35888.04
621.034	36015.72
621.39	35885.1
621.746	36012.56
622.101	36247.13
622.457	35960.81
622.812	36070.86
623.168	36291.42
623.523	36214.58
623.879	36212.32
624.234	35851.43
624.589	36164.19
624.945	36130.74
625.3	36229.5
625.655	36203.51
626.01	36278.76
626.365	36207.58
626.72	36137.3
627.075	36198.54
627.43	36176.85
627.785	36088.49
628.14	36146.34
628.495	36134.59
628.85	36112.21
629.205	36010.75
629.559	36212.1
629.914	35970.07
630.269	36069.28
630.623	35913.58
630.978	35965.55
631.332	36124.87
631.687	36034.7
632.041	35883.52
632.396	36008.71
632.75	35851.43
633.104	35883.52
633.459	35690.76
633.813	35752.9
634.167	35678.33
634.521	35730.3
634.875	35794.48
635.229	35680.81
635.583	35499.12
635.937	35401.27
636.291	35570.31
636.645	35550.42
636.999	35450.31
637.352	35545.45
637.706	35243.08
638.06	35427.03
638.413	35180.26
638.767	35190.88
639.121	35265.46
639.474	35131.68
639.828	35143.2
640.181	35202.63
640.534	35186.14
640.888	34955.41
641.241	34920.38
641.594	34903.88
641.947	35097.33
642.301	34930.32
642.654	35037.67
643.007	34946.6
643.36	34961.96
643.713	34921.96
644.066	34963.32
644.419	34622.99
644.771	34464.8
645.124	34309.1
645.477	34173.06
645.83	33933.74
646.182	33876.57
646.535	33729.45
646.888	33699.62
647.24	33635.44
647.593	33778.26
647.945	33669.57
648.298	33505.73
648.65	33425.28
649.002	33408.56
649.355	33630.92
649.707	33543.92
650.059	33634.77
650.411	34178.03
650.763	34072.49
651.115	34505.7
651.467	34452.37
651.819	34349.77
652.171	34281.53
652.523	34157.46
652.875	34235.65
653.227	33968.09
653.578	34276.56
653.93	34211.93
654.282	33992.5
654.633	33899.62
654.985	34085.15
655.337	34131.48
655.688	34000.63
656.039	34140.06
656.391	33795.67
656.742	34069.33
657.094	33991.37
657.445	34100.06
657.796	33995.66
658.147	33862.78
658.498	34002.89
658.849	34021.65
659.2	33814.2
659.551	33984.81
659.902	34011.7
660.253	33964.47
660.604	33939.62
660.955	33943.23
661.306	34053.96
661.656	33961.31
662.007	33943.46
662.358	33905.49
662.708	33940.97
663.059	33738.04
663.409	33672.5
663.76	33976.68
664.11	33813.74
664.461	33912.72
664.811	33835.44
665.161	33832.05
665.511	33701.66
665.862	33784.59
666.212	33781.2
666.562	33738.94
666.912	33972.61
667.262	33810.58
667.612	33928.99
667.962	33967.19
668.312	33817.36
668.662	33908.88
669.011	33726.97
669.361	33731.94
669.711	33636.35
670.06	33574.43
670.41	33605.84
670.76	33594.31
671.109	33689.23
671.459	33604.94
671.808	33507.09
672.157	33537.37
672.507	33359.29
672.856	33440.65
673.205	33573.75
673.554	33568.1
673.904	33429.8
674.253	33640.41
674.602	33459.4
674.951	32928.34
675.3	32801.11
675.649	33452.17
675.998	33187.32
676.346	33309.12
676.695	33432.51
677.044	32982.13
677.393	33211.27
677.741	33183.48
678.09	33221.22
678.438	32991.62
678.787	32965.86
679.135	33085.18
679.484	32834.79
679.832	32953.65
680.181	32701.23
680.529	32899.87
680.877	32743.26
681.225	32713.66
681.573	32896.25
681.922	32600.89
682.27	32600.89
682.618	32637.5
682.966	32510.73
683.314	32616.49
683.661	32421.24
684.009	32323.16
684.357	32253.78
684.705	32271.64
685.053	32338.75
685.4	32131.98
685.748	32018.54
686.095	31883.4
686.443	31710.07
686.79	31671.88
687.138	31661.48
687.485	31596.85
687.832	31501.26
688.18	31600.02
688.527	31469.17
688.874	31314.6
689.221	31422.85
689.568	31226.69
689.915	31153.7
690.262	31220.59
690.609	31153.7
690.956	30953.93
691.303	30941.28
691.65	30840.71
691.997	30786.7
692.344	30573.15
692.69	30479.37
693.037	30586.94
693.383	30222.88
693.73	30365.92
694.077	30158.92
694.423	30094.52
694.769	29994.18
695.116	29995.31
695.462	30013.84
695.808	29836
696.155	29923.9
696.501	29564.36
696.847	29650.24
697.193	29344.48
697.539	29484.82
697.885	29297.48
698.231	29135.22
698.577	29208.67
698.923	29063.13
699.269	28936.36
699.614	28817.26
699.96	28699.98
700.306	28789.47
700.651	28495.01
700.997	28448.01
701.342	28432.19
701.688	28440.78
702.033	28344.96
702.379	28148.13
702.724	28130.73
703.069	28147.23
703.415	27879.89
703.76	27822.94
704.105	27771.19
704.45	27702.27
704.795	27468.15
705.14	27549.95
705.485	27508.6
705.83	27352.9
706.175	27379.56
706.52	27222.05
706.865	27178.44
707.209	27043.75
707.554	26968.5
707.899	27104.32
708.243	26856.19
708.588	26719.47
708.932	26618.23
709.277	26768.05
709.621	26581.84
709.966	26519.25
710.31	26576.42
710.654	26286.48
710.998	26263.43
711.342	26391.57
711.687	26333.71
712.031	26073.38
712.375	26009.66
712.719	25955.19
713.063	25980.5
713.407	26152.48
713.75	25889.88
714.094	25866.83
714.438	25741.19
714.782	25748.42
715.125	25686.5
715.469	25712.26
715.812	25557.69
716.156	25529.22
716.499	25547.97
716.843	25481.76
717.186	25381.65
717.53	25514.3
717.873	25513.85
718.216	25361.31
718.559	25292.39
718.902	25070.02
719.246	25238.38
719.589	25161.09
719.932	25016.23
720.275	25119.06
720.617	25098.72
720.96	24969.23
721.303	25056.69
721.646	25015.1
721.989	24829.57
722.331	25005.84
722.674	24905.5
723.016	24882
723.359	24897.37
723.701	24937.14
724.044	24669.35
724.386	24683.14
724.729	24653.53
725.071	24644.04
725.413	24618.05
725.755	24587.77
726.097	24491.95
726.439	24408.34
726.782	24525.4
727.124	24524.72
727.465	24430.94
727.807	24410.15
728.149	24456.25
728.491	24322.02
728.833	24552.97
729.175	24461.67
729.516	24286.76
729.858	24350.26
730.199	24386.42
730.541	24265.52
730.882	24292.19
731.224	24326.08
731.565	24112.98
731.906	24292.19
732.248	24200.66
732.589	24195.01
732.93	24060.33
733.271	24084.51
733.612	24163.6
733.953	24156.6
734.294	23998.86
734.635	24042.02
734.976	24098.74
735.317	23945.98
735.658	24087.22
735.999	24049.93
736.339	23959.99
736.68	24046.32
737.021	24046.32
737.361	23919.09
737.702	24107.11
738.042	23950.05
738.383	24042.02
738.723	23953.89
739.063	23869.82
739.404	23996.15
739.744	23968.35
740.084	23715.25
740.424	23918.41
740.764	23905.76
741.104	23972.87
741.444	23796.83
741.784	23801.58
742.124	23872.31
742.464	23889.48
742.804	23858.3
743.143	23847.45
743.483	23743.5
743.823	23739.88
744.162	23787.57
744.502	23874.57
744.841	23731.52
745.181	23827.34
745.52	23707.79
745.86	23742.14
746.199	23735.36
746.538	23782.14
746.877	23717.96
747.216	23743.5
747.556	23708.25
747.895	23693.78
748.234	23496.05
748.573	23656.27
748.911	23616.95
749.25	23594.58
749.589	23459.89
749.928	23611.98
750.267	23586.44
750.605	23530.17
750.944	23498.99
751.283	23408.59
751.621	23591.87
751.96	23377.86
752.298	23412.89
752.636	23496.27
752.975	23420.34
753.313	23322.49
753.651	23462.15
753.989	23242.5
754.327	23280.91
754.666	23105.32
755.004	23199.11
755.342	23264.64
