Data from tablewood_dark_bookshelf_FLMS001491_00085.txt Node
Date: Wed Feb 08 14:15:49 GMT 2017
User: dcchb
Spectrometer: FLMS00149
Trigger mode: 0
Integration Time (sec): 2.000000E-2
Scans to average: 10
Electric dark correction enabled: true
Nonlinearity correction enabled: false
Boxcar width: 0
XAxis mode: Wavelengths
Number of Pixels in Spectrum: 2048
>>>>>Begin Spectral Data<<<<<
341.393	-14.31
341.776	-14.31
342.16	-14.31
342.543	-60.41
342.927	-65.38
343.31	-84.14
343.693	-61.31
344.077	-65.38
344.46	-41.88
344.843	-41.88
345.226	-28.54
345.61	-41.65
345.993	-13.86
346.376	-21.54
346.759	3.77
347.142	25.47
347.525	50.1
347.908	66.14
348.291	67.72
348.674	98.23
349.057	88.74
349.44	138.23
349.823	146.82
350.206	154.28
350.588	203.09
350.971	225.01
351.354	210.32
351.737	231.79
352.119	235.4
352.502	234.05
352.884	247.83
353.267	259.81
353.65	288.06
354.032	272.24
354.414	297.77
354.797	314.27
355.179	316.08
355.562	321.73
355.944	311.11
356.326	330.77
356.709	350.88
357.091	330.99
357.473	350.65
357.855	343.42
358.238	340.49
358.62	334.38
359.002	347.26
359.384	335.29
359.766	333.03
360.148	342.29
360.53	343.88
360.912	318.79
361.294	334.16
361.676	347.04
362.057	318.79
362.439	338.45
362.821	337.55
363.203	337.55
363.584	335.29
363.966	337.55
364.348	307.72
364.729	333.25
365.111	313.37
365.493	320.82
365.874	334.84
366.256	310.2
366.637	320.82
367.019	310.43
367.4	316.53
367.781	298.45
368.163	305.46
368.544	309.53
368.925	326.7
369.306	314.72
369.688	314.05
370.069	290.09
370.45	312.24
370.831	327.83
371.212	307.27
371.593	326.93
371.974	333.93
372.355	326.7
372.736	326.7
373.117	330.54
373.498	304.78
373.879	325.8
374.26	326.47
374.641	317.66
375.021	323.99
375.402	323.99
375.783	341.62
376.163	340.03
376.544	339.81
376.925	340.03
377.305	345.46
377.686	336.87
378.066	339.36
378.447	344.33
378.827	354.95
379.208	370.32
379.588	357.43
379.968	353.14
380.349	356.76
380.729	364.21
381.109	373.93
381.489	382.97
381.87	354.5
382.25	367.38
382.63	362.86
383.01	371.67
383.39	385.91
383.77	368.96
384.15	383.65
384.53	359.92
384.91	399.92
385.29	385.23
385.67	384.55
386.049	357.21
386.429	388.39
386.809	396.08
387.189	395.85
387.568	407.83
387.948	397.21
388.328	393.14
388.707	411.67
389.087	421.16
389.466	379.13
389.846	404.89
390.225	422.29
390.605	400.6
390.984	428.17
391.363	408.96
391.743	436.98
392.122	434.95
392.501	430.88
392.881	416.42
393.26	424.1
393.639	434.95
394.018	448.51
394.397	449.86
394.776	432.91
395.155	435.85
395.534	435.85
395.913	450.54
396.292	458
396.671	455.96
397.05	454.38
397.429	435.17
397.808	453.25
398.186	463.65
398.565	464.78
398.944	482.4
399.323	487.83
399.701	466.58
400.08	466.58
400.458	456.41
400.837	472.01
401.215	501.39
401.594	478.56
401.972	494.38
402.351	476.75
402.729	493.93
403.107	490.54
403.486	478.11
403.864	511.55
404.242	530.99
404.62	512.91
404.999	543.87
405.377	505.45
405.755	518.11
406.133	527.83
406.511	532.57
406.889	535.73
407.267	529.41
407.645	554.27
408.023	548.62
408.401	553.59
408.779	549.75
409.156	563.53
409.534	562.17
409.912	568.95
410.29	587.71
410.667	575.51
411.045	608.73
411.422	613.47
411.8	574.83
412.178	598.78
412.555	604.89
412.933	604.21
413.31	632.46
413.687	630.65
414.065	604.89
414.442	638.78
414.819	653.02
415.197	638.1
415.574	671.78
415.951	683.75
416.328	655.51
416.705	683.08
417.082	670.65
417.46	682.85
417.837	690.53
418.214	693.92
418.591	706.13
418.967	660.48
419.344	695.5
419.721	700.02
420.098	722.4
420.475	702.74
420.852	750.64
421.228	735.28
421.605	736.41
421.982	733.92
422.358	764.43
422.735	777.76
423.111	769.4
423.488	795.16
423.864	781.38
424.241	787.25
424.617	805.56
424.994	800.36
425.37	797.2
425.746	794.26
426.123	820.02
426.499	788.84
426.875	824.54
427.251	841.72
427.627	834.03
428.003	829.96
428.379	845.56
428.756	875.39
429.132	876.74
429.507	880.13
429.883	925.33
430.259	904.31
430.635	913.58
431.011	917.65
431.387	923.07
431.763	945.44
432.138	942.73
432.514	970.98
432.89	960.81
433.265	1000.13
433.641	994.71
434.016	1018.66
434.392	1001.26
434.767	1012.56
435.143	1034.48
435.518	1072.44
435.894	1062.05
436.269	1082.84
436.644	1085.78
437.02	1053.24
437.395	1091.65
437.77	1099.34
438.145	1132.78
438.52	1124.87
438.895	1146.57
439.271	1129.39
439.646	1170.75
440.021	1184.76
440.395	1198.77
440.77	1168.71
441.145	1160.58
441.52	1183.63
441.895	1188.82
442.27	1219.33
442.645	1204.64
443.019	1249.39
443.394	1234.25
443.769	1257.98
444.143	1251.65
444.518	1272.66
444.892	1220.91
445.267	1297.3
445.641	1272.89
446.016	1313.79
446.39	1258.2
446.764	1301.82
447.139	1286
447.513	1321.25
447.887	1324.87
448.262	1312.21
448.636	1333.45
449.01	1348.37
449.384	1378.65
449.758	1387.69
450.132	1384.98
450.506	1386.56
450.88	1404.41
451.254	1399.21
451.628	1435.37
452.002	1444.41
452.376	1441.25
452.75	1481.92
453.123	1471.53
453.497	1499.55
453.871	1550.85
454.244	1517.86
454.618	1535.48
454.992	1570.96
455.365	1553.11
455.739	1603.73
456.112	1622.03
456.486	1608.47
456.859	1641.02
457.232	1676.72
457.606	1696.16
457.979	1675.82
458.352	1729.15
458.725	1732.99
459.099	1752.2
459.472	1774.12
459.845	1793.78
460.218	1836.49
460.591	1875.13
460.964	1853.89
461.337	1885.08
461.71	1890.95
462.083	1918.75
462.456	1942.25
462.829	1935.47
463.201	1963.95
463.574	1985.41
463.947	2008.46
464.32	2052.76
464.692	2071.51
465.065	2100.44
465.438	2108.35
465.81	2160.32
466.183	2147.22
466.555	2215.01
466.928	2207.55
467.3	2212.3
467.672	2250.94
468.045	2307.89
468.417	2344.5
468.789	2326.42
469.161	2359.64
469.534	2394.22
469.906	2418.4
470.278	2424.95
470.65	2490.03
471.022	2548.79
471.394	2582.01
471.766	2562.8
472.138	2618.84
472.51	2677.15
472.882	2698.84
473.253	2707.88
473.625	2768.22
473.997	2836.24
474.369	2830.36
474.74	2887.54
475.112	2928.89
475.484	2942.68
475.855	3006.63
476.227	3042.11
476.598	3135.89
476.97	3139.73
477.341	3231.71
477.713	3266.74
478.084	3256.11
478.455	3357.81
478.827	3390.12
479.198	3498.82
479.569	3483
479.94	3572.26
480.311	3596.22
480.682	3708.53
481.053	3776.55
481.424	3830.79
481.795	3857.68
482.166	3923.44
482.537	3981.75
482.908	4039.15
483.279	4102.87
483.65	4126.6
484.021	4206.15
484.391	4228.29
484.762	4324.11
485.133	4341.28
485.503	4435.29
485.874	4520.71
486.244	4504.44
486.615	4634.38
486.985	4662.86
487.356	4713.03
487.726	4763.19
488.097	4884.77
488.467	4884.09
488.837	4977.88
489.207	5061.04
489.578	5115.28
489.948	5160.47
490.318	5246.35
490.688	5282.05
491.058	5327.47
491.428	5436.17
491.798	5431.42
492.168	5585.55
492.538	5566.11
492.908	5682.04
493.278	5696.05
493.648	5726.78
494.017	5819.89
494.387	5875.03
494.757	5934.91
495.126	5951.19
495.496	5995.03
495.866	6039.09
496.235	6097.4
496.605	6123.38
496.974	6191.41
497.344	6292.19
497.713	6263.04
498.082	6374
498.452	6346.88
498.821	6478.86
499.19	6441.57
499.559	6536.25
499.928	6514.33
500.298	6615.8
500.667	6701
501.036	6690.15
501.405	6739.87
501.774	6784.61
502.143	6848.11
502.512	6853.99
502.88	6941.44
503.249	6923.82
503.618	6959.97
503.987	7066.18
504.356	7097.82
504.724	7098.5
505.093	7186.18
505.462	7192.51
505.83	7230.47
506.199	7324.48
506.567	7385.95
506.936	7418.27
507.304	7452.16
507.672	7522.9
508.041	7581.42
508.409	7658.26
508.777	7711.59
509.145	7826.62
509.514	7782.55
509.882	7876.78
510.25	7911.81
510.618	7912.26
510.986	8001.07
511.354	8086.27
511.722	8064.12
512.09	8213.95
512.458	8218.47
512.826	8261.63
513.193	8336.21
513.561	8343.44
513.929	8445.36
514.297	8474.73
514.664	8592.7
515.032	8581.62
515.4	8657.1
515.767	8722.86
516.135	8743.65
516.502	8764.9
516.869	8919.69
517.237	8950.43
517.604	8923.08
517.972	9067.94
518.339	9146.58
518.706	9156.75
519.073	9138.22
519.44	9264.32
519.808	9354.26
520.175	9344.77
520.542	9426.8
520.909	9572.56
521.276	9527.14
521.643	9679.45
522.009	9761.25
522.376	9806.45
522.743	9853.46
523.11	10022.94
523.477	10083.51
523.843	10212.09
524.21	10217.74
524.577	10383.16
524.943	10319.43
525.31	10400.33
525.676	10575.92
526.043	10619.31
526.409	10591.74
526.776	10848.46
527.142	10826.54
527.508	10841.9
527.874	10999.41
528.241	10991.28
528.607	11064.27
528.973	11156.7
529.339	11175
529.705	11352.85
530.071	11335.9
530.437	11418.84
530.803	11518.72
531.169	11540.87
531.535	11545.84
531.901	11604.82
532.267	11662.9
532.632	11807.08
532.998	11830.35
533.364	11951.71
533.73	11986.73
534.095	12111.48
534.461	12057.24
534.826	12108.99
535.192	12155.77
535.557	12306.27
535.923	12289.78
536.288	12294.52
536.653	12397.34
537.019	12320.96
537.384	12501.07
537.749	12517.34
538.114	12568.41
538.479	12698.58
538.845	12667.17
539.21	12662.42
539.575	12758.46
539.94	12794.85
540.305	12792.36
540.67	12911.68
541.034	12931.11
541.399	12984.9
541.764	13065.57
542.129	12999.36
542.494	13108.51
542.858	13138.34
543.223	13132.69
543.587	13265.57
543.952	13340.6
544.316	13361.39
544.681	13339.92
545.045	13372.23
545.41	13563.41
545.774	13455.17
546.138	13583.98
546.503	13580.14
546.867	13622.85
547.231	13763.18
547.595	13724.54
547.959	13835.27
548.324	13753.92
548.688	13915.5
549.052	13870.07
549.416	13988.71
549.779	13955.49
550.143	14017.64
550.507	14115.49
550.871	14120.69
551.235	14183.06
551.599	14322.49
551.962	14267.8
552.326	14332.21
552.689	14489.72
553.053	14435.26
553.417	14470.96
553.78	14668.02
554.143	14635.7
554.507	14727.23
554.87	14739.43
555.234	14909.14
555.597	14836.83
555.96	14916.15
556.323	14997.73
556.686	15086.31
557.05	15124.5
557.413	15225.07
557.776	15183.48
558.139	15421.67
558.502	15368.34
558.865	15425.74
559.228	15550.71
559.59	15565.62
559.953	15567.2
560.316	15804.71
560.679	15777.14
561.041	15894.43
561.404	15955.67
561.767	16144.82
562.129	15969.9
562.492	16226.85
562.854	16249.9
563.217	16220.97
563.579	16405.6
563.941	16511.13
564.304	16517.91
564.666	16634.07
565.028	16673.84
565.39	16749.32
565.753	16845.59
566.115	16895.53
566.477	17034.96
566.839	17110.89
567.201	17173.94
567.563	17209.19
567.925	17210.78
568.287	17343.65
568.648	17345.01
569.01	17519.02
569.372	17641.95
569.734	17628.17
570.095	17711.55
570.457	17915.84
570.819	17840.14
571.18	17903.41
571.542	18001.94
571.903	18039.23
572.265	18169.85
572.626	18180.02
572.987	18239.9
573.349	18338.88
573.71	18468.6
574.071	18435.38
574.432	18558.09
574.794	18667.01
575.155	18629.95
575.516	18588.59
575.877	18638.99
576.238	18759.89
576.599	18829.49
576.96	18962.59
577.32	18920.11
577.681	18935.25
578.042	19194.45
578.403	19135.25
578.763	19145.64
579.124	19241.23
579.485	19288.69
579.845	19385.41
580.206	19351.96
580.566	19343.15
580.927	19386.99
581.287	19355.8
581.648	19431.51
582.008	19619.98
582.368	19635.12
582.728	19639.19
583.089	19602.8
583.449	19700.88
583.809	19664.5
584.169	19664.72
584.529	19695.68
584.889	19847.54
585.249	19756.92
585.609	19739.98
585.969	19875.56
586.329	19788.34
586.688	19918.73
587.048	19956.24
587.408	19851.38
587.768	20074.2
588.127	19960.99
588.487	19873.08
588.846	20055.67
589.206	20090.47
589.565	19962.12
589.925	20071.49
590.284	20058.61
590.643	20079.18
591.003	20037.37
591.362	20271.71
591.721	20181.09
592.08	20231.71
592.44	20145.16
592.799	20291.83
593.158	20242.56
593.517	20344.25
593.876	20305.84
594.235	20277.59
594.593	20348.55
594.952	20402.33
595.311	20361.2
595.67	20516
596.029	20521.2
596.387	20603.23
596.746	20589.22
597.104	20510.35
597.463	20602.78
597.822	20638.93
598.18	20655.88
598.538	20586.05
598.897	20810.91
599.255	20645.04
599.613	20931.13
599.972	20781.76
600.33	20987.4
600.688	20765.94
601.046	20892.04
601.404	20959.6
601.762	20904.69
602.12	21026.04
602.478	21085.7
602.836	21030.11
603.194	20927.29
603.552	21069.43
603.91	20911.02
604.268	21029.21
604.625	20962.09
604.983	21113.5
605.341	21070.56
605.698	21184.01
606.056	21257.22
606.413	21268.97
606.771	21238.47
607.128	21201.18
607.485	21154.85
607.843	21285.92
608.2	21324.34
608.557	21535.41
608.914	21452.47
609.272	21560.72
609.629	21500.38
609.986	21614.95
610.343	21565.46
610.7	21627.61
611.057	21679.13
611.414	21616.08
611.771	21624.9
612.127	21844.1
612.484	21770.88
612.841	21970.43
613.198	21766.36
613.554	21885.91
613.911	21902.18
614.267	21912.12
614.624	21944.89
614.98	21930.2
615.337	22047.03
615.693	22086.13
616.05	21970.65
616.406	22090.2
616.762	22050.65
617.118	22007.49
617.475	22093.13
617.831	22156.86
618.187	22212
618.543	22203.87
618.899	22254.71
619.255	22272.34
619.611	22193.7
619.967	22334.26
620.323	22282.51
620.678	22199.35
621.034	22228.5
621.39	22184.43
621.746	22262.39
622.101	22453.35
622.457	22238.21
622.812	22346.91
623.168	22383.75
623.523	22409.06
623.879	22468.27
624.234	22379.68
624.589	22358.44
624.945	22395.95
625.3	22457.42
625.655	22409.74
626.01	22442.5
626.365	22383.52
626.72	22401.37
627.075	22376.06
627.43	22320.47
627.785	22480.24
628.14	22430.3
628.495	22410.87
628.85	22363.18
629.205	22314.37
629.559	22325.44
629.914	22221.04
630.269	22373.13
630.623	22237.99
630.978	22160.7
631.332	22302.17
631.687	22359.79
632.041	22171.1
632.396	22313.47
632.75	22166.58
633.104	22167.48
633.459	22105.79
633.813	22121.38
634.167	22097.65
634.521	22101.72
634.875	22016.07
635.229	22096.3
635.583	21901.5
635.937	21877.32
636.291	21943.76
636.645	21955.96
636.999	21892.01
637.352	21979.46
637.706	21796.64
638.06	21891.33
638.413	21775.85
638.767	21806.14
639.121	21816.3
639.474	21608.17
639.828	21608.4
640.181	21672.13
640.534	21655.63
640.888	21616.08
641.241	21620.38
641.594	21602.07
641.947	21698.12
642.301	21576.31
642.654	21616.54
643.007	21555.07
643.36	21542.87
643.713	21415.86
644.066	21484.79
644.419	21363.66
644.771	21307.17
645.124	21053.84
645.477	21099.26
645.83	20981.75
646.182	20832.6
646.535	20799.38
646.888	20836.44
647.24	20734.75
647.593	20755.32
647.945	20708.09
648.298	20648.88
648.65	20562.1
649.002	20576.34
649.355	20634.19
649.707	20697.01
650.059	20816.78
650.411	20968.42
650.763	21094.74
651.115	21179.03
651.467	21251.35
651.819	21250.67
652.171	21190.11
652.523	21042.77
652.875	21026.5
653.227	20916.89
653.578	21101.75
653.93	21082.54
654.282	20948.76
654.633	20819.04
654.985	20960.96
655.337	20930.68
655.688	20883
656.039	20914.63
656.391	20762.55
656.742	20902.2
657.094	20844.81
657.445	20911.7
657.796	20937.23
658.147	20879.61
658.498	20845.93
658.849	20878.25
659.2	20864.47
659.551	20770.91
659.902	20890.91
660.253	20810.46
660.604	20829.21
660.955	20674.87
661.306	20722.32
661.656	20690.01
662.007	20766.61
662.358	20745.82
662.708	20740.18
663.059	20814.75
663.409	20584.02
663.76	20712.38
664.11	20715.32
664.461	20768.42
664.811	20798.25
665.161	20652.49
665.511	20696.56
665.862	20743.79
666.212	20700.18
666.562	20722.32
666.912	20692.94
667.262	20557.13
667.612	20634.42
667.962	20736.33
668.312	20655.66
668.662	20769.55
669.011	20750.12
669.361	20680.06
669.711	20673.28
670.06	20590.57
670.41	20644.81
670.76	20529.33
671.109	20599.16
671.459	20521.65
671.808	20508.77
672.157	20633.51
672.507	20458.15
672.856	20533.63
673.205	20581.08
673.554	20617.01
673.904	20499.5
674.253	20591.48
674.602	20461.99
674.951	20195.33
675.3	20195.78
675.649	20418.83
675.998	20448.21
676.346	20521.42
676.695	20453.4
677.044	20346.51
677.393	20335.67
677.741	20424.7
678.09	20389.9
678.438	20283.01
678.787	20390.35
679.135	20301.09
679.484	20150.59
679.832	20363.24
680.181	20190.81
680.529	20238.49
680.877	20153.52
681.225	20132.51
681.573	20222
681.922	20069.46
682.27	20102.45
682.618	20053.64
682.966	20035.33
683.314	20032.17
683.661	20019.06
684.009	19977.94
684.357	19946.3
684.705	19878.73
685.053	19938.84
685.4	19883.47
685.748	19722.8
686.095	19774.55
686.443	19763.93
686.79	19698.17
687.138	19720.54
687.485	19650.49
687.832	19556.48
688.18	19520.09
688.527	19486.42
688.874	19411.85
689.221	19486.2
689.568	19448.91
689.915	19442.36
690.262	19398.06
690.609	19304.96
690.956	19318.07
691.303	19235.81
691.65	19125.3
691.997	19140.67
692.344	19128.69
692.69	18993.1
693.037	18895.7
693.383	18918.3
693.73	18936.61
694.077	18859.77
694.423	18819.1
694.769	18804.18
695.116	18779.1
695.462	18628.82
695.808	18535.26
696.155	18650.29
696.501	18469.05
696.847	18531.87
697.193	18313.12
697.539	18381.14
697.885	18322.16
698.231	18209.85
698.577	18201.03
698.923	18120.13
699.269	18041.26
699.614	18045.33
699.96	18047.82
700.306	18012.79
700.651	17853.92
700.997	17906.13
701.342	17788.84
701.688	17744.77
702.033	17766.02
702.379	17724.66
702.724	17635.85
703.069	17732.34
703.415	17566.93
703.76	17478.34
704.105	17453.71
704.45	17455.52
704.795	17420.49
705.14	17274.28
705.485	17351.79
705.83	17274.28
706.175	17345.24
706.52	17206.71
706.865	17202.19
707.209	17147.28
707.554	17083.77
707.899	17143.89
708.243	17002.19
708.588	16979.14
708.932	16804.23
709.277	16896.89
709.621	16868.64
709.966	16714.52
710.31	16878.13
710.654	16635.65
710.998	16644.92
711.342	16726.04
711.687	16617.57
712.031	16602.2
712.375	16528.76
712.719	16500.29
713.063	16562.43
713.407	16545.26
713.75	16493.06
714.094	16500.29
714.438	16411.48
714.782	16450.57
715.125	16355.66
715.469	16344.81
715.812	16280.63
716.156	16176.45
716.499	16250.58
716.843	16256.68
717.186	16096.46
717.53	16219.84
717.873	16191.37
718.216	16037.7
718.559	16120.64
718.902	15954.09
719.246	16075.44
719.589	16015.55
719.932	15970.81
720.275	15915.22
720.617	15893.75
720.96	15865.05
721.303	15876.12
721.646	15945.05
721.989	15798.84
722.331	15797.03
722.674	15812.85
723.016	15790.93
723.359	15700.31
723.701	15863.69
724.044	15659.86
724.386	15607.2
724.729	15636.13
725.071	15635.22
725.413	15559.07
725.755	15543.48
726.097	15529.24
726.439	15458.96
726.782	15505.74
727.124	15587.54
727.465	15456.25
727.807	15442.46
728.149	15352.97
728.491	15317.49
728.833	15403.59
729.175	15296.48
729.516	15380.09
729.858	15331.5
730.199	15316.81
730.541	15255.35
730.882	15352.29
731.224	15305.52
731.565	15189.13
731.906	15250.15
732.248	15257.16
732.589	15163.15
732.93	15095.8
733.271	15149.81
733.612	15161.79
733.953	15164.5
734.294	15106.65
734.635	15095.58
734.976	15122.24
735.317	15050.38
735.658	15036.37
735.999	15043.6
736.339	14947.78
736.68	15058.97
737.021	15009.48
737.361	14920.44
737.702	15045.86
738.042	14898.52
738.383	14904.4
738.723	14971.74
739.063	14915.92
739.404	14843.83
739.744	14864.17
740.084	14880.67
740.424	14905.53
740.764	14822.36
741.104	14839.31
741.444	14779.65
741.784	14696.72
742.124	14811.52
742.464	14802.48
742.804	14822.36
743.143	14719.09
743.483	14842.03
743.823	14701.01
744.162	14680.67
744.502	14770.84
744.841	14639.32
745.181	14748.47
745.52	14584.63
745.86	14516.84
746.199	14530.17
746.538	14553.45
746.877	14588.02
747.216	14631.86
747.556	14479.55
747.895	14543.95
748.234	14500.11
748.573	14551.64
748.911	14361.81
749.25	14458.76
749.589	14328.37
749.928	14376.73
750.267	14373.34
750.605	14360.46
750.944	14392.55
751.283	14285.43
751.621	14340.8
751.96	14249.72
752.298	14225.32
752.636	14264.87
752.975	14178.99
753.313	14071.88
753.651	14224.64
753.989	14117.52
754.327	14115.49
754.666	13986.91
755.004	14033.68
755.342	14071.65
755.679	14023.29
756.017	13956.85
