Data from tablewood_dark_bookshelf_FLMS001491_00043.txt Node
Date: Wed Feb 08 14:14:48 GMT 2017
User: dcchb
Spectrometer: FLMS00149
Trigger mode: 0
Integration Time (sec): 2.000000E-2
Scans to average: 10
Electric dark correction enabled: true
Nonlinearity correction enabled: false
Boxcar width: 0
XAxis mode: Wavelengths
Number of Pixels in Spectrum: 2048
>>>>>Begin Spectral Data<<<<<
341.393	-10.69
341.776	-10.69
342.16	-10.69
342.543	-47.53
342.927	-75.77
343.31	-54.08
343.693	-61.09
344.077	-44.82
344.46	-68.09
344.843	-60.63
345.226	-46.62
345.61	-28.77
345.993	-15.21
346.376	-20.86
346.759	2.42
347.142	14.84
347.525	61.17
347.908	43.77
348.291	69.08
348.674	91.68
349.057	117.21
349.44	119.47
349.823	135.97
350.206	157.44
350.588	195.4
350.971	209.19
351.354	199.25
351.737	238.57
352.119	228.85
352.502	243.54
352.884	256.87
353.267	263.2
353.65	266.82
354.032	262.3
354.414	293.26
354.797	285.8
355.179	300.71
355.562	299.58
355.944	313.14
356.326	337.55
356.709	330.99
357.091	327.6
357.473	326.7
357.855	330.77
358.238	326.02
358.62	312.92
359.002	340.94
359.384	322.41
359.766	322.63
360.148	331.22
360.53	340.71
360.912	335.51
361.294	330.77
361.676	319.24
362.057	335.74
362.439	307.04
362.821	293.71
363.203	336.87
363.584	319.69
363.966	312.92
364.348	303.65
364.729	312.24
365.111	333.48
365.493	324.67
365.874	302.97
366.256	296.42
366.637	315.85
367.019	309.98
367.4	316.76
367.781	310.2
368.163	320.37
368.544	323.54
368.925	307.27
369.306	316.76
369.688	312.01
370.069	300.49
370.45	300.49
370.831	300.94
371.212	311.33
371.593	303.2
371.974	315.63
372.355	315.4
372.736	319.92
373.117	314.5
373.498	319.47
373.879	316.76
374.26	298.23
374.641	336.87
375.021	312.24
375.402	314.5
375.783	333.71
376.163	319.47
376.544	325.57
376.925	315.63
377.305	306.36
377.686	328.28
378.066	319.47
378.447	329.64
378.827	348.17
379.208	328.06
379.588	337.77
379.968	325.12
380.349	356.53
380.729	341.39
381.109	345.91
381.489	330.32
381.87	339.58
382.25	328.73
382.63	350.43
383.01	355.17
383.39	340.03
383.77	342.29
384.15	356.76
384.53	354.95
384.91	361.05
385.29	368.51
385.67	351.33
386.049	372.57
386.429	353.37
386.809	348.39
387.189	348.17
387.568	349.98
387.948	341.39
388.328	364.44
388.707	367.15
389.087	379.81
389.466	368.96
389.846	369.86
390.225	367.6
390.605	360.82
390.984	374.16
391.363	377.32
391.743	366.7
392.122	351.33
392.501	351.56
392.881	384.33
393.26	373.7
393.639	385.68
394.018	380.26
394.397	393.59
394.776	388.62
395.155	389.98
395.534	405.12
395.913	383.2
396.292	392.24
396.671	409.64
397.05	394.72
397.429	422.29
397.808	384.33
398.186	417.77
398.565	420.94
398.944	419.58
399.323	412.12
399.701	413.48
400.08	396.53
400.458	406.7
400.837	413.7
401.215	418.22
401.594	417.55
401.972	418.9
402.351	438.11
402.729	403.76
403.107	432.91
403.486	441.95
403.864	424.78
404.242	427.71
404.62	434.49
404.999	435.85
405.377	450.09
405.755	437.88
406.133	445.79
406.511	435.4
406.889	459.8
407.267	466.58
407.645	450.54
408.023	487.15
408.401	467.94
408.779	458
409.156	465
409.534	476.53
409.912	481.5
410.29	497.54
410.667	497.77
411.045	479.92
411.422	489.63
411.8	512.91
412.178	496.64
412.555	511.55
412.933	524.21
413.31	525.11
413.687	519.24
414.065	516.98
414.442	521.27
414.819	511.1
415.197	509.29
415.574	553.36
415.951	549.52
416.328	556.3
416.705	565.56
417.082	532.34
417.46	534.38
417.837	555.62
418.214	551.1
418.591	574.6
418.967	559.69
419.344	566.24
419.721	578.9
420.098	589.29
420.475	594.04
420.852	605.11
421.228	595.39
421.605	603.53
421.982	612.57
422.358	622.06
422.735	600.14
423.111	612.57
423.488	623.87
423.864	627.03
424.241	624.77
424.617	650.53
424.994	643.3
425.37	634.71
425.746	663.87
426.123	663.19
426.499	651.21
426.875	643.3
427.251	668.16
427.627	687.37
428.003	688.27
428.379	700.02
428.756	679.23
429.132	716.07
429.507	706.35
429.883	705.67
430.259	714.49
430.635	719.68
431.011	725.79
431.387	761.72
431.763	748.16
432.138	746.12
432.514	771.66
432.89	769.4
433.265	760.36
433.641	764.88
434.016	772.34
434.392	802.85
434.767	786.8
435.143	798.1
435.518	824.54
435.894	816.86
436.269	845.56
436.644	832.9
437.02	848.04
437.395	852.79
437.77	852.56
438.145	866.35
438.52	859.57
438.895	871.32
439.271	876.74
439.646	921.94
440.021	895.05
440.395	908.61
440.77	914.48
441.145	917.65
441.52	919.23
441.895	918.1
442.27	935.95
442.645	937.53
443.019	945.89
443.394	921.26
443.769	957.87
444.143	961.26
444.518	963.29
444.892	972.11
445.267	989.96
445.641	967.36
446.016	961.71
446.39	996.97
446.764	1012.11
447.139	1010.52
447.513	995.84
447.887	1017.53
448.262	1006.91
448.636	1026.34
449.01	1031.77
449.384	1048.72
449.758	1051.65
450.132	1067.7
450.506	1064.31
450.88	1063.86
451.254	1093.23
451.628	1100.47
452.002	1111.09
452.376	1096.17
452.75	1127.36
453.123	1123.06
453.497	1131.2
453.871	1147.7
454.244	1149.5
454.618	1166.9
454.992	1185.66
455.365	1190.63
455.739	1198.09
456.112	1215.94
456.486	1249.39
456.859	1234.7
457.232	1260.01
457.606	1263.17
457.979	1274.25
458.352	1295.71
458.725	1303.4
459.099	1338.43
459.472	1330.52
459.845	1375.94
460.218	1359.89
460.591	1381.14
460.964	1387.01
461.337	1406.45
461.71	1434.47
462.083	1443.28
462.456	1431.76
462.829	1455.94
463.201	1502.94
463.574	1459.1
463.947	1500.68
464.32	1521.92
464.692	1534.58
465.065	1574.35
465.438	1596.27
465.81	1593.56
466.183	1604.41
466.555	1634.46
466.928	1652.09
467.3	1667.46
467.672	1660.22
468.045	1684.86
468.417	1726.44
468.789	1714.46
469.161	1774.8
469.534	1738.87
469.906	1806.66
470.278	1813.67
470.65	1841.91
471.022	1890.05
471.394	1906.09
471.766	1899.09
472.138	1958.07
472.51	1948.13
472.882	2002.36
473.253	2010.95
473.625	2078.52
473.997	2105.18
474.369	2080.33
474.74	2125.52
475.112	2159.87
475.484	2222.7
475.855	2195.8
476.227	2224.5
476.598	2317.16
476.97	2290.72
477.341	2349.92
477.713	2413.88
478.084	2449.81
478.455	2488.68
478.827	2499.52
479.198	2549.47
479.569	2560.77
479.94	2634.44
480.311	2641.67
480.682	2701.1
481.053	2730.25
481.424	2774.32
481.795	2793.53
482.166	2863.58
482.537	2859.52
482.908	2970.47
483.279	2950.13
483.65	3036.46
484.021	3056.57
484.391	3082.11
484.762	3131.82
485.133	3180.64
485.503	3224.7
485.874	3310.35
486.244	3320.75
486.615	3332.5
486.985	3392.38
487.356	3485.49
487.726	3479.16
488.097	3561.87
488.467	3612.26
488.837	3608.42
489.207	3656.56
489.578	3715.99
489.948	3778.81
490.318	3818.81
490.688	3848.87
491.058	3880.05
491.428	3962.31
491.798	4006.15
492.168	4054.06
492.538	4070.1
492.908	4071.91
493.278	4148.07
493.648	4175.19
494.017	4210.21
494.387	4249.54
494.757	4283.66
495.126	4313.04
495.496	4357.78
495.866	4415.63
496.235	4452.02
496.605	4455.41
496.974	4441.62
497.344	4583.31
497.713	4585.57
498.082	4604.33
498.452	4652.69
498.821	4707.38
499.19	4701.5
499.559	4714.83
499.928	4780.59
500.298	4842.51
500.667	4844.55
501.036	4853.14
501.405	4976.75
501.774	4959.8
502.143	4969.97
502.512	4960.7
502.88	5048.16
503.249	5064.65
503.618	5094.48
503.987	5116.41
504.356	5190.75
504.724	5180.58
505.093	5269.85
505.462	5222.39
505.83	5280.92
506.199	5292.67
506.567	5374.7
506.936	5389.17
507.304	5441.82
507.672	5473.23
508.041	5496.06
508.409	5543.96
508.777	5615.37
509.145	5649.5
509.514	5647.92
509.882	5684.53
510.25	5667.58
510.618	5781.47
510.986	5797.74
511.354	5809.49
511.722	5906.89
512.09	5976.04
512.458	5952.09
512.826	6035.48
513.193	6011.07
513.561	6063.27
513.929	6108.92
514.297	6183.72
514.664	6185.76
515.032	6185.53
515.4	6270.72
515.767	6339.88
516.135	6386.2
516.502	6355.69
516.869	6490.61
517.237	6481.57
517.604	6469.59
517.972	6547.78
518.339	6582.13
518.706	6602.24
519.073	6652.86
519.44	6663.03
519.808	6801.11
520.175	6784.38
520.542	6865.29
520.909	6953.87
521.276	6943.48
521.643	7009.69
522.009	7080.42
522.376	7127.2
522.743	7156.13
523.11	7232.28
523.477	7316.35
523.843	7403.35
524.21	7455.78
524.577	7448.55
524.943	7561.31
525.31	7569.22
525.676	7661.87
526.043	7698.71
526.409	7832.49
526.776	7836.56
527.142	7859.16
527.508	7912.26
527.874	7943.45
528.241	8066.84
528.607	8071.58
528.973	8201.97
529.339	8129.66
529.705	8209.43
530.071	8325.81
530.437	8282.2
530.803	8392.7
531.169	8424.34
531.535	8340.5
531.901	8427.96
532.267	8515.86
532.632	8573.26
532.998	8537.56
533.364	8610.1
533.73	8663.43
534.095	8744.78
534.461	8809.64
534.826	8825.46
535.192	8862.3
535.557	8864.33
535.923	8935.29
536.288	9019.35
536.653	9023.87
537.019	8980.26
537.384	9090.99
537.749	9115.4
538.114	9101.84
538.479	9133.25
538.845	9216.41
539.21	9194.04
539.575	9218.44
539.94	9263.19
540.305	9289.63
540.67	9379.34
541.034	9328.95
541.399	9395.39
541.764	9347.03
542.129	9506.12
542.494	9494.82
542.858	9476.29
543.223	9561.03
543.587	9556.97
543.952	9576.85
544.316	9668.38
544.681	9646
545.045	9685.55
545.41	9750.18
545.774	9839.67
546.138	9881.93
546.503	9870.4
546.867	9895.26
547.231	9927.13
547.595	9959.44
547.959	9945.88
548.324	9948.59
548.688	10039.21
549.052	10078.76
549.416	10144.07
549.779	10096.39
550.143	10168.02
550.507	10255.7
550.871	10219.55
551.235	10208.02
551.599	10349.94
551.962	10404.18
552.326	10378.41
552.689	10483.95
553.053	10424.51
553.417	10449.6
553.78	10643.27
554.143	10537.96
554.507	10631.29
554.87	10619.99
555.234	10768.23
555.597	10763.26
555.96	10760.55
556.323	10806.88
556.686	10873.32
557.05	10957.61
557.413	10970.49
557.776	10972.3
558.139	11018.4
558.502	11179.07
558.865	11075.34
559.228	11174.32
559.59	11170.26
559.953	11240.76
560.316	11419.52
560.679	11366.41
561.041	11435.33
561.404	11530.93
561.767	11581.09
562.129	11611.6
562.492	11751.71
562.854	11714.42
563.217	11717.59
563.579	11846.17
563.941	11924.81
564.304	11963.46
564.666	12022.66
565.028	12016.56
565.39	12094.3
565.753	12151.7
566.115	12217.46
566.477	12396.44
566.839	12353.28
567.201	12398.93
567.563	12405.48
567.925	12554.4
568.287	12482.31
568.648	12595.53
569.01	12642.31
569.372	12738.13
569.734	12812.93
570.095	12832.81
570.457	12918.46
570.819	12882.53
571.18	12908.06
571.542	13004.11
571.903	13038.23
572.265	13122.07
572.626	13121.84
572.987	13214.72
573.349	13293.59
573.71	13318
574.071	13393.02
574.432	13406.13
574.794	13514.38
575.155	13523.19
575.516	13446.58
575.877	13585.33
576.238	13631.66
576.599	13639.8
576.96	13646.12
577.32	13651.32
577.681	13825.33
578.042	13754.14
578.403	13906.68
578.763	13903.07
579.124	13907.81
579.485	13910.07
579.845	14060.12
580.206	14010.41
580.566	14063.29
580.927	14046.57
581.287	14154.13
581.648	14171.53
582.008	14283.85
582.368	14288.59
582.728	14264.87
583.089	14337.41
583.449	14352.55
583.809	14360.91
584.169	14365.43
584.529	14437.97
584.889	14549.6
585.249	14395.94
585.609	14439.78
585.969	14494.69
586.329	14459.89
586.688	14518.64
587.048	14548.02
587.408	14571.3
587.768	14536.95
588.127	14536.72
588.487	14512.77
588.846	14675.93
589.206	14616.72
589.565	14697.4
589.925	14714.8
590.284	14664.4
590.643	14804.96
591.003	14830.27
591.362	14833.44
591.721	14763.38
592.08	14800.22
592.44	14779.43
592.799	14874.11
593.158	14832.99
593.517	14909.14
593.876	14992.98
594.235	14919.76
594.593	15011.96
594.952	14990.5
595.311	14978.07
595.67	14983.04
596.029	15153.66
596.387	15096.48
596.746	15152.98
597.104	15094.9
597.463	15105.97
597.822	15104.84
598.18	15143.03
598.538	15116.59
598.897	15261.9
599.255	15152.3
599.613	15418.51
599.972	15267.32
600.33	15328.79
600.688	15278.85
601.046	15438.62
601.404	15410.37
601.762	15401.78
602.12	15524.27
602.478	15490.6
602.836	15594.55
603.194	15526.07
603.552	15515.68
603.91	15400.88
604.268	15499.86
604.625	15468.68
604.983	15557.26
605.341	15512.06
605.698	15634.77
606.056	15671.38
606.413	15567.88
606.771	15707.09
607.128	15774.43
607.485	15649.46
607.843	15742.11
608.2	15865.73
608.557	15809.46
608.914	15785.05
609.272	15912.73
609.629	15903.01
609.986	15993.18
610.343	15968.32
610.7	16045.61
611.057	16018.27
611.414	15990.47
611.771	16036.57
612.127	16108.66
612.484	16117.7
612.841	16167.87
613.198	16146.62
613.554	16187.53
613.911	16127.87
614.267	16190.24
614.624	16206.28
614.98	16172.84
615.337	16246.28
615.693	16241.31
616.05	16210.35
616.406	16351.36
616.762	16307.98
617.118	16301.65
617.475	16271.82
617.831	16347.52
618.187	16368.54
618.543	16341.19
618.899	16546.84
619.255	16403.34
619.611	16489.67
619.967	16441.76
620.323	16432.49
620.678	16336.22
621.034	16474.75
621.39	16506.61
621.746	16412.15
622.101	16690.56
622.457	16404.02
622.812	16541.42
623.168	16535.77
623.523	16535.54
623.879	16576.89
624.234	16507.52
624.589	16545.48
624.945	16541.64
625.3	16573.28
625.655	16496.22
626.01	16576.89
626.365	16631.36
626.72	16547.97
627.075	16612.6
627.43	16592.04
627.785	16534.64
628.14	16563.56
628.495	16561.3
628.85	16607.63
629.205	16461.64
629.559	16522.21
629.914	16514.3
630.269	16481.08
630.623	16473.39
630.978	16496.67
631.332	16527.63
631.687	16527.86
632.041	16418.03
632.396	16476.56
632.75	16498.25
633.104	16432.49
633.459	16379.84
633.813	16446.28
634.167	16382.78
634.521	16324.92
634.875	16443.56
635.229	16381.65
635.583	16253.97
635.937	16237.24
636.291	16289.44
636.645	16369.22
636.999	16333.06
637.352	16250.8
637.706	16181.65
638.06	16227.53
638.413	16263.68
638.767	16136.68
639.121	16207.64
639.474	16019.4
639.828	16083.35
640.181	16106.4
640.534	16120.18
640.888	15984.82
641.241	16038.15
641.594	16076.57
641.947	16072.5
642.301	16066.4
642.654	16072.05
643.007	16013.07
643.36	16041.32
643.713	16054.2
644.066	16004.25
644.419	15975.78
644.771	15906.18
645.124	15769.46
645.477	15673.87
645.83	15625.73
646.182	15593.64
646.535	15369.92
646.888	15387.77
647.24	15301.22
647.593	15330.83
647.945	15335.35
648.298	15363.82
648.65	15204.73
649.002	15246.31
649.355	15378.96
649.707	15346.19
650.059	15412.41
650.411	15669.8
650.763	15588.67
651.115	15769.46
651.467	15788.89
651.819	15703.47
652.171	15727.2
652.523	15567.43
652.875	15656.92
653.227	15617.82
653.578	15630.25
653.93	15664.83
654.282	15599.07
654.633	15640.65
654.985	15531.5
655.337	15611.27
655.688	15466.87
656.039	15617.6
656.391	15536.02
656.742	15499.86
657.094	15506.41
657.445	15613.3
657.796	15582.34
658.147	15458.05
658.498	15560.2
658.849	15568.11
659.2	15565.62
659.551	15479.97
659.902	15555.23
660.253	15464.61
660.604	15623.7
660.955	15487.21
661.306	15561.78
661.656	15463.48
662.007	15553.42
662.358	15568.56
662.708	15553.64
663.059	15533.76
663.409	15373.08
663.76	15582.34
664.11	15490.6
664.461	15543.7
664.811	15498.5
665.161	15531.05
665.511	15481.1
665.862	15472.29
666.212	15533.98
666.562	15511.39
666.912	15498.5
667.262	15419.18
667.612	15477.94
667.962	15529.92
668.312	15491.27
668.662	15483.36
669.011	15471.84
669.361	15477.04
669.711	15508.22
670.06	15454.21
670.41	15425.96
670.76	15378.06
671.109	15480.65
671.459	15463.03
671.808	15377.6
672.157	15460.31
672.507	15344.16
672.856	15386.64
673.205	15420.09
673.554	15439.75
673.904	15378.06
674.253	15432.97
674.602	15363.37
674.951	15130.15
675.3	15036.14
675.649	15334.22
675.998	15392.52
676.346	15311.39
676.695	15393.42
677.044	15263.26
677.393	15282.47
677.741	15296.48
678.09	15308.68
678.438	15287.89
678.787	15241.56
679.135	15261.67
679.484	15167.67
679.832	15271.62
680.181	15174.9
680.529	15166.31
680.877	15098.06
681.225	15118.18
681.573	15197.5
681.922	15090.61
682.27	15056.48
682.618	15061.68
682.966	15009.48
683.314	15099.19
683.661	14987.56
684.009	14920.44
684.357	14918.63
684.705	14951.17
685.053	14891.52
685.4	14867.34
685.748	14755.25
686.095	14782.14
686.443	14724.51
686.79	14695.81
687.138	14733.33
687.485	14735.36
687.832	14635.25
688.18	14676.83
688.527	14582.82
688.874	14601.58
689.221	14502.37
689.568	14566.78
689.915	14505.31
690.262	14546.89
690.609	14459.21
690.956	14401.81
691.303	14357.74
691.65	14279.1
691.997	14352.09
692.344	14207.01
692.69	14247.92
693.037	14242.72
693.383	14095.38
693.73	14203.17
694.077	14154.81
694.423	14128.37
694.769	13992.56
695.116	13941.48
695.462	13959.11
695.808	13910.75
696.155	14015.38
696.501	13822.39
696.847	13859.68
697.193	13746.01
697.539	13837.98
697.885	13662.85
698.231	13592.57
698.577	13654.03
698.923	13602.28
699.269	13561.15
699.614	13509.86
699.96	13559.35
700.306	13548.27
700.651	13478.67
700.997	13396.41
701.342	13411.78
701.688	13329.75
702.033	13274.38
702.379	13274.38
702.724	13273.48
703.069	13280.03
703.415	13046.14
703.76	13081.17
704.105	13082.07
704.45	13077.78
704.795	12934.5
705.14	12947.39
705.485	12935.63
705.83	12812.7
706.175	12890.66
706.52	12849.99
706.865	12799.14
707.209	12913.26
707.554	12769.09
707.899	12768.86
708.243	12732.93
708.588	12752.14
708.932	12704.45
709.277	12715.98
709.621	12708.97
709.966	12540.84
710.31	12637.34
710.654	12518.47
710.998	12547.62
711.342	12467.85
711.687	12473.5
712.031	12474.4
712.375	12423.11
712.719	12422.43
713.063	12434.4
713.407	12395.99
713.75	12328.19
714.094	12275.31
714.438	12263.79
714.782	12334.75
715.125	12249.32
715.469	12299.49
715.812	12219.04
716.156	12172.26
716.499	12113.96
716.843	12176.78
717.186	12102.21
717.53	12171.59
717.873	12167.52
718.216	12131.59
718.559	12085.71
718.902	12032.83
719.246	12051.59
719.589	11940.18
719.932	11946.51
720.275	11903.12
720.617	11973.85
720.96	11918.49
721.303	11999.61
721.646	11899.96
721.989	11871.26
722.331	11901.09
722.674	11872.16
723.016	11912.61
723.359	11890.46
723.701	11861.76
724.044	11832.84
724.386	11676.91
724.729	11788.32
725.071	11843.69
725.413	11786.29
725.755	11850.24
726.097	11686.63
726.439	11667.65
726.782	11699.28
727.124	11732.73
727.465	11623.35
727.807	11709
728.149	11574.31
728.491	11575.9
728.833	11644.82
729.175	11608.66
729.516	11612.28
729.858	11558.27
730.199	11633.97
730.541	11521.89
730.882	11543.13
731.224	11554.2
731.565	11600.53
731.906	11549.46
732.248	11481.21
732.589	11451.61
732.93	11434.88
733.271	11508.1
733.612	11532.28
733.953	11549.91
734.294	11453.87
734.635	11467.88
734.976	11472.85
735.317	11431.04
735.658	11411.61
735.999	11414.54
736.339	11447.09
736.68	11416.35
737.021	11410.7
737.361	11282.34
737.702	11381.55
738.042	11385.62
738.383	11394.43
738.723	11376.81
739.063	11340.42
739.404	11338.16
739.744	11365.51
740.084	11289.12
740.424	11323.93
740.764	11297.26
741.104	11348.78
741.444	11331.16
741.784	11272.18
742.124	11397.14
742.464	11289.12
742.804	11286.41
743.143	11253.87
743.483	11262.23
743.823	11197.38
744.162	11205.06
744.502	11177.04
744.841	11210.48
745.181	11203.93
745.52	11123.25
745.86	11183.59
746.199	11128.68
746.538	11174.55
746.877	11177.04
747.216	11218.39
747.556	11175.23
747.895	11117.38
748.234	11140.2
748.573	11071.05
748.911	11046.64
749.25	11175.68
749.589	11098.17
749.928	11091.84
750.267	11084.38
750.605	11067.89
750.944	10998.96
751.283	11005.97
751.621	11023.59
751.96	10998.96
752.298	11005.06
752.636	11008.91
752.975	10988.79
753.313	10932.98
753.651	10984.5
753.989	10902.69
754.327	10880.1
754.666	10874.22
755.004	10900.43
755.342	10902.47
755.679	10900.21
756.017	10790.15
756.355	10846.65
756.693	10818.18
757.031	10810.27
757.368	10715.81
757.706	10718.52
758.044	10672.87
