Data from tablewood_brown_FLMS001491_067.txt Node
Date: Tue Feb 07 11:10:50 GMT 2017
User: dcchb
Spectrometer: FLMS00149
Trigger mode: 0
Integration Time (sec): 2.000000E-2
Scans to average: 10
Electric dark correction enabled: true
Nonlinearity correction enabled: false
Boxcar width: 0
XAxis mode: Wavelengths
Number of Pixels in Spectrum: 2048
>>>>>Begin Spectral Data<<<<<
341.393	-0.85
341.776	-0.85
342.16	-0.85
342.543	-49.89
342.927	-59.83
343.31	-70.45
343.693	-71.58
344.077	-89.66
344.46	-58.47
344.843	-49.89
345.226	-47.17
345.61	-18.02
345.993	-17.34
346.376	0.28
346.759	17.68
347.142	28.3
347.525	45.93
347.908	50.45
348.291	65.37
348.674	96.78
349.057	117.79
349.44	159.6
349.823	131.8
350.206	147.4
350.588	177
350.971	221.07
351.354	232.14
351.737	248.64
352.119	261.97
352.502	257.45
352.884	273.5
353.267	297.68
353.65	278.24
354.032	286.6
354.414	328.86
354.797	309.88
355.179	307.17
355.562	327.51
355.944	335.19
356.326	339.93
356.709	322.53
357.091	326.83
357.473	341.97
357.855	335.41
358.238	354.4
358.62	344.45
359.002	325.47
359.384	333.61
359.766	345.36
360.148	334.96
360.53	355.3
360.912	331.12
361.294	328.41
361.676	331.57
362.057	357.34
362.439	317.56
362.821	332.48
363.203	331.12
363.584	325.47
363.966	334.74
364.348	335.19
364.729	338.58
365.111	326.6
365.493	342.65
365.874	328.64
366.256	325.92
366.637	317.11
367.019	302.87
367.4	322.99
367.781	330.22
368.163	349.65
368.544	328.86
368.925	317.11
369.306	308.3
369.688	329.09
370.069	315.08
370.45	322.08
370.831	323.89
371.212	303.1
371.593	356.43
371.974	316.88
372.355	337.9
372.736	318.92
373.117	304.91
373.498	301.29
373.879	333.61
374.26	321.63
374.641	297.45
375.021	324.57
375.402	344.68
375.783	346.71
376.163	347.84
376.544	343.55
376.925	336.09
377.305	331.57
377.686	343.1
378.066	344.45
378.447	362.08
378.827	346.71
379.208	355.3
379.588	344.91
379.968	336.54
380.349	349.88
380.729	348.75
381.109	349.65
381.489	368.41
381.87	364.57
382.25	366.15
382.63	359.14
383.01	348.52
383.39	357.79
383.77	367.28
384.15	368.63
384.53	362.08
384.91	369.31
385.29	389.2
385.67	383.1
386.049	384.45
386.429	384.68
386.809	362.98
387.189	388.52
387.568	401.63
387.948	407.5
388.328	395.98
388.707	376.77
389.087	392.36
389.466	444.56
389.846	387.62
390.225	392.59
390.605	395.07
390.984	410.89
391.363	426.71
391.743	427.62
392.122	416.54
392.501	425.81
392.881	425.36
393.26	436.66
393.639	443.89
394.018	430.78
394.397	433.49
394.776	463.55
395.155	458.8
395.534	454.06
395.913	440.27
396.292	436.2
396.671	434.4
397.05	458.12
397.429	450.21
397.808	452.02
398.186	476.65
398.565	479.14
398.944	463.77
399.323	466.94
399.701	486.82
400.08	486.15
400.458	491.79
400.837	501.51
401.215	500.16
401.594	485.47
401.972	486.6
402.351	511
402.729	512.36
403.107	525.69
403.486	505.58
403.864	532.02
404.242	532.47
404.62	523.66
404.999	518.46
405.377	522.98
405.755	555.75
406.133	537.67
406.511	545.8
406.889	545.8
407.267	557.1
407.645	546.48
408.023	559.82
408.401	575.41
408.779	567.95
409.156	565.47
409.534	595.97
409.912	577.44
410.29	591.45
410.667	614.5
411.045	593.49
411.422	613.37
411.8	597.33
412.178	623.32
412.555	640.72
412.933	633.49
413.31	650.66
413.687	648.4
414.065	621.28
414.442	654.95
414.819	658.57
415.197	676.87
415.574	681.39
415.951	686.59
416.328	657.44
416.705	698.34
417.082	694.73
417.46	709.64
417.837	676.65
418.214	682.3
418.591	711.45
418.967	705.35
419.344	727.72
419.721	707.38
420.098	737.44
420.475	715.29
420.852	733.14
421.228	758.68
421.605	754.39
421.982	768.17
422.358	736.99
422.735	772.92
423.111	782.86
423.488	798.91
423.864	786.48
424.241	807.94
424.617	774.5
424.994	782.41
425.37	811.56
425.746	811.79
426.123	810.66
426.499	830.32
426.875	822.41
427.251	819.47
427.627	828.06
428.003	864.89
428.379	873.93
428.756	867.38
429.132	879.36
429.507	909.64
429.883	917.55
430.259	926.59
430.635	921.39
431.011	921.84
431.387	935.63
431.763	959.81
432.138	961.61
432.514	975.4
432.89	954.83
433.265	1012.69
433.641	999.13
434.016	1014.27
434.392	1021.05
434.767	1054.49
435.143	1040.93
435.518	1067.6
435.894	1050.2
436.269	1069.18
436.644	1091.55
437.02	1085.45
437.395	1085.9
437.77	1134.72
438.145	1128.39
438.52	1133.59
438.895	1166.35
439.271	1134.94
439.646	1175.39
440.021	1167.71
440.395	1188.5
440.77	1181.27
441.145	1181.27
441.52	1194.83
441.895	1237.09
442.27	1199.12
442.645	1231.66
443.019	1266.01
443.394	1225.11
443.769	1253.58
444.143	1251.1
444.518	1268.27
444.892	1277.09
445.267	1293.36
445.641	1277.09
446.016	1291.77
446.39	1297.88
446.764	1301.72
447.139	1329.97
447.513	1336.07
447.887	1324.77
448.262	1332.22
448.636	1372.22
449.01	1375.61
449.384	1372.9
449.758	1389.62
450.132	1392.56
450.506	1405.22
450.88	1415.16
451.254	1416.74
451.628	1426.01
452.002	1466.68
452.376	1455.61
452.75	1467.59
453.123	1487.7
453.497	1499.68
453.871	1485.67
454.244	1534.48
454.618	1546.46
454.992	1567.47
455.365	1567.02
455.739	1581.03
456.112	1595.27
456.486	1610.64
456.859	1651.76
457.232	1662.84
457.606	1661.71
457.979	1677.75
458.352	1708.49
458.725	1730.63
459.099	1752.78
459.472	1787.58
459.845	1787.35
460.218	1801.82
460.591	1808.14
460.964	1807.69
461.337	1898.76
461.71	1929.05
462.083	1930.63
462.456	1938.99
462.829	1949.84
463.201	1970.85
463.574	2023.28
463.947	2012.66
464.32	2046.1
464.692	2073.67
465.065	2075.48
465.438	2158.19
465.81	2180.56
466.183	2185.76
466.555	2226.66
466.928	2208.36
467.3	2247.46
467.672	2269.15
468.045	2357.51
468.417	2352.54
468.789	2365.64
469.161	2395.7
469.534	2403.61
469.906	2489.93
470.278	2534.45
470.65	2592.76
471.022	2614
471.394	2689.48
471.766	2720.44
472.138	2736.03
472.51	2817.61
472.882	2842.47
473.253	2893.77
473.625	2943.03
473.997	2975.35
474.369	3062.8
474.74	3110.48
475.112	3136.7
475.484	3220.76
475.855	3226.86
476.227	3344.38
476.598	3397.48
476.97	3461.21
477.341	3537.14
477.713	3603.8
478.084	3644.03
478.455	3775.1
478.827	3745.04
479.198	3850.35
479.569	3938.26
479.94	4050.57
480.311	4052.15
480.682	4183
481.053	4289.89
481.424	4378.02
481.795	4449.66
482.166	4453.95
482.537	4539.37
482.908	4618.24
483.279	4712.47
483.65	4816.65
484.021	4908.85
484.391	5000.15
484.762	5056.87
485.133	5073.82
485.503	5216.19
485.874	5295.74
486.244	5324.66
486.615	5507.71
486.985	5519.91
487.356	5690.3
487.726	5667.48
488.097	5781.37
488.467	5841.71
488.837	5967.81
489.207	6079.9
489.578	6129.39
489.948	6242.38
490.318	6289.83
490.688	6296.61
491.058	6411.41
491.428	6458.87
491.798	6541.81
492.168	6714.23
492.538	6765.08
492.908	6836.03
493.278	6933.89
493.648	6959.65
494.017	7044.39
494.387	7101.56
494.757	7245.74
495.126	7284.16
495.496	7274.22
495.866	7367.09
496.235	7476.02
496.605	7513.76
496.974	7579.07
497.344	7612.06
497.713	7667.65
498.082	7836.69
498.452	7851.6
498.821	7878.95
499.19	7879.85
499.559	8063.35
499.928	8060.86
500.298	8074.19
500.667	8222.21
501.036	8198.03
501.405	8412.72
501.774	8408.87
502.143	8464.69
502.512	8474.18
502.88	8555.99
503.249	8633.5
503.618	8666.72
503.987	8647.06
504.356	8805.7
504.724	8766.15
505.093	8849.32
505.462	9012.02
505.83	8994.62
506.199	9140.38
506.567	9284.11
506.936	9198.91
507.304	9320.04
507.672	9400.49
508.041	9434.84
508.409	9500.15
508.777	9593.48
509.145	9706.92
509.514	9755.96
509.882	9835.05
510.25	9783.98
510.618	9986.01
510.986	9970.87
511.354	10061.71
511.722	10212.9
512.09	10250.18
512.458	10272.55
512.826	10379.22
513.193	10462.15
513.561	10615.37
513.929	10661.92
514.297	10766.55
514.664	10858.3
515.032	10812.2
515.4	10965.19
515.767	11079.54
516.135	11191.85
516.502	11067.34
516.869	11302.58
517.237	11393.88
517.604	11373.09
517.972	11532.41
518.339	11629.13
518.706	11756.81
519.073	11806.75
519.44	11821.21
519.808	11987.76
520.175	12072.28
520.542	12244.71
520.909	12343.91
521.276	12315.44
521.643	12463.91
522.009	12526.28
522.376	12608.54
522.743	12763.56
523.11	12953.84
523.477	13035.19
523.843	13127.85
524.21	13276.77
524.577	13353.15
524.943	13412.59
525.31	13554.28
525.676	13746.14
526.043	13788.17
526.409	13797.66
526.776	14068.16
527.142	14072.23
527.508	14159.91
527.874	14252.11
528.241	14358.55
528.607	14467.7
528.973	14580.24
529.339	14616.4
529.705	14741.14
530.071	14968.25
530.437	14954.24
530.803	14999.21
531.169	15226.1
531.535	15057.06
531.901	15269.49
532.267	15308.58
532.632	15384.96
532.998	15531.63
533.364	15584.96
533.73	15601.45
534.095	15805.06
534.461	15751.96
534.826	15947.21
535.192	15930.94
535.557	16059.3
535.923	16088.9
536.288	16173.19
536.653	16195.11
537.019	16237.14
537.384	16369.34
537.749	16324.82
538.114	16501.32
538.479	16504.03
538.845	16585.61
539.21	16586.29
539.575	16682.1
539.94	16751.03
540.305	16905.83
540.67	16907.63
541.034	17002.77
541.399	17044.58
541.764	17139.27
542.129	17139.27
542.494	17247.06
542.858	17256.33
543.223	17210
543.587	17413.16
543.952	17417
544.316	17456.55
544.681	17523.21
545.045	17546.49
545.41	17738.12
545.774	17788.29
546.138	17765.47
546.503	17842.98
546.867	17831.23
547.231	17973.14
547.595	17957.32
547.959	18122.29
548.324	18181.5
548.688	18322.06
549.052	18334.72
549.416	18344.21
549.779	18408.16
550.143	18446.35
550.507	18748.26
550.871	18867.58
551.235	18843.4
551.599	19086.56
551.962	19010.63
552.326	19165.65
552.689	19368.59
553.053	19260.12
553.417	19356.61
553.78	19578.3
554.143	19567.9
554.507	19754.79
554.87	19859.2
555.234	20104.84
555.597	19968.12
555.96	20119.98
556.323	20269.13
556.686	20363.14
557.05	20501.89
557.413	20666.86
557.776	20676.57
558.139	20826.85
558.502	21014.42
558.865	21047.19
559.228	21272.27
559.59	21465.71
559.953	21557.91
560.316	21843.32
560.679	21842.42
561.041	22028.18
561.404	22228.62
561.767	22363.08
562.129	22414.61
562.492	22617.99
562.854	22796.75
563.217	22710.19
563.579	22959.23
563.941	23119.67
564.304	23309.27
564.666	23492.09
565.028	23672.88
565.39	23827.45
565.753	24075.36
566.115	24072.42
566.477	24335.01
566.839	24416.82
567.201	24651.61
567.563	24800.76
567.925	25038.27
568.287	25045.73
568.648	25207.53
569.01	25436.68
569.372	25788.76
569.734	25782.2
570.095	25918.25
570.457	26185.58
570.819	26295.41
571.18	26288.4
571.542	26675.74
571.903	26734.27
572.265	26890.2
572.626	27026.01
572.987	27276.4
573.349	27384.2
573.71	27530.18
574.071	27762.72
574.432	27976.5
574.794	28154.34
575.155	28162.03
575.516	28159.77
575.877	28467.33
576.238	28637.72
576.599	28766.08
576.96	28889.24
577.32	29016.92
577.681	29177.14
578.042	29456.91
578.403	29417.36
578.763	29566.74
579.124	29778.03
579.485	29925.6
579.845	30022.54
580.206	30002.88
580.566	30166.72
580.927	30327.39
581.287	30397.68
581.648	30563.77
582.008	30493.94
582.368	30595.86
582.728	30715.41
583.089	30773.48
583.449	30828.62
583.809	30810.09
584.169	31028.85
584.529	31097.54
584.889	31269.29
585.249	31092.35
585.609	31196.52
585.969	31360.36
586.329	31339.12
586.688	31526.69
587.048	31471.77
587.408	31484.88
587.768	31539.11
588.127	31538.21
588.487	31519.68
588.846	31731.2
589.206	31516.97
589.565	31674.7
589.925	31798.09
590.284	31855.94
590.643	31961.25
591.003	31982.94
591.362	32065.43
591.721	32014.58
592.08	32090.74
592.44	32107.46
592.799	32130.96
593.158	32117.63
593.517	32146.78
593.876	32402.82
594.235	32071.76
594.593	32354.46
594.952	32445.31
595.311	32262.26
595.67	32283.05
596.029	32572.99
596.387	32671.51
596.746	32647.56
597.104	32451.41
597.463	32389.49
597.822	32544.96
598.18	32528.24
598.538	32482.14
598.897	32746.54
599.255	32510.39
599.613	32948.12
599.972	32755.35
600.33	32816.14
600.688	32659.08
601.046	32848.91
601.404	33065.18
601.762	32901.34
602.12	33094.33
602.478	33095.23
602.836	32986.08
603.194	32816.37
603.552	32972.07
603.91	32964.61
604.268	33181.1
604.625	33072.63
604.983	33149.24
605.341	32977.95
605.698	33233.31
606.056	33290.25
606.413	33179.52
606.771	33246.87
607.128	33321.21
607.485	33297.49
607.843	33174.33
608.2	33501.1
608.557	33503.81
608.914	33284.83
609.272	33541.55
609.629	33588.1
609.986	33760.75
610.343	33452.74
610.7	33731.15
611.057	33769.79
611.414	33753.29
611.771	33681.43
612.127	33983.57
612.484	33813.4
612.841	33992.84
613.198	33894.76
613.554	33922.33
613.911	34037.35
614.267	34145.37
614.624	33988.09
614.98	34032.61
615.337	34282.32
615.693	34330.91
616.05	34285.93
616.406	34494.97
616.762	34339.94
617.118	34354.41
617.475	34270.34
617.831	34412.48
618.187	34425.82
618.543	34544.23
618.899	34653.83
619.255	34619.49
619.611	34405.71
619.967	34686.83
620.323	34601.86
620.678	34486.16
621.034	34511.69
621.39	34703.55
621.746	34450.22
622.101	34905.35
622.457	34631.01
622.812	34885.47
623.168	34874.85
623.523	34790.55
623.879	34861.51
624.234	34702.87
624.589	34858.12
624.945	34873.72
625.3	34863.09
625.655	34925.69
626.01	34899.7
626.365	34691.35
626.72	34918.23
627.075	34779.26
627.43	34817.22
627.785	34662.42
628.14	34788.52
628.495	34791.68
628.85	34784.68
629.205	34720.73
629.559	34773.38
629.914	34716.21
630.269	34686.15
630.623	34570.67
630.978	34672.14
631.332	34671.46
631.687	34716.21
632.041	34577.68
632.396	34697.9
632.75	34547.62
633.104	34574.51
633.459	34318.25
633.813	34293.84
634.167	34352.83
634.521	34341.3
634.875	34382.43
635.229	34475.53
635.583	34237.57
635.937	34242.77
636.291	34212.04
636.645	34158.25
636.999	34093.4
637.352	34188.99
637.706	33871.26
638.06	34185.82
638.413	34004.59
638.767	33906.51
639.121	34014.53
639.474	33807.76
639.828	33660.41
640.181	33779.51
640.534	33834.42
640.888	33790.13
641.241	33608.44
641.594	33672.39
641.947	33741.09
642.301	33622.9
642.654	33626.52
643.007	33698.61
643.36	33529.12
643.713	33610.25
644.066	33560.98
644.419	33495.67
644.771	33211.39
645.124	32952.18
645.477	33057.04
645.83	32730.5
646.182	32610.05
646.535	32576.6
646.888	32686.43
647.24	32457.96
647.593	32502.25
647.945	32573.89
648.298	32347.45
648.65	32377.74
649.002	32251.86
649.355	32400.11
649.707	32261.36
650.059	32481.24
650.411	32840.77
650.763	32869.93
651.115	33130.94
651.467	32959.42
651.819	33095.68
652.171	32919.19
652.523	33003.03
652.875	32952.64
653.227	32793.32
653.578	33099.53
653.93	32962.58
654.282	32935.46
654.633	32738.63
654.985	32883.26
655.337	32910.38
655.688	32970.26
656.039	32993.99
656.391	32651.85
656.742	32817.27
657.094	32826.31
657.445	32898.63
657.796	32949.25
658.147	32898.85
658.498	32899.53
658.849	32751.29
659.2	32785.64
659.551	32751.29
659.902	32755.81
660.253	32683.04
660.604	32806.88
660.955	32621.12
661.306	32665.86
661.656	32775.47
662.007	32824.05
662.358	32741.79
662.708	32797.84
663.059	32764.39
663.409	32522.14
663.76	32887.1
664.11	32761
664.461	32704.73
664.811	32720.33
665.161	32634
665.511	32584.74
665.862	32628.8
666.212	32718.97
666.562	32733.89
666.912	32626.54
667.262	32655.24
667.612	32644.4
667.962	32748.35
668.312	32614.57
668.662	32745.64
669.011	32712.19
669.361	32591.74
669.711	32445.98
670.06	32627.22
670.41	32560.56
670.76	32538.18
671.109	32553.55
671.459	32458.41
671.808	32399.2
672.157	32363.27
672.507	32229.94
672.856	32235.82
673.205	32306.55
673.554	32351.3
673.904	32217.29
674.253	32402.14
674.602	32256.61
674.951	31960.12
675.3	31702.05
675.649	32217.06
675.998	32078.08
676.346	32235.82
676.695	32312.2
677.044	31935.04
677.393	32200.11
677.741	32168.48
678.09	32085.31
678.438	31966
678.787	31996.28
679.135	31948.37
679.484	31781.37
679.832	31974.13
680.181	31734.36
680.529	31967.13
680.877	31744.31
681.225	31663.4
681.573	31935.26
681.922	31500.7
682.27	31593.35
682.618	31565.55
682.966	31334.6
683.314	31512.9
683.661	31357.2
684.009	31333.7
684.357	31139.12
684.705	31185.23
685.053	31128.05
685.4	30978
685.748	30914.5
686.095	30990.2
686.443	30938.23
686.79	30694.16
687.138	30713.83
687.485	30641.28
687.832	30668.18
688.18	30642.64
688.527	30421.4
688.874	30458.69
689.221	30327.85
689.568	30159.49
689.915	30157.68
690.262	30229.09
690.609	30051.24
690.956	30090.34
691.303	29982.77
691.65	29818.26
691.997	29850.8
692.344	29677.47
692.69	29614.87
693.037	29629.56
693.383	29281.77
693.73	29479.28
694.077	29138.05
694.423	29180.76
694.769	29116.58
695.116	29056.24
695.462	28898.73
695.808	28867.09
696.155	28847.21
696.501	28630.26
696.847	28729.24
697.193	28400.67
697.539	28508.46
697.885	28308.01
698.231	28271.86
698.577	28244.06
698.923	28212.87
699.269	28005.2
699.614	27791.64
699.96	27759.78
700.306	27770.85
700.651	27681.59
700.997	27513.91
701.342	27428.71
701.688	27342.16
702.033	27356.17
702.379	27357.53
702.724	27237.98
703.069	27307.14
703.415	27024.2
703.76	26971.1
704.105	26880.48
704.45	26915.28
704.795	26643.65
705.14	26670.09
705.485	26552.8
705.83	26444.33
706.175	26474.16
706.52	26303.09
706.865	26291.12
707.209	26262.19
707.554	26073.95
707.899	26214.96
708.243	26056.32
708.588	26029.88
708.932	25764.12
709.277	25765.03
709.621	25780.85
709.966	25603
710.31	25654.52
710.654	25428.09
710.998	25547.86
711.342	25507.18
711.687	25383.12
712.031	25418.82
712.375	25181.32
712.719	25281.2
713.063	25219.96
713.407	25203.24
713.75	25258.6
714.094	25161.43
714.438	24910.36
714.782	25024.71
715.125	24865.17
715.469	24964.37
715.812	24738.84
716.156	24726.64
716.499	24761.44
716.843	24793.08
717.186	24480.99
717.53	24660.65
717.873	24769.57
718.216	24526.87
718.559	24414.1
718.902	24524.84
719.246	24457.72
719.589	24409.81
719.932	24313.77
720.275	24270.6
720.617	24217.05
720.96	24258.4
721.303	24306.08
721.646	24244.84
721.989	24076.49
722.331	24119.65
722.674	24077.16
723.016	24154.45
723.359	24105.19
723.701	24131.85
724.044	24021.8
724.386	23836.04
724.729	24004.4
725.071	23854.12
725.413	23914.23
725.755	24002.14
726.097	23937.51
726.439	23793.78
726.782	23926.43
727.124	23874.68
727.465	23726.66
727.807	23806.66
728.149	23811.86
728.491	23762.6
728.833	23790.17
729.175	23691.18
729.516	23519.89
729.858	23616.16
730.199	23610.96
730.541	23536.61
730.882	23553.11
731.224	23673.78
731.565	23514.92
731.906	23574.58
732.248	23563.5
732.589	23546.33
732.93	23459.55
733.271	23467.24
733.612	23551.53
733.953	23580.45
734.294	23406.45
734.635	23494.35
734.976	23504.07
735.317	23385.43
735.658	23483.05
735.999	23396.96
736.339	23365.77
736.68	23424.3
737.021	23403.51
737.361	23294.13
737.702	23324.64
738.042	23401.25
738.383	23391.08
738.723	23445.99
739.063	23345.66
739.404	23380.23
739.744	23328.03
740.084	23191.76
740.424	23294.36
740.764	23264.3
741.104	23378.88
741.444	23184.08
741.784	23040.81
742.124	23267.69
742.464	23149.5
742.804	23263.63
743.143	23232.21
743.483	23144.08
743.823	23045.33
744.162	23113.8
744.502	23179.56
744.841	22993.8
745.181	23283.06
745.52	23165.32
745.86	23091.43
746.199	23122.61
746.538	23132.78
746.877	23108.83
747.216	23053.24
747.556	23041.26
747.895	23020.24
748.234	23008.94
748.573	23009.39
748.911	22996.74
749.25	23018.21
749.589	22938.44
749.928	22949.96
750.267	23043.74
750.605	22887.59
750.944	22979.11
751.283	22726.01
751.621	22928.95
751.96	22829.74
752.298	22738.67
752.636	22796.75
752.975	22634.49
753.313	22587.26
753.651	22674.04
753.989	22664.55
754.327	22485.34
754.666	22553.59
755.004	22526.47
755.342	22498.67
755.679	22522.18
756.017	22381.84
