Data from tablewood_dark_bookshelf_FLMS001491_00023.txt Node
Date: Wed Feb 08 14:14:05 GMT 2017
User: dcchb
Spectrometer: FLMS00149
Trigger mode: 0
Integration Time (sec): 2.000000E-2
Scans to average: 10
Electric dark correction enabled: true
Nonlinearity correction enabled: false
Boxcar width: 0
XAxis mode: Wavelengths
Number of Pixels in Spectrum: 2048
>>>>>Begin Spectral Data<<<<<
341.393	-9.25
341.776	-9.25
342.16	-9.25
342.543	-51.06
342.927	-60.1
343.31	-57.61
343.693	-58.29
344.077	-66.88
344.46	-65.75
344.843	-54.22
345.226	-52.19
345.61	-45.63
345.993	-12.87
346.376	1.14
346.759	9.28
347.142	47.24
347.525	32.33
347.908	56.51
348.291	89.73
348.674	76.62
349.057	100.58
349.44	112.1
349.823	139.22
350.206	176.96
350.588	178.09
350.971	197.3
351.354	217.18
351.737	220.57
352.119	240.01
352.502	253.11
352.884	255.83
353.267	280.68
353.65	285.88
354.032	297.63
354.414	285.88
354.797	289.27
355.179	315.71
355.562	316.39
355.944	331.3
356.326	314.81
356.709	307.35
357.091	326.33
357.473	319.33
357.855	315.26
358.238	330.17
358.62	333.56
359.002	324.07
359.384	335.6
359.766	329.95
360.148	337.63
360.53	312.55
360.912	326.56
361.294	324.98
361.676	324.98
362.057	315.71
362.439	307.12
362.821	307.58
363.203	339.67
363.584	291.08
363.966	305.32
364.348	309.61
364.729	318.2
365.111	301.93
365.493	304.64
365.874	307.8
366.256	300.35
366.637	321.59
367.019	304.41
367.4	305.32
367.781	301.93
368.163	305.09
368.544	301.48
368.925	315.49
369.306	331.08
369.688	323.62
370.069	285.43
370.45	305.09
370.831	313
371.212	298.09
371.593	326.33
371.974	313.45
372.355	310.97
372.736	311.19
373.117	309.16
373.498	322.94
373.879	309.16
374.26	294.24
374.641	313
375.021	305.32
375.402	330.17
375.783	320.91
376.163	327.46
376.544	331.98
376.925	316.16
377.305	317.29
377.686	305.32
378.066	320.01
378.447	303.06
378.827	329.27
379.208	333.34
379.588	329.5
379.968	331.3
380.349	336.28
380.729	339.21
381.109	332.89
381.489	342.38
381.87	340.12
382.25	345.09
382.63	343.06
383.01	357.52
383.39	335.15
383.77	326.56
384.15	334.24
384.53	324.53
384.91	345.77
385.29	348.25
385.67	343.28
386.049	346.22
386.429	356.84
386.809	378.99
387.189	370.17
387.568	381.7
387.948	366.33
388.328	356.39
388.707	378.54
389.087	374.02
389.466	367.24
389.846	376.28
390.225	397.74
390.605	375.6
390.984	383.05
391.363	387.12
391.743	376.05
392.122	374.47
392.501	398.87
392.881	397.97
393.26	366.33
393.639	406.33
394.018	378.99
394.397	376.95
394.776	401.36
395.155	379.67
395.534	399.55
395.913	414.01
396.292	394.58
396.671	388.93
397.05	401.81
397.429	408.14
397.808	404.52
398.186	390.96
398.565	426.44
398.944	423.73
399.323	414.47
399.701	407.46
400.08	431.64
400.458	414.01
400.837	426.67
401.215	429.61
401.594	439.78
401.972	462.15
402.351	447.01
402.729	444.52
403.107	447.01
403.486	428.25
403.864	445.2
404.242	439.78
404.62	446.56
404.999	449.49
405.377	466.44
405.755	454.69
406.133	457.18
406.511	474.13
406.889	440.91
407.267	480.23
407.645	435.71
408.023	466.89
408.401	474.35
408.779	478.19
409.156	486.56
409.534	500.57
409.912	521.58
410.29	500.57
410.667	492.43
411.045	503.73
411.422	520.45
411.8	501.47
412.178	514.58
412.555	528.81
412.933	507.35
413.31	496.95
413.687	518.87
414.065	509.83
414.442	522.94
414.819	538.31
415.197	552.09
415.574	538.31
415.951	531.53
416.328	534.46
416.705	539.21
417.082	565.87
417.46	537.63
417.837	555.03
418.214	554.58
418.591	555.93
418.967	571.3
419.344	585.08
419.721	589.83
420.098	580.79
420.475	576.27
420.852	575.14
421.228	618.3
421.605	600.22
421.982	585.31
422.358	611.75
422.735	603.16
423.111	608.81
423.488	621.69
423.864	623.73
424.241	647.23
424.617	636.38
424.994	634.57
425.37	662.6
425.746	642.71
426.123	651.75
426.499	678.87
426.875	653.78
427.251	651.75
427.627	666.44
428.003	677.06
428.379	706.44
428.756	691.75
429.132	719.32
429.507	711.41
429.883	725.87
430.259	699.88
430.635	718.41
431.011	711.18
431.387	719.09
431.763	735.36
432.138	741.92
432.514	746.21
432.89	748.7
433.265	759.77
433.641	788.69
434.016	748.92
434.392	758.86
434.767	778.3
435.143	797.06
435.518	798.19
435.894	831.86
436.269	849.94
436.644	836.15
437.02	833.44
437.395	837.73
437.77	830.73
438.145	830.05
438.52	868.24
438.895	858.07
439.271	866.66
439.646	848.13
440.021	882.48
440.395	911.63
440.77	879.09
441.145	882.02
441.52	904.17
441.895	913.44
442.27	917.73
442.645	898.07
443.019	914.34
443.394	943.04
443.769	948.24
444.143	929.03
444.518	940.55
444.892	914.79
445.267	953.44
445.641	914.34
446.016	942.81
446.39	945.3
446.764	980.55
447.139	976.94
447.513	979.88
447.887	983.72
448.262	1002.02
448.636	981.01
449.01	994.11
449.384	1012.87
449.758	998.18
450.132	1016.48
450.506	1017.39
450.88	1040.21
451.254	1047.22
451.628	1050.83
452.002	1062.13
452.376	1067.78
452.75	1058.29
453.123	1081.12
453.497	1093.32
453.871	1095.58
454.244	1114.11
454.618	1129.02
454.992	1124.73
455.365	1138.29
455.739	1145.52
456.112	1160.21
456.486	1172.64
456.859	1163.15
457.232	1193.66
457.606	1209.02
457.979	1190.49
458.352	1225.52
458.725	1235.24
459.099	1247.44
459.472	1273.2
459.845	1287.21
460.218	1288.79
460.591	1303.26
460.964	1333.54
461.337	1324.27
461.71	1364.27
462.083	1366.08
462.456	1354.55
462.829	1369.47
463.201	1405.85
463.574	1395.46
463.947	1423.93
464.32	1431.61
464.692	1434.1
465.065	1454.89
465.438	1479.75
465.81	1467.32
466.183	1507.09
466.555	1505.74
466.928	1534.44
467.3	1554.32
467.672	1557.26
468.045	1606.3
468.417	1619.63
468.789	1661.21
469.161	1650.82
469.534	1663.02
469.906	1688.11
470.278	1702.57
470.65	1741.89
471.022	1714.09
471.394	1773.53
471.766	1778.72
472.138	1819.4
472.51	1849.46
472.882	1879.06
473.253	1875.9
473.625	1881.32
473.997	1947.76
474.369	1932.84
474.74	1982.11
475.112	1993.41
475.484	2046.29
475.855	2045.61
476.227	2070.02
476.598	2139.84
476.97	2148.21
477.341	2195.89
477.713	2179.84
478.084	2227.53
478.455	2279.5
478.827	2313.4
479.198	2354.08
479.569	2365.15
479.94	2398.37
480.311	2458.71
480.682	2479.95
481.053	2543.68
481.424	2587.52
481.795	2605.37
482.166	2620.06
482.537	2651.24
482.908	2716.33
483.279	2761.98
483.65	2754.74
484.021	2801.97
484.391	2849.43
484.762	2868.64
485.133	2907.51
485.503	2922.2
485.874	2985.47
486.244	3030.22
486.615	3092.36
486.985	3095.75
487.356	3167.39
487.726	3178.46
488.097	3250.1
488.467	3286.03
488.837	3346.82
489.207	3375.52
489.578	3408.29
489.948	3419.36
490.318	3476.98
490.688	3464.33
491.058	3570.77
491.428	3617.55
491.798	3614.83
492.168	3667.49
492.538	3664.32
492.908	3738.67
493.278	3769.63
493.648	3814.6
494.017	3838.78
494.387	3852.34
494.757	3892.12
495.126	3975.95
495.496	3970.31
495.866	4000.59
496.235	4048.95
496.605	4064.77
496.974	4062.05
497.344	4132.11
497.713	4119
498.082	4184.08
498.452	4213.01
498.821	4214.59
499.19	4259.34
499.559	4307.7
499.928	4321.26
500.298	4347.92
500.667	4391.09
501.036	4394.47
501.405	4428.82
501.774	4442.61
502.143	4483.74
502.512	4518.77
502.88	4515.83
503.249	4551.98
503.618	4554.47
503.987	4611.42
504.356	4592.66
504.724	4685.99
505.093	4671.98
505.462	4728.93
505.83	4700.91
506.199	4764.18
506.567	4838.76
506.936	4845.76
507.304	4876.04
507.672	4987.68
508.041	4923.27
508.409	4986.55
508.777	4993.1
509.145	5086.89
509.514	5053.89
509.882	5108.58
510.25	5093.89
510.618	5156.49
510.986	5199.88
511.354	5246.43
511.722	5270.38
512.09	5316.71
512.458	5347.22
512.826	5372.53
513.193	5429.48
513.561	5398.52
513.929	5490.04
514.297	5546.99
514.664	5580.43
515.032	5605.06
515.4	5652.52
515.767	5680.54
516.135	5770.94
516.502	5704.5
516.869	5759.86
517.237	5790.14
517.604	5768
517.972	5917.82
518.339	5939.52
518.706	5880.09
519.073	5992.62
519.44	6024.49
519.808	6074.88
520.175	6078.72
520.542	6153.07
520.909	6178.83
521.276	6191.26
521.643	6311.49
522.009	6344.71
522.376	6360.98
522.743	6451.14
523.11	6454.76
523.477	6572.72
523.843	6538.37
524.21	6643
524.577	6657.01
524.943	6713.28
525.31	6723.68
525.676	6786.05
526.043	6843
526.409	6906.73
526.776	6974.29
527.142	6993.95
527.508	7049.77
527.874	7112.14
528.241	7141.3
528.607	7123.22
528.973	7220.62
529.339	7196.21
529.705	7332.93
530.071	7389.65
530.437	7390.78
530.803	7478.24
531.169	7453.15
531.535	7464
531.901	7556.88
532.267	7576.09
532.632	7663.77
532.998	7617.89
533.364	7677.33
533.73	7687.72
534.095	7781.05
534.461	7810.88
534.826	7895.17
535.192	7866.93
535.557	7901.5
535.923	7929.3
536.288	7927.04
536.653	8038.9
537.019	7988.96
537.384	8118.9
537.749	8119.12
538.114	8143.98
538.479	8165.9
538.845	8222.85
539.21	8170.87
539.575	8237.99
539.94	8239.35
540.305	8291.77
540.67	8374.48
541.034	8409.74
541.399	8414.26
541.764	8474.37
542.129	8464.88
542.494	8443.86
542.858	8497.87
543.223	8494.25
543.587	8590.3
543.952	8536.06
544.316	8620.35
544.681	8604.08
545.045	8694.93
545.41	8742.16
545.774	8705.1
546.138	8762.27
546.503	8835.49
546.867	8848.37
547.231	8926.56
547.595	8841.59
547.959	8966.78
548.324	8980.34
548.688	8953.9
549.052	9010.4
549.416	9030.74
549.779	9084.07
550.143	9107.57
550.507	9148.02
550.871	9235.93
551.235	9267.57
551.599	9299.66
551.962	9270.05
552.326	9277.06
552.689	9411.97
553.053	9306.66
553.417	9413.33
553.78	9580.55
554.143	9446.55
554.507	9573.77
554.87	9584.85
555.234	9647.44
555.597	9615.81
555.96	9668.91
556.323	9726.76
556.686	9767.67
557.05	9772.19
557.413	9933.99
557.776	9884.5
558.139	9945.52
558.502	9941.67
558.865	10017.38
559.228	10120.43
559.59	10194.32
559.953	10118.39
560.316	10278.61
560.679	10329.01
561.041	10328.33
561.404	10493.52
561.767	10428.67
562.129	10447.88
562.492	10550.7
562.854	10577.14
563.217	10566.74
563.579	10637.93
563.941	10689.9
564.304	10797.24
564.666	10825.04
565.028	10865.49
565.39	10884.93
565.753	10978.93
566.115	11076.56
566.477	11068.2
566.839	11181.64
567.201	11256.67
567.563	11198.82
567.925	11227.06
568.287	11329.89
568.648	11439.71
569.01	11464.8
569.372	11582.76
569.734	11541.63
570.095	11617.56
570.457	11629.76
570.819	11716.54
571.18	11764.68
571.542	11839.7
571.903	11889.19
572.265	11909.31
572.626	11905.24
572.987	11947.04
573.349	12031.79
573.71	12182.52
574.071	12127.6
574.432	12192.91
574.794	12358.33
575.155	12271.56
575.516	12260.48
575.877	12447.37
576.238	12382.97
576.599	12430.87
576.96	12476.52
577.32	12528.72
577.681	12563.98
578.042	12583.19
578.403	12683.97
578.763	12620.7
579.124	12667.48
579.485	12775.5
579.845	12890.07
580.206	12795.16
580.566	12853.46
580.927	12895.49
581.287	12923.97
581.648	12950.41
582.008	12958.54
582.368	12999.22
582.728	13051.42
583.089	13100.91
583.449	13079.67
583.809	13144.98
584.169	13159.67
584.529	13216.39
584.889	13269.95
585.249	13162.38
585.609	13197.18
585.969	13358.76
586.329	13253.68
586.688	13391.98
587.048	13341.36
587.408	13324.64
587.768	13361.92
588.127	13434.01
588.487	13418.64
588.846	13552.65
589.206	13412.99
589.565	13436.72
589.925	13539.77
590.284	13555.14
590.643	13587.68
591.003	13634.01
591.362	13686.43
591.721	13665.64
592.08	13702.7
592.44	13807.33
592.799	13685.3
593.158	13669.71
593.517	13803.27
593.876	13782.02
594.235	13794
594.593	13816.15
594.952	13894.11
595.311	13925.52
595.67	13862.93
596.029	13967.56
596.387	13915.13
596.746	13913.32
597.104	13983.15
597.463	14010.95
597.822	14049.59
598.18	13981.34
598.538	14021.79
598.897	14152.64
599.255	14078.51
599.613	14249.81
599.972	14070.15
600.33	14146.31
600.688	14131.85
601.046	14168.23
601.404	14303.82
601.762	14193.54
602.12	14352.18
602.478	14368.68
602.836	14377.94
603.194	14442.57
603.552	14460.88
603.91	14349.24
604.268	14418.62
604.625	14355.12
604.983	14465.4
605.341	14410.93
605.698	14511.05
606.056	14539.29
606.413	14536.58
606.771	14617.93
607.128	14594.43
607.485	14633.98
607.843	14641.66
608.2	14772.96
608.557	14766.63
608.914	14630.59
609.272	14754.2
609.629	14745.16
609.986	14822.22
610.343	14751.94
610.7	14842.11
611.057	14865.61
611.414	14870.58
611.771	14874.88
612.127	14942.9
612.484	14998.49
612.841	15097.02
613.198	14970.92
613.554	15017.47
613.911	15107.19
614.267	15080.3
614.624	14968.43
614.98	15086.62
615.337	15169.56
615.693	15116.68
616.05	15124.59
616.406	15285.71
616.762	15196.22
617.118	15186.73
617.475	15222.44
617.831	15238.03
618.187	15236.68
618.543	15253.17
618.899	15359.61
619.255	15348.09
619.611	15240.07
619.967	15404.81
620.323	15412.49
620.678	15297.92
621.034	15386.73
621.39	15461.3
621.746	15358.03
622.101	15479.83
622.457	15366.16
622.812	15360.74
623.168	15469.66
623.523	15458.59
623.879	15404.81
624.234	15370.01
624.589	15438.7
624.945	15508.08
625.3	15528.65
625.655	15506.27
626.01	15477.8
626.365	15496.56
626.72	15463.56
627.075	15463.79
627.43	15372.27
627.785	15567.97
628.14	15447.52
628.495	15454.97
628.85	15511.47
629.205	15475.31
629.559	15506.5
629.914	15430.57
630.269	15481.41
630.623	15410.23
630.978	15431.7
631.332	15466.5
631.687	15453.85
632.041	15353.06
632.396	15451.36
632.75	15410.46
633.104	15357.8
633.459	15323.23
633.813	15305.83
634.167	15312.61
634.521	15330.46
634.875	15369.55
635.229	15338.37
635.583	15238.94
635.937	15256.11
636.291	15255.66
636.645	15266.96
636.999	15150.12
637.352	15148.09
637.706	15171.59
638.06	15195.77
638.413	15114.19
638.767	15105.83
639.121	15248.88
639.474	15081.43
639.828	15114.19
640.181	15013.18
640.534	15094.76
640.888	15089.11
641.241	14967.08
641.594	15052.5
641.947	15039.62
642.301	15009.34
642.654	15003.01
643.007	15006.63
643.36	15013.63
643.713	14943.8
644.066	15035.55
644.419	14932.95
644.771	14836.46
645.124	14582.68
645.477	14661.78
645.83	14624.71
646.182	14565.51
646.535	14427.88
646.888	14544.94
647.24	14518.28
647.593	14605.05
647.945	14555.34
648.298	14506.53
648.65	14506.98
649.002	14411.39
649.355	14376.81
649.707	14438.28
650.059	14528.22
650.411	14598.73
650.763	14613.87
651.115	14905.61
651.467	14800.08
651.819	14786.52
652.171	14733.41
652.523	14725.28
652.875	14717.82
653.227	14598.95
653.578	14737.48
653.93	14745.39
654.282	14635.34
654.633	14634.88
654.985	14632.17
655.337	14696.58
655.688	14689.35
656.039	14759.4
656.391	14561.89
656.742	14700.87
657.094	14630.59
657.445	14580.42
657.796	14576.58
658.147	14579.97
658.498	14613.64
658.849	14644.15
659.2	14628.56
659.551	14592.62
659.902	14647.76
660.253	14638.05
660.604	14583.59
660.955	14621.78
661.306	14626.52
661.656	14579.52
662.007	14576.58
662.358	14556.47
662.708	14620.42
663.059	14669.23
663.409	14491.16
663.76	14666.97
664.11	14558.73
664.461	14558.05
664.811	14556.92
665.161	14596.69
665.511	14522.57
665.862	14674.88
666.212	14551.72
666.562	14640.76
666.912	14553.98
667.262	14670.14
667.612	14577.71
667.962	14609.35
668.312	14612.06
668.662	14685.05
669.011	14650.7
669.361	14593.08
669.711	14583.59
670.06	14514.43
670.41	14557.15
670.76	14475.11
671.109	14628.1
671.459	14511.72
671.808	14502.46
672.157	14560.99
672.507	14525.96
672.856	14522.12
673.205	14605.51
673.554	14632.4
673.904	14507.88
674.253	14618.16
674.602	14468.11
674.951	14326.87
675.3	14323.03
675.649	14467.2
675.998	14459.52
676.346	14508.33
676.695	14517.82
677.044	14411.84
677.393	14379.52
677.741	14504.27
678.09	14460.88
678.438	14354.89
678.787	14459.52
679.135	14465.85
679.484	14376.36
679.832	14392.18
680.181	14303.59
680.529	14316.7
680.877	14340.65
681.225	14249.81
681.573	14320.32
681.922	14275.34
682.27	14257.49
682.618	14240.77
682.966	14181.34
683.314	14237.83
683.661	14137.27
684.009	14164.61
684.357	14034.45
684.705	14133.2
685.053	14118.51
685.4	14051.62
685.748	14012.08
686.095	14004.84
686.443	13982.92
686.79	13913.77
687.138	13986.77
687.485	13925.52
687.832	13903.38
688.18	13947.67
688.527	13866.77
688.874	13878.97
689.221	13826.09
689.568	13840.33
689.915	13796.26
690.262	13753.78
690.609	13673.33
690.956	13699.77
691.303	13649.37
691.65	13543.16
691.997	13606.89
692.344	13549.49
692.69	13616.38
693.037	13556.72
693.383	13357.85
693.73	13468.81
694.077	13431.07
694.423	13435.82
694.769	13453.67
695.116	13335.71
695.462	13355.6
695.808	13295.71
696.155	13309.49
696.501	13156.73
696.847	13139.56
697.193	13109.5
697.539	13108.82
697.885	13064.53
698.231	13082.38
698.577	13056.17
698.923	13003.51
699.269	12886
699.614	12878.09
699.96	12878.77
700.306	12868.83
700.651	12850.3
700.997	12762.62
701.342	12822.5
701.688	12715.16
702.033	12728.94
702.379	12760.58
702.724	12690.75
703.069	12595.62
703.415	12577.99
703.76	12647.82
704.105	12565.11
704.45	12540.48
704.795	12406.24
705.14	12409.18
705.485	12485.56
705.83	12381.61
706.175	12325.79
706.52	12314.27
706.865	12262.06
707.209	12353.59
707.554	12222.97
707.899	12260.48
708.243	12196.08
708.588	12130.32
708.932	12139.58
709.277	12103.2
709.621	12124.67
709.966	12066.14
710.31	12062.97
710.654	11981.62
710.998	12093.26
711.342	12041.73
711.687	11917.21
712.031	11856.88
712.375	11863.88
712.719	11898.01
713.063	11888.29
713.407	11933.94
713.75	11777.56
714.094	11888.97
714.438	11815.07
714.782	11942.52
715.125	11738.01
715.469	11771.68
715.812	11717.45
716.156	11608.75
716.499	11656.88
716.843	11669.54
717.186	11595.42
717.53	11739.14
717.873	11696.43
718.216	11698.92
718.559	11568.98
718.902	11552.25
719.246	11527.62
719.589	11547.73
719.932	11452.14
720.275	11470.67
720.617	11524
720.96	11465.93
721.303	11535.3
721.646	11495.53
721.989	11394.97
722.331	11460.5
722.674	11421.63
723.016	11373.27
723.359	11366.04
723.701	11435.65
724.044	11374.63
724.386	11263.45
724.729	11379.38
725.071	11263.9
725.413	11278.59
725.755	11303.22
726.097	11258.25
726.439	11196.56
726.782	11238.59
727.124	11295.08
727.465	11194.07
727.807	11185.71
728.149	11208.08
728.491	11169.21
728.833	11235.88
729.175	11204.69
729.516	11164.47
729.858	11158.82
730.199	11132.15
730.541	11123.79
730.882	11059.16
731.224	11176.67
731.565	11146.39
731.906	11100.29
732.248	11104.13
732.589	11044.7
732.93	10978.93
733.271	11013.28
733.612	11039.5
733.953	11110.46
734.294	11007.63
734.635	10967.18
734.976	11083.79
735.317	11050.12
735.658	10951.82
735.999	11000.85
736.339	11000.85
736.68	11061.64
737.021	10945.49
737.361	10972.16
737.702	11063
738.042	11034.75
738.383	10939.61
738.723	10995.66
739.063	10942.1
739.404	10974.64
739.744	10954.53
740.084	10825.49
740.424	10877.24
740.764	10886.06
741.104	10886.28
741.444	10854.42
741.784	10837.47
742.124	10900.07
742.464	10885.15
742.804	10869.78
743.143	10857.58
743.483	10810.8
743.823	10797.92
744.162	10856.68
744.502	10897.13
744.841	10814.42
745.181	10839.05
745.52	10835.66
745.86	10839.05
746.199	10809.22
746.538	10849.45
746.877	10771.03
747.216	10806.06
747.556	10736
747.895	10779.17
748.234	10768.32
748.573	10761.99
748.911	10752.5
749.25	10770.58
749.589	10727.19
749.928	10739.62
750.267	10710.47
750.605	10698.04
750.944	10670.24
751.283	10632.05
751.621	10693.97
751.96	10632.5
752.298	10633.18
752.636	10613.07
752.975	10478.83
753.313	10535.1
753.651	10607.64
753.989	10584.82
754.327	10527.42
754.666	10352.28
755.004	10484.71
755.342	10471.6
755.679	10410.81
756.017	10467.31
756.355	10420.53
756.693	10438.61
757.031	10412.4
757.368	10334.88
757.706	10346.41
758.044	10367.43
758.381	10332.17
758.719	10384.15
