Data from tablewood_dark_bookshelf_FLMS001491_00084.txt Node
Date: Wed Feb 08 14:15:49 GMT 2017
User: dcchb
Spectrometer: FLMS00149
Trigger mode: 0
Integration Time (sec): 2.000000E-2
Scans to average: 10
Electric dark correction enabled: true
Nonlinearity correction enabled: false
Boxcar width: 0
XAxis mode: Wavelengths
Number of Pixels in Spectrum: 2048
>>>>>Begin Spectral Data<<<<<
341.393	-27.8
341.776	-27.8
342.16	-27.8
342.543	-67.34
342.927	-64.41
343.31	-70.96
343.693	-77.29
344.077	-70.28
344.46	-62.6
344.843	-45.2
345.226	-39.1
345.61	-32.99
345.993	-3.62
346.376	-8.81
346.759	8.36
347.142	26.21
347.525	42.26
347.908	49.94
348.291	79.09
348.674	96.72
349.057	108.25
349.44	130.84
349.823	130.62
350.206	152.09
350.588	163.16
350.971	186.21
351.354	236.15
351.737	242.71
352.119	239.77
352.502	257.85
352.884	269.82
353.267	270.05
353.65	285.42
354.032	282.03
354.414	298.52
354.797	308.01
355.179	312.76
355.562	301.69
355.944	322.03
356.326	326.55
356.709	321.12
357.091	332.65
357.473	337.84
357.855	334.91
358.238	342.36
358.62	317.96
359.002	340.33
359.384	336.94
359.766	348.24
360.148	326.55
360.53	348.01
360.912	329.26
361.294	341.46
361.676	322.93
362.057	343.27
362.439	339.2
362.821	341.01
363.203	329.71
363.584	311.18
363.966	331.52
364.348	324.74
364.729	338.07
365.111	317.96
365.493	330.84
365.874	338.3
366.256	334.45
366.637	329.93
367.019	315.7
367.4	320.67
367.781	322.93
368.163	317.51
368.544	329.48
368.925	318.18
369.306	327
369.688	341.01
370.069	316.83
370.45	305.3
370.831	317.96
371.212	322.48
371.593	317.05
371.974	314.34
372.355	330.16
372.736	331.97
373.117	328.13
373.498	316.6
373.879	323.16
374.26	319.99
374.641	316.38
375.021	337.39
375.402	326.09
375.783	336.26
376.163	338.52
376.544	357.73
376.925	328.58
377.305	339.43
377.686	356.83
378.066	349.37
378.447	343.72
378.827	333.32
379.208	352.76
379.588	360.22
379.968	348.69
380.349	359.09
380.729	357.28
381.109	350.5
381.489	362.02
381.87	364.51
382.25	355.7
382.63	361.35
383.01	346.21
383.39	347.11
383.77	391.4
384.15	378.97
384.53	388.69
384.91	387.56
385.29	376.71
385.67	394.34
386.049	371.74
386.429	394.79
386.809	375.58
387.189	398.86
387.568	391.4
387.948	397.28
388.328	412.42
388.707	385.75
389.087	383.72
389.466	415.13
389.846	407.67
390.225	422.81
390.605	397.28
390.984	422.59
391.363	413.1
391.743	416.49
392.122	423.04
392.501	437.05
392.881	411.51
393.26	446.09
393.639	421.01
394.018	432.08
394.397	444.06
394.776	428.69
395.155	412.64
395.534	434.11
395.913	440.21
396.292	448.12
396.671	452.64
397.05	458.29
397.429	449.03
397.808	454.45
398.186	446.99
398.565	461.46
398.944	449.71
399.323	477.5
399.701	479.54
400.08	487.67
400.458	484.73
400.837	491.51
401.215	474.34
401.594	473.89
401.972	494.9
402.351	501.68
402.729	477.73
403.107	500.1
403.486	494.68
403.864	534.9
404.242	512.98
404.62	516.14
404.999	548.01
405.377	525.41
405.755	528.12
406.133	521.79
406.511	530.83
406.889	540.55
407.267	548.69
407.645	553.21
408.023	566.09
408.401	560.66
408.779	573.77
409.156	567.67
409.534	571.74
409.912	575.13
410.29	580.78
410.667	601.57
411.045	597.5
411.422	616.48
411.8	601.57
412.178	614.22
412.555	632.75
412.933	629.14
413.31	643.82
413.687	644.05
414.065	633.2
414.442	646.99
414.819	658.74
415.197	650.83
415.574	667.55
415.951	681.56
416.328	682.92
416.705	682.92
417.082	684.28
417.46	682.02
417.837	668.01
418.214	699.87
418.591	688.12
418.967	687.67
419.344	711.39
419.721	693.54
420.098	708.91
420.475	744.16
420.852	727.44
421.228	726.53
421.605	742.13
421.982	727.44
422.358	761.34
422.735	755.01
423.111	754.33
423.488	777.15
423.864	759.75
424.241	787.78
424.617	780.77
424.994	808.79
425.37	789.81
425.746	805.63
426.123	821
426.499	808.57
426.875	847.44
427.251	841.11
427.627	858.73
428.003	868.9
428.379	884.27
428.756	875.46
429.132	882.46
429.507	889.24
429.883	898.06
430.259	900.09
430.635	920.88
431.011	925.63
431.387	936.02
431.763	942.12
432.138	976.7
432.514	972.86
432.89	987.32
433.265	997.94
433.641	990.71
434.016	1030.26
434.392	1024.38
434.767	1059.41
435.143	1036.36
435.518	1051.72
435.894	1075.45
436.269	1081.55
436.644	1068.9
437.02	1098.95
437.395	1092.17
437.77	1133.76
438.145	1146.86
438.52	1115.22
438.895	1147.31
439.271	1152.74
439.646	1164.26
440.021	1192.51
440.395	1185.73
440.77	1185.05
441.145	1181.21
441.52	1216.47
441.895	1213.98
442.27	1202
442.645	1239.29
443.019	1237.26
443.394	1222.57
443.769	1256.46
444.143	1251.94
444.518	1284.26
444.892	1225.5
445.267	1296.92
445.641	1321.55
446.016	1272.28
446.39	1304.15
446.764	1310.93
447.139	1312.73
447.513	1299.17
447.887	1309.34
448.262	1321.77
448.636	1339.4
449.01	1336.24
449.384	1381.88
449.758	1373.75
450.132	1417.59
450.506	1393.18
450.88	1415.1
451.254	1396.12
451.628	1397.93
452.002	1458.72
452.376	1447.19
452.75	1470.7
453.123	1459.4
453.497	1486.06
453.871	1488.32
454.244	1518.6
454.618	1542.33
454.992	1552.05
455.365	1562.44
455.739	1619.62
456.112	1630.24
456.486	1648.54
456.859	1635.89
457.232	1683.57
457.606	1661.2
457.979	1695.55
458.352	1719.05
458.725	1754.3
459.099	1749.11
459.472	1798.82
459.845	1807.41
460.218	1826.39
460.591	1821.2
460.964	1851.48
461.337	1866.17
461.71	1888.09
462.083	1943.23
462.456	1918.37
462.829	1919.95
463.201	1992.94
463.574	1977.58
463.947	1997.01
464.32	2078.36
464.692	2079.95
465.065	2075.2
465.438	2108.65
465.81	2118.59
466.183	2174.18
466.555	2196.1
466.928	2230.22
467.3	2223.67
467.672	2248.98
468.045	2314.06
468.417	2305.25
468.789	2319.94
469.161	2370.11
469.534	2385.25
469.906	2434.06
470.278	2468.86
470.65	2484.91
471.022	2549.09
471.394	2569.2
471.766	2596.77
472.138	2632.7
472.51	2641.06
472.882	2711.34
473.253	2739.14
473.625	2745.92
473.997	2832.92
474.369	2845.8
474.74	2858.23
475.112	2922.64
475.484	2947.27
475.855	3019.36
476.227	3063.87
476.598	3134.83
476.97	3127.38
477.341	3229.07
477.713	3308.16
478.084	3281.27
478.455	3388.39
478.827	3399.23
479.198	3478.78
479.569	3495.73
479.94	3597.19
480.311	3593.35
480.682	3691.43
481.053	3781.14
481.424	3812.33
481.795	3879.9
482.166	3920.57
482.537	3958.09
482.908	4022.04
483.279	4068.59
483.65	4160.79
484.021	4205.09
484.391	4273.33
484.762	4296.61
485.133	4313.78
485.503	4446.89
485.874	4514.68
486.244	4552.65
486.615	4637.62
486.985	4661.57
487.356	4716.49
487.726	4805.3
488.097	4853.43
488.467	4870.83
488.837	5014.33
489.207	5075.8
489.578	5132.07
489.948	5141.33
490.318	5231.05
490.688	5215.68
491.058	5325.06
491.428	5456.58
491.798	5468.33
492.168	5561.21
492.538	5611.83
492.908	5650.47
493.278	5682.11
493.648	5718.49
494.017	5777.02
494.387	5855.21
494.757	5882.11
495.126	6006.85
495.496	6039.16
495.866	6070.12
496.235	6106.05
496.605	6205.49
496.974	6213.17
497.344	6242.77
497.713	6268.54
498.082	6319.16
498.452	6393.05
498.821	6476.89
499.19	6477.57
499.559	6500.85
499.928	6596.66
500.298	6620.84
500.667	6703.1
501.036	6678.02
501.405	6723.44
501.774	6776.09
502.143	6885.02
502.512	6880.05
502.88	6929.31
503.249	6961.62
503.618	6995.75
503.987	7023.32
504.356	7079.14
504.724	7139.93
505.093	7142.41
505.462	7226.93
505.83	7272.13
506.199	7344.89
506.567	7421.73
506.936	7423.76
507.304	7511.67
507.672	7597.99
508.041	7581.95
508.409	7678.67
508.777	7722.73
509.145	7792.11
509.514	7810.19
509.882	7894.03
510.25	7875.27
510.618	7952.33
510.986	7977.42
511.354	8116.85
511.722	8150.07
512.09	8208.82
512.458	8131.99
512.826	8322.72
513.193	8341.48
513.561	8369.27
513.929	8418.31
514.297	8546.44
514.664	8560.9
515.032	8599.55
515.4	8684.74
515.767	8704.18
516.135	8771.97
516.502	8786.66
516.869	8868.24
517.237	8942.82
517.604	8967.22
517.972	9105.52
518.339	9156.14
518.706	9192.98
519.073	9244.95
519.44	9192.07
519.808	9359.3
520.175	9419.19
520.542	9509.81
520.909	9525.85
521.276	9566.3
521.643	9733.3
522.009	9743.47
522.376	9858.27
522.743	9887.42
523.11	10018.95
523.477	10084.03
523.843	10110.69
524.21	10217.58
524.577	10351.37
524.943	10381.87
525.31	10495.32
525.676	10563.34
526.043	10645.82
526.409	10633.17
526.776	10716.55
527.142	10759.94
527.508	10919.94
527.874	10949.99
528.241	11040.61
528.607	11092.36
528.973	11112.48
529.339	11235.41
529.705	11350.66
530.071	11325.35
530.437	11390.21
530.803	11462.52
531.169	11570.32
531.535	11587.04
531.901	11579.58
532.267	11691.44
532.632	11758.79
532.998	11818.22
533.364	11913.81
533.73	11973.7
534.095	11979.12
534.461	12115.61
534.826	12186.12
535.192	12193.58
535.557	12314.7
535.923	12307.92
536.288	12407.13
536.653	12412.33
537.019	12395.15
537.384	12491.65
537.749	12606.22
538.114	12589.27
538.479	12632.44
538.845	12657.75
539.21	12634.02
539.575	12760.79
539.94	12813
540.305	12890.28
540.67	12876.72
541.034	12956.27
541.399	12971.18
541.764	13005.31
542.129	12996.95
542.494	13193.78
542.858	13177.73
543.223	13182.93
543.587	13238.97
543.952	13201.91
544.316	13327.11
544.681	13288.92
545.045	13334.56
545.41	13464.28
545.774	13489.14
546.138	13518.29
546.503	13690.04
546.867	13640.09
547.231	13722.8
547.595	13745.4
547.959	13779.52
548.324	13802.8
548.688	13855.45
549.052	13998.95
549.416	13819.52
549.779	13982.01
550.143	14067.2
550.507	14189.46
550.871	14191.27
551.235	14155.56
551.599	14264.71
551.962	14323.24
552.326	14403.01
552.689	14467.87
553.053	14447.98
553.417	14490.01
553.78	14622.21
554.143	14631.03
554.507	14726.39
554.87	14727.07
555.234	14847.97
555.597	14787.86
555.96	14966.39
556.323	15019.94
556.686	15026.05
557.05	15177.45
557.413	15143.78
557.776	15265.36
558.139	15402.76
558.502	15308.52
558.865	15422.65
559.228	15505.13
559.59	15573.83
559.953	15650.44
560.316	15857.66
560.679	15761.39
561.041	15867.83
561.404	15953.93
561.767	16047.04
562.129	16062.63
562.492	16250.65
562.854	16234.83
563.217	16201.38
563.579	16406.57
563.941	16414.48
564.304	16595.72
564.666	16674.59
565.028	16689.5
565.39	16797.52
565.753	16897.18
566.115	16910.74
566.477	17054.01
566.839	17025.32
567.201	17182.83
567.563	17141.02
567.925	17407.68
568.287	17350.28
568.648	17424.85
569.01	17551.4
569.372	17616.94
569.734	17617.39
570.095	17730.83
570.457	17799.31
570.819	17844.95
571.18	17799.53
571.542	18076.13
571.903	17994.56
572.265	18092.63
572.626	18204.95
572.987	18319.07
573.349	18305.06
573.71	18365.62
574.071	18443.81
574.432	18460.08
574.794	18602
575.155	18668.66
575.516	18627.76
575.877	18767.64
576.238	18720.41
576.599	18927.19
576.96	18922.21
577.32	18951.14
577.681	19004.02
578.042	19100.29
578.403	19214.86
578.763	19130.8
579.124	19247.63
579.485	19288.98
579.845	19377.34
580.206	19381.64
580.566	19355.2
580.927	19341.64
581.287	19547.28
581.648	19458.47
582.008	19624.12
582.368	19638.58
582.728	19755.19
583.089	19666.83
583.449	19591.12
583.809	19651.91
584.169	19775.3
584.529	19753.6
584.889	19862.3
585.249	19675.41
585.609	19687.84
585.969	19839.25
586.329	19865.69
586.688	19927.16
587.048	19963.99
587.408	19901.17
587.768	19937.55
588.127	20014.39
588.487	19886.48
588.846	20148.85
589.206	20012.58
589.565	20015.29
589.925	20219.36
590.284	20113.6
590.643	20141.84
591.003	20109.75
591.362	20169.64
591.721	20193.82
592.08	20214.84
592.44	20330.31
592.799	20356.53
593.158	20294.83
593.517	20272.46
593.876	20322.86
594.235	20339.58
594.593	20285.57
594.952	20455.28
595.311	20362.4
595.67	20535.28
596.029	20682.39
596.387	20566.24
596.746	20638.1
597.104	20547.93
597.463	20558.33
597.822	20644.65
598.18	20588.84
598.538	20599.01
598.897	20765.56
599.255	20603.53
599.613	20928.04
599.972	20826.12
600.33	20854.59
600.688	20821.37
601.046	20829.96
601.404	21013.01
601.762	20897.53
602.12	21012.1
602.478	20999.9
602.836	20999.9
603.194	20806.23
603.552	20978.88
603.91	20901.6
604.268	21085.77
604.625	21136.17
604.983	21175.94
605.341	21096.39
605.698	21089.16
606.056	21151.08
606.413	21160.8
606.771	21340.46
607.128	21230.63
607.485	21182.49
607.843	21238.54
608.2	21474.69
608.557	21427.46
608.914	21422.71
609.272	21507.23
609.629	21542.48
609.986	21669.26
610.343	21582.03
610.7	21707
611.057	21654.12
611.414	21616.61
611.771	21685.76
612.127	21728.24
612.484	21712.2
612.841	21803.95
613.198	21795.59
613.554	21781.35
613.911	22034.9
614.267	21926.2
614.624	22015.92
614.98	21884.85
615.337	22118.97
615.693	22003.49
616.05	22014.56
616.406	22099.53
616.762	22018.86
617.118	22120.32
617.475	22179.76
617.831	22212.75
618.187	22196.03
618.543	22243.71
618.899	22287.32
619.255	22211.39
619.611	22215.24
619.967	22300.2
620.323	22442.35
620.678	22253.88
621.034	22183.15
621.39	22315.12
621.746	22298.4
622.101	22399.19
622.457	22273.99
622.812	22275.8
623.168	22297.72
623.523	22440.99
623.879	22400.09
624.234	22289.81
624.589	22359.86
624.945	22388.79
625.3	22450.94
625.655	22352.18
626.01	22475.34
626.365	22457.26
626.72	22418.17
627.075	22465.62
627.43	22412.74
627.785	22323.03
628.14	22394.67
628.495	22422.91
628.85	22277.15
629.205	22168.91
629.559	22446.87
629.914	22333.2
630.269	22401.9
630.623	22187.21
630.978	22160.77
631.332	22224.95
631.687	22324.16
632.041	22194.22
632.396	22313.09
632.75	22117.16
633.104	22247.55
633.459	22049.36
633.813	22059.53
634.167	22072.41
634.521	22095.01
634.875	22186.99
635.229	22098.85
635.583	21846.21
635.937	22021.79
636.291	21952.42
636.645	21932.53
636.999	21965.07
637.352	21982.92
637.706	21797.17
638.06	21796.94
638.413	21825.87
638.767	21855.7
639.121	21746.32
639.474	21658.41
639.828	21718.98
640.181	21797.17
640.534	21673.78
640.888	21672.88
641.241	21626.55
641.594	21613.44
641.947	21713.33
642.301	21671.52
642.654	21648.47
643.007	21545.2
643.36	21498.19
643.713	21445.31
644.066	21573.44
644.419	21427.91
644.771	21336.84
645.124	21123.51
645.477	21098.2
645.83	20976.4
646.182	20907.02
646.535	20812.11
646.888	20843.07
647.24	20648.5
647.593	20730.75
647.945	20741.6
648.298	20575.05
648.65	20622.51
649.002	20580.25
649.355	20775.5
649.707	20573.92
650.059	20779.11
650.411	21071.54
650.763	21036.51
651.115	21217.97
651.467	21162.83
651.819	21198.09
652.171	21151.53
652.523	21108.37
652.875	20982.5
653.227	20952.22
653.578	21132.55
653.93	21073.12
654.282	20915.38
654.633	20892.78
654.985	20860.69
655.337	20915.38
655.688	20945.44
656.039	20974.82
656.391	20838.32
656.742	20903.63
657.094	20899.34
657.445	20844.2
657.796	20884.2
658.147	20881.48
658.498	20840.58
658.849	20929.39
659.2	20859.79
659.551	20719.46
659.902	20884.2
660.253	20770.98
660.604	20854.37
660.955	20776.63
661.306	20823.41
661.656	20756.97
662.007	20846.01
662.358	20795.39
662.708	20707.48
663.059	20678.55
663.409	20545.45
663.76	20813.46
664.11	20703.18
664.461	20774.6
664.811	20756.29
665.161	20756.29
665.511	20667.25
665.862	20666.58
666.212	20713.81
666.562	20712.9
666.912	20712.9
667.262	20552.91
667.612	20656.41
667.962	20741.6
668.312	20647.14
668.662	20787.02
669.011	20721.49
669.361	20668.38
669.711	20680.13
670.06	20630.64
670.41	20593.81
670.76	20527.82
671.109	20690.76
671.459	20680.13
671.808	20500.7
672.157	20622.06
672.507	20454.15
672.856	20483.53
673.205	20580.25
673.554	20584.32
673.904	20517.2
674.253	20559.23
674.602	20457.77
674.951	20222.07
675.3	20226.59
675.649	20438.33
675.998	20415.28
676.346	20405.11
676.695	20451.44
677.044	20274.04
677.393	20403.98
677.741	20477.43
678.09	20394.72
678.438	20293.48
678.787	20340.93
679.135	20289.41
679.484	20270.88
679.832	20350.88
680.181	20161.5
680.529	20378.9
680.877	20169.41
681.225	20183.65
681.573	20204.21
681.922	20174.84
682.27	20034.05
682.618	20027.27
682.966	20024.56
683.314	20170.54
683.661	20023.43
684.009	19945.46
684.357	19967.16
684.705	19945.69
685.053	19916.76
685.4	19851.23
685.748	19704.11
686.095	19776.66
686.443	19641.74
686.79	19596.09
687.138	19672.93
687.485	19662.99
687.832	19494.4
688.18	19603.33
688.527	19589.09
688.874	19423.44
689.221	19537.11
689.568	19387.74
689.915	19375.54
690.262	19433.16
690.609	19394.74
690.956	19240.85
691.303	19182.32
691.65	19126.05
691.997	19094.41
692.344	19004.92
692.69	18887.19
693.037	19070.69
693.383	18847.41
693.73	18992.72
694.077	18875.44
694.423	18665.95
694.769	18764.25
695.116	18701.66
695.462	18674.54
695.808	18619.85
696.155	18642.22
696.501	18427.31
696.847	18477.25
697.193	18425.28
697.539	18367.2
697.885	18214.44
698.231	18253.08
698.577	18175.57
698.923	18210.37
699.269	18128.79
699.614	18076.59
699.96	17981.45
700.306	17976.93
700.651	17921.79
700.997	17843.6
701.342	17915.46
701.688	17807.22
702.033	17740.1
702.379	17703.49
702.724	17721.57
703.069	17740.32
703.415	17500.1
703.76	17471.18
704.105	17496.72
704.45	17479.31
704.795	17377.4
705.14	17379.66
705.485	17322.03
705.83	17215.14
706.175	17240.9
706.52	17221.47
706.865	17145.09
707.209	17138.31
707.554	17116.84
707.899	17173.11
708.243	16986.22
708.588	17014.47
708.932	16815.6
709.277	16848.82
709.621	16860.35
709.966	16740.58
710.31	16881.36
710.654	16657.19
710.998	16683.18
711.342	16754.59
711.687	16635.72
712.031	16621.26
712.375	16511.66
712.719	16632.11
713.063	16547.59
713.407	16578.32
713.75	16471.66
714.094	16518.44
714.438	16336.52
714.782	16487.02
715.125	16298.78
715.469	16364.54
715.812	16246.35
716.156	16268.5
716.499	16132.23
716.843	16197.77
717.186	16135.85
717.53	16281.38
717.873	16195.05
718.216	16159.58
718.559	16107.37
718.902	16015.4
719.246	16048.39
719.589	15985.79
719.932	15965.68
720.275	15908.06
720.617	15983.08
720.96	15977.43
721.303	15857.44
721.646	15840.04
721.989	15825.8
722.331	15918
722.674	15807.72
723.016	15733.6
723.359	15741.96
723.701	15756.2
724.044	15644.11
724.386	15574.73
724.729	15660.61
725.071	15652.7
725.413	15604.79
725.755	15662.41
726.097	15498.12
726.439	15460.38
726.782	15526.15
727.124	15579.03
727.465	15486.82
727.807	15471.68
728.149	15409.09
728.491	15408.18
728.833	15340.84
729.175	15446.37
729.516	15322.99
729.858	15332.25
730.199	15346.04
730.541	15289.32
730.882	15328.86
731.224	15325.47
731.565	15184.91
731.906	15267.62
732.248	15233.5
732.589	15132.48
732.93	15115.99
733.271	15134.29
733.612	15146.49
733.953	15189.66
734.294	15175.65
734.635	15033.95
734.976	15118.7
735.317	15054.07
735.658	15047.97
735.999	15033.95
736.339	14982.2
736.68	14966.39
737.021	14982.2
737.361	14921.42
737.702	14998.25
738.042	14843.9
738.383	14909.44
738.723	14912.6
739.063	14955.76
739.404	14981.75
739.744	14836.22
740.084	14826.5
740.424	14935.65
740.764	14863.79
741.104	14868.99
741.444	14750.57
741.784	14734.98
742.124	14806.62
742.464	14722.1
742.804	14677.35
743.143	14722.1
743.483	14755.32
743.823	14687.3
744.162	14699.73
744.502	14706.96
744.841	14715.09
745.181	14687.07
745.52	14619.5
745.86	14645.04
746.199	14548.32
746.538	14567.75
746.877	14538.6
747.216	14623.57
747.556	14562.55
747.895	14518.71
748.234	14492.05
748.573	14499.28
748.911	14427.64
749.25	14528.21
749.589	14377.7
749.928	14426.97
750.267	14396.91
750.605	14300.87
750.944	14338.15
751.283	14337.48
751.621	14417.7
751.96	14227.65
752.298	14286.63
752.636	14179.74
752.975	14195.33
753.313	14118.27
753.651	14169.8
753.989	14109.91
754.327	14150.14
754.666	14055.22
755.004	13991.95
755.342	14068.56
755.679	14060.87
756.017	13999.86
756.355	14038.95
