Data from tablewood_dark_bookshelf_FLMS001491_00006.txt Node
Date: Wed Feb 08 14:13:20 GMT 2017
User: dcchb
Spectrometer: FLMS00149
Trigger mode: 0
Integration Time (sec): 2.000000E-2
Scans to average: 10
Electric dark correction enabled: true
Nonlinearity correction enabled: false
Boxcar width: 0
XAxis mode: Wavelengths
Number of Pixels in Spectrum: 2048
>>>>>Begin Spectral Data<<<<<
341.393	-36.1
341.776	-36.1
342.16	-36.1
342.543	-44.91
342.927	-75.2
343.31	-66.61
343.693	-63.67
344.077	-54.41
344.46	-62.54
344.843	-64.57
345.226	-40.17
345.61	-24.12
345.993	-38.36
346.376	11.58
346.759	1.86
347.142	37.12
347.525	46.16
347.908	56.1
348.291	76.66
348.674	81.18
349.057	103.78
349.44	113.05
349.823	123.67
350.206	171.8
350.588	196.66
350.971	221.75
351.354	223.78
351.737	225.36
352.119	235.3
352.502	257.22
352.884	249.09
353.267	278.47
353.65	266.94
354.032	273.95
354.414	305.59
354.797	290.44
355.179	315.3
355.562	327.28
355.944	315.3
356.326	330.44
356.709	315.3
357.091	309.43
357.473	331.12
357.855	339.71
358.238	346.71
358.62	345.13
359.002	330.9
359.384	322.76
359.766	338.13
360.148	313.04
360.53	339.48
360.912	332.25
361.294	341.52
361.676	336.09
362.057	326.15
362.439	330.44
362.821	331.35
363.203	345.36
363.584	310.33
363.966	312.82
364.348	329.99
364.729	318.01
365.111	325.25
365.493	321.4
365.874	322.53
366.256	317.79
366.637	320.27
367.019	310.56
367.4	329.77
367.781	334.96
368.163	324.34
368.544	311.23
368.925	307.39
369.306	337.67
369.688	315.53
370.069	317.11
370.45	321.63
370.831	336.09
371.212	325.7
371.593	325.7
371.974	337
372.355	333.61
372.736	341.74
373.117	315.53
373.498	327.51
373.879	310.56
374.26	334.51
374.641	318.01
375.021	329.31
375.402	333.83
375.783	337.45
376.163	346.04
376.544	337
376.925	360.72
377.305	334.06
377.686	362.76
378.066	329.31
378.447	348.3
378.827	366.83
379.208	361.4
379.588	361.63
379.968	354.85
380.349	367.05
380.729	369.09
381.109	355.53
381.489	362.31
381.87	365.47
382.25	372.48
382.63	367.96
383.01	389.2
383.39	368.63
383.77	378.58
384.15	376.54
384.53	365.24
384.91	391.91
385.29	378.13
385.67	384.91
386.049	407.73
386.429	386.71
386.809	418.8
387.189	392.36
387.568	387.84
387.948	414.73
388.328	398.46
388.707	426.03
389.087	397.11
389.466	418.8
389.846	418.8
390.225	436.66
390.605	407.96
390.984	415.64
391.363	420.16
391.743	411.12
392.122	445.02
392.501	441.63
392.881	430.55
393.26	438.24
393.639	445.47
394.018	435.53
394.397	426.26
394.776	456.09
395.155	461.97
395.534	440.72
395.913	453.15
396.292	460.61
396.671	470.78
397.05	480.27
397.429	469.2
397.808	461.97
398.186	484.56
398.565	474.39
398.944	468.74
399.323	454.73
399.701	480.27
400.08	477.78
400.458	488.18
400.837	503.77
401.215	498.12
401.594	485.92
401.972	514.17
402.351	508.52
402.729	509.65
403.107	487.95
403.486	499.25
403.864	507.16
404.242	520.95
404.62	527.05
404.999	529.08
405.377	557.33
405.755	536.09
406.133	552.58
406.511	553.49
406.889	545.8
407.267	565.92
407.645	567.27
408.023	576.76
408.401	586.26
408.779	570.89
409.156	569.08
409.534	587.61
409.912	585.8
410.29	586.71
410.667	615.63
411.045	615.41
411.422	594.39
411.8	613.6
412.178	623.99
412.555	616.54
412.933	645.24
413.31	637.1
413.687	649.76
414.065	644.11
414.442	660.38
414.819	668.29
415.197	661.06
415.574	680.49
415.951	685.01
416.328	698.57
416.705	687.95
417.082	690.66
417.46	704.67
417.837	695.63
418.214	706.48
418.591	733.6
418.967	708.29
419.344	724.33
419.721	739.02
420.098	719.36
420.475	746.7
420.852	784.67
421.228	752.58
421.605	769.75
421.982	783.09
422.358	777.21
422.735	751.9
423.111	784.22
423.488	794.39
423.864	800.71
424.241	802.3
424.617	825.8
424.994	811.11
425.37	804.33
425.746	819.7
426.123	820.83
426.499	865.12
426.875	860.15
427.251	862.86
427.627	859.47
428.003	889.98
428.379	889.3
428.756	901.05
429.132	914.83
429.507	944.44
429.883	936.98
430.259	944.44
430.635	920.94
431.011	966.58
431.387	983.31
431.763	1016.98
432.138	997.54
432.514	1004.78
432.89	1015.4
433.265	1042.74
433.641	1025.79
434.016	1041.16
434.392	1061.5
434.767	1058.79
435.143	1062.4
435.518	1106.02
435.894	1120.25
436.269	1077.99
436.644	1117.99
437.02	1113.25
437.395	1110.08
437.77	1132.68
438.145	1169.97
438.52	1136.98
438.895	1173.81
439.271	1192.12
439.646	1204.09
440.021	1203.87
440.395	1220.59
440.77	1228.27
441.145	1224.66
441.52	1243.87
441.895	1256.75
442.27	1256.97
442.645	1276.63
443.019	1250.65
443.394	1289.51
443.769	1277.99
444.143	1284.54
444.518	1322.73
444.892	1317.31
445.267	1324.54
445.641	1338.78
446.016	1335.84
446.39	1338.55
446.764	1356.63
447.139	1334.71
447.513	1364.54
447.887	1393.69
448.262	1374.71
448.636	1378.55
449.01	1397.31
449.384	1444.54
449.758	1390.08
450.132	1407.93
450.506	1456.06
450.88	1460.58
451.254	1459.68
451.628	1463.07
452.002	1499.68
452.376	1523.63
452.75	1537.87
453.123	1550.3
453.497	1542.39
453.871	1569.51
454.244	1615.38
454.618	1629.39
454.992	1629.17
455.365	1611.54
455.739	1667.13
456.112	1687.7
456.486	1704.64
456.859	1741.03
457.232	1720.24
457.606	1752.1
457.979	1779.22
458.352	1773.8
458.725	1842.49
459.099	1830.52
459.472	1890.85
459.845	1887.24
460.218	1877.3
460.591	1933.79
460.964	1925.2
461.337	1990.51
461.71	1985.32
462.083	1995.03
462.456	2010.4
462.829	1999.78
463.201	2067.8
463.574	2070.74
463.947	2085.65
464.32	2160.68
464.692	2163.62
465.065	2187.34
465.438	2211.98
465.81	2248.58
466.183	2233.44
466.555	2297.62
466.928	2278.87
467.3	2320.67
467.672	2403.61
468.045	2404.06
468.417	2433.21
468.789	2402.71
469.161	2464.17
469.534	2497.84
469.906	2538.29
470.278	2571.06
470.65	2596.6
471.022	2635.47
471.394	2703.26
471.766	2716.6
472.138	2734
472.51	2792.53
472.882	2839.08
473.253	2838.4
473.625	2907.32
473.997	2979.41
474.369	2980.32
474.74	2957.04
475.112	3035.46
475.484	3066.19
475.855	3144.61
476.227	3219.41
476.598	3263.7
476.97	3306.18
477.341	3364.94
477.713	3416.46
478.084	3496.01
478.455	3531.49
478.827	3502.11
479.198	3650.13
479.569	3674.31
479.94	3787.75
480.311	3727.42
480.682	3850.12
481.053	3937.13
481.424	3973.29
481.795	4072.27
482.166	4100.97
482.537	4143.68
482.908	4217.35
483.279	4300.06
483.65	4364.69
484.021	4434.74
484.391	4485.81
484.762	4518.36
485.133	4585.02
485.503	4613.27
485.874	4704.57
486.244	4751.57
486.615	4891.45
486.985	4909.53
487.356	4923.77
487.726	4997.89
488.097	5087.38
488.467	5106.81
488.837	5237.88
489.207	5286.02
489.578	5313.36
489.948	5427.03
490.318	5475.39
490.688	5493.7
491.058	5614.37
491.428	5689.17
491.798	5705.22
492.168	5821.82
492.538	5876.96
492.908	5856.17
493.278	5982.5
493.648	5983.18
494.017	6144.98
494.387	6128.93
494.757	6191.31
495.126	6270.4
495.496	6323.96
495.866	6333.68
496.235	6413.67
496.605	6482.15
496.974	6506.55
497.344	6528.02
497.713	6635.81
498.082	6685.76
498.452	6660.67
498.821	6798.52
499.19	6815.47
499.559	6833.32
499.928	6894.34
500.298	6956.26
500.667	7078.06
501.036	7081.9
501.405	7104.28
501.774	7108.12
502.143	7156.03
502.512	7180.43
502.88	7249.81
503.249	7337.04
503.618	7404.38
503.987	7417.26
504.356	7495.9
504.724	7496.81
505.093	7557.6
505.462	7584.04
505.83	7666.75
506.199	7762.34
506.567	7787.65
506.936	7809.57
507.304	7885.05
507.672	7962.78
508.041	7917.14
508.409	8085.49
508.777	8113.52
509.145	8227.64
509.514	8234.19
509.882	8254.53
510.25	8352.38
510.618	8398.71
510.986	8429.44
511.354	8509.89
511.722	8553.73
512.09	8681.18
512.458	8640.06
512.826	8712.37
513.193	8730
513.561	8845.93
513.929	8873.5
514.297	8918.24
514.664	9031.91
515.032	9046.15
515.4	9146.71
515.767	9150.78
516.135	9220.15
516.502	9162.98
516.869	9368.17
517.237	9494.95
517.604	9462.86
517.972	9628.28
518.339	9611.1
518.706	9635.51
519.073	9747.6
519.44	9829.63
519.808	9875.5
520.175	9957.76
520.542	10052.67
520.909	10123.18
521.276	10129.06
521.643	10278.43
522.009	10320.01
522.376	10411.76
522.743	10445.21
523.11	10543.06
523.477	10667.57
523.843	10714.8
524.21	10784.86
524.577	10940.33
524.943	10969.71
525.31	11068.69
525.676	11122.7
526.043	11200.89
526.409	11286.54
526.776	11386.88
527.142	11410.83
527.508	11481.11
527.874	11581.22
528.241	11659.86
528.607	11726.98
528.973	11802.23
529.339	11851.5
529.705	11894.66
530.071	12077.71
530.437	12160.87
530.803	12177.82
531.169	12249.45
531.535	12261.88
531.901	12366.51
532.267	12386.62
532.632	12456.45
532.998	12567.41
533.364	12653.28
533.73	12704.58
534.095	12794.97
534.461	12859.38
534.826	12837.46
535.192	12841.53
535.557	13005.59
535.923	13006.27
536.288	13164.46
536.653	13181.18
537.019	13153.16
537.384	13269.76
537.749	13436.99
538.114	13393.83
538.479	13446.26
538.845	13510.44
539.21	13476.31
539.575	13561.06
539.94	13600.83
540.305	13673.6
540.67	13680.83
541.034	13735.97
541.399	13866.36
541.764	13911.1
542.129	13886.47
542.494	13922.4
542.858	14017.32
543.223	14013.25
543.587	14135.5
543.952	14102.96
544.316	14212.79
544.681	14239
545.045	14207.59
545.41	14440.35
545.774	14399.23
546.138	14364.2
546.503	14463.63
546.867	14463.63
547.231	14642.61
547.595	14678.09
547.959	14709.27
548.324	14751.53
548.688	14752.66
549.052	14848.48
549.416	14909.27
549.779	14874.47
550.143	14926.22
550.507	15131.41
550.871	15174.35
551.235	15169.15
551.599	15236.04
551.962	15296.15
552.326	15344.06
552.689	15425.64
553.053	15428.13
553.417	15421.8
553.78	15699.76
554.143	15584.05
554.507	15797.38
554.87	15789.7
555.234	15920.09
555.597	15946.08
555.96	15976.81
556.323	16077.37
556.686	16113.53
557.05	16176.81
557.413	16284.37
557.776	16248.89
558.139	16411.38
558.502	16469.91
558.865	16477.14
559.228	16573.86
559.59	16667.41
559.953	16744.25
560.316	16894.08
560.679	16866.28
561.041	17045.94
561.404	17094.75
561.767	17141.53
562.129	17162.09
562.492	17363.22
562.854	17370.45
563.217	17413.61
563.579	17515.98
563.941	17583.77
564.304	17709.87
564.666	17869.19
565.028	17866.93
565.39	17954.84
565.753	18079.36
566.115	18072.35
566.477	18154.38
566.839	18223.76
567.201	18446.8
567.563	18372
567.925	18561.38
568.287	18508.72
568.648	18646.35
569.01	18775.83
569.372	18898.99
569.734	18835.72
570.095	18949.61
570.457	19012.44
570.819	19107.12
571.18	19058.76
571.542	19178.76
571.903	19319.77
572.265	19375.59
572.626	19474.12
572.987	19549.15
573.349	19619.43
573.71	19776.26
574.071	19839.31
574.432	19762.47
574.794	19935.58
575.155	19990.27
575.516	19973.09
575.877	20086.31
576.238	20171.73
576.599	20164.05
576.96	20312.52
577.32	20410.59
577.681	20430.25
578.042	20490.59
578.403	20449.24
578.763	20469.35
579.124	20555.22
579.485	20730.81
579.845	20780.75
580.206	20727.2
580.566	20792.96
580.927	20879.28
581.287	20900.07
581.648	20828.66
582.008	21062.1
582.368	20926.29
582.728	21097.13
583.089	21051.25
583.449	21159.27
583.809	21093.51
584.169	21216
584.529	21251.25
584.889	21393.17
585.249	21258.03
585.609	21287.18
585.969	21351.36
586.329	21282.43
586.688	21350.68
587.048	21418.7
587.408	21392.94
587.768	21413.28
588.127	21413.5
588.487	21330.34
588.846	21609.43
589.206	21454.18
589.565	21538.47
589.925	21626.83
590.284	21637.91
590.643	21673.61
591.003	21809.65
591.362	21824.34
591.721	21702.08
592.08	21741.18
592.44	21797.22
592.799	21847.17
593.158	21841.29
593.517	21958.58
593.876	21961.29
594.235	21907.28
594.593	22028.18
594.952	22149.08
595.311	21868.18
595.67	22037.67
596.029	22202.18
596.387	22151.56
596.746	22206.48
597.104	22161.73
597.463	22107.72
597.822	22287.61
598.18	22152.47
598.538	22222.3
598.897	22452.12
599.255	22272.24
599.613	22469.97
599.972	22462.06
600.33	22486.7
600.688	22471.33
601.046	22646.47
601.404	22645.34
601.762	22579.12
602.12	22707.71
602.478	22679.23
602.836	22798.78
603.194	22667.71
603.552	22649.86
603.91	22540.25
604.268	22858.21
604.625	22787.93
604.983	22675.84
605.341	22780.02
605.698	22866.12
606.056	23054.14
606.413	22953.35
606.771	22937.76
607.128	23000.13
607.485	22953.13
607.843	23030.86
608.2	23112.44
608.557	23270.41
608.914	23093.69
609.272	23244.19
609.629	23197.86
609.986	23319.9
610.343	23236.06
610.7	23490.96
611.057	23361.93
611.414	23291.65
611.771	23419.55
612.127	23484.86
612.484	23439.21
612.841	23501.36
613.198	23394.7
613.554	23554.69
613.911	23716.04
614.267	23667
614.624	23643.5
614.98	23803.5
615.337	23805.31
615.693	23728.25
616.05	23852.31
616.406	23885.98
616.762	23875.13
617.118	23808.47
617.475	23850.95
617.831	24039.42
618.187	23826.32
618.543	23925.98
618.899	24157.61
619.255	24076.71
619.611	24074.45
619.967	24204.17
620.323	24145.18
620.678	24158.52
621.034	23993.32
621.39	24064.73
621.746	24019.31
622.101	24264.96
622.457	24069.25
622.812	24087.33
623.168	24221.34
623.523	24223.83
623.879	24246.65
624.234	24149.7
624.589	24281
624.945	24205.97
625.3	24180.89
625.655	24285.29
626.01	24256.37
626.365	24191.51
626.72	24306.54
627.075	24247.1
627.43	24263.15
627.785	24127.78
628.14	24179.08
628.495	24316.71
628.85	24169.59
629.205	24044.62
629.559	24353.31
629.914	24243.49
630.269	24071.29
630.623	24037.16
630.978	23978.86
631.332	24061.8
631.687	24066.09
632.041	24015.47
632.396	24098.63
632.75	24012.08
633.104	24003.49
633.459	23831.97
633.813	23945.42
634.167	23935.92
634.521	23909.03
634.875	23985.64
635.229	23855.02
635.583	23732.99
635.937	23877.62
636.291	23760.56
636.645	23823.38
636.999	23892.54
637.352	23873.78
637.706	23709.04
638.06	23761.69
638.413	23756.49
638.767	23535.48
639.121	23593.11
639.474	23567.35
639.828	23420.01
640.181	23539.55
640.534	23604.18
640.888	23475.82
641.241	23363.51
641.594	23462.72
641.947	23566.67
642.301	23528.7
642.654	23430.4
643.007	23478.76
643.36	23382.72
643.713	23399.67
644.066	23461.59
644.419	23343.17
644.771	23229.73
645.124	23028.38
645.477	22945.44
645.83	22804.2
646.182	22593.59
646.535	22537.77
646.888	22612.8
647.24	22445.34
647.593	22603.53
647.945	22531.22
648.298	22417.32
648.65	22429.07
649.002	22262.75
649.355	22428.85
649.707	22328.96
650.059	22466.58
650.411	22810.53
650.763	22766.69
651.115	23016.4
651.467	22910.64
651.819	22927.36
652.171	22800.13
652.523	22759.23
652.875	22807.37
653.227	22864.09
653.578	22891.88
653.93	22849.63
654.282	22734.83
654.633	22692.57
654.985	22817.54
655.337	22747.25
655.688	22638.78
656.039	22853.69
656.391	22619.57
656.742	22667.48
657.094	22764.43
657.445	22811.43
657.796	22766.46
658.147	22666.35
658.498	22642.85
658.849	22709.74
659.2	22718.33
659.551	22566.02
659.902	22618.9
660.253	22643.53
660.604	22658.67
660.955	22506.36
661.306	22605.34
661.656	22648.73
662.007	22691.89
662.358	22631.78
662.708	22678.78
663.059	22558.33
663.409	22554.94
663.76	22700.02
664.11	22519.01
664.461	22677.2
664.811	22578.67
665.161	22663.64
665.511	22478.56
665.862	22522.4
666.212	22586.58
666.562	22580.48
666.912	22519.24
667.262	22619.57
667.612	22583.87
667.962	22517.2
668.312	22462.74
668.662	22564.43
669.011	22537.54
669.361	22556.3
669.711	22550.65
670.06	22448.96
670.41	22533.02
670.76	22391.56
671.109	22536.41
671.459	22362.86
671.808	22352.92
672.157	22470.2
672.507	22299.36
672.856	22279.24
673.205	22362.63
673.554	22474.27
673.904	22223.43
674.253	22450.31
674.602	22299.58
674.951	22013.04
675.3	21995.64
675.649	22218
675.998	22356.08
676.346	22188.4
676.695	22379.13
677.044	22140.94
677.393	22306.14
677.741	22266.59
678.09	22147.5
678.438	22241.28
678.787	22212.13
679.135	22253.26
679.484	22040.83
679.832	22193.15
680.181	21962.19
680.529	22150.43
680.877	22050.1
681.225	21927.16
681.573	22098.23
681.922	22012.59
682.27	21982.98
682.618	21887.62
682.966	21851.23
683.314	21939.59
683.661	21871.57
684.009	21696.89
684.357	21777.79
684.705	21680.84
685.053	21785.92
685.4	21564.69
685.748	21539.15
686.095	21524.69
686.443	21448.76
686.79	21541.19
687.138	21448.76
687.485	21558.81
687.832	21436.33
688.18	21287.41
688.527	21382.77
688.874	21271.59
689.221	21204.24
689.568	21200.85
689.915	21204.24
690.262	21028.66
690.609	21126.28
690.956	21096.9
691.303	21025.72
691.65	20867.98
691.997	20906.17
692.344	20722.68
692.69	20758.38
693.037	20654.65
693.383	20538.05
693.73	20636.35
694.077	20557.03
694.423	20493.75
694.769	20446.98
695.116	20412.85
695.462	20357.49
695.808	20329.47
696.155	20355.45
696.501	20186.87
696.847	20237.72
697.193	20084.27
697.539	20164.05
697.885	19966.31
698.231	19957.05
698.577	20044.95
698.923	19994.33
699.269	19843.38
699.614	19749.59
699.96	19682.48
700.306	19761.57
700.651	19642.7
700.997	19545.08
701.342	19599.54
701.688	19472.99
702.033	19565.64
702.379	19406.1
702.724	19375.82
703.069	19418.53
703.415	19220.34
703.76	19317.06
704.105	19168.59
704.45	19205.88
704.795	19113.23
705.14	19070.06
705.485	18948.03
705.83	18990.52
706.175	18870.29
706.52	18837.53
706.865	18834.14
707.209	18755.95
707.554	18666.68
707.899	18744.87
708.243	18643.86
708.588	18557.76
708.932	18526.8
709.277	18531.77
709.621	18534.48
709.966	18393.7
710.31	18461.04
710.654	18306.69
710.998	18354.38
711.342	18302.85
711.687	18188.05
712.031	18232.35
712.375	18122.97
712.719	18090.43
713.063	18079.81
713.407	18157.55
713.75	18091.33
714.094	18092.91
714.438	18005.46
714.782	18055.17
715.125	17937.21
715.469	17929.3
715.812	17829.64
716.156	17723.88
716.499	17776.54
716.843	17783.09
717.186	17777.44
717.53	17751.68
717.873	17805.01
718.216	17694.51
718.559	17663.77
718.902	17483.44
719.246	17601.18
719.589	17524.12
719.932	17478.92
720.275	17482.99
720.617	17483.66
720.96	17362.99
721.303	17436.89
721.646	17490.67
721.989	17325.02
722.331	17419.26
722.674	17369.32
723.016	17432.14
723.359	17305.36
723.701	17313.5
724.044	17245.7
724.386	17207.74
724.729	17257.68
725.071	17184.69
725.413	17251.35
725.755	17155.54
726.097	17110.79
726.439	16995.09
726.782	16999.16
727.124	17136.33
727.465	16913.06
727.807	16921.87
728.149	16927.3
728.491	16900.63
728.833	16939.27
729.175	16867.64
729.516	16913.51
729.858	16864.7
730.199	16873.96
730.541	16857.92
730.882	16802.33
731.224	16887.07
731.565	16691.82
731.906	16726.85
732.248	16761.42
732.589	16659.96
732.93	16608.66
733.271	16608.43
733.612	16654.76
733.953	16766.62
734.294	16538.83
734.635	16578.38
734.976	16624.03
735.317	16599.39
735.658	16534.99
735.999	16539.51
736.339	16487.53
736.68	16571.37
737.021	16474.43
737.361	16440.75
737.702	16504.03
738.042	16386.97
738.383	16446.63
738.723	16434.88
739.063	16334.32
739.404	16394.2
739.744	16352.17
740.084	16305.84
740.424	16332.51
740.764	16242.12
741.104	16363.24
741.444	16219.97
741.784	16209.8
742.124	16274.43
742.464	16215.45
742.804	16196.69
743.143	16134.32
743.483	16140.2
743.823	16072.63
744.162	16081.22
744.502	16140.65
744.841	16045.51
745.181	16231.95
745.52	16099.29
745.86	16174.55
746.199	16031.73
746.538	16000.31
746.877	16068.33
747.216	16060.2
747.556	15964.38
747.895	15966.42
748.234	15840.32
748.573	15832.86
748.911	15863.59
749.25	15915.34
749.589	15881.9
749.928	15833.31
750.267	15897.04
750.605	15744.28
750.944	15753.09
751.283	15717.38
751.621	15772.07
751.96	15581.57
752.298	15718.06
752.636	15678.97
752.975	15579.53
753.313	15617.95
753.651	15643.04
753.989	15498.41
754.327	15519.2
754.666	15493.43
755.004	15487.33
755.342	15445.75
755.679	15416.83
756.017	15318.52
