Data from tablewood_brown_FLMS001491_034.txt Node
Date: Tue Feb 07 11:10:22 GMT 2017
User: dcchb
Spectrometer: FLMS00149
Trigger mode: 0
Integration Time (sec): 2.000000E-2
Scans to average: 10
Electric dark correction enabled: true
Nonlinearity correction enabled: false
Boxcar width: 0
XAxis mode: Wavelengths
Number of Pixels in Spectrum: 2048
>>>>>Begin Spectral Data<<<<<
341.393	-13.02
341.776	-13.02
342.16	-13.02
342.543	-65.22
342.927	-70.87
343.31	-52.12
343.693	-80.82
344.077	-74.72
344.46	-62.74
344.843	-60.7
345.226	-39.24
345.61	-13.7
345.993	-28.39
346.376	-0.14
346.759	22.23
347.142	17.94
347.525	45.96
347.908	71.27
348.291	78.05
348.674	63.13
349.057	113.98
349.44	136.58
349.823	135.45
350.206	156.92
350.588	201.21
350.971	233.07
351.354	232.62
351.737	257.25
352.119	247.54
352.502	263.35
352.884	279.63
353.267	293.18
353.65	302.22
354.032	285.5
354.414	316.23
354.797	324.82
355.179	334.31
355.562	336.12
355.944	325.05
356.326	335.67
356.709	350.81
357.091	337.25
357.473	335.22
357.855	359.62
358.238	362.56
358.62	359.85
359.002	348.55
359.384	349
359.766	356.01
360.148	361.21
360.53	337.7
360.912	357.59
361.294	374.99
361.676	346.74
362.057	343.13
362.439	339.06
362.821	331.83
363.203	345.84
363.584	344.93
363.966	348.1
364.348	342.45
364.729	339.06
365.111	319.85
365.493	352.62
365.874	334.09
366.256	337.48
366.637	325.95
367.019	348.32
367.4	329.34
367.781	328.21
368.163	318.04
368.544	339.06
368.925	330.02
369.306	328.44
369.688	328.44
370.069	359.85
370.45	350.81
370.831	333.41
371.212	351.26
371.593	330.92
371.974	343.13
372.355	336.35
372.736	332.51
373.117	339.51
373.498	349.23
373.879	336.12
374.26	348.1
374.641	328.66
375.021	348.55
375.402	329.79
375.783	354.43
376.163	356.23
376.544	355.33
376.925	377.7
377.305	353.97
377.686	348.1
378.066	336.57
378.447	334.54
378.827	356.01
379.208	363.92
379.588	369.34
379.968	356.23
380.349	366.85
380.729	377.48
381.109	360.53
381.489	379.28
381.87	384.03
382.25	374.76
382.63	386.97
383.01	400.75
383.39	384.03
383.77	363.24
384.15	379.74
384.53	376.12
384.91	390.36
385.29	392.16
385.67	392.84
386.049	391.49
386.429	418.6
386.809	417.7
387.189	413.41
387.568	402.11
387.948	406.4
388.328	415.67
388.707	418.83
389.087	409.11
389.466	425.61
389.846	415.22
390.225	404.37
390.605	437.81
390.984	445.72
391.363	433.97
391.743	442.33
392.122	450.02
392.501	426.97
392.881	452.73
393.26	439.4
393.639	467.64
394.018	457.47
394.397	460.86
394.776	455.89
395.155	473.29
395.534	443.69
395.913	469.45
396.292	469.68
396.671	486.85
397.05	472.84
397.429	482.33
397.808	493.18
398.186	502.22
398.565	485.72
398.944	485.95
399.323	474.42
399.701	491.15
400.08	485.04
400.458	515.55
400.837	505.61
401.215	517.59
401.594	522.33
401.972	527.98
402.351	534.99
402.729	539.05
403.107	553.74
403.486	532.95
403.864	554.65
404.242	552.39
404.62	558.71
404.999	568.43
405.377	583.8
405.755	572.73
406.133	567.3
406.511	572.73
406.889	585.61
407.267	560.52
407.645	596.91
408.023	590.8
408.401	599.84
408.779	622.89
409.156	584.02
409.534	598.04
409.912	607.07
410.29	626.73
410.667	644.81
411.045	662.21
411.422	659.05
411.8	677.81
412.178	672.38
412.555	666.28
412.933	657.69
413.31	681.87
413.687	700.86
414.065	676.68
414.442	699.05
414.819	712.61
415.197	704.02
415.574	728.2
415.951	709.9
416.328	741.08
416.705	743.12
417.082	738.82
417.46	739.95
417.837	736.79
418.214	744.47
418.591	751.93
418.967	759.16
419.344	793.28
419.721	770.01
420.098	767.52
420.475	799.84
420.852	800.97
421.228	817.92
421.605	814.07
421.982	786.73
422.358	829.89
422.735	819.05
423.111	828.54
423.488	835.09
423.864	831.93
424.241	865.15
424.617	872.38
424.994	855.66
425.37	884.58
425.746	879.84
426.123	884.13
426.499	873.96
426.875	894.3
427.251	893.85
427.627	916.22
428.003	937.01
428.379	939.95
428.756	945.82
429.132	960.74
429.507	946.73
429.883	984.24
430.259	983.79
430.635	960.29
431.011	991.25
431.387	1008.65
431.763	1043
432.138	1037.57
432.514	1040.51
432.89	1062.88
433.265	1071.02
433.641	1074.41
434.016	1071.47
434.392	1100.62
434.767	1157.79
435.143	1103.33
435.518	1149.21
435.894	1149.66
436.269	1166.83
436.644	1182.88
437.02	1183.56
437.395	1193.5
437.77	1190.11
438.145	1223.1
438.52	1213.61
438.895	1221.3
439.271	1234.18
439.646	1250.22
440.021	1269.2
440.395	1295.64
440.77	1261.29
441.145	1289.09
441.52	1327.51
441.895	1313.04
442.27	1348.75
442.645	1296.1
443.019	1342.65
443.394	1334.06
443.769	1373.83
444.143	1376.77
444.518	1413.15
444.892	1396.88
445.267	1401.63
445.641	1381.74
446.016	1417
446.39	1450.67
446.764	1427.17
447.139	1446.37
447.513	1441.18
447.887	1437.79
448.262	1450.89
448.636	1463.1
449.01	1466.49
449.384	1497.9
449.758	1509.88
450.132	1500.84
450.506	1532.7
450.88	1526.6
451.254	1549.2
451.628	1563.21
452.002	1566.6
452.376	1583.55
452.75	1589.2
453.123	1597.78
453.497	1635.75
453.871	1625.13
454.244	1653.6
454.618	1680.27
454.992	1697.44
455.365	1704.9
455.739	1730.21
456.112	1764.78
456.486	1767.27
456.859	1796.87
457.232	1823.09
457.606	1815.18
457.979	1839.81
458.352	1852.24
458.725	1868.51
459.099	1891.11
459.472	1939.92
459.845	1932.92
460.218	1946.47
460.591	1969.3
460.964	2007.04
461.337	2043.87
461.71	2070.76
462.083	2088.39
462.456	2105.57
462.829	2130.42
463.201	2157.77
463.574	2157.54
463.947	2161.16
464.32	2227.37
464.692	2249.52
465.065	2284.09
465.438	2328.61
465.81	2391.43
466.183	2383.75
466.555	2421.49
466.928	2450.19
467.3	2442.73
467.672	2476.86
468.045	2558.89
468.417	2549.85
468.789	2596.63
469.161	2630.98
469.534	2654.25
469.906	2731.99
470.278	2785.1
470.65	2788.49
471.022	2847.47
471.394	2924.08
471.766	2903.51
472.138	2968.14
472.51	3029.61
472.882	3088.59
473.253	3112.32
473.625	3164.75
473.997	3266.89
474.369	3240.45
474.74	3348.02
475.112	3402.48
475.484	3455.14
475.855	3522.93
476.227	3556.38
476.598	3690.84
476.97	3694
477.341	3793.21
477.713	3886.54
478.084	3876.82
478.455	3995.01
478.827	4061.9
479.198	4196.81
479.569	4198.17
479.94	4368.11
480.311	4392.74
480.682	4472.06
481.053	4609.91
481.424	4676.57
481.795	4758.38
482.166	4846.74
482.537	4875.21
482.908	5025.26
483.279	5037.69
483.65	5145.26
484.021	5265.03
484.391	5375.99
484.762	5419.83
485.133	5465.03
485.503	5525.82
485.874	5622.99
486.244	5724.91
486.615	5879.93
486.985	5956.09
487.356	6033.37
487.726	6100.94
488.097	6228.85
488.467	6302.07
488.837	6373.7
489.207	6446.47
489.578	6535.51
489.948	6660.47
490.318	6681.94
490.688	6771.21
491.058	6844.88
491.428	6933.46
491.798	7033.8
492.168	7140.01
492.538	7221.82
492.908	7281.93
493.278	7323.51
493.648	7417.06
494.017	7513.33
494.387	7592.65
494.757	7671.07
495.126	7829.03
495.496	7747.9
495.866	7873.78
496.235	7997.39
496.605	7979.76
496.974	8102.24
497.344	8184.05
497.713	8178.17
498.082	8245.52
498.452	8396.7
498.821	8417.26
499.19	8520.54
499.559	8533.42
499.928	8609.58
500.298	8660.2
500.667	8772.28
501.036	8739.29
501.405	8801.21
501.774	8902.9
502.143	8989.23
502.512	9026.97
502.88	9149.22
503.249	9095.21
503.618	9203.68
503.987	9242.1
504.356	9362.78
504.724	9391.93
505.093	9438.71
505.462	9527.07
505.83	9546.05
506.199	9681.64
506.567	9790.34
506.936	9771.13
507.304	9883.89
507.672	9943.55
508.041	9991.91
508.409	10113.27
508.777	10247.27
509.145	10222.19
509.514	10268.74
509.882	10367.72
510.25	10432.8
510.618	10505.35
510.986	10561.16
511.354	10690.65
511.722	10816.98
512.09	10883.19
512.458	10909.18
512.826	11042.73
513.193	11087.7
513.561	11206.34
513.929	11268.94
514.297	11328.37
514.664	11480.69
515.032	11511.65
515.4	11586.45
515.767	11684.75
516.135	11754.13
516.502	11668.25
516.869	11924.74
517.237	11993.67
517.604	12088.35
517.972	12145.53
518.339	12309.82
518.706	12334
519.073	12452.19
519.44	12544.61
519.808	12672.97
520.175	12733.08
520.542	12960.87
520.909	12959.52
521.276	12924.72
521.643	13142.11
522.009	13265.95
522.376	13290.36
522.743	13427.08
523.11	13541.42
523.477	13686.5
523.843	13777.12
524.21	13909.1
524.577	14005.59
524.943	14157
525.31	14288.97
525.676	14367.84
526.043	14544.11
526.409	14617.78
526.776	14730.32
527.142	14806.7
527.508	14900.26
527.874	15043.76
528.241	15109.07
528.607	15120.14
528.973	15342.96
529.339	15276.07
529.705	15454.59
530.071	15643.97
530.437	15706.34
530.803	15810.97
531.169	15847.58
531.535	15798.77
531.901	15946.56
532.267	15979.1
532.632	16185.87
532.998	16229.94
533.364	16356.04
533.73	16364.17
534.095	16471.74
534.461	16495.7
534.826	16712.41
535.192	16737.27
535.557	16852.07
535.923	16934.1
536.288	16942.92
536.653	17082.8
537.019	17018.39
537.384	17146.98
537.749	17229.91
538.114	17294.55
538.479	17305.39
538.845	17343.13
539.21	17414.99
539.575	17538.38
539.94	17649.79
540.305	17626.74
540.67	17607.53
541.034	17777.24
541.399	17918.26
541.764	17918.48
542.129	17953.06
542.494	18060.63
542.858	18125.48
543.223	18229.44
543.587	18258.81
543.952	18244.35
544.316	18365.7
544.681	18338.81
545.045	18459.49
545.41	18603.21
545.774	18624.45
546.138	18722.76
546.503	18804.34
546.867	18767.27
547.231	18892.02
547.595	19009.98
547.959	19009.53
548.324	18971.56
548.688	19146.7
549.052	19153.48
549.416	19304.44
549.779	19373.59
550.143	19437.77
550.507	19713.01
550.871	19644.31
551.235	19704.65
551.599	19869.17
551.962	19972.89
552.326	19956.4
552.689	20088.14
553.053	20132.44
553.417	20219.44
553.78	20459.66
554.143	20365.88
554.507	20603.84
554.87	20683.38
555.234	20948.91
555.597	20787.79
555.96	20990.72
556.323	21095.58
556.686	21287.43
557.05	21474.1
557.413	21568.11
557.776	21638.84
558.139	21720.19
558.502	21848.55
558.865	22023.91
559.228	22151.14
559.59	22319.72
559.953	22517.46
560.316	22752.48
560.679	22789.77
561.041	23007.84
561.404	23180.94
561.767	23223.88
562.129	23337.1
562.492	23618.67
562.854	23601.27
563.217	23762.17
563.579	23973.24
563.941	24112.9
564.304	24236.06
564.666	24520.34
565.028	24575.48
565.39	24765.76
565.753	24986.32
566.115	25044.62
566.477	25262.02
566.839	25386.99
567.201	25792.63
567.563	25814.32
567.925	25938.39
568.287	26057.48
568.648	26198.72
569.01	26419.28
569.372	26563.91
569.734	26521.65
570.095	26986.72
570.457	27087.06
570.819	27312.36
571.18	27307.16
571.542	27525.01
571.903	27698.79
572.265	27854.04
572.626	28037.99
572.987	28146.46
573.349	28382.62
573.71	28541.26
574.071	28676.84
574.432	28759.55
574.794	29104.18
575.155	29229.15
575.516	29196.61
575.877	29333.55
576.238	29559.53
576.599	29784.84
576.96	29902.12
577.32	30028.45
577.681	30184.38
578.042	30319.06
578.403	30508.44
578.763	30474.09
579.124	30635.66
579.485	30789.78
579.845	30919.05
580.206	30966.5
580.566	31112.04
580.927	31174.63
581.287	31241.98
581.648	31416.89
582.008	31482.42
582.368	31562.64
582.728	31648.29
583.089	31733.49
583.449	31739.36
583.809	31763.09
584.169	31978.9
584.529	31992.24
584.889	32241.95
585.249	32130.54
585.609	32067.04
585.969	32268.39
586.329	32232.91
586.688	32329.63
587.048	32427.03
587.408	32357.43
587.768	32391.32
588.127	32453.02
588.487	32399.68
588.846	32765.1
589.206	32533.69
589.565	32652.56
589.925	32784.76
590.284	32844.19
590.643	32922.16
591.003	32853.68
591.362	32975.94
591.721	32942.04
592.08	33087.58
592.44	33015.49
592.799	32967.58
593.158	33005.09
593.517	32996.05
593.876	33057.97
594.235	33076.5
594.593	33116.5
594.952	33198.76
595.311	33190.4
595.67	33205.31
596.029	33304.75
596.387	33396.95
596.746	33487.57
597.104	33259.55
597.463	33322.82
597.822	33492.31
598.18	33480.79
598.538	33486.89
598.897	33590.84
599.255	33316.5
599.613	33760.55
599.972	33585.42
600.33	33648.69
600.688	33462.93
601.046	33730.5
601.404	33811.17
601.762	33648.92
602.12	33890.72
602.478	33983.6
602.836	34013.43
603.194	33657.5
603.552	33864.28
603.91	33708.8
604.268	33948.12
604.625	33876.48
604.983	34091.39
605.341	33897.95
605.698	34041.9
606.056	34158.51
606.413	34037.16
606.771	34142.92
607.128	34221.78
607.485	34097.49
607.843	34063.82
608.2	34211.61
608.557	34322.57
608.914	34252.74
609.272	34514.21
609.629	34395.79
609.986	34514.66
610.343	34265.17
610.7	34584.26
611.057	34517.6
611.414	34502.68
611.771	34602.56
612.127	34784.71
612.484	34768.89
612.841	34884.37
613.198	34816.34
613.554	34886.85
613.911	35151.48
614.267	34962.78
614.624	34938.6
614.98	34951.93
615.337	35176.79
615.693	35092.5
616.05	35108.09
616.406	35305.82
616.762	35251.59
617.118	35342.21
617.475	35225.37
617.831	35251.81
618.187	35319.38
618.543	35316.67
618.899	35416.78
619.255	35427.18
619.611	35320.96
619.967	35512.82
620.323	35563.44
620.678	35504.91
621.034	35444.58
621.39	35393.96
621.746	35397.57
622.101	35766.38
622.457	35492.26
622.812	35570.45
623.168	35721.41
623.523	35593.05
623.879	35853.83
624.234	35517.57
624.589	35581.52
624.945	35689.54
625.3	35694.97
625.655	35675.3
626.01	35723.67
626.365	35751.91
626.72	35549.43
627.075	35655.87
627.43	35583.56
627.785	35575.42
628.14	35629.66
628.495	35664.23
628.85	35520.51
629.205	35370.45
629.559	35575.87
629.914	35439.6
630.269	35491.35
630.623	35447.51
630.978	35344.47
631.332	35467.63
631.687	35550.79
632.041	35362.77
632.396	35385.6
632.75	35248.65
633.104	35413.62
633.459	35140.18
633.813	35138.82
634.167	35134.53
634.521	35290.68
634.875	35245.71
635.229	35009.56
635.583	34873.97
635.937	35136.79
636.291	35015.89
636.645	34897.92
636.999	34737.48
637.352	34848.66
637.706	34658.16
638.06	34950.35
638.413	34828.1
638.767	34774.09
639.121	34826.51
639.474	34557.14
639.828	34582
640.181	34777.25
640.534	34620.87
640.888	34552.17
641.241	34308.34
641.594	34479.18
641.947	34513.75
642.301	34424.04
642.654	34358.73
643.007	34469.01
643.36	34353.08
643.713	34274.89
644.066	34388.79
644.419	34208.45
644.771	33901.34
645.124	33743.38
645.477	33685.3
645.83	33505.64
646.182	33306.55
646.535	33270.4
646.888	33338.42
647.24	33093.68
647.593	33354.69
647.945	33397.62
648.298	33063.17
648.65	33036.05
649.002	32987.47
649.355	33060.23
649.707	33018.88
650.059	33221.36
650.411	33494.12
650.763	33442.37
651.115	33927.78
651.467	33904.05
651.819	33844.39
652.171	33801.23
652.523	33695.7
652.875	33740.67
653.227	33591.29
653.578	33802.36
653.93	33649.6
654.282	33567.11
654.633	33502.48
654.985	33621.8
655.337	33638.75
655.688	33648.47
656.039	33680.33
656.391	33512.88
656.742	33535.25
657.094	33538.86
657.445	33671.06
657.796	33475.59
658.147	33536.83
658.498	33523.27
658.849	33629.03
659.2	33627.22
659.551	33500.45
659.902	33625.42
660.253	33553.55
660.604	33631.06
660.955	33524.4
661.306	33643.95
661.656	33397.4
662.007	33337.74
662.358	33463.84
662.708	33414.57
663.059	33434.46
663.409	33223.17
663.76	33594
664.11	33344.97
664.461	33492.31
664.811	33449.6
665.161	33356.04
665.511	33368.7
665.862	33457.06
666.212	33442.82
666.562	33482.37
666.912	33475.36
667.262	33313.33
667.612	33241.24
667.962	33393.11
668.312	33315.37
668.662	33387
669.011	33374.57
669.361	33231.3
669.711	33292.32
670.06	33335.03
670.41	33236.72
670.76	33260.68
671.109	33376.16
671.459	33150.85
671.808	33065.88
672.157	33194.47
672.507	32898.43
672.856	33078.31
673.205	32928.71
673.554	33065.2
673.904	32781.6
674.253	33154.69
674.602	32905.66
674.951	32423.41
675.3	32506.12
675.649	32997.18
675.998	32894.36
676.346	32926.9
676.695	32876.51
677.044	32641.03
677.393	32952.66
677.741	32808.04
678.09	32736.4
678.438	32567.82
678.787	32654.59
679.135	32670.86
679.484	32457.99
679.832	32594.03
680.181	32253.47
680.529	32587.93
680.877	32441.27
681.225	32221.61
681.573	32383.64
681.922	32248.73
682.27	32155.62
682.618	32158.56
682.966	32197.2
683.314	32172.57
683.661	32017.32
684.009	31841.51
684.357	31825.69
684.705	31716.09
685.053	31695.97
685.4	31735.97
685.748	31670.21
686.095	31644.22
686.443	31410.56
686.79	31364.68
687.138	31490.78
687.485	31402.65
687.832	31282.65
688.18	31271.35
688.527	31114.75
688.874	31194.07
689.221	31117.46
689.568	30876.56
689.915	30970.12
690.262	30848.09
690.609	30813.74
690.956	30614.65
691.303	30601.54
691.65	30506.85
691.997	30400.42
692.344	30217.82
692.69	30228.89
693.037	30104.83
693.383	29938.51
693.73	30071.38
694.077	29848.79
694.423	29809.02
694.769	29710.72
695.116	29600.44
695.462	29450.84
695.808	29413.32
696.155	29447.9
696.501	29239.99
696.847	29204.51
697.193	28959.32
697.539	29071.64
697.885	28816.95
698.231	28883.85
698.577	28742.61
698.923	28591.2
699.269	28551.65
699.614	28454.03
699.96	28379
700.306	28381.26
700.651	28200.93
700.997	28111.89
701.342	28040.25
701.688	27990.54
702.033	27855.4
702.379	27959.12
702.724	27737.43
703.069	27860.37
703.415	27490.44
703.76	27368.18
704.105	27403.43
704.45	27323.21
704.795	27190.33
705.14	27099.71
705.485	27148.52
705.83	26986.95
706.175	27013.16
706.52	26935.65
706.865	26813.84
707.209	26767.06
707.554	26740.4
707.899	26742.43
708.243	26523.68
708.588	26511.93
708.932	26425.83
709.277	26248.21
709.621	26368.88
709.966	26162.33
710.31	26309
710.654	25995.33
710.998	26011.15
711.342	26093.86
711.687	25949.23
712.031	25754.44
712.375	25685.06
712.719	25835.79
713.063	25661.1
713.407	25783.81
713.75	25591.05
714.094	25590.37
714.438	25473.31
714.782	25384.5
715.125	25359.42
715.469	25385.63
715.812	25309.48
716.156	25173.89
716.499	25150.38
716.843	25262.92
717.186	25089.82
717.53	25074.68
717.873	25164.39
718.216	25031.97
718.559	24976.83
718.902	24862.26
719.246	24854.57
719.589	25001.91
719.932	24849.83
720.275	24714.01
720.617	24778.87
720.96	24698.42
721.303	24761.24
721.646	24705.2
721.989	24594.69
722.331	24592.88
722.674	24667.01
723.016	24582.49
723.359	24627.23
723.701	24539.78
724.044	24419.1
724.386	24234.02
724.729	24470.4
725.071	24427.69
725.413	24313.12
725.755	24363.29
726.097	24319.22
726.439	24263.63
726.782	24287.13
727.124	24337.75
727.465	24129.85
727.807	24228.15
728.149	24218.43
728.491	24175.27
728.833	24144.31
729.175	24129.17
729.516	24055.72
729.858	24032.22
730.199	24126.23
730.541	24097.53
730.882	24042.84
731.224	24126.23
731.565	23879.91
731.906	23885.11
732.248	23946.35
732.589	23843.53
732.93	23783.41
733.271	23889.63
733.612	23809.63
733.953	23855.95
734.294	23761.04
734.635	23765.79
734.976	23775.28
735.317	23896.18
735.658	23838.55
735.999	23808.05
736.339	23736.18
736.68	23910.19
737.021	23718.11
737.361	23810.98
737.702	23864.09
738.042	23834.71
738.383	23705.9
738.723	23824.54
739.063	23725.79
739.404	23831.32
739.744	23720.59
740.084	23586.13
740.424	23672.68
740.764	23643.08
741.104	23775.73
741.444	23578.9
741.784	23539.13
742.124	23628.39
742.464	23611.89
742.804	23561.05
743.143	23542.52
743.483	23507.04
743.823	23395.63
744.162	23409.41
744.502	23509.98
744.841	23476.76
745.181	23513.14
745.52	23371.67
745.86	23421.16
746.199	23553.59
746.538	23373.03
746.877	23640.82
747.216	23523.53
747.556	23518.11
747.895	23531.67
748.234	23455.97
748.573	23377.32
748.911	23380.03
749.25	23348.62
749.589	23325.12
749.928	23362.18
750.267	23289.19
750.605	23351.34
750.944	23319.7
751.283	23248.74
751.621	23377.78
751.96	23170.77
752.298	23180.72
752.636	23130.1
752.975	23059.37
753.313	22885.81
753.651	23103.43
753.989	23001.97
754.327	23028.18
754.666	22878.81
755.004	23032.7
755.342	22949.31
755.679	22956.54
