Data from tablewood_brown_FLMS001491_068.txt Node
Date: Tue Feb 07 11:10:50 GMT 2017
User: dcchb
Spectrometer: FLMS00149
Trigger mode: 0
Integration Time (sec): 2.000000E-2
Scans to average: 10
Electric dark correction enabled: true
Nonlinearity correction enabled: false
Boxcar width: 0
XAxis mode: Wavelengths
Number of Pixels in Spectrum: 2048
>>>>>Begin Spectral Data<<<<<
341.393	-8.69
341.776	-8.69
342.16	-8.69
342.543	-82.36
342.927	-68.35
343.31	-71.51
343.693	-75.8
344.077	-79.87
344.46	-45.3
344.843	-54.79
345.226	-28.8
345.61	-26.31
345.993	-20.89
346.376	2.16
346.759	3.06
347.142	20.01
347.525	40.58
347.908	47.81
348.291	94.81
348.674	88.71
349.057	106.11
349.44	144.98
349.823	144.08
350.206	168.26
350.588	202.16
350.971	245.77
351.354	229.27
351.737	250.06
352.119	248.26
352.502	272.21
352.884	281.02
353.267	298.42
353.65	297.75
354.032	303.62
354.414	316.73
354.797	336.39
355.179	340.23
355.562	348.14
355.944	322.6
356.326	334.36
356.709	334.13
357.091	336.39
357.473	356.05
357.855	371.42
358.238	352.21
358.62	372.09
359.002	349.04
359.384	370.06
359.766	355.6
360.148	356.5
360.53	349.5
360.912	352.89
361.294	353.56
361.676	330.29
362.057	353.11
362.439	354.69
362.821	347.69
363.203	323.73
363.584	364.64
363.966	339.1
364.348	344.98
364.729	323.51
365.111	342.94
365.493	328.71
365.874	324.41
366.256	323.28
366.637	317.63
367.019	325.09
367.4	327.35
367.781	345.88
368.163	341.81
368.544	348.14
368.925	318.31
369.306	329.84
369.688	323.73
370.069	339.1
370.45	319.21
370.831	341.81
371.212	343.62
371.593	343.85
371.974	352.43
372.355	318.08
372.736	339.78
373.117	330.74
373.498	341.81
373.879	344.75
374.26	332.55
374.641	363.51
375.021	339.1
375.402	345.88
375.783	337.07
376.163	366.67
376.544	359.67
376.925	342.94
377.305	341.59
377.686	347.24
378.066	352.89
378.447	356.05
378.827	362.15
379.208	364.19
379.588	360.12
379.968	376.61
380.349	375.26
380.729	356.28
381.109	356.05
381.489	365.99
381.87	372.55
382.25	361.02
382.63	379.55
383.01	375.03
383.39	351.3
383.77	373
384.15	390.63
384.53	370.06
384.91	387.46
385.29	391.3
385.67	401.92
386.049	395.14
386.429	382.26
386.809	381.81
387.189	399.44
387.568	400.34
387.948	411.64
388.328	396.73
388.707	404.18
389.087	405.99
389.466	412.77
389.846	388.37
390.225	415.26
390.605	417.97
390.984	413
391.363	415.94
391.743	423.62
392.122	421.81
392.501	415.48
392.881	448.48
393.26	431.98
393.639	447.57
394.018	442.6
394.397	427.46
394.776	439.21
395.155	452.54
395.534	466.1
395.913	432.43
396.292	441.47
396.671	471.75
397.05	488.7
397.429	454.8
397.808	458.87
398.186	456.39
398.565	460.68
398.944	487.8
399.323	490.06
399.701	504.97
400.08	492.32
400.458	499.55
400.837	493.9
401.215	495.71
401.594	499.1
401.972	496.16
402.351	493
402.729	501.13
403.107	546.1
403.486	535.93
403.864	518.08
404.242	541.81
404.62	540.23
404.999	537.06
405.377	532.09
405.755	552.43
406.133	543.39
406.511	537.06
406.889	566.21
407.267	556.72
407.645	576.84
408.023	563.05
408.401	588.81
408.779	586.1
409.156	615.7
409.534	612.54
409.912	594.69
410.29	624.52
410.667	604.18
411.045	611.64
411.422	630.17
411.8	633.1
412.178	624.74
412.555	631.07
412.933	643.73
413.31	645.76
413.687	644.63
414.065	655.25
414.442	662.48
414.819	665.19
415.197	674.46
415.574	690.73
415.951	695.93
416.328	713.1
416.705	701.35
417.082	708.81
417.46	690.73
417.837	709.71
418.214	717.62
418.591	744.51
418.967	715.59
419.344	716.49
419.721	744.06
420.098	753.33
420.475	728.02
420.852	752.42
421.228	755.81
421.605	750.39
421.982	727.11
422.358	778.41
422.735	794
423.111	767.11
423.488	784.74
423.864	804.63
424.241	785.87
424.617	792.42
424.994	821.8
425.37	815.02
425.746	807.34
426.123	835.81
426.499	822.25
426.875	838.3
427.251	845.98
427.627	860.22
428.003	850.5
428.379	908.13
428.756	888.24
429.132	892.76
429.507	900.89
429.883	911.29
430.259	925.07
430.635	925.07
431.011	926.66
431.387	966.88
431.763	967.11
432.138	960.1
432.514	1008.46
432.89	987.45
433.265	1000.55
433.641	1007.56
434.016	1007.78
434.392	1032.19
434.767	1046.2
435.143	1033.32
435.518	1089.82
435.894	1066.99
436.269	1085.07
436.644	1079.42
437.02	1104.5
437.395	1101.57
437.77	1102.7
438.145	1132.98
438.52	1145.41
438.895	1141.79
439.271	1181.79
439.646	1186.99
440.021	1178.63
440.395	1198.06
440.77	1161.9
441.145	1184.05
441.52	1215.46
441.895	1233.77
442.27	1251.39
442.645	1223.82
443.019	1240.32
443.394	1238.51
443.769	1281.9
444.143	1255.46
444.518	1295.01
444.892	1290.26
445.267	1267.21
445.641	1290.04
446.016	1313.99
446.39	1307.89
446.764	1323.71
447.139	1307.66
447.513	1301.56
447.887	1340.88
448.262	1336.59
448.636	1346.76
449.01	1364.16
449.384	1386.08
449.758	1392.63
450.132	1405.97
450.506	1398.73
450.88	1453.2
451.254	1429.24
451.628	1431.5
452.002	1442.35
452.376	1481.22
452.75	1484.16
453.123	1477.6
453.497	1515.79
453.871	1511.27
454.244	1546.75
454.618	1543.82
454.992	1545.4
455.365	1579.97
455.739	1619.75
456.112	1644.6
456.486	1629.24
456.859	1631.5
457.232	1650.71
457.606	1680.53
457.979	1706.75
458.352	1716.24
458.725	1738.16
459.099	1753.98
459.472	1793.53
459.845	1811.6
460.218	1861.1
460.591	1805.05
460.964	1838.72
461.337	1894.99
461.71	1896.57
462.083	1901.77
462.456	1947.87
462.829	1962.34
463.201	1974.76
463.574	2007.31
463.947	2003.92
464.32	2109.9
464.692	2087.08
465.065	2122.78
465.438	2120.3
465.81	2180.86
466.183	2204.36
466.555	2237.58
466.928	2273.06
467.3	2278.49
467.672	2273.29
468.045	2380.18
468.417	2347.86
468.789	2346.73
469.161	2422.44
469.534	2481.19
469.906	2516.22
470.278	2569.1
470.65	2578.82
471.022	2621.08
471.394	2640.51
471.766	2697.91
472.138	2728.87
472.51	2781.75
472.882	2840.73
473.253	2892.48
473.625	2961.63
473.997	2997.11
474.369	3027.39
474.74	3058.58
475.112	3156.43
475.484	3235.52
475.855	3267.61
476.227	3315.97
476.598	3423.31
476.97	3500.6
477.341	3545.34
477.713	3600.71
478.084	3642.29
478.455	3700.37
478.827	3803.64
479.198	3877.31
479.569	3920.7
479.94	4011.32
480.311	4084.54
480.682	4187.59
481.053	4273.69
481.424	4354.14
481.795	4429.16
482.166	4510.52
482.537	4605.66
482.908	4643.62
483.279	4695.14
483.65	4842.49
484.021	4936.95
484.391	4990.5
484.762	5068.92
485.133	5099.2
485.503	5200.89
485.874	5310.72
486.244	5392.53
486.615	5468.68
486.985	5533.31
487.356	5631.39
487.726	5697.6
488.097	5764.04
488.467	5854.44
488.837	6000.42
489.207	6111.15
489.578	6156.35
489.948	6184.82
490.318	6283.58
490.688	6309.11
491.058	6446.51
491.428	6573.06
491.798	6528.54
492.168	6751.81
492.538	6798.14
492.908	6863
493.278	6946.61
493.648	6950.45
494.017	7060.51
494.387	7102.54
494.757	7197.68
495.126	7261.41
495.496	7308.86
495.866	7338.24
496.235	7472.92
496.605	7527.61
496.974	7587.5
497.344	7700.04
497.713	7707.27
498.082	7809.87
498.452	7892.35
498.821	7928.73
499.19	7928.28
499.559	8051.44
499.928	8096.19
500.298	8148.61
500.667	8212.11
501.036	8175.96
501.405	8390.19
501.774	8401.49
502.143	8427.25
502.512	8430.41
502.88	8587.7
503.249	8609.17
503.618	8687.81
503.987	8712.89
504.356	8840.8
504.724	8819.1
505.093	8914.24
505.462	8932.77
505.83	9051.19
506.199	9088.48
506.567	9216.61
506.936	9203.73
507.304	9277.85
507.672	9342.48
508.041	9462.93
508.409	9545.19
508.777	9608.46
509.145	9695.24
509.514	9715.13
509.882	9801.68
510.25	9891.17
510.618	9930.94
510.986	10033.08
511.354	10129.58
511.722	10236.24
512.09	10381.55
512.458	10318.05
512.826	10436.91
513.193	10502.45
513.561	10611.83
513.929	10628.55
514.297	10771.82
514.664	10855.21
515.032	10869.9
515.4	11053.17
515.767	11063.34
516.135	11106.73
516.502	11081.87
516.869	11287.51
517.237	11378.58
517.604	11432.82
517.972	11557.34
518.339	11668.97
518.706	11668.97
519.073	11739.71
519.44	11875.52
519.808	12054.05
520.175	12082.75
520.542	12197.09
520.909	12348.5
521.276	12318
521.643	12529.29
522.009	12569.51
522.376	12596.63
522.743	12778.1
523.11	12879.11
523.477	13097.18
523.843	13060.57
524.21	13251.98
524.577	13410.4
524.943	13534.01
525.31	13592.09
525.676	13682.93
526.043	13822.36
526.409	13899.87
526.776	14008.8
527.142	14114.11
527.508	14189.81
527.874	14283.37
528.241	14418.51
528.607	14390.71
528.973	14592.74
529.339	14608.56
529.705	14778.27
530.071	14881.77
530.437	14964.25
530.803	15052.39
531.169	15091.48
531.535	15093.52
531.901	15176.9
532.267	15259.16
532.632	15380.74
532.998	15429.33
533.364	15530.57
533.73	15608.98
534.095	15753.16
534.461	15822.31
534.826	15915.87
535.192	16037.67
535.557	16071.12
535.923	16107.73
536.288	16183.66
536.653	16278.12
537.019	16245.12
537.384	16372.13
537.749	16391.11
538.114	16454.38
538.479	16539.13
538.845	16566.02
539.21	16598.79
539.575	16733.92
539.94	16730.53
540.305	16863.19
540.67	16898.67
541.034	16923.98
541.399	16929.4
541.764	17053.46
542.129	17187.92
542.494	17151.77
542.858	17236.96
543.223	17331.2
543.587	17385.88
543.952	17394.47
544.316	17476.05
544.681	17551.08
545.045	17656.84
545.41	17735.93
545.774	17805.08
546.138	17835.36
546.503	17912.42
546.867	18010.28
547.231	17946.77
547.595	18064.96
547.959	18196.03
548.324	18184.73
548.688	18243.72
549.052	18348.8
549.416	18451.62
549.779	18512.63
550.143	18529.13
550.507	18663.37
550.871	18836.92
551.235	18881.21
551.599	19053.41
551.962	19121.43
552.326	19045.95
552.689	19246.17
553.053	19316.68
553.417	19302.9
553.78	19596.22
554.143	19594.41
554.507	19800.74
554.87	19891.36
555.234	20146.04
555.597	19967.06
555.96	20066.72
556.323	20322.76
556.686	20319.14
557.05	20529.08
557.413	20683.43
557.776	20809.75
558.139	20845.45
558.502	21039.12
558.865	21130.42
559.228	21315.05
559.59	21441.6
559.953	21618.09
560.316	21896.5
560.679	21899.21
561.041	22041.81
561.404	22156.38
561.767	22454.68
562.129	22329.94
562.492	22604.28
562.854	22657.84
563.217	22715.01
563.579	22914.1
563.941	23112.97
564.304	23217.82
564.666	23484.03
565.028	23662.56
565.39	23803.12
565.753	24007.63
566.115	24153.39
566.477	24335.98
566.839	24432.03
567.201	24662.76
567.563	24784.11
567.925	24974.16
568.287	25040.37
568.648	25175.96
569.01	25566.91
569.372	25683.75
569.734	25787.25
570.095	25912.67
570.457	26198.99
570.819	26391.3
571.18	26441.69
571.542	26717.62
571.903	26747.22
572.265	26988.8
572.626	27180.2
572.987	27211.39
573.349	27310.82
573.71	27517.14
574.071	27812.5
574.432	27986.06
574.794	28021.76
575.155	28249.1
575.516	28153.51
575.877	28581.52
576.238	28619.49
576.599	28839.37
576.96	28874.85
577.32	29052.92
577.681	29169.98
578.042	29348.28
578.403	29380.82
578.763	29525.68
579.124	29642.74
579.485	29938.32
579.845	30007.93
580.206	30021.03
580.566	30134.48
580.927	30240.91
581.287	30524.97
581.648	30478.87
582.008	30665.76
582.368	30692.88
582.728	30670.51
583.089	30812.2
583.449	30868.92
583.809	30977.39
584.169	31119.76
584.529	31033.44
584.889	31347.33
585.249	31124.51
585.609	31301
585.969	31460.54
586.329	31276.14
586.688	31417.83
587.048	31504.38
587.408	31374.67
587.768	31509.13
588.127	31495.12
588.487	31550.26
588.846	31770.59
589.206	31611.73
589.565	31662.35
589.925	31937.14
590.284	31778.27
590.643	32054.65
591.003	32052.84
591.362	32038.61
591.721	31959.29
592.08	32048.55
592.44	32206.51
592.799	32195.89
593.158	32119.96
593.517	32175.78
593.876	32256.45
594.235	32249.67
594.593	32334.19
594.952	32450.12
595.311	32186.17
595.67	32456.45
596.029	32644.69
596.387	32520.85
596.746	32596.33
597.104	32479.05
597.463	32423.91
597.822	32627.07
598.18	32571.93
598.538	32535.54
598.897	32757.46
599.255	32620.06
599.613	32921.07
599.972	32828.64
600.33	32839.94
600.688	32628.87
601.046	32972.59
601.404	32995.64
601.762	32860.96
602.12	33001.07
602.478	32933.5
602.836	33020.28
603.194	32906.83
603.552	33009.88
603.91	32915.42
604.268	33053.27
604.625	32929.43
604.983	33201.06
605.341	33007.62
605.698	33279.93
606.056	33266.6
606.413	33103.66
606.771	33321.28
607.128	33330.78
607.485	33172.36
607.843	33246.26
608.2	33529.19
608.557	33612.8
608.914	33416.65
609.272	33616.42
609.629	33634.5
609.986	33750.88
610.343	33547.27
610.7	33738.9
611.057	33880.37
611.414	33604.89
611.771	33925.34
612.127	33885.56
612.484	33923.08
612.841	33960.14
613.198	33837.2
613.554	33930.53
613.911	34164.43
614.267	34148.83
614.624	34030.42
614.98	34162.62
615.337	34319.45
615.693	34341.6
616.05	34140.02
616.406	34383.4
616.762	34288.27
617.118	34248.49
617.475	34441.03
617.831	34488.26
618.187	34356.96
618.543	34514.25
618.899	34606.22
619.255	34501.82
619.611	34495.49
619.967	34585.43
620.323	34752.43
620.678	34562.16
621.034	34603.74
621.39	34539.33
621.746	34497.53
622.101	35082.14
622.457	34697.29
622.812	34858.19
623.168	34827.23
623.523	34934.8
623.879	35104.97
624.234	34683.96
624.589	34922.82
624.945	34947.68
625.3	34949.26
625.655	34738.65
626.01	34793.56
626.365	34944.52
626.72	34839.21
627.075	34785.65
627.43	34777.52
627.785	34761.02
628.14	34916.27
628.495	34718.31
628.85	34724.19
629.205	34827.69
629.559	34700.91
629.914	34732.77
630.269	34726.9
630.623	34709.95
630.978	34577.97
631.332	34752.66
631.687	34787.69
632.041	34555.38
632.396	34623.85
632.75	34567.13
633.104	34467.24
633.459	34485.55
633.813	34428.37
634.167	34356.74
634.521	34399.67
634.875	34402.39
635.229	34381.14
635.583	34223.18
635.937	34113.35
636.291	34226.35
636.645	34110.42
636.999	34097.08
637.352	34318.77
637.706	33999.91
638.06	34056.86
638.413	33963.75
638.767	33892.12
639.121	33962.85
639.474	33782.97
639.828	33707.94
640.181	33865.23
640.534	33779.35
640.888	33809.18
641.241	33613.48
641.594	33825.9
641.947	33873.13
642.301	33538.45
642.654	33679.24
643.007	33698.9
643.36	33625.01
643.713	33651.22
644.066	33698.68
644.419	33419.36
644.771	33261.85
645.124	32936.21
645.477	32882.43
645.83	32730.34
646.182	32693.5
646.535	32578.25
646.888	32559.5
647.24	32477.69
647.593	32599.95
647.945	32458.71
648.298	32343.01
648.65	32277.47
649.002	32236.34
649.355	32394.98
649.707	32408.31
650.059	32499.84
650.411	32856.21
650.763	32746.38
651.115	33192.93
651.467	33006.49
651.819	33089.43
652.171	33008.3
652.523	32971.46
652.875	33016.89
653.227	32893.5
653.578	33044
653.93	33090.1
654.282	32897.57
654.633	32779.6
654.985	32916.78
655.337	32892.14
655.688	32882.65
656.039	33058.01
656.391	32810.11
656.742	32794.52
657.094	32865.48
657.445	33002.65
657.796	32862.31
658.147	32841.3
658.498	32701.41
658.849	32909.54
659.2	32799.72
659.551	32794.07
659.902	32826.38
660.253	32739.15
660.604	32735.09
660.955	32727.18
661.306	32790.68
661.656	32750.23
662.007	32866.38
662.358	32793.62
662.708	32861.64
663.059	32702.77
663.409	32579.84
663.76	32767.63
664.11	32776.21
664.461	32786.38
664.811	32757.91
665.161	32691.02
665.511	32573.51
665.862	32665.93
666.212	32773.05
666.562	32856.66
666.912	32786.38
667.262	32539.16
667.612	32717.23
667.962	32760.62
668.312	32679.95
668.662	32714.3
669.011	32635.88
669.361	32644.69
669.711	32579.84
670.06	32611.7
670.41	32473.85
670.76	32370.58
671.109	32589.78
671.459	32552.27
671.808	32476.11
672.157	32415.77
672.507	32290.8
672.856	32284.93
673.205	32365.15
673.554	32400.18
673.904	32292.61
674.253	32414.64
674.602	32224.82
674.951	31787.77
675.3	31619.18
675.649	32092.16
675.998	32150.69
676.346	32228.43
676.695	32183.91
677.044	32021.66
677.393	31962.68
677.741	32126.74
678.09	32057.82
678.438	31954.32
678.787	31988.44
679.135	31983.92
679.484	31744.83
679.832	32039.74
680.181	31839.74
680.529	31809.69
680.877	31611.73
681.225	31727.88
681.573	31722
681.922	31714.55
682.27	31524.5
682.618	31442.69
682.966	31308.91
683.314	31602.01
683.661	31378.96
684.009	31257.84
684.357	31220.78
684.705	31139.65
685.053	31161.57
685.4	31108.91
685.748	31071.17
686.095	30962.02
686.443	30799.09
686.79	30981.01
687.138	30831.41
687.485	30829.15
687.832	30590.28
688.18	30663.28
688.527	30561.81
688.874	30431.42
689.221	30319.1
689.568	30256.51
689.915	30254.02
690.262	30242.72
690.609	29997.08
690.956	29976.29
691.303	29854.94
691.65	29810.19
691.997	29781.94
692.344	29636.41
692.69	29691.78
693.037	29591.67
693.383	29274.39
693.73	29492.68
694.077	29269.41
694.423	29256.31
694.769	29047.27
695.116	29011.34
695.462	29106.71
695.808	28837.56
696.155	28992.81
696.501	28672.37
696.847	28645.7
697.193	28532.26
697.539	28553.95
697.885	28216.11
698.231	28255.43
698.577	28264.24
698.923	28130.69
699.269	28005.72
699.614	27934.53
699.96	27871.94
700.306	27830.58
700.651	27642.56
700.997	27611.38
701.342	27584.94
701.688	27535
702.033	27412.51
702.379	27440.31
702.724	27224.04
703.069	27234.44
703.415	27079.42
703.76	27017.95
704.105	27022.92
704.45	26906.54
704.795	26732.31
705.14	26632.87
705.485	26641.23
705.83	26456.38
706.175	26437.17
706.52	26334.58
706.865	26328.93
707.209	26277.85
707.554	26110.18
707.899	26284.63
708.243	26024.08
708.588	25998.09
708.932	25897.75
709.277	25821.6
709.621	25865.44
709.966	25718.09
710.31	25720.81
710.654	25515.16
710.998	25604.88
711.342	25647.59
711.687	25455.05
712.031	25325.11
712.375	25345.22
712.719	25342.06
713.063	25169.41
713.407	25366.24
713.75	25150.88
714.094	25114.95
714.438	24942.07
714.782	24870.43
715.125	24893.94
715.469	24896.42
715.812	24801.73
716.156	24681.74
716.499	24773.94
716.843	24626.6
717.186	24623.21
717.53	24799.93
717.873	24667.28
718.216	24564.23
718.559	24511.57
718.902	24376.21
719.246	24504.12
719.589	24441.74
719.932	24313.84
720.275	24254.18
720.617	24284.69
720.96	24287.4
721.303	24184.58
721.646	24118.81
721.989	24004.92
722.331	24126.5
722.674	24084.69
723.016	24140.74
723.359	23943.23
723.701	24201.98
724.044	23921.98
724.386	23792.04
724.729	24057.35
725.071	23911.81
725.413	23913.4
725.755	23969.67
726.097	23832.95
726.439	23741.65
726.782	23776
727.124	23895.54
727.465	23811.7
727.807	23841.08
728.149	23787.52
728.491	23784.81
728.833	23683.35
729.175	23655.78
729.516	23670.24
729.858	23759.5
730.199	23616.68
730.541	23677.24
730.882	23641.54
731.224	23576.91
731.565	23526.06
731.906	23519.96
732.248	23538.27
732.589	23491.03
732.93	23557.02
733.271	23432.05
733.612	23571.48
733.953	23518.83
734.294	23484.26
734.635	23446.74
734.976	23562.67
735.317	23417.59
735.658	23489.9
735.999	23477.48
736.339	23385.5
736.68	23467.98
737.021	23402.45
737.361	23322
737.702	23465.27
738.042	23299.85
738.383	23375.56
738.723	23418.04
739.063	23232.51
739.404	23346.63
739.744	23421.88
740.084	23265.96
740.424	23220.53
740.764	23296.92
741.104	23333.07
741.444	23239.74
741.784	23220.31
742.124	23220.08
742.464	23140.08
742.804	23117.26
743.143	23191.38
743.483	23270.48
743.823	23103.02
744.162	23157.94
744.502	23071.38
744.841	23075.68
745.181	23182.12
745.52	23091.27
745.86	23181.44
746.199	23064.83
746.538	23228.67
746.877	23173.08
747.216	23089.69
747.556	22941.22
747.895	23065.51
748.234	23036.36
748.573	23032.74
748.911	23138.95
749.25	23091.5
749.589	22889.69
749.928	22968.56
750.267	22968.79
750.605	22959.07
750.944	22940.54
751.283	22859.19
751.621	22879.75
751.96	22746.2
752.298	22835.68
752.636	22814.44
752.975	22722.92
753.313	22622.13
753.651	22811.73
753.989	22703.94
754.327	22694.22
754.666	22416.94
755.004	22529.48
755.342	22605.41
755.679	22533.09
756.017	22463.72
