Data from tablewood_brown_FLMS001491_065.txt Node
Date: Tue Feb 07 11:10:50 GMT 2017
User: dcchb
Spectrometer: FLMS00149
Trigger mode: 0
Integration Time (sec): 2.000000E-2
Scans to average: 10
Electric dark correction enabled: true
Nonlinearity correction enabled: false
Boxcar width: 0
XAxis mode: Wavelengths
Number of Pixels in Spectrum: 2048
>>>>>Begin Spectral Data<<<<<
341.393	-16.48
341.776	-16.48
342.16	-16.48
342.543	-55.13
342.927	-67.78
343.31	-64.62
343.693	-48.12
344.077	-71.62
344.46	-42.24
344.843	-57.84
345.226	-34.11
345.61	-25.75
345.993	-30.27
346.376	-12.64
346.759	11.54
347.142	45.21
347.525	31.88
347.908	43.18
348.291	68.26
348.674	87.92
349.057	99.22
349.44	114.81
349.823	135.15
350.206	140.58
350.588	189.16
350.971	199.33
351.354	204.3
351.737	220.8
352.119	238.65
352.502	252.21
352.884	264.87
353.267	267.58
353.65	292.21
354.032	313.68
354.414	294.92
354.797	302.83
355.179	317.75
355.562	321.14
355.944	334.47
356.326	341.47
356.709	325.2
357.091	329.27
357.473	314.81
357.855	336.95
358.238	358.87
358.62	354.81
359.002	338.08
359.384	354.58
359.766	350.51
360.148	317.97
360.53	333.79
360.912	347.35
361.294	322.72
361.676	336.05
362.057	338.08
362.439	333.34
362.821	350.29
363.203	325.88
363.584	320.23
363.966	299.44
364.348	336.95
364.729	311.87
365.111	309.84
365.493	332.21
365.874	318.42
366.256	327.46
366.637	330.85
367.019	336.28
367.4	320.46
367.781	313.23
368.163	312.77
368.544	292.89
368.925	323.4
369.306	343.73
369.688	330.85
370.069	339.21
370.45	296.96
370.831	323.17
371.212	317.75
371.593	335.6
371.974	336.05
372.355	315.94
372.736	303.73
373.117	297.41
373.498	330.17
373.879	322.72
374.26	336.73
374.641	325.2
375.021	336.05
375.402	334.47
375.783	338.08
376.163	340.12
376.544	351.87
376.925	313.9
377.305	353.45
377.686	367.01
378.066	354.13
378.447	324.3
378.827	339.44
379.208	347.8
379.588	335.82
379.968	360.23
380.349	342.15
380.729	347.35
381.109	373.79
381.489	356.16
381.87	367.01
382.25	363.17
382.63	371.76
383.01	355.94
383.39	350.29
383.77	363.17
384.15	359.33
384.53	366.33
384.91	364.75
385.29	394.58
385.67	385.54
386.049	388.25
386.429	378.99
386.809	391.42
387.189	374.47
387.568	375.82
387.948	395.94
388.328	385.31
388.707	398.2
389.087	395.94
389.466	401.59
389.846	410.17
390.225	412.21
390.605	404.52
390.984	412.66
391.363	418.99
391.743	430.74
392.122	420.12
392.501	438.87
392.881	436.61
393.26	395.94
393.639	425.99
394.018	430.74
394.397	423.73
394.776	433.9
395.155	442.26
395.534	423.96
395.913	461.24
396.292	455.37
396.671	444.97
397.05	460.12
397.429	462.15
397.808	459.89
398.186	462.37
398.565	468.48
398.944	450.62
399.323	477.29
399.701	474.35
400.08	473
400.458	483.62
400.837	481.58
401.215	479.32
401.594	479.55
401.972	503.05
402.351	487.46
402.729	520.23
403.107	486.33
403.486	486.33
403.864	517.51
404.242	525.65
404.62	545.76
404.999	531.53
405.377	520.68
405.755	535.82
406.133	521.81
406.511	559.77
406.889	552.99
407.267	538.76
407.645	528.14
408.023	552.54
408.401	548.7
408.779	588.7
409.156	587.34
409.534	595.03
409.912	571.98
410.29	598.42
410.667	601.35
411.045	622.6
411.422	603.16
411.8	602.94
412.178	617.17
412.555	631.64
412.933	654.46
413.31	632.99
413.687	635.25
414.065	630.73
414.442	654.91
414.819	667.57
415.197	655.59
415.574	670.73
415.951	676.83
416.328	680.45
416.705	673.67
417.082	660.56
417.46	675.48
417.837	694.23
418.214	708.92
418.591	706.44
418.967	703.05
419.344	713.89
419.721	729.94
420.098	728.58
420.475	722.93
420.852	740.56
421.228	735.59
421.605	743.72
421.982	750.05
422.358	750.73
422.735	769.26
423.111	745.31
423.488	756.38
423.864	788.47
424.241	795.47
424.617	797.96
424.994	809.03
425.37	784.4
425.746	778.98
426.123	821.24
426.499	844.96
426.875	822.59
427.251	828.47
427.627	872.08
428.003	830.05
428.379	886.32
428.756	866.21
429.132	888.13
429.507	910.27
429.883	888.35
430.259	917.73
430.635	928.8
431.011	902.14
431.387	934.23
431.763	947.33
432.138	951.4
432.514	981.01
432.89	990.04
433.265	986.65
433.641	1005.19
434.016	999.99
434.392	1024.85
434.767	1055.13
435.143	1019.2
435.518	1054.68
435.894	1064.17
436.269	1084.73
436.644	1071.85
437.02	1079.53
437.395	1096.03
437.77	1122.02
438.145	1112.53
438.52	1121.79
438.895	1133.77
439.271	1107.78
439.646	1161.11
440.021	1198.4
440.395	1190.72
440.77	1155.24
441.145	1203.15
441.52	1217.38
441.895	1244.28
442.27	1203.82
442.645	1193.2
443.019	1241.11
443.394	1249.25
443.769	1232.75
444.143	1260.77
444.518	1281.11
444.892	1290.6
445.267	1255.35
445.641	1265.74
446.016	1310.04
446.39	1328.57
446.764	1295.57
447.139	1291.05
447.513	1306.19
447.887	1327.21
448.262	1358.4
448.636	1341.45
449.01	1350.26
449.384	1363.14
449.758	1405.85
450.132	1389.58
450.506	1408.34
450.88	1430.48
451.254	1414.89
451.628	1414.21
452.002	1475.68
452.376	1459.41
452.75	1456.25
453.123	1432.97
453.497	1500.31
453.871	1521.1
454.244	1509.35
454.618	1518.39
454.992	1571.72
455.365	1567.2
455.739	1599.07
456.112	1580.76
456.486	1648.11
456.859	1658.5
457.232	1670.7
457.606	1650.59
457.979	1693.98
458.352	1709.12
458.725	1739.86
459.099	1746.41
459.472	1777.37
459.845	1793.64
460.218	1808.55
460.591	1783.92
460.964	1818.5
461.337	1854.43
461.71	1899.17
462.083	1917.25
462.456	1952.73
462.829	1937.36
463.201	1990.7
463.574	1999.74
463.947	2016.68
464.32	2023.69
464.692	2085.16
465.065	2083.58
465.438	2126.74
465.81	2157.25
466.183	2204.25
466.555	2225.27
466.928	2220.52
467.3	2226.62
467.672	2274.98
468.045	2347.3
468.417	2365.6
468.789	2380.52
469.161	2400.63
469.534	2452.83
469.906	2504.58
470.278	2555.88
470.65	2624.13
471.022	2590.23
471.394	2672.49
471.766	2695.76
472.138	2736.21
472.51	2818.25
472.882	2822.31
473.253	2888.3
473.625	2936.66
473.997	3001.52
474.369	3037.9
474.74	3098.92
475.112	3132.36
475.484	3216.65
475.855	3260.27
476.227	3306.59
476.598	3420.04
476.97	3424.1
477.341	3567.15
477.713	3605.57
478.084	3631.11
478.455	3720.14
478.827	3768.28
479.198	3903.19
479.569	3950.42
479.94	4012.56
480.311	4077.42
480.682	4208.27
481.053	4271.77
481.424	4330.75
481.795	4405.1
482.166	4495.26
482.537	4566.9
482.908	4661.81
483.279	4670.63
483.65	4869.94
484.021	4903.61
484.391	5000.56
484.762	5016.15
485.133	5110.84
485.503	5165.08
485.874	5274.45
486.244	5432.41
486.615	5494.56
486.985	5549.47
487.356	5645.29
487.726	5688
488.097	5803.7
488.467	5854.32
488.837	5971.83
489.207	6022
489.578	6100.64
489.948	6201.88
490.318	6330.24
490.688	6296.8
491.058	6425.38
491.428	6499.96
491.798	6550.8
492.168	6743.11
492.538	6766.62
492.908	6862.66
493.278	6920.06
493.648	6984.92
494.017	7030.34
494.387	7126.15
494.757	7183.78
495.126	7268.98
495.496	7317.56
495.866	7336.54
496.235	7421.29
496.605	7528.4
496.974	7591.9
497.344	7607.27
497.713	7624.9
498.082	7769.08
498.452	7811.56
498.821	7911.44
499.19	7942.86
499.559	8026.92
499.928	8053.36
500.298	8084.55
500.667	8206.13
501.036	8250.42
501.405	8342.39
501.774	8340.81
502.143	8443.86
502.512	8501.26
502.88	8583.97
503.249	8548.72
503.618	8678.2
503.987	8676.17
504.356	8728.6
504.724	8840.46
505.093	8890.4
505.462	8957.97
505.83	9018.53
506.199	9130.85
506.567	9251.52
506.936	9222.6
507.304	9331.75
507.672	9442.03
508.041	9449.48
508.409	9541.46
508.777	9634.11
509.145	9705.75
509.514	9716.82
509.882	9805.63
510.25	9882.47
510.618	9931.96
510.986	10043.82
511.354	10126.53
511.722	10201.33
512.09	10301.89
512.458	10355.67
512.826	10427.08
513.193	10507.53
513.561	10497.37
513.929	10628.21
514.297	10726.29
514.664	10790.69
515.032	10894.64
515.4	10962.44
515.767	11052.38
516.135	11069.78
516.502	11122.21
516.869	11358.13
517.237	11352.71
517.604	11352.26
517.972	11565.81
518.339	11652.82
518.706	11668.63
519.073	11707.95
519.44	11841.74
519.808	12059.13
520.175	12039.7
520.542	12278.34
520.909	12202.63
521.276	12400.82
521.643	12441.27
522.009	12601.49
522.376	12684.65
522.743	12780.47
523.11	12892.33
523.477	12966.9
523.843	13133.45
524.21	13305.43
524.577	13428.81
524.943	13431.53
525.31	13535.7
525.676	13681.69
526.043	13777.73
526.409	13835.36
526.776	14047.33
527.142	14050.72
527.508	14174.33
527.874	14244.84
528.241	14451.39
528.607	14482.57
528.973	14626.52
529.339	14641.21
529.705	14684.83
530.071	14927.08
530.437	14903.35
530.803	15086.62
531.169	15161.2
531.535	15135.89
531.901	15207.07
532.267	15236.45
532.632	15391.47
532.998	15436.44
533.364	15534.07
533.73	15625.37
534.095	15709.66
534.461	15777.9
534.826	15854.74
535.192	16009.31
535.557	16072.13
535.923	16058.57
536.288	16171.79
536.653	16240.27
537.019	16186.71
537.384	16275.97
537.749	16406.36
538.114	16440.94
538.479	16514.16
538.845	16567.49
539.21	16529.97
539.575	16717.77
539.94	16725.9
540.305	16873.69
540.67	16838.44
541.034	16905.78
541.399	17023.3
541.764	17043.63
542.129	17177.87
542.494	17132.67
542.858	17243.85
543.223	17344.42
543.587	17402.72
543.952	17420.8
544.316	17561.13
544.681	17549.16
545.045	17640.68
545.41	17698.98
545.774	17777.63
546.138	17754.58
546.503	17897.62
546.867	17957.06
547.231	18082.93
547.595	18048.81
547.959	18136.94
548.324	18150.5
548.688	18275.92
549.052	18336.48
549.416	18486.99
549.779	18510.49
550.143	18450.83
550.507	18748.67
550.871	18763.59
551.235	18865.96
551.599	18973.53
551.962	19056.69
552.326	19155.22
552.689	19288.77
553.053	19250.13
553.417	19266.17
553.78	19696.67
554.143	19557.24
554.507	19646.96
554.87	19895.76
555.234	20070.45
555.597	19962.43
555.96	20117.23
556.323	20218.24
556.686	20304.11
557.05	20500.27
557.413	20571.22
557.776	20742.75
558.139	20931.67
558.502	20956.53
558.865	21162.62
559.228	21387.93
559.59	21401.03
559.953	21620.24
560.316	21815.71
560.679	21918.08
561.041	22174.57
561.404	22108.81
561.767	22362.82
562.129	22329.37
562.492	22666.08
562.854	22675.12
563.217	22660.21
563.579	22997.15
563.941	23083.02
564.304	23326.63
564.666	23561.65
565.028	23629.68
565.39	23758.26
565.753	23910.35
566.115	24130
566.477	24404.34
566.839	24435.76
567.201	24675.07
567.563	24719.36
567.925	24877.1
568.287	25072.35
568.648	25323.87
569.01	25459.23
569.372	25713.24
569.734	25662.39
570.095	25891.31
570.457	26174.92
570.819	26377.4
571.18	26258.53
571.542	26548.92
571.903	26771.74
572.265	27012.64
572.626	27222.12
572.987	27170.37
573.349	27471.16
573.71	27641.77
574.071	27797.48
574.432	27877.25
574.794	28104.59
575.155	28216
575.516	28265.26
575.877	28485.14
576.238	28615.53
576.599	28791.12
576.96	28924.23
577.32	29126.71
577.681	29311.11
578.042	29378
578.403	29427.49
578.763	29561.95
579.124	29776.86
579.485	29796.29
579.845	30027.25
580.206	30001.49
580.566	30249.61
580.927	30286.45
581.287	30401.93
581.648	30450.29
582.008	30642.82
582.368	30631.07
582.728	30764.63
583.089	30842.37
583.449	30774.8
583.809	30946.77
584.169	30991.06
584.529	31007.56
584.889	31347.44
585.249	31093.66
585.609	31179.76
585.969	31321.45
586.329	31350.15
586.688	31426.31
587.048	31486.19
587.408	31511.73
587.768	31426.08
588.127	31467.44
588.487	31535.23
588.846	31785.85
589.206	31650.48
589.565	31696.13
589.925	31944.94
590.284	31794.66
590.643	31907.88
591.003	31982.45
591.362	32179.73
591.721	32194.2
592.08	31988.1
592.44	32198.26
592.799	32188.09
593.158	32126.85
593.517	32158.94
593.876	32192.61
594.235	32107.64
594.593	32251.82
594.952	32430.35
595.311	32330.01
595.67	32468.31
596.029	32587.18
596.387	32538.14
596.746	32589.21
597.104	32501.98
597.463	32401.2
597.822	32567.07
598.18	32511.93
598.538	32445.71
598.897	32657.01
599.255	32450.91
599.613	33026.04
599.972	32809.55
600.33	32825.59
600.688	32797.34
601.046	32737.46
601.404	33002.31
601.762	32690
602.12	32960.05
602.478	33017.9
602.836	33080.95
603.194	32810.68
603.552	32854.52
603.91	32840.51
604.268	33082.99
604.625	32991.69
604.983	33118.69
605.341	32956.66
605.698	33187.16
606.056	33336.31
606.413	33303.55
606.771	33362.07
607.128	33330.89
607.485	33194.85
607.843	33222.64
608.2	33485.91
608.557	33554.16
608.914	33420.15
609.272	33553.71
609.629	33593.26
609.986	33774.49
610.343	33673.25
610.7	33824.89
611.057	33729.3
611.414	33771.78
611.771	33736.75
612.127	33898.33
612.484	33957.99
612.841	33975.17
613.198	33935.84
613.554	33880.25
613.911	34059.68
614.267	34049.74
614.624	34103.3
614.98	34171.55
615.337	34332.22
615.693	34387.36
616.05	34251.99
616.406	34441.82
616.762	34318.43
617.118	34317.08
617.475	34353.01
617.831	34446.79
618.187	34462.38
618.543	34449.28
618.899	34649.27
619.255	34640.23
619.611	34405.21
619.967	34587.35
620.323	34646.56
620.678	34556.85
621.034	34543.51
621.39	34493.34
621.746	34520.46
622.101	35047
622.457	34666.22
622.812	34721.81
623.168	34927.23
623.523	34726.33
623.879	34993.22
624.234	34678.88
624.589	34778.76
624.945	34833.67
625.3	34948.7
625.655	34882.49
626.01	34838.87
626.365	34834.13
626.72	34850.85
627.075	34830.74
627.43	34881.36
627.785	34743.28
628.14	34762.72
628.495	34719.55
628.85	34772.21
629.205	34676.84
629.559	34822.15
629.914	34707.12
630.269	34651.76
630.623	34652.21
630.978	34455.83
631.332	34685.88
631.687	34758.87
632.041	34649.95
632.396	34674.13
632.75	34473.91
633.104	34629.39
633.459	34334.48
633.813	34337.19
634.167	34503.06
634.521	34399.34
634.875	34334.7
635.229	34343.97
635.583	34094.71
635.937	34199.79
636.291	34139
636.645	34225.33
636.999	34110.53
637.352	34290.86
637.706	33916.18
638.06	34164.09
638.413	34026.01
638.767	33879.12
639.121	33962.06
639.474	33700.14
639.828	33800.26
640.181	33850.2
640.534	33936.75
640.888	33749.64
641.241	33605.01
641.594	33590.54
641.947	33778.56
642.301	33661.95
642.654	33575.18
643.007	33671.22
643.36	33587.15
643.713	33443.2
644.066	33661.05
644.419	33423.99
644.771	33267.84
645.124	32989.2
645.477	32882.99
645.83	32675.77
646.182	32586.95
646.535	32405.72
646.888	32479.39
647.24	32559.84
647.593	32737.68
647.945	32465.15
648.298	32363
648.65	32345.15
649.002	32242.78
649.355	32346.06
649.707	32276.91
650.059	32509.67
650.411	32785.37
650.763	32814.52
651.115	33184.68
651.467	33151.01
651.819	33126.37
652.171	32928.64
652.523	32970.22
652.875	33010.22
653.227	32829.66
653.578	33033.95
653.93	33024
654.282	32920.05
654.633	32723.22
654.985	32888.87
655.337	32913.05
655.688	32973.61
656.039	33009.32
656.391	32739.04
656.742	32733.84
657.094	32917.11
657.445	32983.33
657.796	32925.25
658.147	32792.15
658.498	32810
658.849	32981.29
659.2	32690.45
659.551	32685.48
659.902	32875.08
660.253	32747.4
660.604	32855.42
660.955	32605.94
661.306	32791.24
661.656	32754.41
662.007	32757.8
662.358	32724.58
662.708	32713.5
663.059	32687.52
663.409	32651.13
663.76	32753.96
664.11	32691.81
664.461	32603.9
664.811	32646.61
665.161	32697.46
665.511	32603.45
665.862	32705.14
666.212	32777.46
666.562	32751.47
666.912	32625.37
667.262	32665.82
667.612	32683.67
667.962	32621.3
668.312	32636.67
668.662	32837.57
669.011	32599.61
669.361	32639.16
669.711	32518.26
670.06	32529.78
670.41	32582.66
670.76	32453.4
671.109	32575.43
671.459	32446.17
671.808	32304.25
672.157	32418.6
672.507	32261.31
672.856	32390.57
673.205	32346.96
673.554	32351.25
673.904	32327.53
674.253	32378.82
674.602	32394.64
674.951	31789.23
675.3	31535.23
675.649	32252.5
675.998	32183.57
676.346	32067.87
676.695	32229
677.044	32085.05
677.393	32108.1
677.741	32189.9
678.09	31964.15
678.438	32042.11
678.787	32058.61
679.135	32051.37
679.484	31765.28
679.832	31912.62
680.181	31841.66
680.529	31825.84
680.877	31721.67
681.225	31641.89
681.573	31783.13
681.922	31471.28
682.27	31507.66
682.618	31520.77
682.966	31431.5
683.314	31493.88
683.661	31438.28
684.009	31132.3
684.357	31202.13
684.705	31137.05
685.053	31137.5
685.4	30970.5
685.748	30907.68
686.095	31085.98
686.443	30875.59
686.79	30769.15
687.138	30804.63
687.485	30721.69
687.832	30640.34
688.18	30535.48
688.527	30429.5
688.874	30437.86
689.221	30300.69
689.568	30233.12
689.915	30226.79
690.262	30158.32
690.609	30156.28
690.956	29979.79
691.303	29969.85
691.65	29795.61
691.997	29807.59
692.344	29495.28
692.69	29542.74
693.037	29610.08
693.383	29299.13
693.73	29388.85
694.077	29138.01
694.423	29141.39
694.769	29055.52
695.116	29076.31
695.462	29055.75
695.808	28981.4
696.155	28807.84
696.501	28719.48
696.847	28751.8
697.193	28520.85
697.539	28481.75
697.885	28371.92
698.231	28200.63
698.577	28218.03
698.923	28065.04
699.269	28009.9
699.614	27896.91
699.96	27869.79
700.306	27874.99
700.651	27762.22
700.997	27572.4
701.342	27556.35
701.688	27419.41
702.033	27370.37
702.379	27260.77
702.724	27205.63
703.069	27259.41
703.415	27028.68
703.76	26915.24
704.105	26945.97
704.45	26789.14
704.795	26739.42
705.14	26673.89
705.485	26501.01
705.83	26548.47
706.175	26447.23
706.52	26407.23
706.865	26231.41
707.209	26229.83
707.554	26103.51
707.899	26243.84
708.243	26060.57
708.588	25946.68
708.932	25882.5
709.277	25744.87
709.621	25864.42
709.966	25697.64
710.31	25755.5
710.654	25543.75
710.998	25520.25
711.342	25515.28
711.687	25447.48
712.031	25243.42
712.375	25313.47
712.719	25261.04
713.063	25132.01
713.407	25272.57
713.75	25008.62
714.094	25124.33
714.438	24952.13
714.782	24880.49
715.125	24928.85
715.469	24825.58
715.812	24770.44
716.156	24722.75
716.499	24735.63
716.843	24661.51
717.186	24635.98
717.53	24611.57
717.873	24809.76
718.216	24628.97
718.559	24506.94
718.902	24440.5
719.246	24501.29
719.589	24340.17
719.932	24332.93
720.275	24275.53
720.617	24251.13
720.96	24308.08
721.303	24211.81
721.646	24311.01
721.989	24048.87
722.331	24232.15
722.674	24154.86
723.016	24094.07
723.359	24073.51
723.701	24160.51
724.044	23954.86
724.386	23862.66
724.729	24071.92
725.071	23949.21
725.413	23883.45
725.755	23948.76
726.097	23809.11
726.439	23725.72
726.782	23787.41
727.124	23921.87
727.465	23755.1
727.807	23723.23
728.149	23732.5
728.491	23663.35
728.833	23789.45
729.175	23723.23
729.516	23679.39
729.858	23744.7
730.199	23651.82
730.541	23616.34
730.882	23610.47
731.224	23706.96
731.565	23526.4
731.906	23639.62
732.248	23508.32
732.589	23558.26
732.93	23449.12
733.271	23407.76
733.612	23518.72
733.953	23604.14
734.294	23390.81
734.635	23467.42
734.976	23441.88
735.317	23393.98
735.658	23421.55
735.999	23374.09
736.339	23415.9
736.68	23636
737.021	23430.81
737.361	23375.44
737.702	23414.31
738.042	23305.16
738.383	23351.49
738.723	23316.24
739.063	23313.07
739.404	23429.45
739.744	23317.82
740.084	23317.82
740.424	23258.16
740.764	23190.82
741.104	23224.26
741.444	23273.3
741.784	23154.66
742.124	23197.6
742.464	23267.42
742.804	23233.08
743.143	23139.29
743.483	23249.8
743.823	23044.83
744.162	23090.48
744.502	23172.29
744.841	23071.5
745.181	23165.05
745.52	23092.06
745.86	23078.5
746.199	23005.28
746.538	23131.16
746.877	23159.18
747.216	23153.76
747.556	23045.74
747.895	23092.97
748.234	23003.48
748.573	22975.46
748.911	23045.28
749.25	23011.16
749.589	22857.94
749.928	23048.67
750.267	23049.8
750.605	22904.04
750.944	22905.4
751.283	22824.27
751.621	22830.37
751.96	22834.22
752.298	22786.99
752.636	22828.57
752.975	22631.28
753.313	22634
753.651	22689.59
753.989	22576.14
754.327	22608.69
754.666	22491.63
755.004	22555.13
755.342	22620.44
755.679	22528.24
756.017	22430.61
