Data from tablewood_brown_FLMS001491_030.txt Node
Date: Tue Feb 07 11:10:15 GMT 2017
User: dcchb
Spectrometer: FLMS00149
Trigger mode: 0
Integration Time (sec): 2.000000E-2
Scans to average: 10
Electric dark correction enabled: true
Nonlinearity correction enabled: false
Boxcar width: 0
XAxis mode: Wavelengths
Number of Pixels in Spectrum: 2048
>>>>>Begin Spectral Data<<<<<
341.393	-6.27
341.776	-6.27
342.16	-6.27
342.543	-63.22
342.927	-83.33
343.31	-61.64
343.693	-69.32
344.077	-70.45
344.46	-78.13
344.843	-61.18
345.226	-43.11
345.61	-33.84
345.993	-8.3
346.376	1.86
346.759	20.62
347.142	26.5
347.525	44.58
347.908	52.03
348.291	91.58
348.674	85.7
349.057	103.1
349.44	120.96
349.823	149.43
350.206	156.44
350.588	181.52
350.971	212.48
351.354	218.36
351.737	230.78
352.119	256.09
352.502	264.23
352.884	268.3
353.267	300.61
353.65	306.26
354.032	308.3
354.414	305.59
354.797	316.66
355.179	323.44
355.562	308.75
355.944	322.08
356.326	309.43
356.709	331.8
357.091	344.91
357.473	329.99
357.855	334.96
358.238	353.95
358.62	325.47
359.002	358.47
359.384	333.83
359.766	370.67
360.148	322.31
360.53	327.51
360.912	323.89
361.294	329.99
361.676	354.62
362.057	311.46
362.439	340.61
362.821	335.87
363.203	329.99
363.584	342.87
363.966	327.73
364.348	357.56
364.729	339.93
365.111	341.74
365.493	333.38
365.874	310.33
366.256	313.72
366.637	330.44
367.019	297.9
367.4	307.39
367.781	324.34
368.163	333.16
368.544	336.32
368.925	314.62
369.306	327.96
369.688	322.31
370.069	325.92
370.45	313.49
370.831	320.73
371.212	327.05
371.593	312.82
371.974	301.07
372.355	324.12
372.736	342.19
373.117	329.31
373.498	325.02
373.879	343.78
374.26	326.6
374.641	319.14
375.021	317.11
375.402	323.44
375.783	313.27
376.163	341.52
376.544	340.39
376.925	343.55
377.305	335.64
377.686	355.08
378.066	332.25
378.447	330.9
378.827	336.77
379.208	311.23
379.588	329.31
379.968	330.67
380.349	323.44
380.729	354.62
381.109	362.98
381.489	360.5
381.87	330.44
382.25	350.1
382.63	367.5
383.01	355.3
383.39	370.22
383.77	380.61
384.15	389.2
384.53	375.64
384.91	365.02
385.29	376.54
385.67	380.61
386.049	380.84
386.429	388.29
386.809	392.14
387.189	355.08
387.568	391.23
387.948	390.78
388.328	398.92
388.707	382.87
389.087	370.22
389.466	398.92
389.846	405.02
390.225	387.16
390.605	412.48
390.984	408.41
391.363	417.67
391.743	403.44
392.122	396.88
392.501	424.9
392.881	418.12
393.26	427.39
393.639	434.4
394.018	437.56
394.397	441.17
394.776	447.05
395.155	458.12
395.534	442.53
395.913	453.6
396.292	446.15
396.671	443.89
397.05	449.99
397.429	459.93
397.808	466.48
398.186	438.92
398.565	434.17
398.944	456.09
399.323	464.9
399.701	475.75
400.08	459.25
400.458	462.19
400.837	475.52
401.215	475.3
401.594	474.85
401.972	489.08
402.351	507.61
402.729	468.07
403.107	501.74
403.486	512.36
403.864	502.64
404.242	516.88
404.62	506.94
404.999	513.94
405.377	528.4
405.755	545.8
406.133	526.6
406.511	533.15
406.889	532.47
407.267	530.66
407.645	548.06
408.023	527.95
408.401	553.71
408.779	561.85
409.156	541.74
409.534	570.21
409.912	549.65
410.29	562.75
410.667	608.63
411.045	570.44
411.422	584.45
411.8	596.88
412.178	606.82
412.555	619.93
412.933	605.24
413.31	618.8
413.687	608.18
414.065	607.95
414.442	630.1
414.819	640.27
415.197	647.05
415.574	675.74
415.951	656.76
416.328	662.64
416.705	650.43
417.082	656.08
417.46	646.14
417.837	693.6
418.214	665.8
418.591	677.33
418.967	681.17
419.344	705.12
419.721	682.98
420.098	691.11
420.475	707.61
420.852	681.85
421.228	713.03
421.605	706.7
421.982	726.37
422.358	721.85
422.735	721.39
423.111	699.7
423.488	726.14
423.864	741.28
424.241	755.97
424.617	763.2
424.994	767.49
425.37	768.17
425.746	777.66
426.123	779.47
426.499	786.25
426.875	777.44
427.251	808.85
427.627	809.07
428.003	808.85
428.379	799.13
428.756	820.6
429.132	842.75
429.507	863.08
429.883	849.3
430.259	867.15
430.635	857.21
431.011	872.58
431.387	878.68
431.763	878.9
432.138	909.86
432.514	917.77
432.89	937.43
433.265	932.01
433.641	927.04
434.016	948.73
434.392	978.79
434.767	971.78
435.143	966.58
435.518	990.76
435.894	1016.3
436.269	995.06
436.644	1031.22
437.02	1026.7
437.395	1032.8
437.77	1037.09
438.145	1054.27
438.52	1044.1
438.895	1075.28
439.271	1069.18
439.646	1103.53
440.021	1104.21
440.395	1117.09
440.77	1085
441.145	1135.62
441.52	1133.59
441.895	1116.19
442.27	1147.14
442.645	1145.56
443.019	1142.17
443.394	1173.58
443.769	1165.45
444.143	1162.29
444.518	1216.3
444.892	1184.88
445.267	1231.21
445.641	1206.58
446.016	1220.82
446.39	1221.72
446.764	1247.03
447.139	1222.4
447.513	1248.84
447.887	1254.03
448.262	1257.42
448.636	1265.56
449.01	1279.57
449.384	1315.05
449.758	1326.35
450.132	1321.15
450.506	1295.62
450.88	1313.24
451.254	1332.68
451.628	1339.46
452.002	1368.16
452.376	1368.38
452.75	1372.9
453.123	1346.46
453.497	1426.23
453.871	1440.7
454.244	1426.23
454.618	1433.24
454.992	1455.61
455.365	1475.5
455.739	1487.02
456.112	1525.67
456.486	1476.85
456.859	1519.56
457.232	1542.84
457.606	1560.02
457.979	1573.57
458.352	1621.71
458.725	1615.83
459.099	1632.1
459.472	1671.2
459.845	1684.08
460.218	1710.07
460.591	1711.2
460.964	1714.36
461.337	1754.59
461.71	1762.72
462.083	1830.97
462.456	1813.57
462.829	1824.42
463.201	1874.81
463.574	1884.75
463.947	1905.09
464.32	1917.29
464.692	1953.9
465.065	1975.6
465.438	2014.01
465.81	2034.81
466.183	2036.84
466.555	2074.8
466.928	2088.36
467.3	2129.04
467.672	2153.45
468.045	2178.53
468.417	2200
468.789	2218.08
469.161	2258.53
469.534	2268.7
469.906	2335.81
470.278	2361.12
470.65	2384.4
471.022	2429.6
471.394	2497.17
471.766	2510.95
472.138	2510.5
472.51	2611.06
472.882	2674.34
473.253	2705.07
473.625	2760.21
473.997	2760.66
474.369	2823.26
474.74	2858.06
475.112	2918.17
475.484	3014.67
475.855	3005.18
476.227	3110.26
476.598	3173.76
476.97	3185.96
477.341	3286.75
477.713	3344.6
478.084	3378.72
478.455	3484.71
478.827	3531.26
479.198	3612.84
479.569	3631.6
479.94	3756.34
480.311	3825.04
480.682	3898.26
481.053	3992.49
481.424	4060.29
481.795	4107.97
482.166	4173.05
482.537	4274.52
482.908	4351.35
483.279	4409.66
483.65	4444.46
484.021	4569.2
484.391	4574.85
484.762	4682.87
485.133	4749.76
485.503	4758.12
485.874	4933.71
486.244	5003.09
486.615	5069.75
486.985	5158.79
487.356	5210.31
487.726	5297.09
488.097	5357.66
488.467	5437.43
488.837	5561.94
489.207	5571.66
489.578	5628.16
489.948	5736.85
490.318	5785.44
490.688	5831.32
491.058	5994.25
491.428	6035.83
491.798	6107.47
492.168	6205.09
492.538	6252.77
492.908	6354.01
493.278	6430.4
493.648	6454.8
494.017	6561.69
494.387	6636.94
494.757	6612.09
495.126	6747
495.496	6797.84
495.866	6769.6
496.235	6955.35
496.605	6950.16
496.974	6980.21
497.344	7048.23
497.713	7115.8
498.082	7166.87
498.452	7217.49
498.821	7256.59
499.19	7341.11
499.559	7396.47
499.928	7425.4
500.298	7472.18
500.667	7559.18
501.036	7596.92
501.405	7696.8
501.774	7670.82
502.143	7781.77
502.512	7885.95
502.88	7991.26
503.249	7933.41
503.618	7996.68
503.987	8000.98
504.356	8125.94
504.724	8162.1
505.093	8194.64
505.462	8225.15
505.83	8279.39
506.199	8405.71
506.567	8557.35
506.936	8518.48
507.304	8627.4
507.672	8659.26
508.041	8678.92
508.409	8742.88
508.777	8937.22
509.145	9016.09
509.514	8951.69
509.882	9077.78
510.25	9038.01
510.618	9089.31
510.986	9230.55
511.354	9299.92
511.722	9351.68
512.09	9496.08
512.458	9527.94
512.826	9609.3
513.193	9628.05
513.561	9733.36
513.929	9764.55
514.297	9898.55
514.664	10005.67
515.032	9993.47
515.4	10120.24
515.767	10199.34
516.135	10252.44
516.502	10202.95
516.869	10409.27
517.237	10532.21
517.604	10477.52
517.972	10600.91
518.339	10681.13
518.706	10715.93
519.073	10764.97
519.44	10903.5
519.808	11034.57
520.175	11019.65
520.542	11172.87
520.909	11330.83
521.276	11311.4
521.643	11465.29
522.009	11517.72
522.376	11557.94
522.743	11673.65
523.11	11877.48
523.477	11980.98
523.843	12029.8
524.21	12186.4
524.577	12271.82
524.943	12315.89
525.31	12422.33
525.676	12503.91
526.043	12679.05
526.409	12733.96
526.776	12855.54
527.142	12942.09
527.508	12904.58
527.874	13103.44
528.241	13174.63
528.607	13242.19
528.973	13310.21
529.339	13302.98
529.705	13455.97
530.071	13622.52
530.437	13656.42
530.803	13769.19
531.169	13826.59
531.535	13761.95
531.901	13950.88
532.267	13909.97
532.632	14208.27
532.998	14148.84
533.364	14259.57
533.73	14322.17
534.095	14410.3
534.461	14459.56
534.826	14537.08
535.192	14577.75
535.557	14697.75
535.923	14617.75
536.288	14756.5
536.653	14863.39
537.019	14884.86
537.384	14948.36
537.749	15044.63
538.114	15087.57
538.479	15059.55
538.845	15241.69
539.21	15174.57
539.575	15256.83
539.94	15285.53
540.305	15388.35
540.67	15360.78
541.034	15477.16
541.399	15532.53
541.764	15565.75
542.129	15680.32
542.494	15761.22
542.858	15828.11
543.223	15856.14
543.587	15959.41
543.952	15876.48
544.316	16075.79
544.681	15983.14
545.045	16042.57
545.41	16173.87
545.774	16225.17
546.138	16136.36
546.503	16363.92
546.867	16273.98
547.231	16541.32
547.595	16560.3
547.959	16597.59
548.324	16635.55
548.688	16637.81
549.052	16801.87
549.416	16823.57
549.779	16906.5
550.143	16940.4
550.507	17132.26
550.871	17178.59
551.235	17156.67
551.599	17322.31
551.962	17331.58
552.326	17389.88
552.689	17586.26
553.053	17584.45
553.417	17717.1
553.78	17973.14
554.143	17881.85
554.507	17995.29
554.87	18148.28
555.234	18280.71
555.597	18255.62
555.96	18361.61
556.323	18458.55
556.686	18646.57
557.05	18814.48
557.413	18897.64
557.776	18963.4
558.139	19172.21
558.502	19140.8
558.865	19286.78
559.228	19411.75
559.59	19535.59
559.953	19594.34
560.316	19905.97
560.679	19922.24
561.041	20140.32
561.404	20305.96
561.767	20470.93
562.129	20425.73
562.492	20638.84
562.854	20764.03
563.217	20825.05
563.579	20945.49
563.941	21196.79
564.304	21376.44
564.666	21486.95
565.028	21547.06
565.39	21669.77
565.753	21848.07
566.115	22012.81
566.477	22129.19
566.839	22300.26
567.201	22490.31
567.563	22558.33
567.925	22814.15
568.287	22838.1
568.648	22961.49
569.01	23166
569.372	23409.16
569.734	23464.75
570.095	23689.6
570.457	23842.82
570.819	24047.11
571.18	24113.55
571.542	24267.67
571.903	24439.87
572.265	24610.03
572.626	24751.95
572.987	24849.12
573.349	24963.02
573.71	25193.07
574.071	25336.11
574.432	25472.61
574.794	25807.06
575.155	25797.57
575.516	25721.19
575.877	26096.55
576.238	26253.15
576.599	26297.67
576.96	26395.07
577.32	26551.9
577.681	26698.34
578.042	26832.12
578.403	26883.19
578.763	26941.95
579.124	27119.34
579.485	27310.52
579.845	27353.91
580.206	27400.69
580.566	27490.63
580.927	27620.8
581.287	27770.17
581.648	27800.91
582.008	28004.07
582.368	28012.65
582.728	28112.09
583.089	28051.3
583.449	28162.03
583.809	28228.24
584.169	28251.97
584.529	28365.64
584.889	28537.39
585.249	28361.34
585.609	28377.39
585.969	28612.19
586.329	28561.57
586.688	28676.82
587.048	28736.7
587.408	28592.98
587.768	28780.09
588.127	28740.77
588.487	28678.4
588.846	29010.14
589.206	28860.99
589.565	28848.79
589.925	29079.97
590.284	29045.39
590.643	29060.76
591.003	29158.84
591.362	29275.44
591.721	29190.7
592.08	29271.15
592.44	29280.87
592.799	29382.33
593.158	29320.42
593.517	29378.27
593.876	29504.59
594.235	29349.79
594.593	29274.54
594.952	29501.43
595.311	29363.13
595.67	29438.15
596.029	29686.51
596.387	29745.26
596.746	29730.35
597.104	29745.72
597.463	29692.84
597.822	29742.33
598.18	29678.37
598.538	29665.27
598.897	29827.75
599.255	29477.25
599.613	29987.74
599.972	29930.34
600.33	29843.79
600.688	29790.91
601.046	29927.41
601.404	29943.9
601.762	29925.37
602.12	30113.16
602.478	30110.68
602.836	30187.29
603.194	29974.64
603.552	30039.49
603.91	30093.05
604.268	30207.85
604.625	30180.28
604.983	30132.6
605.341	30066.16
605.698	30263.44
606.056	30326.49
606.413	30093.73
606.771	30360.39
607.128	30450.78
607.485	30225.48
607.843	30412.82
608.2	30485.58
608.557	30560.38
608.914	30431.12
609.272	30505.24
609.629	30620.95
609.986	30767.61
610.343	30658.69
610.7	30845.12
611.057	30715.86
611.414	30734.39
611.771	30836.99
612.127	30844.44
612.484	30854.16
612.841	30984.33
613.198	30819.81
613.554	30866.59
613.911	31164.43
614.267	31006.7
614.624	30983.87
614.98	31189.74
615.337	31329.18
615.693	31133.25
616.05	31105.23
616.406	31336.18
616.762	31277.2
617.118	31225.22
617.475	31287.82
617.831	31405.11
618.187	31259.12
618.543	31432.45
618.899	31663.18
619.255	31561.94
619.611	31514.71
619.967	31520.36
620.323	31671.54
620.678	31536.4
621.034	31445.78
621.39	31584.54
621.746	31404.65
622.101	31856.62
622.457	31519.45
622.812	31659.79
623.168	31726
623.523	31669.05
623.879	31869.95
624.234	31594.93
624.589	31696.17
624.945	31700.24
625.3	31777.3
625.655	31653.91
626.01	31841.03
626.365	31800.8
626.72	31780.92
627.075	31685.1
627.43	31722.16
627.785	31584.76
628.14	31617.53
628.495	31739.33
628.85	31578.89
629.205	31563.75
629.559	31757.19
629.914	31601.94
630.269	31558.55
630.623	31453.92
630.978	31305.45
631.332	31643.97
631.687	31592.9
632.041	31549.06
632.396	31535.95
632.75	31354.03
633.104	31411.89
633.459	31236.98
633.813	31315.17
634.167	31102.52
634.521	31270.65
634.875	31230.87
635.229	31310.42
635.583	30966.47
635.937	31011.9
636.291	31021.61
636.645	31079.01
636.999	30933.93
637.352	31156.53
637.706	30786.59
638.06	30962.63
638.413	30891.9
638.767	30799.7
639.121	30807.38
639.474	30710.44
639.828	30706.59
640.181	30790.66
640.534	30811.22
640.888	30701.4
641.241	30537.78
641.594	30743.65
641.947	30680.15
642.301	30449.65
642.654	30637.67
643.007	30617.56
643.36	30482.42
643.713	30471.8
644.066	30561.51
644.419	30286.27
644.771	30174.86
645.124	29921.76
645.477	29881.76
645.83	29748.65
646.182	29609.9
646.535	29481.77
646.888	29670.91
647.24	29351.38
647.593	29603.8
647.945	29418.49
648.298	29397.7
648.65	29376.23
649.002	29237.93
649.355	29331.04
649.707	29444.71
650.059	29526.96
650.411	29810.12
650.763	29864.81
651.115	30126.5
651.467	30087.4
651.819	29995.2
652.171	30006.05
652.523	29910.68
652.875	30064.58
653.227	29757.01
653.578	30067.97
653.93	30078.36
654.282	29894.41
654.633	29882.21
654.985	29959.04
655.337	29806.28
655.688	29957.46
656.039	29920.85
656.391	29756.34
656.742	29655.1
657.094	29725.6
657.445	29886.5
657.796	29848.54
658.147	29815.32
658.498	29702.55
658.849	29872.94
659.2	29826.84
659.551	29679.95
659.902	29718.82
660.253	29772.83
660.604	29802.89
660.955	29504.37
661.306	29610.13
661.656	29658.26
662.007	29584.82
662.358	29653.51
662.708	29521.99
663.059	29664.36
663.409	29353.63
663.76	29777.13
664.11	29646.06
664.461	29716.79
664.811	29637.24
665.161	29707.75
665.511	29574.42
665.862	29744.13
666.212	29694.19
666.562	29813.51
666.912	29734.19
667.262	29722.21
667.612	29682.44
667.962	29681.31
668.312	29581.2
668.662	29728.31
669.011	29699.16
669.361	29526.06
669.711	29503.01
670.06	29456.46
670.41	29444.03
670.76	29416.23
671.109	29494.2
671.459	29364.93
671.808	29437.25
672.157	29448.55
672.507	29323.81
672.856	29393.41
673.205	29332.17
673.554	29404.71
673.904	29253.07
674.253	29293.3
674.602	29157.26
674.951	28895.57
675.3	28658.74
675.649	29208.78
675.998	28956.58
676.346	29048.56
676.695	29200.42
677.044	29012.63
677.393	29018.73
677.741	29020.76
678.09	29093.3
678.438	28982.35
678.787	28893.08
679.135	29010.82
679.484	28809.92
679.832	28899.18
680.181	28688.12
680.529	28849.02
680.877	28766.53
681.225	28564.73
681.573	28782.8
681.922	28677.27
682.27	28593.88
682.618	28598.63
682.966	28473.43
683.314	28524.5
683.661	28372.64
684.009	28170.39
684.357	28211.97
684.705	28273.66
685.053	28217.17
685.4	28043.84
685.748	27967.91
686.095	27904.63
686.443	27898.31
686.79	27828.7
687.138	27783.51
687.485	27706.67
687.832	27667.13
688.18	27648.37
688.527	27599.56
688.874	27558.65
689.221	27416.96
689.568	27241.15
689.915	27302.16
690.262	27301.71
690.609	27140.13
690.956	27119.12
691.303	27095.39
691.65	26950.99
691.997	26899.01
692.344	26737.88
692.69	26673.93
693.037	26760.03
693.383	26540.6
693.73	26695.17
694.077	26363.66
694.423	26416.99
694.769	26249.31
695.116	26193.27
695.462	26073.72
695.808	26113.27
696.155	26061.29
696.501	25796.89
696.847	25908.08
697.193	25644.13
697.539	25765.48
697.885	25508.54
698.231	25383.12
698.577	25542.89
698.923	25415.66
699.269	25278.26
699.614	25233.29
699.96	25052.05
700.306	25127.98
700.651	25048.66
700.997	24920.31
701.342	24790.37
701.688	24812.51
702.033	24797.82
702.379	24650.03
702.724	24481.67
703.069	24631.95
703.415	24288.68
703.76	24323.94
704.105	24280.32
704.45	24118.74
704.795	24119.65
705.14	23930.05
705.485	24005.3
705.83	23791.3
706.175	23910.16
706.52	23856.38
706.865	23640.56
707.209	23567.8
707.554	23541.81
707.899	23588.81
708.243	23455.94
708.588	23320.8
708.932	23220.24
709.277	23252.1
709.621	23291.2
709.966	23009.85
710.31	23194.02
710.654	22918.32
710.998	22959.23
711.342	22956.29
711.687	22996.97
712.031	22839.68
712.375	22858.21
712.719	22800.36
713.063	22659.8
713.407	22766.24
713.75	22610.99
714.094	22625.68
714.438	22469.75
714.782	22567.37
715.125	22381.39
715.469	22470.2
715.812	22425
716.156	22297.78
716.499	22260.04
716.843	22276.53
717.186	22058.01
717.53	22305.23
717.873	22255.06
718.216	22151.79
718.559	22088.97
718.902	21992.7
719.246	22060.04
719.589	22011.91
719.932	21990.44
720.275	21908.18
720.617	21961.06
720.96	21886.26
721.303	21835.87
721.646	21998.8
721.989	21784.79
722.331	21758.35
722.674	21718.13
723.016	21730.56
723.359	21604.01
723.701	21764.91
724.044	21700.28
724.386	21549.09
724.729	21654.85
725.071	21540.73
725.413	21459.61
725.755	21530.56
726.097	21391.36
726.439	21454.63
726.782	21448.98
727.124	21522.88
727.465	21311.59
727.807	21378.03
728.149	21389.1
728.491	21336.22
728.833	21390.23
729.175	21255.32
729.516	21261.64
729.858	21363.79
730.199	21367.18
730.541	21303.45
730.882	21251.25
731.224	21277.46
731.565	21184.13
731.906	21095.77
732.248	21245.83
732.589	21154.3
732.93	21157.01
733.271	21110.01
733.612	21181.65
733.953	21184.13
734.294	21027.98
734.635	21136.68
734.976	21157.69
735.317	21057.13
735.658	21039.05
735.999	21090.35
736.339	21053.06
736.68	21095.1
737.021	20976.23
737.361	20910.92
737.702	21145.94
738.042	20929.45
738.383	21100.52
738.723	21109.33
739.063	21015.1
739.404	20996.57
739.744	21039.5
740.084	20841.09
740.424	20976
740.764	20863.91
741.104	20936.68
741.444	20806.74
741.784	20907.3
742.124	20909.56
742.464	20933.97
742.804	20919.96
743.143	20795.89
743.483	20810.36
743.823	20846.51
744.162	20846.97
744.502	20865.72
744.841	20834.99
745.181	20893.74
745.52	20778.04
745.86	20880.19
746.199	20820.75
746.538	20759.06
746.877	20731.71
747.216	20813.29
747.556	20722.22
747.895	20801.09
748.234	20694.88
748.573	20698.5
748.911	20660.53
749.25	20627.31
749.589	20690.59
749.928	20573.3
750.267	20721.77
750.605	20581.44
750.944	20580.98
751.283	20557.48
751.621	20532.85
751.96	20442.68
752.298	20529.91
752.636	20535.34
752.975	20469.57
753.313	20402.68
753.651	20463.93
753.989	20341.22
754.327	20301.22
754.666	20258.28
755.004	20338.73
755.342	20332.4
755.679	20264.83
756.017	20153.88
756.355	20196.59
