Data from tablewood_brown_FLMS001491_038.txt Node
Date: Tue Feb 07 11:10:23 GMT 2017
User: dcchb
Spectrometer: FLMS00149
Trigger mode: 0
Integration Time (sec): 2.000000E-2
Scans to average: 10
Electric dark correction enabled: true
Nonlinearity correction enabled: false
Boxcar width: 0
XAxis mode: Wavelengths
Number of Pixels in Spectrum: 2048
>>>>>Begin Spectral Data<<<<<
341.393	-17.95
341.776	-17.95
342.16	-17.95
342.543	-41.45
342.927	-73.54
343.31	-81.9
343.693	-59.31
344.077	-70.15
344.46	-71.06
344.843	-36.71
345.226	-36.26
345.61	-39.19
345.993	-10.49
346.376	2.16
346.759	28.15
347.142	33.35
347.525	25.66
347.908	39.22
348.291	75.83
348.674	104.76
349.057	95.94
349.44	116.73
349.823	149.95
350.206	163.29
350.588	200.8
350.971	224.75
351.354	239.22
351.737	238.99
352.119	273.79
352.502	273.79
352.884	297.97
353.267	277.18
353.65	308.37
354.032	291.87
354.414	320.57
354.797	341.81
355.179	323.73
355.562	327.8
355.944	352.21
356.326	330.29
356.709	362.15
357.091	353.56
357.473	351.98
357.855	322.6
358.238	359.44
358.62	342.27
359.002	364.86
359.384	368.7
359.766	349.5
360.148	347.01
360.53	350.63
360.912	351.98
361.294	389.04
361.676	332.1
362.057	359.67
362.439	327.12
362.821	363.96
363.203	348.59
363.584	317.18
363.966	344.52
364.348	332.77
364.729	322.6
365.111	332.77
365.493	340.46
365.874	325.99
366.256	322.6
366.637	313.79
367.019	328.03
367.4	342.49
367.781	332.1
368.163	332.32
368.544	331.19
368.925	330.06
369.306	348.37
369.688	331.42
370.069	341.36
370.45	337.29
370.831	338.65
371.212	328.03
371.593	338.42
371.974	341.36
372.355	338.2
372.736	340.46
373.117	354.92
373.498	353.11
373.879	350.4
374.26	346.11
374.641	318.54
375.021	360.34
375.402	334.36
375.783	363.06
376.163	339.78
376.544	365.54
376.925	340.91
377.305	339.78
377.686	360.12
378.066	353.79
378.447	327.8
378.827	348.37
379.208	359.89
379.588	360.12
379.968	358.31
380.349	360.8
380.729	350.63
381.109	375.03
381.489	335.03
381.87	379.33
382.25	387.46
382.63	385.88
383.01	392.66
383.39	396.5
383.77	399.21
384.15	385.88
384.53	388.59
384.91	410.96
385.29	387.46
385.67	391.98
386.049	390.63
386.429	391.3
386.809	390.85
387.189	392.89
387.568	412.55
387.948	406.67
388.328	420.91
388.707	395.14
389.087	451.64
389.466	457.97
389.846	416.84
390.225	410.74
390.605	419.33
390.984	422.49
391.363	451.87
391.743	434.92
392.122	431.98
392.501	433.56
392.881	457.74
393.26	439.89
393.639	462.26
394.018	463.17
394.397	455.26
394.776	460.91
395.155	471.3
395.534	477.85
395.913	469.27
396.292	472.43
396.671	465.2
397.05	475.37
397.429	460.91
397.808	491.87
398.186	458.87
398.565	484.41
398.944	473.56
399.323	499.32
399.701	494.13
400.08	517.85
400.458	492.32
400.837	522.83
401.215	507.46
401.594	547.23
401.972	544.07
402.351	524.86
402.729	538.42
403.107	549.72
403.486	538.42
403.864	539.32
404.242	536.38
404.62	550.4
404.999	553.78
405.377	550.4
405.755	564.41
406.133	579.09
406.511	596.5
406.889	600.34
407.267	591.07
407.645	587.46
408.023	590.17
408.401	591.75
408.779	603.28
409.156	596.5
409.534	619.32
409.912	639.43
410.29	640.56
410.667	638.98
411.045	658.87
411.422	655.7
411.8	641.47
412.178	672.2
412.555	662.93
412.933	652.09
413.31	672.65
413.687	660
414.065	698.41
414.442	694.35
414.819	701.13
415.197	729.83
415.574	719.88
415.951	731.86
416.328	729.37
416.705	736.15
417.082	733.67
417.46	735.48
417.837	746.32
418.214	739.09
418.591	761.46
418.967	757.4
419.344	741.8
419.721	785.42
420.098	787.68
420.475	772.31
420.852	799.65
421.228	770.05
421.605	817.28
421.982	791.29
422.358	823.38
422.735	820.9
423.111	830.84
423.488	830.61
423.864	831.07
424.241	867.9
424.617	848.01
424.994	848.01
425.37	885.08
425.746	878.97
426.123	875.81
426.499	906.32
426.875	877.17
427.251	907.9
427.627	936.15
428.003	950.16
428.379	922.59
428.756	963.94
429.132	972.08
429.507	942.93
429.883	947.22
430.259	992.42
430.635	1017.5
431.011	997.62
431.387	1037.61
431.763	1019.76
432.138	1038.97
432.514	1061.34
432.89	1040.78
433.265	1098.63
433.641	1097.5
434.016	1097.73
434.392	1115.35
434.767	1103.83
435.143	1092.53
435.518	1115.58
435.894	1132.75
436.269	1153.77
436.644	1190.83
437.02	1173.2
437.395	1193.09
437.77	1212.3
438.145	1209.13
438.52	1255.24
438.895	1239.87
439.271	1247.78
439.646	1272.41
440.021	1272.41
440.395	1296.59
440.77	1265.86
441.145	1282.58
441.52	1312.63
441.895	1327.55
442.27	1334.33
442.645	1332.52
443.019	1330.26
443.394	1327.32
443.769	1367.1
444.143	1363.26
444.518	1388.34
444.892	1375.68
445.267	1387.44
445.641	1393.54
446.016	1423.59
446.39	1414.55
446.764	1410.03
447.139	1406.64
447.513	1459.75
447.887	1434.67
448.262	1445.51
448.636	1453.65
449.01	1474.21
449.384	1499.97
449.758	1500.43
450.132	1530.71
450.506	1528.9
450.88	1541.33
451.254	1543.14
451.628	1551.95
452.002	1568.22
452.376	1596.47
452.75	1576.58
453.123	1617.71
453.497	1631.5
453.871	1657.71
454.244	1671.04
454.618	1693.19
454.992	1711.95
455.365	1689.35
455.739	1742.45
456.112	1758.05
456.486	1765.05
456.859	1790.14
457.232	1824.49
457.606	1805.96
457.979	1856.58
458.352	1877.14
458.725	1899.74
459.099	1918.95
459.472	1952.39
459.845	1945.39
460.218	1973.63
460.591	2001.88
460.964	2006.18
461.337	2051.82
461.71	2079.85
462.083	2125.04
462.456	2090.47
462.829	2102.9
463.201	2144.7
463.574	2159.39
463.947	2174.08
464.32	2267.64
464.692	2245.72
465.065	2300.86
465.438	2351.7
465.81	2366.84
466.183	2394.19
466.555	2411.14
466.928	2416.56
467.3	2414.53
467.672	2497.01
468.045	2586.27
468.417	2565.48
468.789	2578.36
469.161	2610.45
469.534	2690.23
469.906	2714.86
470.278	2768.42
470.65	2782.65
471.022	2866.49
471.394	2877.57
471.766	2915.08
472.138	2998.24
472.51	2998.01
472.882	3124.11
473.253	3153.72
473.625	3166.15
473.997	3273.26
474.369	3292.92
474.74	3319.59
475.112	3414.73
475.484	3488.4
475.855	3530.88
476.227	3568.17
476.598	3676.87
476.97	3714.83
477.341	3824.43
477.713	3855.39
478.084	3895.17
478.455	3973.58
478.827	4076.63
479.198	4165.22
479.569	4195.95
479.94	4313.69
480.311	4418.32
480.682	4443.17
481.053	4622.6
481.424	4691.98
481.795	4749.83
482.166	4859.66
482.537	4889.94
482.908	4964.74
483.279	5053.55
483.65	5187.56
484.021	5261.23
484.391	5357.5
484.762	5368.12
485.133	5439.53
485.503	5540.77
485.874	5675.91
486.244	5693.54
486.615	5869.8
486.985	5865.96
487.356	6038.16
487.726	6125.62
488.097	6194.09
488.467	6213.3
488.837	6384.14
489.207	6477.47
489.578	6557.92
489.948	6623.91
490.318	6711.14
490.688	6761.53
491.058	6873.39
491.428	7001.52
491.798	7058.7
492.168	7156.1
492.538	7228.19
492.908	7279.26
493.278	7346.15
493.648	7430.21
494.017	7553.37
494.387	7620.27
494.757	7669.53
495.126	7747.04
495.496	7766.93
495.866	7853.48
496.235	7987.71
496.605	8054.83
496.974	8126.47
497.344	8131.89
497.713	8218.89
498.082	8288.95
498.452	8366.91
498.821	8429.51
499.19	8474.03
499.559	8593.12
499.928	8630.18
500.298	8629.28
500.667	8853.91
501.036	8817.97
501.405	8871.98
501.774	8906.56
502.143	8960.57
502.512	9027.01
502.88	9158.53
503.249	9125.08
503.618	9229.49
503.987	9173.22
504.356	9323.5
504.724	9350.84
505.093	9474.68
505.462	9513.55
505.83	9566.43
506.199	9682.81
506.567	9806.87
506.936	9773.88
507.304	9919.19
507.672	9906.99
508.041	9947.89
508.409	10063.37
508.777	10133.19
509.145	10246.86
509.514	10321.66
509.882	10378.84
510.25	10516.23
510.618	10509.68
510.986	10583.13
511.354	10612.28
511.722	10822.44
512.09	10918.48
512.458	10908.31
512.826	11051.36
513.193	11104.47
513.561	11202.77
513.929	11240.96
514.297	11396.21
514.664	11431.69
515.032	11499.94
515.4	11616.54
515.767	11617.67
516.135	11765.69
516.502	11728.18
516.869	11953.03
517.237	11985.12
517.604	12011.79
517.972	12221.5
518.339	12310.31
518.706	12337.88
519.073	12491.55
519.44	12574.03
519.808	12763.63
520.175	12604.54
520.542	12864.87
520.909	12947.36
521.276	12952.33
521.643	13137.18
522.009	13270.51
522.376	13319.78
522.743	13350.51
523.11	13572.65
523.477	13723.38
523.843	13755.92
524.21	13876.37
524.577	14011.51
524.943	14077.05
525.31	14271.62
525.676	14448.79
526.043	14535.79
526.409	14546.86
526.776	14683.81
527.142	14788.66
527.508	14850.13
527.874	14934.42
528.241	15085.83
528.607	15147.53
528.973	15323.79
529.339	15311.14
529.705	15399.72
530.071	15640.39
530.437	15689.66
530.803	15769.66
531.169	15879.71
531.535	15948.63
531.901	16014.62
532.267	16003.77
532.632	16208.29
532.998	16213.71
533.364	16333.48
533.73	16364.22
534.095	16512.24
534.461	16461.62
534.826	16691.21
535.192	16762.85
535.557	16987.25
535.923	16968.49
536.288	16986.57
536.653	17134.14
537.019	17071.09
537.384	17174.59
537.749	17242.16
538.114	17281.25
538.479	17407.35
538.845	17401.03
539.21	17364.42
539.575	17433.79
539.94	17522.38
540.305	17735.03
540.67	17772.99
541.034	17760.34
541.399	17872.43
541.764	17967.56
542.129	17957.85
542.494	18052.76
542.858	18130.95
543.223	18159.42
543.587	18235.58
543.952	18183.38
544.316	18259.08
544.681	18367.1
545.045	18479.64
545.41	18576.36
545.774	18663.14
546.138	18668.56
546.503	18759.86
546.867	18786.3
547.231	18943.81
547.595	18980.19
547.959	18963.02
548.324	19114.65
548.688	19093.64
549.052	19246.85
549.416	19356.45
549.779	19349.45
550.143	19480.29
550.507	19661.08
550.871	19692.49
551.235	19734.75
551.599	19919.83
551.962	20021.3
552.326	20035.53
552.689	20152.37
553.053	20150.78
553.417	20229.65
553.78	20555.97
554.143	20516.65
554.507	20567.72
554.87	20614.5
555.234	20943.31
555.597	20849.52
555.96	21046.35
556.323	21192.34
556.686	21159.34
557.05	21390.3
557.413	21460.81
557.776	21544.42
558.139	21853.79
558.502	21949.38
558.865	22004.52
559.228	22282.48
559.59	22237.96
559.953	22374
560.316	22743.71
560.679	22719.3
561.041	22935.34
561.404	23042.91
561.767	23273.64
562.129	23317.71
562.492	23480.64
562.854	23654.42
563.217	23772.16
563.579	23922.89
563.941	24093.28
564.304	24290.11
564.666	24407.39
565.028	24618.24
565.39	24761.51
565.753	25110.88
566.115	25087.15
566.477	25296.19
566.839	25411.44
567.201	25730.3
567.563	25620.92
567.925	25966.22
568.287	26050.29
568.648	26222.71
569.01	26462.26
569.372	26636.26
569.734	26634.68
570.095	26809.82
570.457	27133.2
570.819	27276.47
571.18	27292.74
571.542	27618.61
571.903	27730.47
572.265	27900.86
572.626	28137.24
572.987	28225.15
573.349	28292.26
573.71	28617.45
574.071	28729.99
574.432	28911.01
574.794	29292.01
575.155	29278.91
575.516	29222.64
575.877	29329.3
576.238	29532.91
576.599	29796.63
576.96	30002.73
577.32	29981.49
577.681	30226.45
578.042	30288.6
578.403	30311.87
578.763	30576.5
579.124	30675.7
579.485	30809.26
579.845	30976.26
580.206	31031.4
580.566	31081.12
580.927	31054.9
581.287	31387.78
581.648	31450.37
582.008	31682.01
582.368	31522.01
582.728	31647.88
583.089	31689.01
583.449	31722.91
583.809	31798.39
584.169	31983.47
584.529	31874.09
584.889	32312.5
585.249	31984.14
585.609	32118.15
585.969	32308.2
586.329	32170.58
586.688	32423.46
587.048	32386.85
587.408	32247.64
587.768	32344.36
588.127	32448.54
588.487	32562.66
588.846	32741.87
589.206	32495.77
589.565	32589.1
589.925	32775.99
590.284	32632.04
590.643	32824.12
591.003	32850.56
591.362	33008.3
591.721	33002.2
592.08	32884.91
592.44	33129.88
592.799	32927.4
593.158	33074.29
593.517	32995.87
593.876	33185.02
594.235	32999.26
594.593	33160.61
594.952	33206.49
595.311	32979.37
595.67	33139.59
596.029	33313.38
596.387	33339.82
596.746	33369.42
597.104	33234.73
597.463	33320.15
597.822	33439.93
598.18	33473.37
598.538	33437.89
598.897	33568.96
599.255	33365.35
599.613	33844.66
599.972	33481.28
600.33	33689.64
600.688	33524.44
601.046	33577.1
601.404	33735.51
601.762	33716.3
602.12	33775.51
602.478	33969.63
602.836	33874.72
603.194	33797.2
603.552	33954.71
603.91	33755.85
604.268	34019.8
604.625	33877.43
604.983	33962.62
605.341	33868.84
605.698	34092.79
606.056	34111.32
606.413	34060.02
606.771	34286.46
607.128	34216.63
607.485	34130.3
607.843	34087.37
608.2	34392.22
608.557	34432.89
608.914	34340.02
609.272	34306.34
609.629	34405.32
609.986	34427.24
610.343	34379.79
610.7	34630.4
611.057	34636.05
611.414	34552.89
611.771	34614.81
612.127	34764.18
612.484	34806.9
612.841	34909.27
613.198	34739.55
613.554	34735.26
613.911	34936.61
614.267	35000.34
614.624	34960.79
614.98	35044.63
615.337	35220.22
615.693	35050.28
616.05	35121.69
616.406	35368.46
616.762	35158.52
617.118	35125.53
617.475	35172.08
617.831	35323.04
618.187	35320.55
618.543	35313.1
618.899	35331.63
619.255	35393.55
619.611	35426.31
619.967	35447.56
620.323	35572.07
620.678	35480.1
621.034	35336.83
621.39	35523.49
621.746	35491.4
622.101	35909.69
622.457	35562.13
622.812	35664.73
623.168	35655.91
623.523	35565.29
623.879	35685.74
624.234	35483.49
624.589	35570.04
624.945	35557.38
625.3	35696.14
625.655	35637.61
626.01	35774.78
626.365	35703.6
626.72	35670.6
627.075	35640.55
627.43	35705.18
627.785	35594.9
628.14	35625.86
628.495	35657.49
628.85	35582.47
629.205	35391.96
629.559	35634.44
629.914	35500.44
630.269	35500.89
630.623	35361.23
630.978	35534.79
631.332	35558.97
631.687	35603.94
632.041	35450.72
632.396	35460.21
632.75	35366.43
633.104	35490.04
633.459	35149.71
633.813	35190.61
634.167	35166.89
634.521	35211.86
634.875	35217.73
635.229	35098.19
635.583	34874.92
635.937	35006.89
636.291	34960.79
636.645	34928.25
636.999	34748.37
637.352	34882.83
637.706	34666.56
638.06	34839.89
638.413	34750.17
638.767	34852.09
639.121	34853.22
639.474	34544.3
639.828	34615.26
640.181	34568.03
640.534	34728.48
640.888	34536.17
641.241	34387.92
641.594	34449.84
641.947	34454.36
642.301	34474.47
642.654	34385.66
643.007	34362.61
643.36	34438.32
643.713	34243.97
644.066	34338.66
644.419	34157.42
644.771	33996.07
645.124	33682.18
645.477	33693.7
645.83	33337.33
646.182	33227.95
646.535	33285.35
646.888	33268.63
647.24	33106.83
647.593	33360.61
647.945	33326.26
648.298	33048.52
648.65	33047.39
649.002	32909.77
649.355	33007.85
649.707	32969.2
650.059	33081.07
650.411	33555.4
650.763	33485.8
651.115	33923.75
651.467	33777.09
651.819	33783.19
652.171	33810.54
652.523	33843.53
652.875	33771.67
653.227	33632.24
653.578	33827.26
653.93	33734.83
654.282	33400.6
654.633	33534.16
654.985	33662.07
655.337	33577.32
655.688	33585.46
656.039	33770.99
656.391	33383.2
656.742	33585.46
657.094	33502.07
657.445	33603.31
657.796	33511.11
658.147	33533.93
658.498	33497.1
658.849	33618.9
659.2	33548.85
659.551	33577.55
659.902	33639.24
660.253	33597.89
660.604	33481.96
660.955	33440.83
661.306	33509.75
661.656	33479.25
662.007	33445.35
662.358	33409.19
662.708	33375.07
663.059	33434.73
663.409	33171.91
663.76	33525.57
664.11	33380.27
664.461	33412.13
664.811	33461.85
665.161	33524.22
665.511	33361.74
665.862	33463.88
666.212	33604.67
666.562	33448.97
666.912	33371.91
667.262	33320.83
667.612	33239.93
667.962	33448.06
668.312	33262.3
668.662	33427.95
669.011	33353.83
669.361	33274.73
669.711	33369.19
670.06	33201.74
670.41	33223.89
670.76	33218.91
671.109	33365.58
671.459	33139.14
671.808	33112.7
672.157	32978.47
672.507	32862.09
672.856	32904.8
673.205	32968.07
673.554	33041.74
673.904	32910.9
674.253	33106.6
674.602	33041.74
674.951	32509.1
675.3	32422.55
675.649	32819.38
675.998	32800.39
676.346	32886.49
676.695	32858.7
677.044	32612.38
677.393	32724.69
677.741	32794.52
678.09	32786.38
678.438	32655.77
678.787	32585.71
679.135	32675.65
679.484	32427.3
679.832	32452.83
680.181	32490.12
680.529	32437.24
680.877	32361.76
681.225	32285.61
681.573	32354.3
681.922	32242.67
682.27	32174.2
682.618	32234.76
682.966	32151.82
683.314	32190.92
683.661	32075.44
684.009	31776.24
684.357	31808.56
684.705	31778.73
685.053	31652.18
685.4	31656.7
685.748	31614.66
686.095	31678.16
686.443	31501.22
686.79	31333.54
687.138	31449.47
687.485	31498.51
687.832	31344.16
688.18	31288.8
688.527	31104.17
688.874	31168.35
689.221	31026.88
689.568	30950.5
689.915	30904.85
690.262	30843.84
690.609	30692.2
690.956	30712.99
691.303	30578.53
691.65	30313.91
691.997	30425.99
692.344	30273.91
692.69	30134.7
693.037	30156.17
693.383	29965.89
693.73	29917.31
694.077	29831.66
694.423	29834.37
694.769	29661.27
695.116	29654.49
695.462	29512.8
695.808	29372.69
696.155	29443.19
696.501	29242.3
696.847	29247.04
697.193	28944
697.539	29110.77
697.885	28911.01
698.231	28812.25
698.577	28717.79
698.923	28716.21
699.269	28529.09
699.614	28497.91
699.96	28486.61
700.306	28435.76
700.651	28213.17
700.997	28029.45
701.342	28041.42
701.688	28020.18
702.033	27825.38
702.379	27928.21
702.724	27865.16
703.069	27828.77
703.415	27393.53
703.76	27504.26
704.105	27456.81
704.45	27384.27
704.795	27175.68
705.14	27117.61
705.485	27154.89
705.83	26973.66
706.175	27020.66
706.52	26950.38
706.865	26818.18
707.209	26798.74
707.554	26646.21
707.899	26743.6
708.243	26562.59
708.588	26547.9
708.932	26330.51
709.277	26239.89
709.621	26331.86
709.966	26130.29
710.31	26207.35
710.654	25965.77
710.998	25969.16
711.342	25984.75
711.687	25920.35
712.031	25770.07
712.375	25777.98
712.719	25844.19
713.063	25657.08
713.407	25760.35
713.75	25686.46
714.094	25682.39
714.438	25523.07
714.782	25528.04
715.125	25316.52
715.469	25414.6
715.812	25314.04
716.156	25191.1
716.499	25216.19
716.843	25222.06
717.186	24940.04
717.53	25182.29
717.873	25136.19
718.216	25062.52
718.559	25107.04
718.902	24874.73
719.246	25054.61
719.589	24952.47
719.932	24798.35
720.275	24806.03
720.617	24762.87
720.96	24722.19
721.303	24782.3
721.646	24762.87
721.989	24568.52
722.331	24651
722.674	24588.63
723.016	24530.56
723.359	24613.49
723.701	24676.77
724.044	24383.21
724.386	24274.07
724.729	24381.63
725.071	24366.49
725.413	24351.13
725.755	24345.25
726.097	24264.57
726.439	24260.05
726.782	24311.58
727.124	24368.3
727.465	24243.56
727.807	24177.57
728.149	24140.74
728.491	24209.43
728.833	24167.4
729.175	24147.29
729.516	24170.79
729.858	24111.36
730.199	24081.53
730.541	23971.02
730.882	23888.76
731.224	24025.26
731.565	23774.87
731.906	23841.76
732.248	23909.55
732.589	23882.44
732.93	23811.7
733.271	23764.7
733.612	23891.7
733.953	23874.08
734.294	23905.26
734.635	23732.16
734.976	23919.72
735.317	23708.2
735.658	23760.63
735.999	23896.22
736.339	23657.13
736.68	23886.28
737.021	23832.95
737.361	23769.9
737.702	23928.76
738.042	23725.15
738.383	23821.2
738.723	23799.05
739.063	23662.33
739.404	23683.12
739.744	23784.81
740.084	23653.74
740.424	23672.5
740.764	23656.68
741.104	23766.51
741.444	23518.15
741.784	23542.56
742.124	23707.53
742.464	23646.51
742.804	23580.52
743.143	23403.81
743.483	23561.99
743.823	23437.7
744.162	23491.49
744.502	23511.37
744.841	23442
745.181	23508.66
745.52	23430.7
745.86	23462.79
746.199	23501.43
746.538	23461.66
746.877	23573.97
747.216	23496.68
747.556	23502.33
747.895	23547.76
748.234	23359.29
748.573	23370.59
748.911	23344.37
749.25	23439.74
749.589	23289.68
749.928	23338.27
750.267	23324.26
750.605	23331.94
750.944	23328.33
751.283	23246.97
751.621	23287.65
751.96	23152.06
752.298	23125.62
752.636	23250.59
752.975	23069.13
753.313	22988.9
753.651	23091.5
753.989	22896.02
754.327	22958.62
754.666	22799.75
755.004	22849.24
755.342	22964.04
755.679	22950.94
