Data from tablewood_brown_FLMS001491_020.txt Node
Date: Tue Feb 07 11:10:06 GMT 2017
User: dcchb
Spectrometer: FLMS00149
Trigger mode: 0
Integration Time (sec): 2.000000E-2
Scans to average: 10
Electric dark correction enabled: true
Nonlinearity correction enabled: false
Boxcar width: 0
XAxis mode: Wavelengths
Number of Pixels in Spectrum: 2048
>>>>>Begin Spectral Data<<<<<
341.393	-8.67
341.776	-8.67
342.16	-8.67
342.543	-66.07
342.927	-73.08
343.31	-54.09
343.693	-73.08
344.077	-48.9
344.46	-70.59
344.843	-46.19
345.226	-22.46
345.61	-32.85
345.993	-27.43
346.376	-7.09
346.759	7.82
347.142	43.76
347.525	45.11
347.908	46.02
348.291	75.39
348.674	69.07
349.057	95.51
349.44	117.88
349.823	126.69
350.206	167.59
350.588	200.14
350.971	225.9
351.354	234.94
351.737	228.61
352.119	243.75
352.502	279.46
352.884	260.93
353.267	284.88
353.65	281.26
354.032	308.83
354.414	312.45
354.797	308.61
355.179	309.96
355.562	334.14
355.944	344.54
356.326	332.79
356.709	323.52
357.091	347.93
357.473	346.35
357.855	347.48
358.238	349.06
358.62	350.41
359.002	345.22
359.384	324.2
359.766	359.23
360.148	336.63
360.53	351.32
360.912	361.71
361.294	336.4
361.676	351.09
362.057	334.82
362.439	322.62
362.821	326.23
363.203	342.28
363.584	344.09
363.966	343.86
364.348	324.2
364.729	338.66
365.111	335.95
365.493	337.31
365.874	323.52
366.256	324.43
366.637	353.58
367.019	320.36
367.4	318.55
367.781	338.44
368.163	327.82
368.544	321.71
368.925	345.67
369.306	328.72
369.688	321.49
370.069	307.93
370.45	337.31
370.831	332.79
371.212	338.89
371.593	330.53
371.974	320.13
372.355	350.19
372.736	337.53
373.117	326.69
373.498	320.58
373.879	341.6
374.26	332.79
374.641	329.17
375.021	323.97
375.402	345.22
375.783	358.78
376.163	358.55
376.544	348.15
376.925	360.13
377.305	337.08
377.686	347.93
378.066	352.22
378.447	351.32
378.827	352.45
379.208	358.32
379.588	355.39
379.968	365.1
380.349	370.08
380.729	378.21
381.109	385.22
381.489	384.76
381.87	376.18
382.25	368.72
382.63	377.53
383.01	403.07
383.39	376.4
383.77	371.2
384.15	378.44
384.53	392
384.91	384.31
385.29	375.05
385.67	377.08
386.049	384.31
386.429	408.27
386.809	407.81
387.189	402.16
387.568	383.41
387.948	394.03
388.328	409.4
388.707	415.72
389.087	411.43
389.466	424.08
389.846	407.36
390.225	429.06
390.605	431.77
390.984	438.32
391.363	437.19
391.743	424.76
392.122	433.35
392.501	439.9
392.881	419.57
393.26	463.18
393.639	429.96
394.018	462.28
394.397	480.35
394.776	447.14
395.155	463.18
395.534	461.15
395.913	456.85
396.292	497.76
396.671	469.51
397.05	474.71
397.429	472.9
397.808	478.32
398.186	473.35
398.565	488.49
398.944	473.58
399.323	498.21
399.701	502.5
400.08	496.85
400.458	495.27
400.837	528.26
401.215	509.96
401.594	519.22
401.972	518.32
402.351	521.71
402.729	541.82
403.107	519.68
403.486	549.96
403.864	527.58
404.242	537.08
404.62	548.83
404.999	530.75
405.377	546.57
405.755	568.04
406.133	549.73
406.511	555.83
406.889	570.07
407.267	573.23
407.645	585.66
408.023	594.25
408.401	596.28
408.779	584.98
409.156	585.21
409.534	605.1
409.912	610.97
410.29	608.26
410.667	620.46
411.045	614.59
411.422	647.13
411.8	626.11
412.178	642.38
412.555	665.43
412.933	660.91
413.31	638.54
413.687	673.8
414.065	696.62
414.442	699.11
414.819	678.54
415.197	690.74
415.574	669.28
415.951	707.24
416.328	696.62
416.705	699.11
417.082	698.43
417.46	716.28
417.837	716.96
418.214	743.17
418.591	717.18
418.967	696.85
419.344	733.91
419.721	749.27
420.098	738.65
420.475	753.57
420.852	755.38
421.228	765.54
421.605	774.36
421.982	797.41
422.358	784.08
422.735	772.32
423.111	805.54
423.488	785.88
423.864	809.39
424.241	814.58
424.617	798.99
424.994	806.67
425.37	817.29
425.746	845.32
426.123	835.83
426.499	833.79
426.875	864.07
427.251	865.66
427.627	906.78
428.003	898.87
428.379	874.69
428.756	876.05
429.132	899.1
429.507	903.17
429.883	929.16
430.259	937.29
430.635	961.7
431.011	939.33
431.387	958.99
431.763	977.97
432.138	991.53
432.514	1005.54
432.89	1020
433.265	1007.35
433.641	1020
434.016	1041.02
434.392	1062.26
434.767	1071.75
435.143	1078.53
435.518	1089.6
435.894	1068.14
436.269	1121.24
436.644	1113.56
437.02	1128.47
437.395	1139.55
437.77	1132.54
438.145	1119.21
438.52	1161.24
438.895	1179.77
439.271	1205.53
439.646	1208.92
440.021	1193.1
440.395	1229.04
440.77	1194.91
441.145	1227
441.52	1236.94
441.895	1218.87
442.27	1240.33
442.645	1244.4
443.019	1267.9
443.394	1245.53
443.769	1264.74
444.143	1274.01
444.518	1290.5
444.892	1297.96
445.267	1275.59
445.641	1303.16
446.016	1311.52
446.39	1339.32
446.764	1322.37
447.139	1352.42
447.513	1368.47
447.887	1351.52
448.262	1376.38
448.636	1359.43
449.01	1387.45
449.384	1408.69
449.758	1366.88
450.132	1424.51
450.506	1401.69
450.88	1427.9
451.254	1422.93
451.628	1458.63
452.002	1457.96
452.376	1482.14
452.75	1483.49
453.123	1471.74
453.497	1511.06
453.871	1542.93
454.244	1568.24
454.618	1565.98
454.992	1564.39
455.365	1608.23
455.739	1630.83
456.112	1637.61
456.486	1651.4
456.859	1651.85
457.232	1698.18
457.606	1683.26
457.979	1708.57
458.352	1741.34
458.725	1755.58
459.099	1755.8
459.472	1808.91
459.845	1803.26
460.218	1823.37
460.591	1838.51
460.964	1846.65
461.337	1888.45
461.71	1937.49
462.083	1923.25
462.456	1933.2
462.829	1947.21
463.201	2000.54
463.574	2016.81
463.947	2034.44
464.32	2064.04
464.692	2081.89
465.065	2086.87
465.438	2126.41
465.81	2140.2
466.183	2174.55
466.555	2209.8
466.928	2247.54
467.3	2240.99
467.672	2269.01
468.045	2337.25
468.417	2331.38
468.789	2371.6
469.161	2402.11
469.534	2415.67
469.906	2480.3
470.278	2548.32
470.65	2549.9
471.022	2603.91
471.394	2666.96
471.766	2641.65
472.138	2700.41
472.51	2783.34
472.882	2783.57
473.253	2854.98
473.625	2911.03
473.997	2989.22
474.369	2982.89
474.74	3030.57
475.112	3112.83
475.484	3159.61
475.855	3203.45
476.227	3215.42
476.598	3339.94
476.97	3377.45
477.341	3429.2
477.713	3511.01
478.084	3497.9
478.455	3622.64
478.827	3684.34
479.198	3775.86
479.569	3821.06
479.94	3932.92
480.311	3982.86
480.682	4061.05
481.053	4160.26
481.424	4245.23
481.795	4271.22
482.166	4359.12
482.537	4396.18
482.908	4569.51
483.279	4584.88
483.65	4636.18
484.021	4740.36
484.391	4808.83
484.762	4834.14
485.133	4901.03
485.503	4989.61
485.874	5105.09
486.244	5162.94
486.615	5254.92
486.985	5330.17
487.356	5440.22
487.726	5509.83
488.097	5605.64
488.467	5619.65
488.837	5739.88
489.207	5766.54
489.578	5911.4
489.948	5914.79
490.318	6034.11
490.688	6063.03
491.058	6160.66
491.428	6261.22
491.798	6287.21
492.168	6453.08
492.538	6438.84
492.908	6543.47
493.278	6611.04
493.648	6608.1
494.017	6743.47
494.387	6807.19
494.757	6804.71
495.126	6910.92
495.496	6954.99
495.866	6990.92
496.235	7082.44
496.605	7150.46
496.974	7175.32
497.344	7291.93
497.713	7406.95
498.082	7331.25
498.452	7413.51
498.821	7546.61
499.19	7558.13
499.559	7673.16
499.928	7646.27
500.298	7688.3
500.667	7769.2
501.036	7786.38
501.405	7923.1
501.774	7882.42
502.143	7995.86
502.512	8031.79
502.88	8106.37
503.249	8111.11
503.618	8268.62
503.987	8241.05
504.356	8344.33
504.724	8376.42
505.093	8365.8
505.462	8538.22
505.83	8563.53
506.199	8595.85
506.567	8708.39
506.936	8760.36
507.304	8819.57
507.672	8908.38
508.041	8924.65
508.409	8948.38
508.777	9058.89
509.145	9132.33
509.514	9235.6
509.882	9265.89
510.25	9271.31
510.618	9352.66
510.986	9373
511.354	9482.15
511.722	9591.98
512.09	9660.68
512.458	9700.9
512.826	9760.79
513.193	9862.25
513.561	9917.85
513.929	10023.15
514.297	10138.86
514.664	10139.99
515.032	10253.88
515.4	10342.69
515.767	10397.61
516.135	10469.92
516.502	10433.54
516.869	10633.76
517.237	10621.33
517.604	10700.88
517.972	10830.82
518.339	10912.4
518.706	10969.57
519.073	10962.79
519.44	11030.36
519.808	11235.55
520.175	11186.74
520.542	11337.92
520.909	11480.07
521.276	11491.59
521.643	11685.03
522.009	11753.96
522.376	11845.03
522.743	11854.74
523.11	12039.6
523.477	12058.81
523.843	12259.03
524.21	12386.03
524.577	12469.64
524.943	12577.89
525.31	12591.22
525.676	12812.46
526.043	12920.25
526.409	12902.17
526.776	12998.22
527.142	13018.33
527.508	13235.27
527.874	13322.73
528.241	13380.13
528.607	13409.96
528.973	13583.74
529.339	13620.57
529.705	13791.64
530.071	13791.19
530.437	13922.26
530.803	13951.41
531.169	14084.52
531.535	14066.44
531.901	14193.67
532.267	14325.64
532.632	14331.74
532.998	14397.05
533.364	14535.58
533.73	14524.05
534.095	14682.69
534.461	14769.7
534.826	14785.52
535.192	14901.67
535.557	14993.42
535.923	14922.01
536.288	15083.13
536.653	15198.39
537.019	15107.99
537.384	15129.91
537.749	15337.59
538.114	15324.71
538.479	15262.11
538.845	15369.68
539.21	15449.9
539.575	15490.13
539.94	15656.45
540.305	15722.67
540.67	15716.11
541.034	15750.46
541.399	15842.44
541.764	15854.64
542.129	15930.8
542.494	15926.28
542.858	16009.21
543.223	16067.52
543.587	16144.12
543.952	16136.44
544.316	16259.6
544.681	16204.46
545.045	16403.78
545.41	16496.43
545.774	16486.71
546.138	16533.94
546.503	16607.16
546.867	16648.52
547.231	16809.42
547.595	16828.17
547.959	16864.33
548.324	16891.45
548.688	17005.12
549.052	17128.5
549.416	17140.26
549.779	17177.99
550.143	17326.47
550.507	17417.99
550.871	17535.73
551.235	17530.08
551.599	17624.31
551.962	17734.82
552.326	17742.27
552.689	17998.31
553.053	17917.86
553.417	18043.28
553.78	18255.03
554.143	18162.15
554.507	18380.9
554.87	18391.75
555.234	18649.14
555.597	18629.93
555.96	18686.2
556.323	18886.88
556.686	18868.8
557.05	19036.93
557.413	19198.28
557.776	19265.17
558.139	19421.78
558.502	19464.04
558.865	19630.81
559.228	19825.61
559.59	19830.13
559.953	20080.07
560.316	20256.33
560.679	20318.7
561.041	20551.69
561.404	20565.25
561.767	20769.54
562.129	20826.71
562.492	21152.81
562.854	21174.27
563.217	21203.2
563.579	21224.67
563.941	21566.13
564.304	21663.07
564.666	21829.17
565.028	21993.91
565.39	21974.48
565.753	22180.57
566.115	22439.33
566.477	22483.39
566.839	22669.15
567.201	22825.76
567.563	22959.76
567.925	23216.03
568.287	23385.06
568.648	23430.26
569.01	23590.03
569.372	23841.77
569.734	23917.7
570.095	24091.71
570.457	24231.14
570.819	24531.93
571.18	24554.3
571.542	24843.1
571.903	24845.36
572.265	25094.17
572.626	25276.31
572.987	25404.22
573.349	25559.92
573.71	25724.66
574.071	25929.4
574.432	26062.05
574.794	26274.48
575.155	26370.3
575.516	26435.83
575.877	26590.85
576.238	26621.81
576.599	26728.7
576.96	26906.55
577.32	27184.06
577.681	27193.55
578.042	27371.4
578.403	27437.61
578.763	27587.44
579.124	27704.27
579.485	27849.58
579.845	28053.64
580.206	28102.45
580.566	28062.68
580.927	28188.78
581.287	28452.73
581.648	28325.5
582.008	28500.41
582.368	28528.43
582.728	28682.78
583.089	28760.97
583.449	28781.08
583.809	28926.61
584.169	28959.38
584.529	29029.66
584.889	29365.7
585.249	29232.14
585.609	29240.95
585.969	29533.38
586.329	29304.91
586.688	29442.08
587.048	29389.2
587.408	29475.98
587.768	29376.54
588.127	29458.12
588.487	29587.61
588.846	29811.56
589.206	29563.88
589.565	29599.36
589.925	29961.39
590.284	29838.45
590.643	29821.28
591.003	29839.81
591.362	29888.85
591.721	29909.86
592.08	30046.58
592.44	30118.45
592.799	30085.68
593.158	30134.94
593.517	30157.99
593.876	30214.26
594.235	30193.47
594.593	30170.42
594.952	30246.35
595.311	30202.74
595.67	30319.12
596.029	30327.03
596.387	30423.52
596.746	30531.77
597.104	30267.59
597.463	30361.15
597.822	30437.76
598.18	30428.72
598.538	30346.24
598.897	30630.52
599.255	30502.39
599.613	30825.77
599.972	30537.19
600.33	30492.22
600.688	30557.76
601.046	30722.05
601.404	30774.47
601.762	30670.52
602.12	31017.18
602.478	30861.7
602.836	30964.07
603.194	30803.85
603.552	31014.69
603.91	30833.68
604.268	31096.72
604.625	30865.32
604.983	31032.55
605.341	30819.9
605.698	30954.13
606.056	31114.8
606.413	31068.48
606.771	31164.97
607.128	31164.75
607.485	31063.96
607.843	31060.57
608.2	31239.09
608.557	31267.34
608.914	31240.22
609.272	31453.78
609.629	31451.07
609.986	31461.69
610.343	31419.65
610.7	31597.95
611.057	31479.31
611.414	31524.74
611.771	31542.36
612.127	31655.58
612.484	31580.33
612.841	31806.99
613.198	31551.85
613.554	31763.37
613.911	31763.15
614.267	31854.44
614.624	31819.42
614.98	31966.31
615.337	32021.22
615.693	32019.41
616.05	32002.92
616.406	32203.81
616.762	32062.12
617.118	32092.63
617.475	32115.91
617.831	32225.51
618.187	32195
618.543	32263.47
618.899	32362.91
619.255	32364.49
619.611	32197.03
619.967	32276.13
620.323	32432.51
620.678	32298.95
621.034	32229.8
621.39	32344.83
621.746	32201.55
622.101	32656.01
622.457	32400.87
622.812	32522.22
623.168	32549.57
623.523	32442.23
623.879	32618.72
624.234	32367.43
624.589	32476.58
624.945	32521.77
625.3	32618.94
625.655	32556.12
626.01	32613.07
626.365	32622.56
626.72	32445.62
627.075	32495.33
627.43	32455.11
627.785	32379.63
628.14	32395.67
628.495	32566.97
628.85	32481.55
629.205	32362.91
629.559	32412.4
629.914	32242.23
630.269	32345.73
630.623	32236.13
630.978	32152.97
631.332	32318.39
631.687	32337.82
632.041	32167.21
632.396	32202.91
632.75	32100.54
633.104	32229.35
633.459	32178.05
633.813	32081.33
634.167	32049.24
634.521	32080.65
634.875	32103.7
635.229	32044.95
635.583	31801.56
635.937	31790.49
636.291	31785.07
636.645	31748.91
636.999	31766.09
637.352	31795.24
637.706	31635.92
638.06	31718.86
638.413	31556.6
638.767	31620.55
639.121	31719.08
639.474	31472.99
639.828	31551.85
640.181	31544.17
640.534	31617.61
640.888	31393.67
641.241	31153.45
641.594	31302.82
641.947	31453.78
642.301	31308.7
642.654	31351.63
643.007	31474.12
643.36	31245.87
643.713	31345.08
644.066	31338.75
644.419	31113
644.771	30931.98
645.124	30714.36
645.477	30663.06
645.83	30325.67
646.182	30293.36
646.535	30253.58
646.888	30245.67
647.24	30221.49
647.593	30429.85
647.945	30234.15
648.298	30206.58
648.65	30073.7
649.002	30125.9
649.355	30088.39
649.707	30183.08
650.059	30229.4
650.411	30575.83
650.763	30529.28
651.115	30954.13
651.467	30826
651.819	30909.16
652.171	30845.66
652.523	30686.11
652.875	30682.72
653.227	30583.29
653.578	30663.74
653.93	30707.13
654.282	30591.2
654.633	30590.75
654.985	30596.17
655.337	30561.37
655.688	30625.78
656.039	30669.39
656.391	30485.89
656.742	30458.55
657.094	30712.55
657.445	30729.05
657.796	30565.89
658.147	30589.17
658.498	30569.05
658.849	30543.07
659.2	30557.53
659.551	30462.17
659.902	30584.87
660.253	30520.02
660.604	30547.36
660.955	30429.17
661.306	30637.98
661.656	30570.41
662.007	30499.68
662.358	30448.15
662.708	30370.87
663.059	30459.68
663.409	30309.85
663.76	30503.07
664.11	30472.33
664.461	30436.18
664.811	30549.39
665.161	30528.83
665.511	30322.96
665.862	30231.44
666.212	30454.71
666.562	30487.02
666.912	30469.62
667.262	30385.78
667.612	30423.3
667.962	30442.96
668.312	30355.05
668.662	30515.95
669.011	30282.06
669.361	30293.36
669.711	30331.77
670.06	30283.41
670.41	30212.23
670.76	30200.03
671.109	30251.32
671.459	30257.88
671.808	30141.95
672.157	30296.29
672.507	29912.58
672.856	30028.5
673.205	30090.65
673.554	30226.69
673.904	30070.54
674.253	30141.5
674.602	30104.89
674.951	29594.39
675.3	29416.99
675.649	30047.94
675.998	29908.28
676.346	30004.1
676.695	30153.25
677.044	29808.62
677.393	29872.8
677.741	29931.33
678.09	29894.5
678.438	29742.18
678.787	29750.09
679.135	29639.81
679.484	29515.3
679.832	29606.59
680.181	29459.93
680.529	29491.57
680.877	29545.35
681.225	29302.2
681.573	29513.26
681.922	29303.33
682.27	29243.21
682.618	29233.72
682.966	29213.16
683.314	29365.47
683.661	29072.37
684.009	28974.97
684.357	28943.79
684.705	28859.5
685.053	28881.19
685.4	28964.13
685.748	28690.69
686.095	28621.08
686.443	28478.71
686.79	28506.06
687.138	28582.67
687.485	28459.51
687.832	28396
688.18	28447.75
688.527	28338.38
688.874	28275.78
689.221	28119.85
689.568	28069.46
689.915	27989.01
690.262	27974.09
690.609	27926.64
690.956	27834.44
691.303	27788.11
691.65	27624.95
691.997	27666.53
692.344	27473.54
692.69	27477.38
693.037	27429.25
693.383	27154.68
693.73	27281.23
694.077	27014.35
694.423	26989.26
694.769	26959.66
695.116	26926.89
695.462	26831.98
695.808	26648.48
696.155	26721.92
696.501	26613
696.847	26488.48
697.193	26264.54
697.539	26437.86
697.885	26220.92
698.231	26047.14
698.577	26140.7
698.923	26065.9
699.269	25923.53
699.614	25793.81
699.96	25823.42
700.306	25605.8
700.651	25540.03
700.997	25429.98
701.342	25487.15
701.688	25361.51
702.033	25309.53
702.379	25307.95
702.724	25051.69
703.069	25176.2
703.415	24787.74
703.76	24768.76
704.105	24792.26
704.45	24795.2
704.795	24514.98
705.14	24566.27
705.485	24491.02
705.83	24467.97
706.175	24521.08
706.52	24336
706.865	24178.04
707.209	24244.48
707.554	24181.65
707.899	24296.23
708.243	24033.86
708.588	23949.34
708.932	23884.71
709.277	23816.69
709.621	23773.08
709.966	23670.48
710.31	23700.31
710.654	23497.6
710.998	23597.49
711.342	23587.09
711.687	23460.77
712.031	23325.18
712.375	23272.75
712.719	23335.8
713.063	23259.87
713.407	23275.24
713.75	23074.11
714.094	23233.2
714.438	23042.7
714.782	23114.34
715.125	22976.26
715.469	22945.98
715.812	22810.16
716.156	22680
716.499	22712.31
716.843	22882.7
717.186	22676.38
717.53	22751.86
717.873	22699.21
718.216	22695.14
718.559	22635.03
718.902	22389.16
719.246	22531.98
719.589	22453.79
719.932	22344.41
720.275	22392.32
720.617	22348.93
720.96	22339.89
721.303	22282.27
721.646	22325.2
721.989	22254.02
722.331	22328.37
722.674	22189.84
723.016	22211.31
723.359	22250.18
723.701	22381.93
724.044	22138.54
724.386	22075.94
724.729	22102.84
725.071	22143.29
725.413	22159.78
725.755	22180.8
726.097	21995.04
726.439	22086.57
726.782	21911.66
727.124	22017.87
727.465	21837.08
727.807	21878.66
728.149	21936.06
728.491	21881.83
728.833	21760.47
729.175	21834.14
729.516	21793.69
729.858	21733.58
730.199	21835.95
730.541	21887.48
730.882	21794.14
731.224	21894.48
731.565	21699.23
731.906	21785.33
732.248	21809.74
732.589	21699.91
732.93	21723.41
733.271	21777.65
733.612	21728.61
733.953	21722.28
734.294	21674.15
734.635	21703.98
734.976	21728.61
735.317	21649.97
735.658	21605.67
735.999	21640.93
736.339	21613.13
736.68	21632.57
737.021	21617.43
737.361	21467.15
737.702	21608.39
738.042	21564.32
738.383	21575.39
738.723	21694.94
739.063	21582.85
739.404	21616.3
739.744	21547.15
740.084	21487.94
740.424	21583.08
740.764	21580.36
741.104	21731.1
741.444	21603.19
741.784	21534.72
742.124	21639.8
742.464	21561.38
742.804	21553.92
743.143	21509.18
743.483	21605.22
743.823	21435.96
744.162	21472.12
744.502	21521.61
744.841	21473.7
745.181	21544.43
745.52	21552.57
745.86	21458.56
746.199	21504.66
746.538	21431.22
746.877	21513.25
747.216	21593.02
747.556	21470.09
747.895	21546.69
748.234	21548.95
748.573	21546.02
748.911	21483.87
749.25	21422.63
749.589	21459.24
749.928	21373.59
750.267	21407.94
750.605	21482.29
750.944	21336.3
751.283	21271.67
751.621	21447.94
751.96	21266.7
752.298	21382.18
752.636	21365.23
752.975	21224.89
753.313	21240.26
753.651	21366.59
753.989	21145.8
754.327	21136.53
754.666	21121.85
755.004	21102.64
755.342	21193.48
755.679	21125.91
756.017	21020.38
