Data from tablewood_brown_FLMS001491_011.txt Node
Date: Tue Feb 07 11:10:04 GMT 2017
User: dcchb
Spectrometer: FLMS00149
Trigger mode: 0
Integration Time (sec): 2.000000E-2
Scans to average: 10
Electric dark correction enabled: true
Nonlinearity correction enabled: false
Boxcar width: 0
XAxis mode: Wavelengths
Number of Pixels in Spectrum: 2048
>>>>>Begin Spectral Data<<<<<
341.393	-3.67
341.776	-3.67
342.16	-3.67
342.543	-74.18
342.927	-75.31
343.31	-65.14
343.693	-78.02
344.077	-86.83
344.46	-57.23
344.843	-54.97
345.226	-40.51
345.61	-23.78
345.993	-38.02
346.376	-0.51
346.759	25.93
347.142	33.61
347.525	57.34
347.908	62.31
348.291	67.51
348.674	84.69
349.057	113.61
349.44	126.95
349.823	146.61
350.206	162.88
350.588	210.56
350.971	202.88
351.354	224.12
351.737	237.68
352.119	259.6
352.502	263.21
352.884	274.51
353.267	289.65
353.65	293.04
354.032	297.34
354.414	307.05
354.797	330.1
355.179	326.26
355.562	326.94
355.944	328.52
356.326	354.06
356.709	329.88
357.091	350.89
357.473	333.27
357.855	348.18
358.238	355.64
358.62	338.92
359.002	358.35
359.384	319.71
359.766	348.18
360.148	340.73
360.53	346.38
360.912	335.53
361.294	357.22
361.676	349.54
362.057	370.1
362.439	344.12
362.821	336.88
363.203	328.52
363.584	353.38
363.966	351.57
364.348	343.66
364.729	344.12
365.111	329.2
365.493	335.08
365.874	318.13
366.256	327.39
366.637	324.68
367.019	337.34
367.4	336.88
367.781	339.6
368.163	321.07
368.544	332.59
368.925	316.32
369.306	337.11
369.688	298.01
370.069	316.77
370.45	306.6
370.831	337.56
371.212	320.84
371.593	347.5
371.974	338.69
372.355	340.95
372.736	335.53
373.117	335.08
373.498	330.1
373.879	331.69
374.26	322.42
374.641	341.63
375.021	342.08
375.402	338.69
375.783	333.49
376.163	354.28
376.544	374.62
376.925	358.58
377.305	362.19
377.686	347.73
378.066	355.87
378.447	350.22
378.827	364
379.208	367.62
379.588	379.59
379.968	353.15
380.349	383.44
380.729	361.74
381.109	370.78
381.489	363.78
381.87	371.01
382.25	360.84
382.63	378.24
383.01	397.9
383.39	405.36
383.77	373.72
384.15	370.56
384.53	404.9
384.91	407.84
385.29	406.03
385.67	381.63
386.049	385.24
386.429	380.95
386.809	400.61
387.189	401.74
387.568	418.46
387.948	426.6
388.328	408.97
388.707	411.23
389.087	428.18
389.466	408.07
389.846	432.25
390.225	436.77
390.605	440.16
390.984	423.89
391.363	434.96
391.743	427.73
392.122	459.59
392.501	425.47
392.881	420.72
393.26	432.7
393.639	462.08
394.018	463.43
394.397	459.14
394.776	468.86
395.155	462.76
395.534	485.58
395.913	476.32
396.292	463.89
396.671	455.98
397.05	480.83
397.429	481.06
397.808	496.65
398.186	488.74
398.565	483.55
398.944	499.37
399.323	492.81
399.701	507.5
400.08	496.88
400.458	515.64
400.837	521.96
401.215	529.87
401.594	509.08
401.972	525.58
402.351	509.53
402.729	523.55
403.107	520.16
403.486	525.81
403.864	546.14
404.242	551.12
404.62	547.05
404.999	551.57
405.377	542.75
405.755	532.36
406.133	550.89
406.511	567.39
406.889	570.55
407.267	559.48
407.645	566.71
408.023	570.78
408.401	578.23
408.779	582.75
409.156	605.13
409.534	606.93
409.912	605.35
410.29	608.29
410.667	611.9
411.045	624.56
411.422	604.67
411.8	645.8
412.178	648.97
412.555	660.49
412.933	671.11
413.31	657.1
413.687	657.78
414.065	673.15
414.442	683.09
414.819	682.64
415.197	686.25
415.574	680.15
415.951	688.51
416.328	698
416.705	701.62
417.082	717.44
417.46	726.7
417.837	723.77
418.214	732.13
418.591	731.68
418.967	731.68
419.344	749.98
419.721	740.26
420.098	742.07
420.475	769.19
420.852	761.73
421.228	770.54
421.605	775.97
421.982	780.04
422.358	773.48
422.735	794.72
423.111	813.93
423.488	834.72
423.864	788.4
424.241	818.91
424.617	834.27
424.994	834.05
425.37	842.41
425.746	814.16
426.123	846.93
426.499	814.16
426.875	874.5
427.251	866.14
427.627	883.76
428.003	907.49
428.379	910.2
428.756	898.22
429.132	901.39
429.507	941.39
429.883	936.87
430.259	932.57
430.635	931.67
431.011	950.65
431.387	974.83
431.763	975.51
432.138	991.1
432.514	978
432.89	999.69
433.265	1012.35
433.641	1022.74
434.016	1027.94
434.392	1028.39
434.767	1073.14
435.143	1045.57
435.518	1051.44
435.894	1071.55
436.269	1092.8
436.644	1118.78
437.02	1126.69
437.395	1116.52
437.77	1142.51
438.145	1137.77
438.52	1159.69
438.895	1138.22
439.271	1170.76
439.646	1184.32
440.021	1207.6
440.395	1182.06
440.77	1201.72
441.145	1206.01
441.52	1214.83
441.895	1237.43
442.27	1252.57
442.645	1219.12
443.019	1248.5
443.394	1271.77
443.769	1295.28
444.143	1281.94
444.518	1313.58
444.892	1294.37
445.267	1312
445.641	1333.02
446.016	1306.8
446.39	1314.03
446.764	1324.88
447.139	1317.65
447.513	1366.24
447.887	1375.05
448.262	1343.86
448.636	1368.95
449.01	1384.99
449.384	1386.35
449.758	1394.03
450.132	1406.91
450.506	1405.56
450.88	1418.89
451.254	1431.54
451.628	1446.46
452.002	1481.71
452.376	1475.16
452.75	1492.56
453.123	1486.46
453.497	1512.9
453.871	1523.97
454.244	1543.63
454.618	1567.59
454.992	1583.18
455.365	1577.3
455.739	1607.81
456.112	1612.56
456.486	1607.58
456.859	1628.38
457.232	1675.38
457.606	1685.32
457.979	1679.67
458.352	1749.73
458.725	1761.48
459.099	1767.58
459.472	1784.08
459.845	1814.36
460.218	1831.31
460.591	1838.77
460.964	1849.39
461.337	1884.87
461.71	1919.22
462.083	1935.03
462.456	1915.6
462.829	1949.27
463.201	1954.24
463.574	1969.84
463.947	2012.55
464.32	2064.52
464.692	2081.24
465.065	2100.91
465.438	2133.67
465.81	2163.5
466.183	2175.93
466.555	2188.59
466.928	2232.43
467.3	2261.8
467.672	2299.54
468.045	2300.9
468.417	2366.43
468.789	2375.02
469.161	2419.54
469.534	2427.22
469.906	2493.89
470.278	2550.16
470.65	2584.73
471.022	2590.38
471.394	2659.99
471.766	2649.37
472.138	2704.96
472.51	2739.31
472.882	2805.52
473.253	2848.46
473.625	2887.1
473.997	2965.74
474.369	2998.73
474.74	3034.21
475.112	3126.87
475.484	3130.26
475.855	3205.51
476.227	3206.41
476.598	3359.18
476.97	3356.24
477.341	3454.09
477.713	3490.7
478.084	3512.17
478.455	3633.75
478.827	3660.64
479.198	3792.16
479.569	3801.43
479.94	3895.43
480.311	3964.81
480.682	4085.49
481.053	4166.39
481.424	4253.17
481.795	4230.79
482.166	4347.63
482.537	4416.78
482.908	4489.54
483.279	4582.2
483.65	4667.84
484.021	4774.06
484.391	4832.36
484.762	4847.05
485.133	4894.96
485.503	4980.15
485.874	5082.3
486.244	5123.42
486.615	5262.4
486.985	5306.47
487.356	5402.06
487.726	5447.48
488.097	5581.94
488.467	5630.98
488.837	5718.44
489.207	5799.34
489.578	5897.64
489.948	5982.84
490.318	6023.29
490.688	6102.38
491.058	6160.01
491.428	6225.77
491.798	6342.6
492.168	6456.95
492.538	6442.94
492.908	6558.19
493.278	6624.63
493.648	6632.54
494.017	6751.18
494.387	6861.91
494.757	6860.55
495.126	6930.38
495.496	6968.57
495.866	7045.41
496.235	7077.95
496.605	7131.28
496.974	7218.96
497.344	7281.56
497.713	7323.14
498.082	7406.75
498.452	7484.72
498.821	7571.72
499.19	7528.79
499.559	7584.83
499.928	7637.03
500.298	7707.76
500.667	7776.69
501.036	7839.29
501.405	7871.83
501.774	7938.94
502.143	7963.58
502.512	8034.53
502.88	8097.58
503.249	8087.19
503.618	8188.2
503.987	8256.9
504.356	8344.36
504.724	8403.79
505.093	8416.9
505.462	8392.72
505.83	8581.19
506.199	8579.38
506.567	8748.87
506.936	8717
507.304	8811.92
507.672	8913.38
508.041	8857.79
508.409	9015.3
508.777	9114.51
509.145	9148.86
509.514	9137.33
509.882	9317.21
510.25	9317.21
510.618	9361.96
510.986	9389.53
511.354	9482.86
511.722	9602.4
512.09	9671.78
512.458	9710.87
512.826	9774.6
513.193	9809.4
513.561	9842.4
513.929	10052.79
514.297	10138.66
514.664	10189.96
515.032	10284.64
515.4	10377.3
515.767	10297.07
516.135	10494.81
516.502	10382.5
516.869	10601.7
517.237	10702.94
517.604	10682.6
517.972	10826.55
518.339	10952.2
518.706	10942.03
519.073	11009.37
519.44	11098.63
519.808	11275.58
520.175	11196.26
520.542	11401
520.909	11479.87
521.276	11475.57
521.643	11659.3
522.009	11750.37
522.376	11827.66
522.743	11860.42
523.11	12103.58
523.477	12142
523.843	12223.35
524.21	12403.23
524.577	12527.3
524.943	12568.2
525.31	12660.63
525.676	12807.29
526.043	12792.15
526.409	12933.61
526.776	13072.59
527.142	13050.22
527.508	13128.64
527.874	13258.35
528.241	13437.56
528.607	13434.17
528.973	13670.09
529.339	13554.39
529.705	13797.32
530.071	13813.59
530.437	13885.23
530.803	14009.97
531.169	14120.93
531.535	14120.02
531.901	14167.25
532.267	14294.71
532.632	14355.05
532.998	14369.28
533.364	14517.3
533.73	14594.59
534.095	14651.99
534.461	14822.6
534.826	14776.5
535.192	14896.73
535.557	14967.91
535.923	14916.61
536.288	15098.76
536.653	15057.63
537.019	15052.2
537.384	15101.69
537.749	15236.83
538.114	15347.56
538.479	15315.25
538.845	15411.29
539.21	15455.36
539.575	15589.82
539.94	15595.47
540.305	15613.77
540.67	15694.45
541.034	15787.1
541.399	15823.48
541.764	15956.59
542.129	15964.5
542.494	15988.45
542.858	16048.56
543.223	15945.96
543.587	16199.97
543.952	16181.21
544.316	16202.91
544.681	16234.77
545.045	16355.67
545.41	16495.55
545.774	16552.5
546.138	16580.98
546.503	16547.98
546.867	16696.91
547.231	16848.54
547.595	16736
547.959	16972.38
548.324	16975.99
548.688	16984.13
549.052	17153.39
549.416	17112.71
549.779	17157.91
550.143	17237.23
550.507	17393.38
550.871	17504.79
551.235	17513.16
551.599	17684
551.962	17721.29
552.326	17722.64
552.689	17920.38
553.053	17902.75
553.417	18047.6
553.78	18248.96
554.143	18207.6
554.507	18368.27
554.87	18406.92
555.234	18632.67
555.597	18553.13
555.96	18733.24
556.323	18801.71
556.686	18898.43
557.05	18982.27
557.413	19149.5
557.776	19224.07
558.139	19345.2
558.502	19490.05
558.865	19578.41
559.228	19742.93
559.59	19908.12
559.953	20043.71
560.316	20276.7
560.679	20283.7
561.041	20403.7
561.404	20515.56
561.767	20725.73
562.129	20861.99
562.492	21108.77
562.854	21105.15
563.217	21178.37
563.579	21410.91
563.941	21428.08
564.304	21700.62
564.666	21851.57
565.028	21851.57
565.39	22041.62
565.753	22275.29
566.115	22355.06
566.477	22569.07
566.839	22676.41
567.201	22858.55
567.563	22933.13
567.925	23218.54
568.287	23338.99
568.648	23363.85
569.01	23597.74
569.372	23832.31
569.734	23946.88
570.095	24067.11
570.457	24192.53
570.819	24390.94
571.18	24458.96
571.542	24757.48
571.903	24842.91
572.265	25129.9
572.626	25306.85
572.987	25338.03
573.349	25608.99
573.71	25703
574.071	25832.94
574.432	26037.22
574.794	26248.52
575.155	26373.94
575.516	26300.49
575.877	26517.44
576.238	26696.19
576.599	26857.54
576.96	26958.78
577.32	27093.24
577.681	27179.34
578.042	27416.4
578.403	27506.56
578.763	27580.46
579.124	27764.64
579.485	27987.46
579.845	28071.97
580.206	28067.68
580.566	28159.43
580.927	28240.33
581.287	28345.41
581.648	28377.28
582.008	28546.99
582.368	28558.97
582.728	28713.31
583.089	28734.1
583.449	28832.41
583.809	28911.27
584.169	29088.44
584.529	29038.95
584.889	29287.99
585.249	29067.43
585.609	29208.22
585.969	29321.43
586.329	29398.72
586.688	29380.64
587.048	29390.58
587.408	29487.53
587.768	29500.41
588.127	29479.62
588.487	29461.09
588.846	29885.49
589.206	29617.02
589.565	29698.6
589.925	29836.67
590.284	29672.16
590.643	29719.61
591.003	30005.03
591.362	29946.27
591.721	29973.84
592.08	30081.86
592.44	30051.13
592.799	30139.49
593.158	30066.72
593.517	30162.54
593.876	30188.98
594.235	30143.78
594.593	30128.64
594.952	30180.39
595.311	30171.13
595.67	30285.7
596.029	30418.58
596.387	30418.35
596.746	30382.87
597.104	30346.26
597.463	30355.98
597.822	30574.96
598.18	30447.96
598.538	30457.67
598.897	30592.36
599.255	30391.23
599.613	30774.05
599.972	30571.8
600.33	30648.63
600.688	30498.8
601.046	30721.62
601.404	30858.12
601.762	30856.76
602.12	30879.81
602.478	30915.29
602.836	30881.39
603.194	30847.27
603.552	30784.9
603.91	30837.1
604.268	31079.35
604.625	30950.99
604.983	31147.15
605.341	30972.24
605.698	31252.91
606.056	31147.6
606.413	30983.99
606.771	31240.03
607.128	31150.99
607.485	30993.48
607.843	31156.41
608.2	31169.52
608.557	31299.46
608.914	31108.05
609.272	31253.59
609.629	31450.42
609.986	31470.75
610.343	31357.09
610.7	31586.23
611.057	31551.2
611.414	31489.06
611.771	31692.67
612.127	31733.57
612.484	31549.17
612.841	31623.07
613.198	31561.15
613.554	31628.94
613.911	31913.68
614.267	31848.15
614.624	31893.57
614.98	31889.95
615.337	31971.98
615.693	32023.06
616.05	31987.8
616.406	32256.72
616.762	31999.55
617.118	32204.75
617.475	32069.16
617.831	32182.37
618.187	32286.55
618.543	32220.34
618.899	32334.01
619.255	32380.56
619.611	32286.78
619.967	32357.28
620.323	32409.49
620.678	32360.67
621.034	32353.22
621.39	32264.63
621.746	32172.66
622.101	32706.43
622.457	32397.51
622.812	32456.27
623.168	32441.12
623.523	32423.27
623.879	32596.83
624.234	32349.38
624.589	32368.81
624.945	32432.09
625.3	32667.56
625.655	32469.37
626.01	32549.6
626.365	32565.19
626.72	32479.77
627.075	32511.63
627.43	32569.93
627.785	32440.45
628.14	32437.51
628.495	32438.64
628.85	32388.24
629.205	32302.15
629.559	32473.67
629.914	32231.64
630.269	32256.72
630.623	32187.8
630.978	32224.18
631.332	32315.03
631.687	32275.71
632.041	32164.07
632.396	32293.11
632.75	32091.08
633.104	32181.7
633.459	32088.37
633.813	32002.72
634.167	32012.44
634.521	32056.5
634.875	32044.75
635.229	32008.82
635.583	31840.46
635.937	31835.49
636.291	31752.1
636.645	31776.06
636.999	31698.77
637.352	31790.52
637.706	31565.44
638.06	31634.59
638.413	31583.97
638.767	31580.81
639.121	31601.37
639.474	31476.86
639.828	31593.69
640.181	31579.9
640.534	31477.76
640.888	31323.87
641.241	31285.45
641.594	31360.25
641.947	31396.86
642.301	31341.72
642.654	31402.51
643.007	31411.55
643.36	31282.74
643.713	31291.78
644.066	31367.71
644.419	31171.78
644.771	30884.78
645.124	30684.79
645.477	30615.64
645.83	30331.35
646.182	30281.18
646.535	30154.18
646.888	30334.29
647.24	30144.69
647.593	30347.85
647.945	30107.85
648.298	30158.7
648.65	30067.85
649.002	29926.16
649.355	30023.56
649.707	29975.88
650.059	30206.38
650.411	30655.63
650.763	30594.17
651.115	31017.66
651.467	30846.59
651.819	30877.32
652.171	30859.02
652.523	30848.17
652.875	30687.95
653.227	30586.03
653.578	30869.87
653.93	30701.51
654.282	30455.64
654.633	30584.68
654.985	30611.12
655.337	30678.23
655.688	30646.82
656.039	30859.7
656.391	30511.91
656.742	30550.55
657.094	30636.43
657.445	30634.39
657.796	30626.48
658.147	30565.24
658.498	30510.78
658.849	30710.55
659.2	30635.75
659.551	30472.14
659.902	30640.04
660.253	30580.16
660.604	30569.08
660.955	30365.25
661.306	30549.2
661.656	30499.48
662.007	30498.35
662.358	30422.19
662.708	30589.87
663.059	30421.52
663.409	30305.36
663.76	30616.99
664.11	30454.74
664.461	30416.32
664.811	30494.06
665.161	30373.38
665.511	30504
665.862	30398.01
666.212	30442.31
666.562	30471.46
666.912	30452.48
667.262	30438.69
667.612	30399.14
667.962	30347.17
668.312	30282.76
668.662	30436.21
669.011	30450.44
669.361	30339.48
669.711	30327.96
670.06	30308.3
670.41	30127.06
670.76	30208.87
671.109	30335.64
671.459	30217.45
671.808	30101.98
672.157	30252.93
672.507	30027.18
672.856	30063.79
673.205	30033.05
673.554	30207.28
673.904	30110.56
674.253	30345.36
674.602	30186.04
674.951	29658.82
675.3	29535.89
675.649	29892.94
675.998	30022.2
676.346	30006.39
676.695	30097.01
677.044	29686.62
677.393	29890.46
677.741	29914.86
678.09	29864.47
678.438	29788.31
678.787	29821.31
679.135	29773.17
679.484	29509
679.832	29590.13
680.181	29443.24
680.529	29552.39
680.877	29386.52
681.225	29213.86
681.573	29509
681.922	29222.23
682.27	29114.21
682.618	29353.97
682.966	29121.44
683.314	29177.71
683.661	29075.79
684.009	28922.12
684.357	28972.06
684.705	28914.66
685.053	28907.43
685.4	28815.46
685.748	28731.17
686.095	28698.4
686.443	28496.37
686.79	28575.01
687.138	28646.87
687.485	28549.48
687.832	28460.21
688.18	28549.25
688.527	28355.58
688.874	28242.59
689.221	28180.9
689.568	28042.37
689.915	27997.17
690.262	27940.45
690.609	27972.99
690.956	27810.51
691.303	27826.33
691.65	27587.01
691.997	27594.7
692.344	27405.55
692.69	27413.69
693.037	27445.32
693.383	27214.6
693.73	27294.82
694.077	26988.61
694.423	27028.61
694.769	26909.07
695.116	26937.31
695.462	26740.48
695.808	26653.25
696.155	26688.96
696.501	26510.66
696.847	26519.02
697.193	26275.41
697.539	26357.67
697.885	26204.45
698.231	26065.47
698.577	26096.88
698.923	26064.12
699.269	25933.27
699.614	25819.15
699.96	25707.29
700.306	25736.89
700.651	25644.69
700.997	25435.43
701.342	25395.89
701.688	25389.78
702.033	25250.58
702.379	25249.68
702.724	25137.14
703.069	25122.67
703.415	24728.78
703.76	24822.12
704.105	24799.97
704.45	24725.17
704.795	24491.5
705.14	24548.22
705.485	24600.43
705.83	24329.93
706.175	24458.06
706.52	24313.2
706.865	24291.06
707.209	24177.16
707.554	24032.53
707.899	24167.22
708.243	23927.9
708.588	23877.06
708.932	23808.81
709.277	23751.18
709.621	23721.35
709.966	23647.01
710.31	23718.64
710.654	23551.87
710.998	23588.25
711.342	23457.86
711.687	23535.6
712.031	23353.91
712.375	23143.06
712.719	23386.45
713.063	23152.33
713.407	23299.44
713.75	23081.14
714.094	23153.46
714.438	23028.04
714.782	23099.22
715.125	22887.03
715.469	23131.54
715.812	22859.23
716.156	22799.34
716.499	22770.87
716.843	22782.62
717.186	22697.88
717.53	22703.08
717.873	22649.29
718.216	22681.38
718.559	22569.29
718.902	22413.82
719.246	22581.04
719.589	22457.88
719.932	22301.96
720.275	22355.06
720.617	22310.32
720.96	22333.37
721.303	22317.32
721.646	22263.09
721.989	22172.24
722.331	22274.61
722.674	22222.41
723.016	22210.43
723.359	22214.95
723.701	22262.86
724.044	22041.85
724.386	21976.09
724.729	22244.1
725.071	22046.37
725.413	22080.72
725.755	22125.69
726.097	21997.11
726.439	21937.9
726.782	21984.9
727.124	22141.51
727.465	21923.21
727.807	21904
728.149	21841.4
728.491	21972.47
728.833	21928.18
729.175	21840.5
729.516	21807.05
729.858	21737
730.199	21954.17
730.541	21801.63
730.882	21756.21
731.224	21820.61
731.565	21735.87
731.906	21835.53
732.248	21807.05
732.589	21844.34
732.93	21662.88
733.271	21660.39
733.612	21757.11
733.953	21798.69
734.294	21645.25
734.635	21593.73
734.976	21649.32
735.317	21666.72
735.658	21693.38
735.999	21645.02
736.339	21616.78
736.68	21617.91
737.021	21564.57
737.361	21577.23
737.702	21708.07
738.042	21705.14
738.383	21635.31
738.723	21604.12
739.063	21552.6
739.404	21701.29
739.744	21563.22
740.084	21534.74
740.424	21529.77
740.764	21482.54
741.104	21581.3
741.444	21501.53
741.784	21355.09
742.124	21558.02
742.464	21445.48
742.804	21517.34
743.143	21534.97
743.483	21563.9
743.823	21464.46
744.162	21464.24
744.502	21583.1
744.841	21377.23
745.181	21561.64
745.52	21422.21
745.86	21453.16
746.199	21482.77
746.538	21596.44
746.877	21515.31
747.216	21521.41
747.556	21539.49
747.895	21545.82
748.234	21530.9
748.573	21427.63
748.911	21531.81
749.25	21452.94
749.589	21361.42
749.928	21415.88
750.267	21485.03
750.605	21390.57
750.944	21462.43
751.283	21298.82
751.621	21539.04
751.96	21281.87
752.298	21397.35
752.636	21251.59
752.975	21287.97
753.313	21217.01
753.651	21224.92
753.989	21114.19
754.327	21110.57
754.666	21025.15
755.004	21152.83
755.342	21221.31
755.679	21159.61
756.017	21011.59
756.355	21125.72
