Data from tablewood_dark_bookshelf_FLMS001491_00075.txt Node
Date: Wed Feb 08 14:15:36 GMT 2017
User: dcchb
Spectrometer: FLMS00149
Trigger mode: 0
Integration Time (sec): 2.000000E-2
Scans to average: 10
Electric dark correction enabled: true
Nonlinearity correction enabled: false
Boxcar width: 0
XAxis mode: Wavelengths
Number of Pixels in Spectrum: 2048
>>>>>Begin Spectral Data<<<<<
341.393	5.62
341.776	5.62
342.16	5.62
342.543	-52.91
342.927	-56.3
343.31	-68.05
343.693	-81.38
344.077	-33.7
344.46	-66.69
344.843	-67.15
345.226	-39.35
345.61	-46.13
345.993	10.37
346.376	-9.07
346.759	14.43
347.142	28.45
347.525	27.32
347.908	62.12
348.291	68.44
348.674	79.74
349.057	120.65
349.44	134.66
349.823	139.63
350.206	155.67
350.588	177.14
350.971	225.95
351.354	205.39
351.737	217.82
352.119	246.52
352.502	239.74
352.884	262.34
353.267	252.62
353.65	291.49
354.032	294.65
354.414	297.82
354.797	308.44
355.179	300.75
355.562	323.81
355.944	304.14
356.326	338.49
356.709	313.18
357.091	315.67
357.473	346.63
357.855	335.78
358.238	333.07
358.62	313.64
359.002	324.26
359.384	354.99
359.766	323.81
360.148	321.09
360.53	338.49
360.912	321.09
361.294	321.77
361.676	319.96
362.057	309.57
362.439	335.33
362.821	325.16
363.203	320.42
363.584	306.4
363.966	341.66
364.348	305.95
364.729	329
365.111	312.28
365.493	301.43
365.874	301.21
366.256	323.81
366.637	311.83
367.019	331.49
367.4	320.42
367.781	330.36
368.163	324.93
368.544	340.08
368.925	321.77
369.306	324.26
369.688	304.6
370.069	321.55
370.45	314.99
370.831	310.7
371.212	334.43
371.593	333.3
371.974	313.86
372.355	323.58
372.736	314.77
373.117	340.53
373.498	334.65
373.879	329.68
374.26	310.92
374.641	330.81
375.021	321.09
375.402	343.24
375.783	321.77
376.163	346.4
376.544	343.92
376.925	341.66
377.305	331.04
377.686	344.82
378.066	338.95
378.447	351.6
378.827	353.86
379.208	346.63
379.588	340.75
379.968	345.27
380.349	340.08
380.729	345.5
381.109	370.36
381.489	365.84
381.87	377.81
382.25	358.15
382.63	366.06
383.01	370.13
383.39	362.67
383.77	381.43
384.15	379.4
384.53	375.33
384.91	374.65
385.29	374.88
385.67	373.07
386.049	402.9
386.429	404.25
386.809	412.16
387.189	396.57
387.568	396.12
387.948	402
388.328	405.61
388.707	408.1
389.087	380.07
389.466	412.16
389.846	406.97
390.225	381.88
390.605	395.22
390.984	425.27
391.363	449
391.743	430.47
392.122	431.37
392.501	415.78
392.881	414.65
393.26	414.65
393.639	420.07
394.018	420.53
394.397	445.61
394.776	437.25
395.155	423.46
395.534	466.17
395.913	452.16
396.292	460.07
396.671	443.58
397.05	465.04
397.429	453.75
397.808	440.64
398.186	447.42
398.565	441.32
398.944	444.25
399.323	454.65
399.701	460.07
400.08	473.41
400.458	487.19
400.837	488.55
401.215	473.86
401.594	489.22
401.972	481.32
402.351	477.47
402.729	492.16
403.107	469.79
403.486	521.09
403.864	503.01
404.242	480.64
404.62	512.27
404.999	526.29
405.377	538.71
405.755	533.07
406.133	538.26
406.511	537.13
406.889	549.56
407.267	538.49
407.645	549.34
408.023	554.53
408.401	559.96
408.779	569.22
409.156	548.43
409.534	579.17
409.912	573.06
410.29	593.63
410.667	599.05
411.045	597.47
411.422	611.48
411.8	627.3
412.178	613.06
412.555	592.72
412.933	643.57
413.31	656.68
413.687	643.12
414.065	646.51
414.442	643.57
414.819	677.47
415.197	652.16
415.574	653.51
415.951	677.69
416.328	679.05
416.705	658.49
417.082	649.67
417.46	679.28
417.837	677.92
418.214	690.12
418.591	701.2
418.967	725.6
419.344	695.77
419.721	724.47
420.098	728.09
420.475	715.43
420.852	721.31
421.228	748.2
421.605	746.62
421.982	771.48
422.358	750.69
422.735	745.49
423.111	749.1
423.488	775.54
423.864	771.7
424.241	783.68
424.617	790.46
424.994	782.55
425.37	794.75
425.746	773.28
426.123	806.05
426.499	818.48
426.875	840.18
427.251	837.46
427.627	827.07
428.003	843.34
428.379	869.55
428.756	887.18
429.132	868.42
429.507	903.9
429.883	901.87
430.259	907.74
430.635	929.66
431.011	947.74
431.387	943.22
431.763	948.87
432.138	947.07
432.514	949.55
432.89	971.47
433.265	975.99
433.641	1014.63
434.016	1024.35
434.392	1008.98
434.767	1020.51
435.143	1037.46
435.518	1068.87
435.894	1048.76
436.269	1073.62
436.644	1104.35
437.02	1109.32
437.395	1080.17
437.77	1102.99
438.145	1132.15
438.52	1111.58
438.895	1125.14
439.271	1148.42
439.646	1175.08
440.021	1166.95
440.395	1170.11
440.77	1174.4
441.145	1143.67
441.52	1210.56
441.895	1177.12
442.27	1174.4
442.645	1197
443.019	1211.01
443.394	1224.12
443.769	1243.33
444.143	1225.7
444.518	1255.76
444.892	1236.1
445.267	1266.15
445.641	1288.53
446.016	1264.8
446.39	1314.29
446.764	1303.89
447.139	1291.92
447.513	1332.59
447.887	1323.78
448.262	1304.34
448.636	1338.02
449.01	1334.17
449.384	1359.94
449.758	1355.87
450.132	1390.44
450.506	1381.4
450.88	1396.77
451.254	1398.58
451.628	1433.38
452.002	1414.62
452.376	1412.82
452.75	1458.69
453.123	1461.85
453.497	1474.74
453.871	1480.16
454.244	1514.51
454.618	1489.2
454.992	1541.4
455.365	1547.28
455.739	1560.16
456.112	1598.35
456.486	1572.36
456.859	1624.11
457.232	1645.8
457.606	1634.96
457.979	1676.76
458.352	1688.06
458.725	1714.28
459.099	1707.95
459.472	1766.03
459.845	1796.76
460.218	1764.45
460.591	1791.11
460.964	1817.55
461.337	1834.95
461.71	1915.18
462.083	1886.02
462.456	1878.34
462.829	1897.1
463.201	1961.95
463.574	1962.86
463.947	2017.77
464.32	2021.84
464.692	2017.09
465.065	2036.98
465.438	2093.7
465.81	2078.56
466.183	2117.43
466.555	2149.97
466.928	2185.23
467.3	2166.47
467.672	2196.98
468.045	2247.14
468.417	2258.22
468.789	2267.48
469.161	2321.04
469.534	2338.67
469.906	2399
470.278	2387.71
470.65	2400.13
471.022	2491.43
471.394	2527.59
471.766	2526.23
472.138	2537.98
472.51	2601.49
472.882	2645.55
473.253	2699.11
473.625	2716.51
473.997	2751.31
474.369	2779.33
474.74	2845.09
475.112	2869.27
475.484	2901.59
475.855	2951.98
476.227	2996.28
476.598	3057.74
476.97	3070.85
477.341	3158.31
477.713	3210.06
478.084	3203.28
478.455	3269.94
478.827	3334.8
479.198	3412.76
479.569	3453.89
479.94	3511.52
480.311	3530.5
480.682	3589.93
481.053	3655.24
481.424	3728.24
481.795	3757.16
482.166	3828.35
482.537	3880.1
482.908	3925.29
483.279	3985.18
483.65	4050.49
484.021	4142.69
484.391	4148.34
484.762	4208.22
485.133	4250.03
485.503	4303.14
485.874	4387.88
486.244	4400.08
486.615	4476.01
486.985	4574.54
487.356	4618.61
487.726	4664.03
488.097	4723.69
488.467	4813.4
488.837	4921.65
489.207	4898.6
489.578	4964.81
489.948	5062.21
490.318	5082.1
490.688	5135.88
491.058	5247.07
491.428	5283.67
491.798	5338.81
492.168	5447.74
492.538	5404.8
492.908	5520.05
493.278	5548.3
493.648	5596.66
494.017	5665.81
494.387	5755.53
494.757	5770.22
495.126	5812.47
495.496	5877.33
495.866	5863.09
496.235	5944.45
496.605	6018.12
496.974	6031.68
497.344	6110.77
497.713	6170.43
498.082	6212.01
498.452	6193.48
498.821	6284.55
499.19	6277.09
499.559	6363.42
499.928	6403.65
500.298	6427.6
500.667	6508.05
501.036	6499.01
501.405	6595.05
501.774	6536.75
502.143	6622.17
502.512	6658.78
502.88	6756.18
503.249	6719.34
503.618	6859
503.987	6808.38
504.356	6888.15
504.724	6910.07
505.093	6959.56
505.462	7019.67
505.83	7053.12
506.199	7083.4
506.567	7151.2
506.936	7287.92
507.304	7291.31
507.672	7308.48
508.041	7390.06
508.409	7458.53
508.777	7424.18
509.145	7576.95
509.514	7582.15
509.882	7632.77
510.25	7579.89
510.618	7772.2
510.986	7774.68
511.354	7817.39
511.722	7945.3
512.09	7934.68
512.458	7950.05
512.826	8106.2
513.193	8101
513.561	8117.5
513.929	8185.52
514.297	8329.92
514.664	8327.66
515.032	8328.79
515.4	8393.65
515.767	8450.15
516.135	8532.4
516.502	8531.05
516.869	8661.21
517.237	8702.12
517.604	8719.29
517.972	8791.15
518.339	8822.79
518.706	8879.29
519.073	9011.49
519.44	9083.57
519.808	9134.87
520.175	9118.15
520.542	9224.14
520.909	9380.29
521.276	9328.77
521.643	9360.18
522.009	9516.11
522.376	9572.15
522.743	9608.53
523.11	9727.85
523.477	9749.09
523.843	9891.01
524.21	9975.3
524.577	10006.26
524.943	10150.89
525.31	10205.35
525.676	10249.65
526.043	10397.44
526.409	10444.67
526.776	10504.33
527.142	10566.02
527.508	10629.07
527.874	10642.4
528.241	10737.54
528.607	10781.84
528.973	10911.1
529.339	10920.14
529.705	11034.48
530.071	11153.58
530.437	11181.6
530.803	11266.12
531.169	11248.94
531.535	11256.17
531.901	11316.96
532.267	11476.28
532.632	11493.68
532.998	11534.81
533.364	11648.25
533.73	11634.47
534.095	11817.97
534.461	11831.98
534.826	11932.31
535.192	11896.38
535.557	12019.32
535.923	12071.07
536.288	12033.55
536.653	12104.74
537.019	12157.84
537.384	12191.52
537.749	12288.24
538.114	12314.22
538.479	12278.52
538.845	12409.59
539.21	12365.97
539.575	12512.41
539.94	12479.64
540.305	12577.04
540.67	12659.53
541.034	12597.83
541.399	12707.89
541.764	12769.35
542.129	12868.33
542.494	12834.44
542.858	12935.45
543.223	12942
543.587	13026.07
543.952	13074.2
544.316	13124.15
544.681	13039.4
545.045	13257.25
545.41	13286.4
545.774	13353.07
546.138	13289.79
546.503	13315.33
546.867	13363.69
547.231	13513.74
547.595	13656.56
547.959	13620.18
548.324	13697.92
548.688	13570.69
549.052	13775.43
549.416	13714.41
549.779	13694.3
550.143	13779.04
550.507	13931.58
550.871	14027.63
551.235	13963.67
551.599	14047.29
551.962	14101.52
552.326	14129.09
552.689	14295.64
553.053	14194.17
553.417	14322.08
553.78	14469.42
554.143	14474.39
554.507	14598.68
554.87	14552.81
555.234	14814.95
555.597	14651.11
555.96	14701.96
556.323	14853.82
556.686	14826.47
557.05	14929.3
557.413	14961.84
557.776	14988.05
558.139	15160.93
558.502	15214.03
558.865	15235.73
559.228	15309.85
559.59	15433.46
559.953	15482.95
560.316	15566.34
560.679	15683.18
561.041	15704.64
561.404	15855.15
561.767	15934.02
562.129	15819.44
562.492	16058.98
562.854	16069.15
563.217	16123.39
563.579	16256.49
563.941	16290.39
564.304	16373.55
564.666	16483.38
565.028	16503.27
565.39	16662.36
565.753	16664.39
566.115	16738.51
566.477	16832.75
566.839	17033.87
567.201	17116.36
567.563	17070.26
567.925	17222.34
568.287	17288.1
568.648	17297.6
569.01	17505.5
569.372	17533.75
569.734	17511.6
570.095	17615.55
570.457	17712.73
570.819	17787.3
571.18	17823.68
571.542	17910.69
571.903	18000.85
572.265	18091.25
572.626	18150.68
572.987	18204.01
573.349	18295.76
573.71	18358.81
574.071	18498.92
574.432	18443.55
574.794	18534.63
575.155	18582.31
575.516	18591.12
575.877	18783.88
576.238	18828.18
576.599	18872.02
576.96	18992.47
577.32	18969.42
577.681	19093.26
578.042	19138.45
578.403	19140.94
578.763	19204.21
579.124	19207.6
579.485	19279.69
579.845	19466.13
580.206	19324.89
580.566	19467.26
580.927	19420.93
581.287	19633.81
581.648	19559.68
582.008	19693.47
582.368	19657.53
582.728	19751.54
583.089	19738.66
583.449	19878.77
583.809	19768.49
584.169	19897.53
584.529	19857.08
584.889	19957.87
585.249	19925.78
585.609	19914.93
585.969	20013.23
586.329	19995.38
586.688	20050.52
587.048	20106.34
587.408	20070.18
587.768	20158.99
588.127	20139.1
588.487	20137.52
588.846	20288.93
589.206	20186.56
589.565	20209.16
589.925	20367.57
590.284	20281.92
590.643	20292.32
591.003	20508.59
591.362	20528.7
591.721	20497.96
592.08	20473.11
592.44	20597.17
592.799	20531.64
593.158	20558.08
593.517	20573.67
593.876	20593.78
594.235	20703.38
594.593	20639.66
594.952	20793.32
595.311	20667.45
595.67	20698.86
596.029	20836.49
596.387	20924.39
596.746	20982.47
597.104	20878.74
597.463	21046.65
597.822	21054.11
598.18	21069.02
598.538	20954.22
598.897	21213.65
599.255	21013.88
599.613	21316.7
599.972	21113.54
600.33	21204.39
600.688	21142.92
601.046	21330.71
601.404	21351.05
601.762	21323.7
602.12	21454.77
602.478	21428.33
602.836	21511.72
603.194	21342.69
603.552	21454.55
603.91	21394.21
604.268	21509.01
604.625	21504.94
604.983	21581.78
605.341	21569.12
605.698	21706.07
606.056	21737.03
606.413	21645.5
606.771	21806.18
607.128	21904.25
607.485	21732.06
607.843	21763.02
608.2	21880.07
608.557	21897.25
608.914	21799.62
609.272	22082.1
609.629	22044.36
609.986	22207.3
610.343	21977.92
610.7	22217.92
611.057	22135.66
611.414	22142.44
611.771	22174.08
612.127	22211.14
612.484	22310.8
612.841	22334.07
613.198	22224.25
613.554	22324.58
613.911	22392.6
614.267	22366.62
614.624	22452.71
614.98	22442.55
615.337	22617.68
615.693	22563.45
616.05	22438.7
616.406	22577.01
616.762	22534.75
617.118	22579.04
617.475	22628.08
617.831	22772.48
618.187	22697.68
618.543	22817.22
618.899	22953.49
619.255	22898.58
619.611	22851.57
619.967	22974.51
620.323	22985.13
620.678	22795.53
621.034	22788.3
621.39	22773.61
621.746	22839.6
622.101	23064.45
622.457	22866.26
622.812	22907.84
623.168	23027.16
623.523	22989.88
623.879	23044.79
624.234	22911.69
624.589	22857.68
624.945	22934.96
625.3	23012.93
625.655	23134.96
626.01	22894.29
626.365	23050.21
626.72	22924.11
627.075	23013.15
627.43	22945.13
627.785	22948.52
628.14	22995.98
628.495	23070.78
628.85	23008.86
629.205	22891.8
629.559	23080.49
629.914	22937
630.269	22942.87
630.623	22833.5
630.978	22774.97
631.332	22923.66
631.687	22934.28
632.041	22936.77
632.396	22830.56
632.75	22765.25
633.104	22818.58
633.459	22644.8
633.813	22715.08
634.167	22799.37
634.521	22816.55
634.875	22767.96
635.229	22666.95
635.583	22564.12
635.937	22592.6
636.291	22458.36
636.645	22624.91
636.999	22518.25
637.352	22594.63
637.706	22467.86
638.06	22584.46
638.413	22385.37
638.767	22409.33
639.121	22395.32
639.474	22295.2
639.828	22315.09
640.181	22330.01
640.534	22328.65
640.888	22327.07
641.241	22213.85
641.594	22267.18
641.947	22338.82
642.301	22304.7
642.654	22271.25
643.007	22219.27
643.36	22217.24
643.713	22134.76
644.066	22223.12
644.419	21989
644.771	21989.45
645.124	21778.83
645.477	21767.99
645.83	21618.84
646.182	21419.3
646.535	21358.96
646.888	21467.88
647.24	21297.94
647.593	21481.89
647.945	21398.28
648.298	21332.07
648.65	21257.72
649.002	21177.95
649.355	21312.63
649.707	21203.26
650.059	21370.48
650.411	21782.22
650.763	21660.87
651.115	21901.32
651.467	21818.38
651.819	21813.18
652.171	21851.37
652.523	21712.85
652.875	21751.04
653.227	21656.13
653.578	21815.22
653.93	21710.14
654.282	21598.73
654.633	21648.44
654.985	21544.26
655.337	21676.92
655.688	21620.87
656.039	21678.05
656.391	21520.08
656.742	21588.56
657.094	21624.04
657.445	21706.97
657.796	21641.21
658.147	21612.74
658.498	21605.73
658.849	21592.17
659.2	21535
659.551	21412.06
659.902	21551.04
660.253	21488.67
660.604	21549.69
660.955	21436.92
661.306	21607.54
661.656	21564.15
662.007	21573.87
662.358	21544.04
662.708	21436.92
663.059	21523.7
663.409	21275.57
663.76	21456.36
664.11	21505.17
664.461	21437.15
664.811	21419.52
665.161	21499.97
665.511	21415
665.862	21419.3
666.212	21440.99
666.562	21452.97
666.912	21389.92
667.262	21448.45
667.612	21436.92
667.962	21451.16
668.312	21332.74
668.662	21495.9
669.011	21271.95
669.361	21392.63
669.711	21457.26
670.06	21312.86
670.41	21331.39
670.76	21384.04
671.109	21378.62
671.459	21263.37
671.808	21351.95
672.157	21354.44
672.507	21383.36
672.856	21254.1
673.205	21269.24
673.554	21349.01
673.904	21268.57
674.253	21344.27
674.602	21340.65
674.951	21046.2
675.3	20919.2
675.649	21186.31
675.998	21251.16
676.346	21218.4
676.695	21260.43
677.044	21038.51
677.393	21223.37
677.741	21104.95
678.09	21082.81
678.438	21063.6
678.787	21109.47
679.135	21099.98
679.484	20923.49
679.832	21101.34
680.181	20970.72
680.529	20977.95
680.877	20878.52
681.225	20918.97
681.573	21056.82
681.922	20921.23
682.27	20798.97
682.618	20795.13
682.966	20742.93
683.314	20854.56
683.661	20722.59
684.009	20759.43
684.357	20644.63
684.705	20565.76
685.053	20666.32
685.4	20638.3
685.748	20418.19
686.095	20516.49
686.443	20481.47
686.79	20441.24
687.138	20448.47
687.485	20401.47
687.832	20405.54
688.18	20328.48
688.527	20236.5
688.874	20269.27
689.221	20238.08
689.568	20123.28
689.915	20079.44
690.262	20116.28
690.609	20008.49
690.956	19937.75
691.303	19924.42
691.65	19848.94
691.997	19906.79
692.344	19756.97
692.69	19753.8
693.037	19736.63
693.383	19515.39
693.73	19697.53
694.077	19469.06
694.423	19498.89
694.769	19396.07
695.116	19402.63
695.462	19396.75
695.808	19378.9
696.155	19357.88
696.501	19277.2
696.847	19183.87
697.193	19127.6
697.539	19139.58
697.885	19064.78
698.231	18929.42
698.577	19025.91
698.923	18930.1
699.269	18859.36
699.614	18756.09
699.96	18743.43
700.306	18797.22
700.651	18676.09
700.997	18652.14
701.342	18622.31
701.688	18481.52
702.033	18586.6
702.379	18506.38
702.724	18423.67
703.069	18454.4
703.415	18275.42
703.76	18234.75
704.105	18214.18
704.45	18150.91
704.795	18131.02
705.14	18072.72
705.485	18054.19
705.83	17957.47
706.175	17973.74
706.52	17976.67
706.865	17920.18
707.209	17809.45
707.554	17765.15
707.899	17870.24
708.243	17823.01
708.588	17732.61
708.932	17557.7
709.277	17546.63
709.621	17639.51
709.966	17509.57
710.31	17503.47
710.654	17326.07
710.998	17367.88
711.342	17454.2
711.687	17380.76
712.031	17411.49
712.375	17209.46
712.719	17317.71
713.063	17364.26
713.407	17240.87
713.75	17273.42
714.094	17161.55
714.438	17094.66
714.782	17053.99
715.125	17029.81
715.469	17008.34
715.812	16906.87
716.156	16900.09
716.499	16912.52
716.843	16966.31
717.186	16892.41
717.53	16916.14
717.873	16843.37
718.216	16859.64
718.559	16831.62
718.902	16610.83
719.246	16709.81
719.589	16594.34
719.932	16497.17
720.275	16616.94
720.617	16611.96
720.96	16689.7
721.303	16606.77
721.646	16577.61
721.989	16404.06
722.331	16483.15
722.674	16483.61
723.016	16481.12
723.359	16480.44
723.701	16488.8
724.044	16391.63
724.386	16317.73
724.729	16362.71
725.071	16364.06
725.413	16311.63
725.755	16274.8
726.097	16213.1
726.439	16104.86
726.782	16125.2
727.124	16193.22
727.465	16138.3
727.807	16084.97
728.149	16063.96
728.491	16074.35
728.833	16077.74
729.175	16044.07
729.516	15961.81
729.858	15932.21
730.199	16020.57
730.541	15930.4
730.882	16007.46
731.224	16005.88
731.565	15847.01
731.906	15953.68
732.248	15982.6
732.589	15804.98
732.93	15826
733.271	15815.6
733.612	15851.98
733.953	15860.8
734.294	15800.91
734.635	15741.25
734.976	15848.82
735.317	15709.16
735.658	15740.35
735.999	15746.9
736.339	15684.76
736.68	15807.69
737.021	15663.06
737.361	15710.97
737.702	15696.51
738.042	15675.04
738.383	15566.12
738.723	15623.52
739.063	15539.9
739.404	15606.12
739.744	15558.43
740.084	15600.69
740.424	15580.13
740.764	15516.4
741.104	15487.7
741.444	15482.28
741.784	15346.01
742.124	15463.29
742.464	15446.8
742.804	15514.37
743.143	15298.33
743.483	15446.8
743.823	15324.99
744.162	15275.73
744.502	15392.56
744.841	15281.6
745.181	15290.64
745.52	15251.55
745.86	15322.96
746.199	15291.32
746.538	15236.41
746.877	15325.67
747.216	15224.2
747.556	15273.69
747.895	15276.86
748.234	15195.73
748.573	15151.89
748.911	15185.11
749.25	15169.06
749.589	15066.02
749.928	15137.2
750.267	15110.08
750.605	15037.09
750.944	15061.95
751.283	15030.76
751.621	15066.92
751.96	15006.81
752.298	14939.92
752.636	14939.47
752.975	14854.95
753.313	14799.58
753.651	14806.36
753.989	14806.81
754.327	14759.58
754.666	14719.58
755.004	14670.77
755.342	14749.64
755.679	14646.14
756.017	14523.43
756.355	14672.35
756.693	14549.42
