Data from tablewood_brown_FLMS001491_061.txt Node
Date: Tue Feb 07 11:10:49 GMT 2017
User: dcchb
Spectrometer: FLMS00149
Trigger mode: 0
Integration Time (sec): 2.000000E-2
Scans to average: 10
Electric dark correction enabled: true
Nonlinearity correction enabled: false
Boxcar width: 0
XAxis mode: Wavelengths
Number of Pixels in Spectrum: 2048
>>>>>Begin Spectral Data<<<<<
341.393	-1.61
341.776	-1.61
342.16	-1.61
342.543	-54.49
342.927	-69.4
343.31	-65.34
343.693	-67.37
344.077	-73.92
344.46	-79.12
344.843	-55.62
345.226	-54.49
345.61	-22.63
345.993	-0.93
346.376	-9.97
346.759	7.43
347.142	25.73
347.525	52.17
347.908	62.79
348.291	85.39
348.674	96.01
349.057	99.86
349.44	112.06
349.823	153.19
350.206	153.19
350.588	180.08
350.971	218.95
351.354	219.85
351.737	241.77
352.119	253.07
352.502	275.9
352.884	275.67
353.267	295.78
353.65	303.47
354.032	306.63
354.414	299.4
354.797	295.11
355.179	320.42
355.562	331.04
355.944	347.08
356.326	337.14
356.709	320.19
357.091	343.69
357.473	368.1
357.855	324.26
358.238	327.65
358.62	331.94
359.002	330.81
359.384	343.01
359.766	331.26
360.148	334.88
360.53	333.52
360.912	329.68
361.294	323.35
361.676	348.89
362.057	324.26
362.439	346.18
362.821	341.88
363.203	331.26
363.584	338.49
363.966	317.03
364.348	317.48
364.729	336.01
365.111	321.09
365.493	334.88
365.874	334.43
366.256	333.75
366.637	329.91
367.019	310.25
367.4	309.12
367.781	304.82
368.163	342.11
368.544	330.13
368.925	324.71
369.306	348.44
369.688	324.48
370.069	301.66
370.45	335.1
370.831	308.66
371.212	333.52
371.593	329
371.974	322
372.355	323.81
372.736	329.91
373.117	325.39
373.498	341.88
373.879	347.53
374.26	321.32
374.641	319.74
375.021	322
375.402	338.04
375.783	327.19
376.163	350.25
376.544	330.81
376.925	319.51
377.305	354.09
377.686	349.12
378.066	347.08
378.447	353.18
378.827	338.95
379.208	347.76
379.588	359.74
379.968	330.81
380.349	350.25
380.729	347.53
381.109	353.63
381.489	338.95
381.87	346.4
382.25	359.96
382.63	364.03
383.01	358.61
383.39	362.9
383.77	392.05
384.15	362.45
384.53	365.16
384.91	361.32
385.29	363.58
385.67	374.2
386.049	382.79
386.429	383.46
386.809	401.09
387.189	390.02
387.568	377.36
387.948	381.43
388.328	372.17
388.707	406.29
389.087	398.38
389.466	386.85
389.846	401.09
390.225	403.58
390.605	397.93
390.984	416.68
391.363	399.74
391.743	418.49
392.122	416.46
392.501	441.99
392.881	418.72
393.26	410.58
393.639	413.07
394.018	441.77
394.397	408.1
394.776	439.06
395.155	435.21
395.534	429.11
395.913	459.17
396.292	442.45
396.671	436.12
397.05	446.29
397.429	455.1
397.808	461.88
398.186	441.99
398.565	471.82
398.944	470.47
399.323	479.51
399.701	491.26
400.08	469.56
400.458	485.38
400.837	479.51
401.215	474.99
401.594	496.46
401.972	489.22
402.351	510.92
402.729	521.09
403.107	506.63
403.486	500.3
403.864	520.64
404.242	515.21
404.62	527.19
404.999	546.85
405.377	551.82
405.755	554.31
406.133	545.27
406.511	530.13
406.889	562.44
407.267	550.24
407.645	580.07
408.023	585.49
408.401	577.81
408.779	574.65
409.156	574.65
409.534	574.65
409.912	576.23
410.29	592.5
410.667	615.55
411.045	614.64
411.422	627.75
411.8	629.56
412.178	621.2
412.555	625.27
412.933	644.93
413.31	622.55
413.687	640.18
414.065	643.8
414.442	660.75
414.819	654.64
415.197	646.96
415.574	680.86
415.951	674.76
416.328	679.05
416.705	712.95
417.082	679.95
417.46	681.76
417.837	682.67
418.214	700.52
418.591	696
418.967	706.85
419.344	709.78
419.721	724.25
420.098	728.31
420.475	716.79
420.852	759.27
421.228	730.57
421.605	723.79
421.982	752.27
422.358	768.77
422.735	771.02
423.111	781.65
423.488	781.19
423.864	785.94
424.241	807.18
424.617	786.62
424.994	811.48
425.37	794.53
425.746	812.38
426.123	841.31
426.499	840.63
426.875	829.78
427.251	849.21
427.627	835.66
428.003	862.32
428.379	874.53
428.756	895.32
429.132	870.91
429.507	894.64
429.883	917.91
430.259	909.33
430.635	946.84
431.011	921.53
431.387	924.47
431.763	957.69
432.138	969.66
432.514	975.77
432.89	972.38
433.265	995.65
433.641	993.17
434.016	1038.36
434.392	1040.62
434.767	1051.47
435.143	1039.04
435.518	1049.89
435.894	1080.4
436.269	1066.84
436.644	1107.51
437.02	1100.28
437.395	1109.77
437.77	1130.34
438.145	1127.4
438.52	1135.08
438.895	1132.15
439.271	1140.51
439.646	1163.78
440.021	1165.36
440.395	1188.64
440.77	1172.37
441.145	1160.62
441.52	1213.05
441.895	1233.84
442.27	1233.16
442.645	1220.73
443.019	1244.01
443.394	1247.85
443.769	1288.07
444.143	1234.52
444.518	1246.04
444.892	1291.24
445.267	1282.88
445.641	1276.1
446.016	1304.8
446.39	1289.66
446.764	1328.52
447.139	1342.99
447.513	1306.83
447.887	1342.31
448.262	1358.13
448.636	1354.96
449.01	1363.78
449.384	1375.3
449.758	1389.09
450.132	1408.52
450.506	1389.77
450.88	1407.17
451.254	1433.15
451.628	1424.12
452.002	1449.2
452.376	1462.76
452.75	1474.96
453.123	1479.48
453.497	1526.49
453.871	1498.24
454.244	1540.5
454.618	1553.6
454.992	1540.5
455.365	1582.3
455.739	1618.23
456.112	1597.67
456.486	1633.83
456.859	1645.58
457.232	1665.01
457.606	1659.36
457.979	1676.76
458.352	1695.97
458.725	1738.91
459.099	1741.62
459.472	1803.77
459.845	1782.75
460.218	1813.94
460.591	1839.92
460.964	1847.61
461.337	1879.92
461.71	1877.66
462.083	1962.86
462.456	1928.28
462.829	1965.8
463.201	2002.18
463.574	2005.34
463.947	2013.7
464.32	2065.91
464.692	2084.21
465.065	2107.03
465.438	2100.48
465.81	2167.6
466.183	2179.58
466.555	2211.44
466.928	2256.41
467.3	2238.56
467.672	2300.02
468.045	2379.34
468.417	2370.76
468.789	2386.58
469.161	2390.87
469.534	2454.82
469.906	2488.49
470.278	2510.87
470.65	2557.87
471.022	2598.1
471.394	2690.75
471.766	2699.56
472.138	2744.53
472.51	2814.59
472.882	2869.5
473.253	2898.88
473.625	2954.92
473.997	3005.99
474.369	3055.26
474.74	3103.17
475.112	3128.48
475.484	3200.34
475.855	3245.76
476.227	3347.45
476.598	3413.22
476.97	3465.64
477.341	3566.43
477.713	3589.71
478.084	3624.74
478.455	3758.07
478.827	3771.85
479.198	3890.49
479.569	3901.56
479.94	4052.29
480.311	4069.7
480.682	4181.33
481.053	4296.13
481.424	4367.77
481.795	4433.75
482.166	4493.19
482.537	4507.2
482.908	4666.74
483.279	4749.9
483.65	4780.19
484.021	4905.61
484.391	4989.22
484.762	5070.35
485.133	5123
485.503	5205.26
485.874	5276.67
486.244	5344.24
486.615	5455.87
486.985	5547.17
487.356	5632.14
487.726	5670.78
488.097	5785.58
488.467	5859.25
488.837	5950.32
489.207	6059.02
489.578	6155.74
489.948	6232.58
490.318	6268.06
490.688	6320.26
491.058	6403.42
491.428	6505.34
491.798	6560.93
492.168	6684.09
492.538	6702.17
492.908	6889.51
493.278	6924.76
493.648	6894.93
494.017	6990.97
494.387	7164.53
494.757	7172.66
495.126	7310.06
495.496	7308.03
495.866	7356.16
496.235	7425.77
496.605	7517.06
496.974	7598.42
497.344	7616.27
497.713	7684.97
498.082	7760.22
498.452	7851.52
498.821	7906.43
499.19	7939.42
499.559	8058.29
499.928	8068.01
500.298	8110.27
500.667	8207.67
501.036	8249.47
501.405	8373.08
501.774	8407.43
502.143	8411.95
502.512	8509.58
502.88	8593.64
503.249	8598.84
503.618	8599.52
503.987	8749.35
504.356	8770.14
504.724	8838.16
505.093	8907.53
505.462	8922.22
505.83	8978.27
506.199	9153.4
506.567	9215.1
506.936	9180.97
507.304	9353.4
507.672	9375.09
508.041	9402.21
508.409	9511.81
508.777	9566.27
509.145	9727.63
509.514	9751.13
509.882	9802.88
510.25	9861.41
510.618	9976.88
510.986	9939.82
511.354	10058.92
511.722	10179.82
512.09	10293.03
512.458	10279.25
512.826	10397.21
513.193	10512.92
513.561	10583.2
513.929	10681.95
514.297	10825.22
514.664	10828.39
515.032	10937.54
515.4	10957.88
515.767	11051.21
516.135	11116.06
516.502	11111.09
516.869	11272.22
517.237	11299.79
517.604	11288.26
517.972	11595.15
518.339	11707.91
518.706	11653
519.073	11715.14
519.44	11909.94
519.808	12048.69
520.175	12057.96
520.542	12238.29
520.909	12278.29
521.276	12307.9
521.643	12488.23
522.009	12525.97
522.376	12652.07
522.743	12742.69
523.11	12912.17
523.477	13022.45
523.843	13119.85
524.21	13287.98
524.577	13385.61
524.943	13460.18
525.31	13520.52
525.676	13612.04
526.043	13717.58
526.409	13738.59
526.776	13971.81
527.142	14081.41
527.508	14167.06
527.874	14244.57
528.241	14344.91
528.607	14519.82
528.973	14595.97
529.339	14644.78
529.705	14718
530.071	14861.28
530.437	14918
530.803	15103.53
531.169	15149.86
531.535	15196.41
531.901	15259.23
532.267	15276.86
532.632	15421.94
532.998	15447.93
533.364	15527.25
533.73	15682.95
534.095	15786.22
534.461	15798.43
534.826	15887.24
535.192	15965.43
535.557	16016.05
535.923	16055.14
536.288	16075.71
536.653	16255.36
537.019	16214.23
537.384	16367.9
537.749	16391.86
538.114	16373.1
538.479	16544.17
538.845	16586.88
539.21	16627.78
539.575	16652.42
539.94	16697.84
540.305	16959.3
540.67	16867.1
541.034	16935.57
541.399	17014.44
541.764	17106.41
542.129	17132.18
542.494	17299.18
542.858	17389.57
543.223	17339.18
543.587	17366.29
543.952	17312.06
544.316	17467.76
544.681	17501.88
545.045	17584.37
545.41	17757.24
545.774	17746.62
546.138	17674.54
546.503	17905.72
546.867	17801.99
547.231	18048.31
547.595	18005.37
547.959	18128.31
548.324	18288.76
548.688	18194.97
549.052	18388.41
549.416	18413.27
549.779	18507.06
550.143	18600.84
550.507	18714.28
550.871	18766.48
551.235	18789.76
551.599	19043.09
551.962	19029.53
552.326	19146.13
552.689	19252.12
553.053	19321.5
553.417	19348.16
553.78	19607.59
554.143	19647.82
554.507	19793.35
554.87	19825.89
555.234	20032.67
555.597	19992.67
555.96	20161.48
556.323	20248.25
556.686	20355.59
557.05	20462.26
557.413	20614.57
557.776	20695.47
558.139	20901.34
558.502	20937.95
558.865	21199.64
559.228	21310.82
559.59	21451.61
559.953	21488.45
560.316	21829.45
560.679	21866.06
561.041	22132.05
561.404	22145.6
561.767	22376.33
562.129	22458.36
562.492	22650
562.854	22673.05
563.217	22768.64
563.579	22927.96
563.941	23143.32
564.304	23328.85
564.666	23489.75
565.028	23622.85
565.39	23773.36
565.753	23980.58
566.115	24051.77
566.477	24321.59
566.839	24499.21
567.201	24698.76
567.563	24818.75
567.925	25015.59
568.287	25135.58
568.648	25264.17
569.01	25384.84
569.372	25769.69
569.734	25741.89
570.095	26057.82
570.457	26216.01
570.819	26346.85
571.18	26519.95
571.542	26707.29
571.903	26813.73
572.265	26865.25
572.626	27131.24
572.987	27160.61
573.349	27335.3
573.71	27642.86
574.071	27807.38
574.432	28035.62
574.794	28215.28
575.155	28238.78
575.516	28281.04
575.877	28499.11
576.238	28662.72
576.599	28771.64
576.96	28857.29
577.32	29042.6
577.681	29287.56
578.042	29414.57
578.403	29476.26
578.763	29662.02
579.124	29741.11
579.485	29962.8
579.845	30116.92
580.206	30121.89
580.566	30020.2
580.927	30324.15
581.287	30375.44
581.648	30549
582.008	30622.67
582.368	30782.89
582.728	30765.26
583.089	30822.21
583.449	30879.84
583.809	30873.96
584.169	30974.75
584.529	30950.57
584.889	31350.56
585.249	31232.6
585.609	31099.72
585.969	31382.88
586.329	31349.66
586.688	31374.06
587.048	31363.21
587.408	31422.42
587.768	31522.76
588.127	31472.59
588.487	31556.88
588.846	31726.14
589.206	31634.17
589.565	31709.19
589.925	31857.21
590.284	31765.92
590.643	32023.99
591.003	31940.37
591.362	32051.56
591.721	31964.78
592.08	32045.23
592.44	32172.69
592.799	32175.4
593.158	32223.31
593.517	32252.01
593.876	32297.43
594.235	32171.56
594.593	32261.95
594.952	32326.35
595.311	32271.44
595.67	32412.9
596.029	32598.21
596.387	32560.02
596.746	32651.99
597.104	32478.67
597.463	32476.63
597.822	32683.18
598.18	32447.03
598.538	32571.77
598.897	32790.3
599.255	32383.98
599.613	32907.81
599.972	32634.37
600.33	32839.11
600.688	32717.98
601.046	32721.6
601.404	32974.92
601.762	32901.93
602.12	33084.75
602.478	33098.99
602.836	33044.75
603.194	32852.22
603.552	32929.5
603.91	32903.97
604.268	33059.44
604.625	32833.68
604.983	33200.91
605.341	33065.77
605.698	33125.2
606.056	33162.26
606.413	33230.28
606.771	33343.95
607.128	33390.28
607.485	33130.85
607.843	33191.19
608.2	33409.94
608.557	33544.63
608.914	33456.49
609.272	33571.52
609.629	33532.42
609.986	33773.55
610.343	33684.51
610.7	33796.37
611.057	33800.21
611.414	33665.75
611.771	33670.5
612.127	33887.44
612.484	33838.4
612.841	33973.09
613.198	33837.05
613.554	33846.54
613.911	34010.83
614.267	34166.98
614.624	34059.42
614.98	34168.56
615.337	34379.41
615.693	34319.75
616.05	34272.06
616.406	34546.86
616.762	34394.77
617.118	34317.26
617.475	34312.52
617.831	34437.94
618.187	34350.93
618.543	34600.42
618.899	34562
619.255	34506.18
619.611	34396.36
619.967	34593.64
620.323	34724.26
620.678	34667.99
621.034	34633.64
621.39	34549.8
621.746	34657.59
622.101	34954.31
622.457	34552.51
622.812	34806.06
623.168	34915.89
623.523	34716.12
623.879	34901.88
624.234	34667.08
624.589	34827.3
624.945	34867.08
625.3	34950.92
625.655	34851.03
626.01	34816.23
626.365	34844.93
626.72	34808.55
627.075	34884.93
627.43	34794.99
627.785	34776.68
628.14	34780.98
628.495	34882.44
628.85	34807.64
629.205	34779.4
629.559	34811.03
629.914	34727.19
630.269	34697.14
630.623	34587.99
630.978	34606.29
631.332	34631.6
631.687	34774.42
632.041	34651.26
632.396	34595.9
632.75	34523.58
633.104	34454.43
633.459	34402.68
633.813	34384.15
634.167	34312.29
634.521	34234.78
634.875	34343.7
635.229	34249.47
635.583	34178.06
635.937	34131.28
636.291	34231.84
636.645	34269.35
636.999	34095.8
637.352	34256.02
637.706	33983.48
638.06	34044.05
638.413	34057.83
638.767	33877.5
639.121	34007.44
639.474	33661.46
639.828	33808.35
640.181	33809.03
640.534	33804.05
640.888	33697.16
641.241	33570.16
641.594	33699.88
641.947	33703.49
642.301	33678.18
642.654	33699.88
643.007	33635.92
643.36	33737.39
643.713	33468.7
644.066	33730.84
644.419	33503.95
644.771	33261.47
645.124	33001.14
645.477	32951.87
645.83	32691.54
646.182	32635.05
646.535	32518.89
646.888	32600.47
647.24	32427.37
647.593	32672.78
647.945	32568.38
648.298	32225.11
648.65	32330.65
649.002	32270.76
649.355	32425.79
649.707	32284.55
650.059	32437.76
650.411	32725.66
650.763	32797.75
651.115	33261.24
651.467	33051.76
651.819	33096.28
652.171	32965.43
652.523	32960.01
652.875	33009.27
653.227	32859.22
653.578	33007.24
653.93	33007.69
654.282	32997.75
654.633	32742.16
654.985	32739
655.337	32961.36
655.688	32933.57
656.039	33136.73
656.391	32627.59
656.742	32829.39
657.094	32868.03
657.445	33005.88
657.796	32789.62
658.147	32728.6
658.498	32817.19
658.849	32798.88
659.2	32731.31
659.551	32772.44
659.902	32773.8
660.253	32814.7
660.604	32815.83
660.955	32633.01
661.306	32702.84
661.656	32678.43
662.007	32753.91
662.358	32796.85
662.708	32687.93
663.059	32701.94
663.409	32497.2
663.76	32815.61
664.11	32738.09
664.461	32669.85
664.811	32738.09
665.161	32693.12
665.511	32599.11
665.862	32682.95
666.212	32812.67
666.562	32808.15
666.912	32713.91
667.262	32679.11
667.612	32748.94
667.962	32744.87
668.312	32606.35
668.662	32809.96
669.011	32702.84
669.361	32590.98
669.711	32614.26
670.06	32487.93
670.41	32476.18
670.76	32520.47
671.109	32628.04
671.459	32436.63
671.808	32440.02
672.157	32436.41
672.507	32323.64
672.856	32280.7
673.205	32317.77
673.554	32419.68
673.904	32256.3
674.253	32398.22
674.602	32304.21
674.951	31855.41
675.3	31692.47
675.649	32156.87
675.998	32111.44
676.346	32176.53
676.695	32191.89
677.044	31957.32
677.393	32119.13
677.741	32241.38
678.09	32043.65
678.438	31958
678.787	32044.55
679.135	32121.61
679.484	31800.49
679.832	31925.23
680.181	31696.54
680.529	31887.95
680.877	31734.28
681.225	31690.89
681.573	31847.5
681.922	31569.54
682.27	31430.56
682.618	31426.26
682.966	31285.48
683.314	31433.5
683.661	31417.45
684.009	31157.8
684.357	31179.72
684.705	31184.46
685.053	31172.26
685.4	31043.68
685.748	30961.19
686.095	30998.93
686.443	30805.94
686.79	30851.14
687.138	30894.07
687.485	30764.13
687.832	30687.07
688.18	30688.88
688.527	30527.53
688.874	30446.18
689.221	30386.97
689.568	30101.33
689.915	30088.45
690.262	30023.82
690.609	30161.89
690.956	30035.34
691.303	30062.91
691.65	29933.2
691.997	29717.61
692.344	29649.36
692.69	29601.23
693.037	29616.59
693.383	29326.88
693.73	29417.05
694.077	29260.45
694.423	29268.35
694.769	29121.24
695.116	29095.7
695.462	28880.79
695.808	28900.68
696.155	28944.75
696.501	28836.05
696.847	28710.4
697.193	28619.11
697.539	28569.62
697.885	28326.01
698.231	28233.13
698.577	28260.02
698.923	28208.04
699.269	28053.7
699.614	27873.36
699.96	27746.81
700.306	27801.27
700.651	27583.88
700.997	27489.87
701.342	27549.08
701.688	27572.35
702.033	27436.09
702.379	27387.27
702.724	27295.53
703.069	27339.82
703.415	26972.14
703.76	26918.81
704.105	26975.31
704.45	26903.45
704.795	26713.39
705.14	26621.19
705.485	26522.66
705.83	26441.99
706.175	26425.27
706.52	26341.65
706.865	26355.21
707.209	26215.33
707.554	26131.26
707.899	26242.9
708.243	26107.76
708.588	26018.27
708.932	25873.42
709.277	25815.79
709.621	25830.93
709.966	25619.41
710.31	25768.33
710.654	25404.28
710.998	25473.2
711.342	25579.41
711.687	25427.55
712.031	25286.76
712.375	25258.97
712.719	25225.07
713.063	25237.27
713.407	25318.63
713.75	25060.56
714.094	25052.87
714.438	25086.09
714.782	24966.09
715.125	24874.35
715.469	24963.84
715.812	24761.13
716.156	24624.64
716.499	24710.73
716.843	24748.93
717.186	24548.93
717.53	24721.81
717.873	24648.59
718.216	24641.81
718.559	24531.3
718.902	24425.77
719.246	24436.39
719.589	24401.59
719.932	24214.25
720.275	24393.23
720.617	24352.78
720.96	24258.09
721.303	24307.36
721.646	24330.86
721.989	24091.54
722.331	24229.17
722.674	24211.99
723.016	24153.01
723.359	24154.36
723.701	24186.45
724.044	23961.6
724.386	23797.09
724.729	23993.01
725.071	23977.65
725.413	23918.66
725.755	23997.08
726.097	23853.36
726.439	23733.36
726.782	23748.5
727.124	23995.05
727.465	23744.66
727.807	23850.64
728.149	23696.75
728.491	23692.23
728.833	23766.35
729.175	23716.41
729.516	23664.89
729.858	23648.84
730.199	23703.98
730.541	23584.66
730.882	23691.55
731.224	23618.79
731.565	23518
731.906	23522.97
732.248	23613.14
732.589	23552.35
732.93	23465.34
733.271	23482.52
733.612	23525.45
733.953	23670.54
734.294	23463.54
734.635	23446.13
734.976	23553.48
735.317	23470.32
735.658	23333.82
735.999	23418.79
736.339	23454.27
736.68	23501.27
737.021	23475.51
737.361	23346.48
737.702	23391.9
738.042	23382.86
738.383	23323.2
738.723	23423.99
739.063	23298.34
739.404	23316.19
739.744	23305.12
740.084	23228.06
740.424	23330.43
740.764	23291.79
741.104	23375.63
741.444	23197.78
741.784	23148.06
742.124	23201.62
742.464	23288.17
742.804	23104.22
743.143	23136.54
743.483	23152.13
743.823	23130.66
744.162	23059.25
744.502	23132.92
744.841	23055.64
745.181	23160.27
745.52	23123.66
745.86	23171.34
746.199	23169.31
746.538	23023.32
746.877	23212.92
747.216	23102.42
747.556	23134.73
747.895	23110.32
748.234	23160.04
748.573	22977.45
748.911	22981.51
749.25	23076.2
749.589	22964.11
749.928	23022.42
750.267	22975.86
750.605	22990.33
750.944	22924.79
751.283	22938.58
751.621	22933.83
751.96	22783.1
752.298	22814.97
752.636	22942.65
752.975	22831.91
753.313	22659.49
753.651	22778.81
753.989	22630.11
754.327	22612.48
754.666	22521.19
755.004	22589.66
755.342	22497.69
755.679	22552.15
