Data from tablewood_brown_FLMS001491_005.txt Node
Date: Tue Feb 07 11:09:56 GMT 2017
User: dcchb
Spectrometer: FLMS00149
Trigger mode: 0
Integration Time (sec): 2.000000E-2
Scans to average: 10
Electric dark correction enabled: true
Nonlinearity correction enabled: false
Boxcar width: 0
XAxis mode: Wavelengths
Number of Pixels in Spectrum: 2048
>>>>>Begin Spectral Data<<<<<
341.393	-22.33
341.776	-22.33
342.16	-22.33
342.543	-47.19
342.927	-59.39
343.31	-89.22
343.693	-57.13
344.077	-60.75
344.46	-63.91
344.843	-60.75
345.226	-45.83
345.61	-33.4
345.993	-24.82
346.376	17.44
346.759	7.27
347.142	32.58
347.525	28.97
347.908	65.35
348.291	63.54
348.674	98.8
349.057	121.85
349.44	143.32
349.823	154.39
350.206	158
350.588	188.51
350.971	228.96
351.354	247.95
351.737	241.84
352.119	244.78
352.502	258.79
352.884	272.35
353.267	282.29
353.65	303.54
354.032	294.72
354.414	331.33
354.797	322.97
355.179	332.91
355.562	322.07
355.944	345.34
356.326	367.94
356.709	357.55
357.091	357.1
357.473	355.97
357.855	343.08
358.238	346.93
358.62	359.13
359.002	341.95
359.384	336.98
359.766	340.6
360.148	347.38
360.53	347.83
360.912	339.24
361.294	348.96
361.676	368.62
362.057	340.6
362.439	355.74
362.821	346.25
363.203	341.5
363.584	321.84
363.966	339.47
364.348	332.24
364.729	335.85
365.111	332.69
365.493	321.16
365.874	315.97
366.256	341.05
366.637	339.92
367.019	338.34
367.4	315.51
367.781	333.82
368.163	342.41
368.544	330.2
368.925	335.63
369.306	352.8
369.688	338.56
370.069	317.55
370.45	329.3
370.831	347.38
371.212	341.73
371.593	332.01
371.974	344.67
372.355	349.19
372.736	349.86
373.117	340.6
373.498	336.53
373.879	337.21
374.26	325.23
374.641	347.15
375.021	316.87
375.402	351.22
375.783	365.23
376.163	356.19
376.544	363.2
376.925	371.11
377.305	364.1
377.686	360.94
378.066	362.07
378.447	359.13
378.827	358.68
379.208	344.44
379.588	374.27
379.968	342.86
380.349	372.69
380.729	390.09
381.109	350.77
381.489	369.52
381.87	369.07
382.25	367.26
382.63	390.77
383.01	380.15
383.39	391.22
383.77	388.28
384.15	372.24
384.53	399.81
384.91	370.65
385.29	398.45
385.67	409.07
386.049	394.83
386.429	411.11
386.809	402.52
387.189	400.71
387.568	414.72
387.948	400.03
388.328	414.72
388.707	438.45
389.087	425.12
389.466	426.7
389.846	425.12
390.225	438
390.605	440.26
390.984	438.67
391.363	448.39
391.743	403.87
392.122	423.53
392.501	442.52
392.881	449.07
393.26	468.5
393.639	441.39
394.018	460.6
394.397	462.4
394.776	445
395.155	464.21
395.534	476.64
395.913	453.59
396.292	457.43
396.671	490.2
397.05	494.94
397.429	479.13
397.808	467.37
398.186	517.09
398.565	487.71
398.944	477.09
399.323	518.67
399.701	506.47
400.08	511.67
400.458	493.14
400.837	539.92
401.215	542.18
401.594	517.09
401.972	535.62
402.351	536.53
402.729	531.55
403.107	525.45
403.486	564.77
403.864	545.11
404.242	535.4
404.62	562.51
404.999	560.25
405.377	547.82
405.755	568.84
406.133	592.57
406.511	590.54
406.889	595.05
407.267	597.09
407.645	603.87
408.023	605.22
408.401	593.47
408.779	609.29
409.156	616.3
409.534	637.77
409.912	608.61
410.29	638.22
410.667	644.09
411.045	648.39
411.422	655.84
411.8	654.04
412.178	665.11
412.555	674.15
412.933	647.93
413.31	692.45
413.687	705.11
414.065	715.73
414.442	703.75
414.819	700.59
415.197	711.21
415.574	730.64
415.951	716.86
416.328	743.07
416.705	750.08
417.082	713.47
417.46	733.13
417.837	771.32
418.214	763.86
418.591	762.51
418.967	746.01
419.344	756.41
419.721	793.47
420.098	777.2
420.475	780.36
420.852	800.93
421.228	820.36
421.605	812.22
421.982	799.57
422.358	823.3
422.735	826.01
423.111	793.92
423.488	851.32
423.864	843.86
424.241	837.31
424.617	849.74
424.994	880.25
425.37	871.88
425.746	876.63
426.123	863.97
426.499	896.29
426.875	913.69
427.251	906.01
427.627	916.18
428.003	912.11
428.379	920.02
428.756	928.61
429.132	947.81
429.507	939.68
429.883	967.7
430.259	968.38
430.635	987.14
431.011	1025.55
431.387	1016.96
431.763	1064.2
432.138	1026.91
432.514	1056.96
432.89	1059.45
433.265	1097.87
433.641	1078.43
434.016	1089.73
434.392	1125.21
434.767	1126.11
435.143	1109.84
435.518	1157.3
435.894	1136.51
436.269	1151.2
436.644	1194.36
437.02	1172.89
437.395	1181.25
437.77	1200.46
438.145	1201.82
438.52	1222.16
438.895	1218.77
439.271	1239.11
439.646	1275.49
440.021	1246.11
440.395	1238.2
440.77	1265.09
441.145	1295.83
441.52	1306.45
441.895	1311.19
442.27	1306
442.645	1327.47
443.019	1317.97
443.394	1327.47
443.769	1336.28
444.143	1322.72
444.518	1381.7
444.892	1387.8
445.267	1411.08
445.641	1402.04
446.016	1407.01
446.39	1433.45
446.764	1424.64
447.139	1447.24
447.513	1438.65
447.887	1433.9
448.262	1448.14
448.636	1444.3
449.01	1478.2
449.384	1505.31
449.758	1489.49
450.132	1517.06
450.506	1543.96
450.88	1515.03
451.254	1535.6
451.628	1553
452.002	1540.79
452.376	1554.8
452.75	1558.65
453.123	1609.72
453.497	1608.59
453.871	1611.07
454.244	1647.91
454.618	1661.02
454.992	1677.06
455.365	1682.48
455.739	1737.4
456.112	1741.47
456.486	1762.93
456.859	1753.67
457.232	1791.86
457.606	1813.78
457.979	1834.8
458.352	1863.27
458.725	1866.66
459.099	1891.52
459.472	1911.63
459.845	1926.55
460.218	1929.71
460.591	1971.52
460.964	1989.59
461.337	2020.78
461.71	2061.23
462.083	2073.89
462.456	2111.63
462.829	2097.39
463.201	2125.86
463.574	2163.6
463.947	2168.35
464.32	2235.01
464.692	2233.43
465.065	2249.7
465.438	2303.26
465.81	2317.27
466.183	2340.32
466.555	2384.39
466.928	2447.21
467.3	2420.77
467.672	2460.77
468.045	2494.44
468.417	2504.84
468.789	2549.58
469.161	2579.41
469.534	2620.99
469.906	2679.29
470.278	2713.64
470.65	2719.29
471.022	2821.89
471.394	2848.1
471.766	2840.87
472.138	2901.44
472.51	2974.43
472.882	3026.4
473.253	3074.99
473.625	3123.35
473.997	3157.47
474.369	3172.39
474.74	3239.73
475.112	3307.98
475.484	3385.04
475.855	3467.3
476.227	3499.16
476.598	3606.05
476.97	3648.76
477.341	3707.29
477.713	3745.25
478.084	3809.89
478.455	3895.31
478.827	3943.44
479.198	4046.94
479.569	4089.43
479.94	4209.42
480.311	4264.56
480.682	4360.15
481.053	4460.49
481.424	4534.84
481.795	4629.98
482.166	4685.34
482.537	4759.69
482.908	4845.11
483.279	4900.93
483.65	4986.13
484.021	5132.11
484.391	5214.59
484.762	5215.05
485.133	5246.46
485.503	5391.99
485.874	5493.46
486.244	5541.14
486.615	5662.49
486.985	5759.89
487.356	5836.73
487.726	5865.65
488.097	6017.96
488.467	6027.91
488.837	6118.53
489.207	6288.24
489.578	6335.47
489.948	6418.18
490.318	6499.31
490.688	6525.52
491.058	6636.93
491.428	6718.74
491.798	6777.04
492.168	6962.8
492.538	6923.93
492.908	7081.89
493.278	7161.21
493.648	7109.46
494.017	7281.43
494.387	7327.53
494.757	7402.33
495.126	7449.34
495.496	7540.41
495.866	7556
496.235	7637.58
496.605	7736.56
496.974	7813.17
497.344	7870.8
497.713	7900.85
498.082	8019.04
498.452	8068.76
498.821	8177
499.19	8198.02
499.559	8223.55
499.928	8303.1
500.298	8284.8
500.667	8424
501.036	8421.06
501.405	8552.36
501.774	8528.18
502.143	8652.47
502.512	8721.85
502.88	8750.32
503.249	8774.95
503.618	8875.52
503.987	8880.49
504.356	9039.35
504.724	9035.96
505.093	9102.85
505.462	9140.82
505.83	9186.69
506.199	9178.56
506.567	9330.64
506.936	9434.14
507.304	9560.24
507.672	9566.8
508.041	9668.71
508.409	9621.71
508.777	9879.56
509.145	9876.17
509.514	9910.06
509.882	9993.45
510.25	10007.69
510.618	10110.29
510.986	10122.71
511.354	10254.91
511.722	10383.27
512.09	10421.69
512.458	10463.27
512.826	10558.63
513.193	10676.6
513.561	10689.48
513.929	10780.78
514.297	10928.57
514.664	11053.09
515.032	11051.5
515.4	11213.76
515.767	11218.73
516.135	11362.23
516.502	11321.55
516.869	11514.09
517.237	11514.09
517.604	11562.9
517.972	11692.62
518.339	11738.72
518.706	11782.56
519.073	11905.04
519.44	11971.03
519.808	12129.67
520.175	12098.26
520.542	12351.13
520.909	12387.74
521.276	12451.01
521.643	12567.85
522.009	12736.88
522.376	12751.8
522.743	12912.7
523.11	13059.81
523.477	13188.62
523.843	13254.38
524.21	13391.33
524.577	13403.08
524.943	13580.25
525.31	13578.22
525.676	13761.71
526.043	13811.88
526.409	14003.97
526.776	14133.23
527.142	14144.08
527.508	14170.74
527.874	14384.97
528.241	14535.71
528.607	14504.29
528.973	14685.08
529.339	14650.96
529.705	14828.13
530.071	14955.13
530.437	15045.07
530.803	15123.49
531.169	15258.85
531.535	15172.52
531.901	15259.08
532.267	15342.01
532.632	15424.27
532.998	15487.77
533.364	15605.96
533.73	15788.1
534.095	15825.16
534.461	16032.39
534.826	16100.18
535.192	16051.82
535.557	16205.04
535.923	16157.58
536.288	16205.72
536.653	16278.26
537.019	16358.26
537.384	16429.67
537.749	16592.6
538.114	16529.78
538.479	16626.72
538.845	16704.24
539.21	16674.63
539.575	16732.94
539.94	16859.94
540.305	17034.85
540.67	16947.62
541.034	17036.2
541.399	17149.65
541.764	17205.69
542.129	17274.62
542.494	17347.38
542.858	17356.87
543.223	17388.06
543.587	17522.97
543.952	17515.29
544.316	17580.15
544.681	17640.93
545.045	17809.52
545.41	17812
545.774	17823.75
546.138	17874.37
546.503	17985.33
546.867	17906.69
547.231	18216.96
547.595	18139.9
547.959	18298.77
548.324	18328.37
548.688	18464.87
549.052	18508.71
549.416	18579.67
549.779	18633
550.143	18755.26
550.507	18935.14
550.871	18908.02
551.235	18962.03
551.599	19111.86
551.962	19152.08
552.326	19190.72
552.689	19448.8
553.053	19298.74
553.417	19488.57
553.78	19670.94
554.143	19711.16
554.507	19768.56
554.87	20023.02
555.234	20190.92
555.597	20086.52
555.96	20334.42
556.323	20385.5
556.686	20480.63
557.05	20705.49
557.413	20804.24
557.776	20891.02
558.139	21011.47
558.502	21033.61
558.865	21142.54
559.228	21482.42
559.59	21473.6
559.953	21703.2
560.316	21894.83
560.679	21940.26
561.041	22154.04
561.404	22227.48
561.767	22503.86
562.129	22505.21
562.492	22764.19
562.854	22785.66
563.217	22906.56
563.579	22957.18
563.941	23280.56
564.304	23418.18
564.666	23619.53
565.028	23646.2
565.39	23774.33
565.753	24050.26
566.115	24071.95
566.477	24370.48
566.839	24454.54
567.201	24761.65
567.563	24874.87
567.925	24999.61
568.287	25125.71
568.648	25339.49
569.01	25506.26
569.372	25787.61
569.734	25737.44
570.095	25986.48
570.457	26159.81
570.819	26337.88
571.18	26430.76
571.542	26830.3
571.903	26837.08
572.265	27026.9
572.626	27155.94
572.987	27232.09
573.349	27480.68
573.71	27653.78
574.071	27860.33
574.432	27955.24
574.794	28272.29
575.155	28240.88
575.516	28290.6
575.877	28617.37
576.238	28716.12
576.599	28915.21
576.96	29021.88
577.32	29173.96
577.681	29268.88
578.042	29413.96
578.403	29598.36
578.763	29761.97
579.124	29745.47
579.485	29923.78
579.845	30157.89
580.206	30169.42
580.566	30257.78
580.927	30276.53
581.287	30478.11
581.648	30361.73
582.008	30601.05
582.368	30751.1
582.728	30818.67
583.089	30819.8
583.449	30912
583.809	31135.04
584.169	31106.12
584.529	31108.15
584.889	31351.76
585.249	31249.62
585.609	31277.41
585.969	31545.43
586.329	31457.52
586.688	31587.69
587.048	31561.25
587.408	31522.15
587.768	31577.29
588.127	31696.61
588.487	31665.42
588.846	31954.46
589.206	31714.69
589.565	31837.17
589.925	32001.69
590.284	31967.79
590.643	32088.01
591.003	32069.48
591.362	32262.02
591.721	32045.08
592.08	32156.03
592.44	32305.41
592.799	32302.47
593.158	32257.73
593.517	32406.42
593.876	32354.9
594.235	32268.35
594.593	32393.77
594.952	32457.72
595.311	32571.16
595.67	32596.93
596.029	32688.9
596.387	32715.79
596.746	32722.8
597.104	32718.05
597.463	32676.92
597.822	32755.79
598.18	32608.22
598.538	32539.98
598.897	32859.52
599.255	32648.45
599.613	33168.21
599.972	32856.13
600.33	32949.46
600.688	32692.06
601.046	33003.24
601.404	33085.73
601.762	33065.16
602.12	33291.37
602.478	33254.99
602.836	33228.1
603.194	32969.8
603.552	33130.47
603.91	32912.17
604.268	33265.83
604.625	33127.76
604.983	33248.89
605.341	33138.83
605.698	33240.98
606.056	33317.36
606.413	33272.61
606.771	33431.93
607.128	33445.72
607.485	33240.98
607.843	33490.24
608.2	33609.78
608.557	33755.09
608.914	33497.92
609.272	33687.29
609.629	33677.8
609.986	33734.3
610.343	33630.34
610.7	33861.75
611.057	33813.39
611.414	33766.39
611.771	33917.57
612.127	33936.1
612.484	33913.95
612.841	34052.71
613.198	33940.62
613.554	34063.33
613.911	34212.48
614.267	34193.27
614.624	34135.19
614.98	34140.84
615.337	34365.01
615.693	34270.55
616.05	34306.26
616.406	34544.67
616.762	34431.45
617.118	34337.22
617.475	34412.02
617.831	34594.61
618.187	34607.27
618.543	34547.61
618.899	34916.86
619.255	34792.57
619.611	34693.82
619.967	34879.58
620.323	34794.16
620.678	34830.09
621.034	34647.49
621.39	34767.94
621.746	34733.14
622.101	34982.4
622.457	34716.64
622.812	34892.23
623.168	34958.45
623.523	34861.5
623.879	35032.12
624.234	34664.44
624.589	34826.92
624.945	34858.33
625.3	34949.18
625.655	34856.3
626.01	35014.71
626.365	34837.32
626.72	34946.69
627.075	34865.34
627.43	34855.62
627.785	34839.8
628.14	34850.2
628.495	34848.84
628.85	34819.01
629.205	34685.91
629.559	34809.97
629.914	34754.16
630.269	34657.66
630.623	34743.31
630.978	34642.52
631.332	34790.54
631.687	34761.16
632.041	34635.06
632.396	34687.04
632.75	34605.23
633.104	34702.63
633.459	34490.66
633.813	34432.81
634.167	34386.93
634.521	34319.82
634.875	34439.81
635.229	34374.28
635.583	34238.69
635.937	34235.53
636.291	34142.65
636.645	34278.69
636.999	34018.13
637.352	34175.64
637.706	33953.5
638.06	34149.65
638.413	34009.54
638.767	33999.37
639.121	34030.56
639.474	33784.01
639.828	33837.8
640.181	33921.64
640.534	33885.03
640.888	33731.13
641.241	33601.87
641.594	33739.27
641.947	33897
642.301	33706.95
642.654	33667.86
643.007	33585.37
643.36	33681.87
643.713	33411.82
644.066	33709.44
644.419	33584.7
644.771	33265.83
645.124	33097.7
645.477	32958.72
645.83	32756.47
646.182	32560.99
646.535	32483.71
646.888	32592.63
647.24	32417.5
647.593	32551.95
647.945	32516.93
648.298	32480.54
648.65	32400.32
649.002	32369.36
649.355	32413.2
649.707	32350.6
650.059	32357.61
650.411	32831.5
650.763	32840.76
651.115	33160.3
651.467	33068.1
651.819	33029.68
652.171	32992.4
652.523	32976.58
652.875	33065.84
653.227	32893.41
653.578	33253.63
653.93	33129.11
654.282	33040.3
654.633	32919.4
654.985	32941.55
655.337	33010.93
655.688	33013.41
656.039	33085.73
656.391	32762.12
656.742	32849.35
657.094	32939.52
657.445	33074.65
657.796	32903.81
658.147	32999.85
658.498	32868.78
658.849	32906.52
659.2	32793.3
659.551	32731.61
659.902	32921.21
660.253	32835.34
660.604	32825.17
660.955	32728
661.306	32772.29
661.656	32808.9
662.007	32816.58
662.358	32732.74
662.708	32675.12
663.059	32781.78
663.409	32609.13
663.76	32868.1
664.11	32756.7
664.461	32874.88
664.811	32847.09
665.161	32684.83
665.511	32756.24
665.862	32776.58
666.212	32848.9
666.562	32972.96
666.912	32865.39
667.262	32805.51
667.612	32676.7
667.962	32747.88
668.312	32733.87
668.662	32857.03
669.011	32725.96
669.361	32685.51
669.711	32621.78
670.06	32612.97
670.41	32677.38
670.76	32569.81
671.109	32506.31
671.459	32567.1
671.808	32592.18
672.157	32504.27
672.507	32479.64
672.856	32395.35
673.205	32476.93
673.554	32509.7
673.904	32386.76
674.253	32510.83
674.602	32404.16
674.951	31974.12
675.3	31785.87
675.649	32322.58
675.998	32227.9
676.346	32277.39
676.695	32363.94
677.044	32005.3
677.393	32161
677.741	32220.89
678.09	32083.49
678.438	31880.11
678.787	32066.77
679.135	32034.68
679.484	31893.89
679.832	31999.65
680.181	31835.14
680.529	31912.42
680.877	31750.62
681.225	31657.52
681.573	31790.62
681.922	31638.76
682.27	31559.89
682.618	31599.89
682.966	31528.93
683.314	31559.89
683.661	31333
684.009	31283.29
684.357	31100.24
684.705	31198.32
685.053	31195.15
685.4	31137.75
685.748	31079.68
686.095	31020.24
686.443	30831.1
686.79	30717.2
687.138	30850.3
687.485	30781.15
687.832	30616.64
688.18	30571.22
688.527	30553.14
688.874	30491.67
689.221	30521.73
689.568	30256.87
689.915	30253.48
690.262	30110.21
690.609	30222.75
690.956	30050.1
691.303	29971.68
691.65	29759.26
691.997	29799.26
692.344	29627.51
692.69	29651.01
693.037	29639.26
693.383	29314.07
693.73	29401.53
694.077	29272.49
694.423	29230.23
694.769	29141.65
695.116	29087.19
695.462	29052.84
695.808	28921.77
696.155	28812.39
696.501	28629.35
696.847	28656.01
697.193	28455.34
697.539	28426.19
697.885	28276.81
698.231	28175.12
698.577	28069.13
698.923	28086.54
699.269	27995.69
699.614	27894.68
699.96	27792.76
700.306	27731.74
700.651	27529.94
700.997	27584.85
701.342	27545.31
701.688	27395.03
702.033	27292.43
702.379	27418.76
702.724	27262.38
703.069	27174.47
703.415	26927.24
703.76	26952.33
704.105	26816.74
704.45	26766.12
704.795	26703.3
705.14	26636.63
705.485	26526.12
705.83	26444.77
706.175	26418.1
706.52	26267.15
706.865	26180.37
707.209	26190.77
707.554	25999.58
707.899	26147.83
708.243	25958.91
708.588	25892.02
708.932	25734.51
709.277	25705.13
709.621	25642.98
709.966	25587.84
710.31	25576.32
710.654	25396.66
710.998	25391.01
711.342	25383.1
711.687	25294.29
712.031	25258.59
712.375	25145.37
712.719	25312.82
713.063	25099.27
713.407	25202.32
713.75	25036.22
714.094	25025.15
714.438	24922.1
714.782	24998.48
715.125	24915.77
715.469	24845.26
715.812	24797.81
716.156	24572.28
716.499	24571.15
716.843	24600.98
717.186	24419.06
717.53	24598.27
717.873	24592.16
718.216	24510.81
718.559	24350.59
718.902	24269.69
719.246	24309.01
719.589	24293.41
719.932	24114.44
720.275	24134.32
720.617	24103.36
720.96	24126.64
721.303	24099.97
721.646	24232.4
721.989	24052.52
722.331	24074.44
722.674	24015.46
723.016	24048.9
723.359	24039.41
723.701	24085.06
724.044	23909.02
724.386	23756.71
724.729	23948.11
725.071	23825.63
725.413	23891.39
725.755	23920.09
726.097	23806.65
726.439	23704.28
726.782	23702.92
727.124	23753.09
727.465	23712.87
727.807	23661.34
728.149	23702.02
728.491	23728.46
728.833	23586.09
729.175	23581.8
729.516	23538.18
729.858	23530.72
730.199	23622.25
730.541	23621.34
730.882	23517.62
731.224	23609.59
731.565	23417.28
731.906	23522.59
732.248	23635.81
732.589	23346.32
732.93	23360.11
733.271	23476.71
733.612	23429.71
733.953	23448.24
734.294	23350.84
734.635	23400.56
734.976	23423.38
735.317	23311.75
735.658	23314.46
735.999	23324.63
736.339	23424.06
736.68	23363.72
737.021	23337.96
737.361	23170.51
737.702	23377.51
738.042	23351.52
738.383	23332.54
738.723	23367.79
739.063	23429.93
739.404	23334.34
739.744	23393.55
740.084	23320.79
740.424	23377.05
740.764	23158.98
741.104	23472.87
741.444	23326.21
741.784	23222.48
742.124	23302.03
742.464	23207.79
742.804	23235.59
743.143	23283.5
743.483	23241.47
743.823	23189.49
744.162	23137.74
744.502	23199.88
744.841	23242.6
745.181	23259.09
745.52	23184.74
745.86	23232.88
746.199	23249.15
746.538	23242.37
746.877	23281.46
747.216	23221.35
747.556	23245.53
747.895	23264.97
748.234	23052.77
748.573	23242.82
748.911	23177.29
749.25	23176.83
749.589	23038.76
749.928	23231.75
750.267	23195.14
750.605	23152.65
750.944	23086.44
751.283	23179.77
751.621	23242.82
751.96	23108.36
752.298	23176.83
752.636	23169.6
752.975	23027.23
753.313	22910.17
753.651	23164.41
753.989	22898.42
754.327	22862.72
754.666	22819.78
755.004	22822.27
755.342	22826.11
755.679	22815.04
756.017	22719.22
