Data from tablewood_dark_bookshelf_FLMS001491_00066.txt Node
Date: Wed Feb 08 14:15:23 GMT 2017
User: dcchb
Spectrometer: FLMS00149
Trigger mode: 0
Integration Time (sec): 2.000000E-2
Scans to average: 10
Electric dark correction enabled: true
Nonlinearity correction enabled: false
Boxcar width: 0
XAxis mode: Wavelengths
Number of Pixels in Spectrum: 2048
>>>>>Begin Spectral Data<<<<<
341.393	-20.48
341.776	-20.48
342.16	-20.48
342.543	-64.55
342.927	-60.25
343.31	-61.16
343.693	-58.9
344.077	-47.37
344.46	-42.4
344.843	-55.73
345.226	-42.85
345.61	-39.01
345.993	-20.48
346.376	-13.02
346.759	12.51
347.142	22.68
347.525	14.55
347.908	77.6
348.291	72.63
348.674	86.64
349.057	94.32
349.44	118.73
349.823	150.82
350.206	173.41
350.588	183.13
350.971	194.66
351.354	203.47
351.737	220.64
352.119	246.18
352.502	271.94
352.884	252.06
353.267	255.45
353.65	283.92
354.032	309
354.414	288.44
354.797	296.12
355.179	317.36
355.562	308.1
355.944	308.33
356.326	329.57
356.709	327.99
357.091	333.86
357.473	349.91
357.855	330.02
358.238	323.69
358.62	325.5
359.002	354.2
359.384	337.7
359.766	339.28
360.148	343.13
360.53	312.84
360.912	358.27
361.294	332.51
361.676	325.27
362.057	322.11
362.439	324.6
362.821	314.65
363.203	330.92
363.584	330.25
363.966	300.87
364.348	317.82
364.729	314.65
365.111	312.39
365.493	303.13
365.874	317.82
366.256	314.43
366.637	305.39
367.019	334.09
367.4	315.33
367.781	323.24
368.163	301.32
368.544	310.36
368.925	304.26
369.306	311.94
369.688	313.07
370.069	318.04
370.45	313.75
370.831	315.33
371.212	315.78
371.593	317.14
371.974	321.66
372.355	316.23
372.736	324.6
373.117	317.14
373.498	306.29
373.879	324.82
374.26	318.27
374.641	309.46
375.021	302.9
375.402	325.5
375.783	333.18
376.163	313.07
376.544	332.05
376.925	343.13
377.305	325.5
377.686	336.57
378.066	322.34
378.447	331.15
378.827	333.64
379.208	323.24
379.588	331.83
379.968	326.63
380.349	328.66
380.729	341.77
381.109	338.38
381.489	337.7
381.87	347.19
382.25	354.65
382.63	353.3
383.01	349
383.39	366.85
383.77	347.19
384.15	328.44
384.53	352.39
384.91	366.85
385.29	370.7
385.67	371.83
386.049	373.86
386.429	366.18
386.809	349.23
387.189	363.24
387.568	378.38
387.948	377.25
388.328	384.48
388.707	379.28
389.087	381.09
389.466	367.08
389.846	376.12
390.225	384.71
390.605	378.83
390.984	379.96
391.363	403.69
391.743	376.57
392.122	398.49
392.501	383.58
392.881	394.2
393.26	398.94
393.639	411.6
394.018	395.1
394.397	391.26
394.776	411.37
395.155	396.91
395.534	406.18
395.913	406.4
396.292	413.18
396.671	418.6
397.05	419.96
397.429	413.86
397.808	432.84
398.186	427.64
398.565	434.42
398.944	418.6
399.323	431.94
399.701	440.75
400.08	436.23
400.458	447.08
400.837	434.65
401.215	439.4
401.594	443.01
401.972	433.07
402.351	456.12
402.729	433.07
403.107	449.56
403.486	441.2
403.864	462.9
404.242	447.98
404.62	452.5
404.999	472.16
405.377	464.25
405.755	474.87
406.133	487.98
406.511	466.97
406.889	500.64
407.267	477.13
407.645	487.08
408.023	491.37
408.401	503.57
408.779	479.39
409.156	513.29
409.534	509.45
409.912	499.96
410.29	502.44
410.667	501.77
411.045	509.45
411.422	531.82
411.8	524.36
412.178	525.27
412.555	534.53
412.933	570.47
413.31	566.62
413.687	565.04
414.065	561.65
414.442	571.37
414.819	543.35
415.197	525.72
415.574	579.96
415.951	574.31
416.328	577.02
416.705	572.95
417.082	591.26
417.46	581.09
417.837	588.54
418.214	592.39
418.591	606.17
418.967	591.26
419.344	605.27
419.721	611.59
420.098	629.67
420.475	615.66
420.852	620.63
421.228	619.28
421.605	638.49
421.982	639.39
422.358	666.51
422.735	645.27
423.111	654.98
423.488	660.63
423.864	654.53
424.241	679.61
424.617	670.12
424.994	682.78
425.37	718.94
425.746	685.26
426.123	713.96
426.499	690.91
426.875	693.63
427.251	717.81
427.627	732.95
428.003	719.16
428.379	748.99
428.756	742.66
429.132	754.42
429.507	745.38
429.883	765.49
430.259	756.45
430.635	781.76
431.011	781.99
431.387	815.2
431.763	824.47
432.138	801.19
432.514	808.88
432.89	832.61
433.265	820.63
433.641	827.63
434.016	836.45
434.392	882.32
434.767	868.31
435.143	850.01
435.518	871.25
435.894	908.54
436.269	889.33
436.644	903.11
437.02	917.35
437.395	917.12
437.77	909.89
438.145	936.78
438.52	950.34
438.895	949.89
439.271	925.94
439.646	975.88
440.021	981.08
440.395	976.1
440.77	966.39
441.145	978.14
441.52	997.12
441.895	995.99
442.27	1029.44
442.645	1013.17
443.019	1006.61
443.394	1036.89
443.769	1033.05
444.143	1028.31
444.518	1042.77
444.892	1057.91
445.267	1056.1
445.641	1092.71
446.016	1074.41
446.39	1050
446.764	1092.71
447.139	1087.29
447.513	1125.03
447.887	1092.71
448.262	1117.34
448.636	1121.41
449.01	1115.08
449.384	1130.68
449.758	1125.7
450.132	1135.2
450.506	1165.48
450.88	1164.12
451.254	1166.83
451.628	1170.45
452.002	1194.18
452.376	1201.41
452.75	1193.73
453.123	1213.16
453.497	1240.5
453.871	1238.24
454.244	1269.88
454.618	1260.84
454.992	1294.06
455.365	1297.9
455.739	1322.54
456.112	1322.54
456.486	1330.45
456.859	1337.45
457.232	1392.36
457.606	1391.01
457.979	1351.69
458.352	1402.76
458.725	1448.63
459.099	1427.39
459.472	1462.65
459.845	1488.86
460.218	1469.2
460.591	1489.99
460.964	1513.94
461.337	1535.86
461.71	1559.59
462.083	1591.68
462.456	1554.62
462.829	1608.18
463.201	1624.22
463.574	1633.49
463.947	1609.31
464.32	1667.39
464.692	1693.15
465.065	1671
465.438	1733.15
465.81	1744.22
466.183	1743.54
466.555	1769.08
466.928	1833.03
467.3	1824.9
467.672	1828.96
468.045	1851.79
468.417	1861.05
468.789	1890.88
469.161	1880.04
469.534	1921.62
469.906	1971.11
470.278	1972.91
470.65	2004.33
471.022	2043.19
471.394	2088.17
471.766	2107.83
472.138	2133.14
472.51	2140.37
472.882	2195.73
473.253	2205
473.625	2242.06
473.997	2282.96
474.369	2293.13
474.74	2309.85
475.112	2357.76
475.484	2388.27
475.855	2421.49
476.227	2464.88
476.598	2498.1
476.97	2525.22
477.341	2592.33
477.713	2616.97
478.084	2626.68
478.455	2711.2
478.827	2714.14
479.198	2800.69
479.569	2823.51
479.94	2868.71
480.311	2887.24
480.682	2953
481.053	2991.87
481.424	3074.35
481.795	3083.39
482.166	3148.93
482.537	3166.56
482.908	3222.6
483.279	3263.05
483.65	3244.07
484.021	3356.38
484.391	3387.57
484.762	3461.24
485.133	3503.95
485.503	3517.28
485.874	3566.54
486.244	3647.22
486.615	3698.52
486.985	3749.14
487.356	3817.84
487.726	3864.16
488.097	3905.97
488.467	3906.2
488.837	4039.53
489.207	3993.43
489.578	4080.43
489.948	4105.51
490.318	4212.63
490.688	4178.51
491.058	4247.2
491.428	4335.56
491.798	4366.3
492.168	4427.09
492.538	4450.36
492.908	4543.92
493.278	4592.73
493.648	4577.14
494.017	4641.77
494.387	4695.1
494.757	4694.65
495.126	4758.83
495.496	4747.76
495.866	4839.51
496.235	4887.19
496.605	4934.42
496.974	4905.27
497.344	5002.67
497.713	5032.04
498.082	5038.6
498.452	5100.52
498.821	5127.18
499.19	5121.53
499.559	5195.43
499.928	5230.91
500.298	5269.1
500.667	5324.69
501.036	5293.05
501.405	5395.42
501.774	5363.33
502.143	5448.3
502.512	5443.33
502.88	5555.19
503.249	5504.57
503.618	5611.01
503.987	5582.54
504.356	5674.51
504.724	5683.1
505.093	5702.76
505.462	5697.79
505.83	5804.23
506.199	5882.42
506.567	5905.69
506.936	5910.66
507.304	5992.92
507.672	6046.03
508.041	6005.12
508.409	6137.55
508.777	6101.17
509.145	6204.89
509.514	6181.84
509.882	6238.34
510.25	6255.51
510.618	6312.69
510.986	6357.66
511.354	6391.1
511.722	6435.17
512.09	6511.78
512.458	6503.42
512.826	6604.43
513.193	6653.47
513.561	6630.19
513.929	6706.8
514.297	6750.42
514.664	6836.06
515.032	6875.16
515.4	6910.86
515.767	6956.06
516.135	7015.04
516.502	6972.56
516.869	7134.81
517.237	7101.82
517.604	7147.02
517.972	7216.39
518.339	7289.84
518.706	7264.3
519.073	7322.83
519.44	7446.22
519.808	7472.43
520.175	7584.07
520.542	7544.52
520.909	7657.96
521.276	7677.85
521.643	7727.57
522.009	7775.93
522.376	7836.94
522.743	7874.45
523.11	8010.95
523.477	8066.31
523.843	8110.83
524.21	8269.92
524.577	8254.11
524.943	8288
525.31	8369.13
525.676	8361.9
526.043	8444.38
526.409	8551.27
526.776	8649.12
527.142	8658.16
527.508	8666.52
527.874	8818.16
528.241	8821.1
528.607	8913.07
528.973	8904.48
529.339	9009.34
529.705	9032.62
530.071	9141.99
530.437	9215.66
530.803	9173.18
531.169	9325.49
531.535	9229.45
531.901	9336.79
532.267	9367.97
532.632	9452.72
532.998	9435.77
533.364	9566.61
533.73	9544.92
534.095	9632.83
534.461	9676.67
534.826	9735.65
535.192	9792.37
535.557	9858.36
535.923	9854.74
536.288	9864.46
536.653	9954.4
537.019	9958.24
537.384	9972.48
537.749	10119.82
538.114	10064.68
538.479	10141.51
538.845	10181.96
539.21	10130.44
539.575	10240.95
539.94	10237.1
540.305	10339.7
540.67	10268.74
541.034	10327.04
541.399	10366.59
541.764	10405.69
542.129	10438.23
542.494	10542.86
542.858	10583.31
543.223	10591.44
543.587	10660.6
543.952	10637.32
544.316	10684.32
544.681	10755.73
545.045	10732.91
545.41	10867.14
545.774	10854.49
546.138	10901.27
546.503	10921.83
546.867	10942.4
547.231	11074.82
547.595	11019
547.959	11079.12
548.324	11117.53
548.688	11109.17
549.052	11175.84
549.416	11219.45
549.779	11249.96
550.143	11274.36
550.507	11357.98
550.871	11376.06
551.235	11332.22
551.599	11510.52
551.962	11515.49
552.326	11546.22
552.689	11644.3
553.053	11609.05
553.417	11618.54
553.78	11830.06
554.143	11769.49
554.507	11848.81
554.87	11851.3
555.234	12011.52
555.597	11991.63
555.96	12049.26
556.323	12011.29
556.686	12088.13
557.05	12255.58
557.413	12225.07
557.776	12289.25
558.139	12317.95
558.502	12456.03
558.865	12490.6
559.228	12542.13
559.59	12606.53
559.953	12587.55
560.316	12751.16
560.679	12657.83
561.041	12839.07
561.404	12938.5
561.767	12938.95
562.129	12952.51
562.492	13047.65
562.854	13138.27
563.217	13198.16
563.579	13183.92
563.941	13275.67
564.304	13330.13
564.666	13397.47
565.028	13496.91
565.39	13544.59
565.753	13584.36
566.115	13738.93
566.477	13603.34
566.839	13752.72
567.201	13881.3
567.563	13936.89
567.925	13997.23
568.287	14094.4
568.648	14031.13
569.01	14128.75
569.372	14241.74
569.734	14364.45
570.095	14380.72
570.457	14425.24
570.819	14542.08
571.18	14509.76
571.542	14596.54
571.903	14649.19
572.265	14707.49
572.626	14783.65
572.987	14838.79
573.349	14780.04
573.71	14959.01
574.071	15053.93
574.432	15034.72
574.794	15136.64
575.155	15223.64
575.516	15159.91
575.877	15237.65
576.238	15272.68
576.599	15380.7
576.96	15412.56
577.32	15416.18
577.681	15476.97
578.042	15559.68
578.403	15505.67
578.763	15632.22
579.124	15732.78
579.485	15756.51
579.845	15807.58
580.206	15742.72
580.566	15837.41
580.927	15819.56
581.287	15928.48
581.648	16005.99
582.008	16016.39
582.368	16011.64
582.728	16111.3
583.089	15988.59
583.449	16140.68
583.809	16148.59
584.169	16241.69
584.529	16134.58
584.889	16363.04
585.249	16140.45
585.609	16175.93
585.969	16349.71
586.329	16317.85
586.688	16402.59
587.048	16418.64
587.408	16356.26
587.768	16423.16
588.127	16379.32
588.487	16406.43
588.846	16489.37
589.206	16470.61
589.565	16560.1
589.925	16616.82
590.284	16527.56
590.643	16671.28
591.003	16673.77
591.362	16654.79
591.721	16718.52
592.08	16680.32
592.44	16799.42
592.799	16793.09
593.158	16779.76
593.517	16783.6
593.876	16885.74
594.235	16864.95
594.593	16957.15
594.952	17018.62
595.311	16983.59
595.67	16991.05
596.029	17122.35
596.387	17064.49
596.746	17080.54
597.104	17041.9
597.463	17064.04
597.822	17191.95
598.18	17126.87
598.538	17186.07
598.897	17296.81
599.255	17161.44
599.613	17439.4
599.972	17339.97
600.33	17421.1
600.688	17340.19
601.046	17456.8
601.404	17549.45
601.762	17467.65
602.12	17566.85
602.478	17537.7
602.836	17551.71
603.194	17508.1
603.552	17466.74
603.91	17472.39
604.268	17593.75
604.625	17482.56
604.983	17673.29
605.341	17593.75
605.698	17651.82
606.056	17782.22
606.413	17718.04
606.771	17785.38
607.128	17816.79
607.485	17763.46
607.843	17843.91
608.2	17959.61
608.557	18045.94
608.914	17945.15
609.272	18085.48
609.629	18078.71
609.986	18050.01
610.343	18027.63
610.7	18245.03
611.057	18154.18
611.414	18168.65
611.771	18137.23
612.127	18258.36
612.484	18198.02
612.841	18334.74
613.198	18330
613.554	18302.65
613.911	18293.39
614.267	18336.33
614.624	18278.25
614.98	18346.95
615.337	18567.51
615.693	18534.96
616.05	18343.11
616.406	18616.54
616.762	18494.06
617.118	18474.4
617.475	18506.04
617.831	18573.16
618.187	18631.91
618.543	18611.12
618.899	18732.02
619.255	18593.04
619.611	18790.33
619.967	18791.68
620.323	18914.84
620.678	18742.19
621.034	18669.2
621.39	18722.53
621.746	18625.81
622.101	18908.06
622.457	18636.43
622.812	18818.8
623.168	18831
623.523	18776.09
623.879	18890.21
624.234	18687.73
624.589	18881.17
624.945	18844.56
625.3	18840.95
625.655	18868.74
626.01	18872.13
626.365	18754.17
626.72	18939.02
627.075	18779.25
627.43	18898.34
627.785	18779.7
628.14	18813.6
628.495	18902.41
628.85	18692.02
629.205	18739.25
629.559	18929.08
629.914	18765.92
630.269	18813.83
630.623	18741.74
630.978	18713.49
631.332	18814.96
631.687	18845.69
632.041	18686.15
632.396	18711.68
632.75	18691.57
633.104	18795.97
633.459	18628.07
633.813	18647.73
634.167	18612.02
634.521	18651.12
634.875	18746.94
635.229	18589.43
635.583	18654.74
635.937	18610.22
636.291	18539.26
636.645	18485.93
636.999	18561.18
637.352	18520.28
637.706	18402.09
638.06	18542.42
638.413	18496.55
638.767	18441.63
639.121	18455.87
639.474	18337.68
639.828	18399.83
640.181	18359.6
640.534	18421.75
640.888	18232.83
641.241	18198.48
641.594	18292.03
641.947	18351.24
642.301	18233.73
642.654	18317.57
643.007	18229.66
643.36	18115.77
643.713	18216.78
644.066	18323.22
644.419	18140.85
644.771	18087.52
645.124	17871.71
645.477	17901.76
645.83	17813.18
646.182	17699.28
646.535	17693.86
646.888	17650.47
647.24	17545.61
647.593	17667.64
647.945	17625.84
648.298	17500.19
648.65	17432.62
649.002	17370.25
649.355	17553.07
649.707	17487.53
650.059	17551.71
650.411	17848.88
650.763	17728.88
651.115	18045.71
651.467	17927.3
651.819	18008.2
652.171	17842.1
652.523	17848.2
652.875	17809.33
653.227	17763.69
653.578	17902.44
653.93	17800.07
654.282	17810.69
654.633	17713.52
654.985	17849.11
655.337	17722.56
655.688	17771.59
656.039	17835.32
656.391	17697.25
656.742	17763.01
657.094	17647.98
657.445	17806.4
657.796	17785.61
658.147	17709.22
658.498	17683.24
658.849	17788.54
659.2	17797.81
659.551	17688.66
659.902	17800.07
660.253	17696.79
660.604	17703.57
660.955	17607.98
661.306	17692.73
661.656	17632.84
662.007	17647.98
662.358	17713.07
662.708	17682.11
663.059	17707.19
663.409	17579.51
663.76	17758.04
664.11	17657.02
664.461	17655.21
664.811	17720.52
665.161	17656.8
665.511	17637.59
665.862	17651.82
666.212	17621.54
666.562	17777.47
666.912	17633.52
667.262	17733.4
667.612	17759.84
667.962	17619.73
668.312	17634.42
668.662	17732.05
669.011	17659.28
669.361	17649.56
669.711	17657.25
670.06	17644.37
670.41	17548.55
670.76	17552.17
671.109	17649.11
671.459	17599.17
671.808	17612.28
672.157	17596.23
672.507	17464.48
672.856	17619.28
673.205	17583.35
673.554	17575.67
673.904	17600.07
674.253	17616.57
674.602	17547.42
674.951	17372.96
675.3	17196.92
675.649	17568.21
675.998	17513.3
676.346	17526.63
676.695	17616.12
677.044	17424.49
677.393	17462
677.741	17424.26
678.09	17362.11
678.438	17459.29
678.787	17409.12
679.135	17535.89
679.484	17318.05
679.832	17389.01
680.181	17318.5
680.529	17378.84
680.877	17360.76
681.225	17376.35
681.573	17474.2
681.922	17252.74
682.27	17264.04
682.618	17107.66
682.966	17124.83
683.314	17260.65
683.661	17195.79
684.009	17080.99
684.357	17040.54
684.705	17046.19
685.053	17104.27
685.4	16986.98
685.748	16943.37
686.095	16906.31
686.443	16825.18
686.79	16821.11
687.138	16822.02
687.485	16868.12
687.832	16789.25
688.18	16741.57
688.527	16736.59
688.874	16782.92
689.221	16635.13
689.568	16682.13
689.915	16666.54
690.262	16590.38
690.609	16649.14
690.956	16598.29
691.303	16514.45
691.65	16477.84
691.997	16449.37
692.344	16251.41
692.69	16313.55
693.037	16371.86
693.383	16110.62
693.73	16300.67
694.077	16221.13
694.423	16143.16
694.769	16203.73
695.116	16046.67
695.462	16060
695.808	15947.24
696.155	15945.43
696.501	15863.62
696.847	15847.13
697.193	15691.65
697.539	15834.47
697.885	15726.22
698.231	15714.47
698.577	15618.66
698.923	15618.66
699.269	15539.11
699.614	15375.27
699.96	15464.08
700.306	15441.26
700.651	15387.48
700.997	15361.71
701.342	15288.04
701.688	15246.46
702.033	15210.98
702.379	15257.76
702.724	15095.73
703.069	15214.6
703.415	15053.02
703.76	15131.89
704.105	15095.96
704.45	15084.21
704.795	15065.23
705.14	14921.05
705.485	14950.43
705.83	14840.6
706.175	14902.07
706.52	14804.22
706.865	14728.29
707.209	14785.91
707.554	14656.42
707.899	14756.08
708.243	14731
708.588	14675.18
708.932	14606.25
709.277	14546.14
709.621	14495.75
709.966	14476.99
710.31	14484.9
710.654	14420.04
710.998	14469.76
711.342	14505.01
711.687	14397.22
712.031	14328.75
712.375	14260.73
712.719	14284.91
713.063	14216.66
713.407	14342.76
713.75	14235.19
714.094	14278.81
714.438	14221.41
714.782	14128.07
715.125	14080.62
715.469	14123.78
715.812	14017.57
716.156	14089.88
716.499	13973.28
716.843	13999.72
717.186	13852.83
717.53	13973.5
717.873	14026.61
718.216	13860.74
718.559	13940.96
718.902	13738.25
719.246	13885.6
719.589	13779.61
719.932	13774.86
720.275	13763.56
720.617	13734.41
720.96	13812.38
721.303	13777.35
721.646	13682.21
721.989	13688.09
722.331	13714.98
722.674	13771.7
723.016	13661.19
723.359	13665.49
723.701	13658.71
724.044	13562.67
724.386	13524.02
724.729	13638.37
725.071	13583.68
725.413	13557.47
725.755	13535.77
726.097	13501.65
726.439	13420.75
726.782	13432.05
727.124	13444.7
727.465	13423.46
727.807	13406.29
728.149	13437.92
728.491	13354.31
728.833	13442.22
729.175	13324.71
729.516	13310.47
729.858	13324.48
730.199	13401.31
730.541	13327.42
730.882	13296.68
731.224	13326.74
731.565	13174.88
731.906	13290.58
732.248	13298.27
732.589	13238.83
732.93	13298.27
733.271	13202
733.612	13192.73
733.953	13165.16
734.294	13190.02
734.635	13058.27
734.976	13140.53
735.317	13154.09
735.658	13142.34
735.999	13148.21
736.339	13100.53
736.68	13082
737.021	13145.5
737.361	13039.52
737.702	13053.98
738.042	13016.01
738.383	13015.11
738.723	13116.12
739.063	13091.94
739.404	13086.07
739.744	12976.01
740.084	12966.3
740.424	13075.9
740.764	12999.06
741.104	13025.73
741.444	12971.27
741.784	12968.11
742.124	12906.64
742.464	12968.11
742.804	12911.61
743.143	12878.84
743.483	12911.84
743.823	12828.45
744.162	12790.48
744.502	12923.59
744.841	12806.08
745.181	12809.24
745.52	12827.09
745.86	12819.18
746.199	12773.76
746.538	12814.21
746.877	12782.57
747.216	12840.43
747.556	12743.25
747.895	12720.88
748.234	12764.04
748.573	12686.53
748.911	12716.36
749.25	12749.35
749.589	12662.58
749.928	12676.36
750.267	12686.76
750.605	12625.06
750.944	12602.01
751.283	12582.35
751.621	12625.06
751.96	12490.15
752.298	12614.22
752.636	12529.25
752.975	12495.8
753.313	12433.66
753.651	12479.08
753.989	12483.6
754.327	12502.35
754.666	12423.03
755.004	12335.58
755.342	12438.85
755.679	12381.23
756.017	12267.56
756.355	12376.71
756.693	12231.4
757.031	12172.87
757.368	12218.29
