Data from tablewood_dark_bookshelf_FLMS001491_00011.txt Node
Date: Wed Feb 08 14:13:42 GMT 2017
User: dcchb
Spectrometer: FLMS00149
Trigger mode: 0
Integration Time (sec): 2.000000E-2
Scans to average: 10
Electric dark correction enabled: true
Nonlinearity correction enabled: false
Boxcar width: 0
XAxis mode: Wavelengths
Number of Pixels in Spectrum: 2048
>>>>>Begin Spectral Data<<<<<
341.393	2.23
341.776	2.23
342.16	2.23
342.543	-55.62
342.927	-72.34
343.31	-55.85
343.693	-65.34
344.077	-76.41
344.46	-58.78
344.843	-46.58
345.226	-56.3
345.61	-9.52
345.993	-39.8
346.376	-10.2
346.759	9.01
347.142	35.9
347.525	61.21
347.908	51.04
348.291	99.18
348.674	64.83
349.057	97.6
349.44	128.56
349.823	135.11
350.206	142.34
350.588	183.24
350.971	196.12
351.354	218.72
351.737	220.98
352.119	246.52
352.502	273.86
352.884	268.67
353.267	285.39
353.65	298.04
354.032	282
354.414	291.94
354.797	307.76
355.179	311.83
355.562	330.58
355.944	319.51
356.326	322.22
356.709	333.07
357.091	319.96
357.473	352.05
357.855	332.17
358.238	339.62
358.62	351.6
359.002	326.74
359.384	327.19
359.766	341.66
360.148	327.87
360.53	314.77
360.912	324.03
361.294	338.27
361.676	329.45
362.057	322.45
362.439	334.2
362.821	321.09
363.203	343.69
363.584	328.55
363.966	340.08
364.348	324.93
364.729	328.55
365.111	313.86
365.493	328.1
365.874	330.81
366.256	315.44
366.637	317.48
367.019	304.6
367.4	328.1
367.781	324.71
368.163	313.18
368.544	320.19
368.925	299.4
369.306	312.28
369.688	330.81
370.069	322
370.45	306.18
370.831	313.64
371.212	326.06
371.593	319.96
371.974	328.32
372.355	306.4
372.736	349.12
373.117	310.92
373.498	305.05
373.879	329.91
374.26	320.87
374.641	296.69
375.021	341.43
375.402	327.65
375.783	329.45
376.163	352.5
376.544	343.01
376.925	314.77
377.305	343.47
377.686	326.74
378.066	325.61
378.447	347.99
378.827	352.28
379.208	317.7
379.588	339.4
379.968	336.91
380.349	374.43
380.729	345.05
381.109	353.63
381.489	336.91
381.87	343.92
382.25	351.37
382.63	360.19
383.01	348.66
383.39	350.47
383.77	369.68
384.15	380.75
384.53	366.29
384.91	345.27
385.29	365.84
385.67	368.78
386.049	370.13
386.429	371.49
386.809	370.58
387.189	369.91
387.568	380.75
387.948	364.26
388.328	391.83
388.707	375.78
389.087	368.55
389.466	390.92
389.846	390.02
390.225	373.52
390.605	396.8
390.984	381.66
391.363	397.93
391.743	390.92
392.122	387.31
392.501	398.15
392.881	404.03
393.26	398.15
393.639	401.32
394.018	416.91
394.397	415.33
394.776	435.89
395.155	434.31
395.534	383.46
395.913	424.59
396.292	423.46
396.671	433.63
397.05	417.59
397.429	419.62
397.808	437.02
398.186	431.82
398.565	443.35
398.944	451.03
399.323	433.18
399.701	436.12
400.08	452.39
400.458	446.29
400.837	443.12
401.215	468.21
401.594	444.25
401.972	458.72
402.351	453.52
402.729	455.55
403.107	460.75
403.486	469.79
403.864	464.82
404.242	474.54
404.62	471.37
404.999	501.65
405.377	487.42
405.755	495.1
406.133	496.46
406.511	492.39
406.889	518.6
407.267	508.88
407.645	487.64
408.023	510.69
408.401	484.93
408.779	489
409.156	519.51
409.534	494.42
409.912	529
410.29	532.16
410.667	524.03
411.045	547.75
411.422	541.2
411.8	533.29
412.178	554.76
412.555	553.86
412.933	536.68
413.31	571.03
413.687	579.62
414.065	584.59
414.442	560.63
414.819	573.97
415.197	584.82
415.574	576.91
415.951	584.59
416.328	594.98
416.705	573.52
417.082	604.7
417.46	598.6
417.837	614.19
418.214	618.94
418.591	642.67
418.967	622.55
419.344	598.6
419.721	618.26
420.098	620.75
420.475	636.11
420.852	634.53
421.228	648.32
421.605	645.38
421.982	656.23
422.358	676.11
422.735	685.15
423.111	671.82
423.488	669.11
423.864	684.7
424.241	704.81
424.617	701.2
424.994	705.26
425.37	720.18
425.746	702.33
426.123	730.8
426.499	698.03
426.875	711.14
427.251	726.51
427.627	752.49
428.003	753.4
428.379	740.74
428.756	782.32
429.132	767.86
429.507	785.49
429.883	790.23
430.259	787.3
430.635	800.63
431.011	782.78
431.387	814.19
431.763	823.23
432.138	813.96
432.514	823.9
432.89	851.02
433.265	838.14
433.641	869.55
434.016	847.18
434.392	883.79
434.767	884.02
435.143	894.64
435.518	926.28
435.894	902.77
436.269	907.74
436.644	934.41
437.02	915.2
437.395	950
437.77	919.72
438.145	961.98
438.52	959.95
438.895	992.26
439.271	983.22
439.646	986.84
440.021	999.27
440.395	981.64
440.77	966.95
441.145	994.07
441.52	1013.5
441.895	1032.26
442.27	1002.66
442.645	1036.33
443.019	1012.37
443.394	1032.26
443.769	1052.15
444.143	1028.42
444.518	1065.25
444.892	1077.01
445.267	1053.73
445.641	1080.85
446.016	1095.76
446.39	1066.38
446.764	1103.22
447.139	1101.19
447.513	1094.63
447.887	1091.69
448.262	1132.82
448.636	1113.84
449.01	1139.38
449.384	1143.22
449.758	1153.16
450.132	1145.93
450.506	1160.62
450.88	1176.21
451.254	1161.07
451.628	1174.86
452.002	1206.27
452.376	1210.11
452.75	1213.05
453.123	1227.51
453.497	1218.92
453.871	1271.12
454.244	1253.05
454.618	1271.8
454.992	1290.11
455.365	1309.77
455.739	1323.1
456.112	1335.3
456.486	1344.57
456.859	1362.87
457.232	1371.46
457.606	1373.95
457.979	1399.26
458.352	1451.01
458.725	1425.7
459.099	1467.05
459.472	1465.92
459.845	1470.89
460.218	1495.75
460.591	1488.97
460.964	1521.97
461.337	1510.89
461.71	1559.03
462.083	1556.77
462.456	1581.17
462.829	1561.06
463.201	1594.96
463.574	1597.44
463.947	1641.74
464.32	1678.57
464.692	1676.76
465.065	1704.79
465.438	1705.69
465.81	1731.45
466.183	1752.47
466.555	1744.56
466.928	1783.2
467.3	1816.42
467.672	1840.83
468.045	1842.64
468.417	1834.27
468.789	1854.39
469.161	1928.06
469.534	1936.87
469.906	1944.33
470.278	1990.43
470.65	1978.45
471.022	2051.22
471.394	2076.08
471.766	2075.4
472.138	2067.49
472.51	2131.89
472.882	2169.63
473.253	2204.89
473.625	2231.78
473.997	2257.09
474.369	2254.15
474.74	2292.79
475.112	2343.19
475.484	2355.84
475.855	2395.39
476.227	2412.79
476.598	2473.35
476.97	2497.53
477.341	2569.4
477.713	2587.47
478.084	2588.38
478.455	2675.61
478.827	2702.73
479.198	2781.59
479.569	2766.23
479.94	2824.08
480.311	2876.73
480.682	2922.61
481.053	2980.91
481.424	3021.81
481.795	3032.21
482.166	3085.77
482.537	3162.37
482.908	3161.92
483.279	3216.84
483.65	3257.74
484.021	3311.52
484.391	3387.91
484.762	3381.13
485.133	3419.54
485.503	3492.54
485.874	3551.29
486.244	3568.24
486.615	3622.93
486.985	3703.83
487.356	3742.02
487.726	3777.27
488.097	3834.22
488.467	3877.16
488.837	3925.74
489.207	3995.35
489.578	4032.41
489.948	4073.31
490.318	4116.02
490.688	4133.2
491.058	4160.77
491.428	4232.18
491.798	4248
492.168	4364.15
492.538	4367.99
492.908	4433.3
493.278	4461.32
493.648	4465.62
494.017	4556.91
494.387	4609.57
494.757	4623.35
495.126	4627.42
495.496	4667.19
495.866	4713.29
496.235	4739.51
496.605	4801.2
496.974	4838.04
497.344	4857.92
497.713	4871.03
498.082	4926.62
498.452	4959.84
498.821	4977.02
499.19	5014.76
499.559	5094.08
499.928	5123
500.298	5116.22
500.667	5168.42
501.036	5221.08
501.405	5237.35
501.774	5260.85
502.143	5327.97
502.512	5336.78
502.88	5372.49
503.249	5375.2
503.618	5458.13
503.987	5405.93
504.356	5499.49
504.724	5546.72
505.093	5540.62
505.462	5583.55
505.83	5607.28
506.199	5689.31
506.567	5741.52
506.936	5793.04
507.304	5824
507.672	5817.67
508.041	5862.87
508.409	5887.5
508.777	5965.69
509.145	6044.56
509.514	5989.87
509.882	6083.2
510.25	6077.33
510.618	6088.85
510.986	6162.07
511.354	6252.24
511.722	6269.86
512.09	6311.67
512.458	6378.56
512.826	6455.4
513.193	6441.38
513.561	6406.58
513.929	6518.22
514.297	6593.7
514.664	6583.08
515.032	6610.42
515.4	6706.69
515.767	6730.42
516.135	6781.49
516.502	6776.97
516.869	6908.49
517.237	6891.09
517.604	6851.09
517.972	7049.73
518.339	7004.31
518.706	7071.42
519.073	7139.9
519.44	7170.4
519.808	7261.48
520.175	7242.72
520.542	7353.22
520.909	7313
521.276	7427.12
521.643	7527.01
522.009	7550.96
522.376	7656.27
522.743	7655.14
523.11	7773.78
523.477	7782.37
523.843	7879.99
524.21	7935.81
524.577	7965.19
524.943	8090.15
525.31	8100.78
525.676	8138.97
526.043	8194.33
526.409	8266.2
526.776	8379.64
527.142	8436.59
527.508	8442.46
527.874	8493.08
528.241	8544.15
528.607	8512.52
528.973	8646.52
529.339	8692.17
529.705	8748.44
530.071	8782.79
530.437	8835.45
530.803	8850.59
531.169	8914.09
531.535	8977.36
531.901	8988.89
532.267	9092.39
532.632	9099.62
532.998	9162.22
533.364	9225.04
533.73	9273.17
534.095	9281.31
534.461	9342.55
534.826	9386.62
535.192	9452.38
535.557	9521.08
535.923	9507.97
536.288	9579.83
536.653	9606.05
537.019	9651.47
537.384	9680.85
537.749	9705.03
538.114	9748.64
538.479	9777.34
538.845	9861.41
539.21	9839.04
539.575	9888.98
539.94	9953.61
540.305	9975.98
540.67	10058.69
541.034	10061.85
541.399	10131.46
541.764	10099.59
542.129	10198.8
542.494	10165.58
542.858	10266.82
543.223	10234.5
543.587	10350.89
543.952	10357.89
544.316	10382.98
544.681	10331
545.045	10436.99
545.41	10501.62
545.774	10491.45
546.138	10556.98
546.503	10637.21
546.867	10597.66
547.231	10759.91
547.595	10696.19
547.959	10778.9
548.324	10775.73
548.688	10842.85
549.052	10820.7
549.416	10893.7
549.779	10893.92
550.143	10956.52
550.507	11029.96
550.871	11064.99
551.235	11071.77
551.599	11171.66
551.962	11137.98
552.326	11275.83
552.689	11335.72
553.053	11289.62
553.417	11361.71
553.78	11528.71
554.143	11455.26
554.507	11453.23
554.87	11533.23
555.234	11746.1
555.597	11546.56
555.96	11692.77
556.323	11770.06
556.686	11779.32
557.05	11867.91
557.413	11963.5
557.776	11959.88
558.139	12073.1
558.502	12125.08
558.865	12135.47
559.228	12227.9
559.59	12381.79
559.953	12317.61
560.316	12494.33
560.679	12503.15
561.041	12609.58
561.404	12626.08
561.767	12665.85
562.129	12706.3
562.492	12853.65
562.854	12871.5
563.217	12862.68
563.579	12949.01
563.941	13031.49
564.304	13128.21
564.666	13219.96
565.028	13244.6
565.39	13387.64
565.753	13405.95
566.115	13390.35
566.477	13561.88
566.839	13539.28
567.201	13681.65
567.563	13716.67
567.925	13815.65
568.287	13821.3
568.648	13915.31
569.01	13959.83
569.372	14027.85
569.734	14006.84
570.095	14136.55
570.457	14333.38
570.819	14314.17
571.18	14259.03
571.542	14489.08
571.903	14452.93
572.265	14521.85
572.626	14593.26
572.987	14671.45
573.349	14748.06
573.71	14788.06
574.071	14888.85
574.432	14908.73
574.794	15084.32
575.155	14997.32
575.516	15046.58
575.877	15122.96
576.238	15182.85
576.599	15315.5
576.96	15240.7
577.32	15262.85
577.681	15381.94
578.042	15529.96
578.403	15615.38
578.763	15532.22
579.124	15583.74
579.485	15683.4
579.845	15820.12
580.206	15701.03
580.566	15729.05
580.927	15741.7
581.287	15932.89
581.648	15902.83
582.008	15967.91
582.368	15960
582.728	16100.57
583.089	16065.54
583.449	16065.54
583.809	16152.99
584.169	16168.36
584.529	16112.09
584.889	16338.75
585.249	16196.61
585.609	16362.48
585.969	16340.79
586.329	16311.86
586.688	16457.17
587.048	16428.47
587.408	16455.81
587.768	16504.4
588.127	16420.56
588.487	16506.2
588.846	16610.83
589.206	16502.14
589.565	16546.2
589.925	16658.74
590.284	16696.48
590.643	16686.31
591.003	16765.63
591.362	16787.55
591.721	16728.57
592.08	16788.46
592.44	16834.78
592.799	16865.97
593.158	16870.71
593.517	16909.81
593.876	17028.9
594.235	16951.84
594.593	17128.33
594.952	17139.41
595.311	17046.98
595.67	17171.27
596.029	17209.69
596.387	17239.52
596.746	17298.73
597.104	17216.02
597.463	17153.65
597.822	17451.26
598.18	17214.43
598.538	17301.21
598.897	17311.83
599.255	17321.78
599.613	17576.23
599.972	17474.09
600.33	17563.58
600.688	17551.15
601.046	17554.31
601.404	17686.74
601.762	17653.52
602.12	17767.87
602.478	17677.47
602.836	17725.38
603.194	17725.38
603.552	17724.25
603.91	17699.62
604.268	17864.81
604.625	17767.19
604.983	17913.17
605.341	17919.05
605.698	17939.16
606.056	17980.74
606.413	18062.1
606.771	18142.55
607.128	18072.49
607.485	18124.47
607.843	18090.34
608.2	18276.55
608.557	18290.34
608.914	18158.82
609.272	18289.43
609.629	18330.56
609.986	18433.61
610.343	18326.95
610.7	18508.86
611.057	18413.05
611.414	18456.21
611.771	18439.26
612.127	18570.56
612.484	18566.72
612.841	18576.43
613.198	18548.64
613.554	18575.98
613.911	18706.15
614.267	18701.63
614.624	18787.27
614.98	18813.94
615.337	18816.2
615.693	18740.95
616.05	18815.07
616.406	18978
616.762	18919.02
617.118	18847.16
617.475	18865.01
617.831	18951.79
618.187	18940.94
618.543	19016.65
618.899	19068.62
619.255	18986.59
619.611	18998.79
619.967	19079.47
620.323	19203.76
620.678	19168.06
621.034	19077.66
621.39	19136.42
621.746	19067.49
622.101	19319.46
622.457	19211.9
622.812	19271.1
623.168	19229.97
623.523	19297.77
623.879	19257.09
624.234	19213.48
624.589	19328.73
624.945	19199.92
625.3	19290.31
625.655	19229.52
626.01	19281.5
626.365	19362.4
626.72	19271.56
627.075	19284.89
627.43	19217.77
627.785	19111.79
628.14	19208.28
628.495	19213.7
628.85	19195.4
629.205	19090.09
629.559	19291.44
629.914	19135.74
630.269	19204.44
630.623	19119.24
630.978	19218.45
631.332	19229.75
631.687	19224.33
632.041	19066.36
632.396	19215.96
632.75	19118.79
633.104	19164.67
633.459	19076.31
633.813	19086.25
634.167	19026.14
634.521	19025.46
634.875	19048.28
635.229	19060.71
635.583	18947.5
635.937	18943.88
636.291	18907.95
636.645	18984.78
636.999	18973.71
637.352	19029.53
637.706	18864.56
638.06	18888.51
638.413	18833.83
638.767	18808.52
639.121	18907.5
639.474	18747.28
639.828	18758.12
640.181	18795.18
640.534	18854.39
640.888	18703.89
641.241	18710.89
641.594	18692.36
641.947	18698.01
642.301	18516.77
642.654	18709.99
643.007	18763.09
643.36	18718.8
643.713	18689.65
644.066	18717.22
644.419	18600.84
644.771	18484.46
645.124	18363.78
645.477	18278.36
645.83	18183.22
646.182	18104.81
646.535	18033.85
646.888	18129.66
647.24	17939.16
647.593	18075.2
647.945	18066.62
648.298	17870.69
648.65	17945.71
649.002	17950.46
649.355	18033.62
649.707	17974.19
650.059	18085.6
650.411	18279.27
650.763	18302.77
651.115	18465.02
651.467	18505.7
651.819	18389.77
652.171	18404.91
652.523	18323.56
652.875	18327.17
653.227	18325.59
653.578	18364.46
653.93	18231.36
654.282	18223.22
654.633	18212.6
654.985	18262.77
655.337	18272.26
655.688	18314.74
656.039	18374.86
656.391	18185.93
656.742	18274.75
657.094	18299.83
657.445	18326.27
657.796	18199.72
658.147	18204.46
658.498	18232.71
658.849	18174.18
659.2	18211.92
659.551	18203.56
659.902	18248.98
660.253	18244.92
660.604	18202.21
660.955	18148.42
661.306	18125.37
661.656	18167.18
662.007	18121.76
662.358	18169.89
662.708	18137.12
663.059	18074.3
663.409	18016.67
663.76	18257.57
664.11	18184.35
664.461	18261.41
664.811	18179.83
665.161	18160.62
665.511	18135.54
665.862	18118.82
666.212	18207.4
666.562	18202.66
666.912	18240.62
667.262	18088.76
667.612	18094.19
667.962	18177.12
668.312	18085.82
668.662	18108.65
669.011	18194.07
669.361	18055.77
669.711	18116.11
670.06	18170.57
670.41	18105.48
670.76	18092.6
671.109	18214.63
671.459	18200.85
671.808	18163.34
672.157	18159.72
672.507	18069.1
672.856	18045.82
673.205	18098.7
673.554	18132.83
673.904	18003.79
674.253	18165.6
674.602	18113.17
674.951	17826.17
675.3	17730.13
675.649	18036.33
675.998	18069.78
676.346	18003.57
676.695	18130.79
677.044	17879.95
677.393	18064.81
677.741	18090.8
678.09	18020.74
678.438	17976.9
678.787	17986.17
679.135	17924.47
679.484	17893.51
679.832	17923.79
680.181	17863.23
680.529	17893.29
680.877	17932.61
681.225	17806.96
681.573	18007.63
681.922	17865.26
682.27	17733.97
682.618	17648.77
682.966	17712.27
683.314	17739.62
683.661	17700.3
684.009	17707.08
684.357	17510.47
684.705	17571.04
685.053	17597.02
685.4	17582.56
685.748	17602.9
686.095	17532.84
686.443	17459.17
686.79	17402.45
687.138	17473.64
687.485	17434.99
687.832	17500.75
688.18	17508.44
688.527	17399.51
688.874	17301.44
689.221	17338.27
689.568	17309.35
689.915	17296.92
690.262	17235.68
690.609	17202.46
690.956	17186.19
691.303	17105.51
691.65	16996.81
691.997	16984.84
692.344	16959.53
692.69	16960.66
693.037	16934.44
693.383	16883.82
693.73	16848.79
694.077	16857.38
694.423	16820.55
694.769	16704.62
695.116	16752.75
695.462	16825.07
695.808	16621.46
696.155	16658.74
696.501	16611.96
696.847	16627.11
697.193	16515.02
697.539	16483.15
697.885	16465.08
698.231	16328.81
698.577	16371.52
698.923	16304.63
699.269	16248.58
699.614	16205.87
699.96	16203.84
700.306	16180.79
700.651	16091.07
700.997	15983.51
701.342	16020.12
701.688	16044.52
702.033	15984.18
702.379	15961.13
702.724	15931.53
703.069	15967.46
703.415	15827.35
703.76	15797.07
704.105	15797.75
704.45	15769.27
704.795	15710.29
705.14	15728.82
705.485	15681.59
705.83	15505.1
706.175	15435.5
706.52	15479.34
706.865	15508.94
707.209	15456.97
707.554	15445.44
707.899	15474.82
708.243	15452.67
708.588	15382.39
708.932	15290.64
709.277	15322.96
709.621	15330.42
709.966	15266.69
710.31	15237.99
710.654	15077.99
710.998	15045.45
711.342	15152.79
711.687	15160.93
712.031	15108.5
712.375	15033.7
712.719	15004.55
713.063	15035.96
713.407	15016.07
713.75	14934.27
714.094	14901.5
714.438	14906.02
714.782	14956.64
715.125	14843.42
715.469	14843.65
715.812	14794.39
716.156	14750.54
716.499	14756.42
716.843	14821.28
717.186	14697.89
717.53	14780.6
717.873	14785.12
718.216	14681.85
718.559	14601.85
718.902	14568.85
719.246	14623.99
719.589	14558.01
719.932	14495.64
720.275	14593.49
720.617	14496.54
720.96	14516.65
721.303	14496.99
721.646	14556.65
721.989	14527.73
722.331	14487.5
722.674	14416.09
723.016	14469.2
723.359	14407.28
723.701	14437.78
724.044	14340.39
724.386	14266.94
724.729	14350.1
725.071	14253.83
725.413	14288.41
725.755	14312.59
726.097	14232.59
726.439	14166.6
726.782	14214.74
727.124	14173.61
727.465	14142.88
727.807	14142.65
728.149	14210.22
728.491	14148.07
728.833	14148.53
729.175	14093.61
729.516	14072.14
729.858	13996.44
730.199	14013.16
730.541	14041.86
730.882	14048.64
731.224	14032.6
731.565	14054.74
731.906	13967.74
732.248	14030.34
732.589	13923
732.93	13906.27
733.271	14005.03
733.612	13964.35
733.953	13974.07
734.294	13899.95
734.635	13860.17
734.976	13922.09
735.317	13836.22
735.658	13843.68
735.999	13887.74
736.339	13825.14
736.68	13803.45
737.021	13804.35
737.361	13745.37
737.702	13810.23
738.042	13821.08
738.383	13663.57
738.723	13805.71
739.063	13711.48
739.404	13698.14
739.744	13624.02
740.084	13725.94
740.424	13661.99
740.764	13586.51
741.104	13672.61
741.444	13572.04
741.784	13553.29
742.124	13605.26
742.464	13558.03
742.804	13522.33
743.143	13529.79
743.483	13599.16
743.823	13486.4
744.162	13504.25
744.502	13499.5
744.841	13461.09
745.181	13508.77
745.52	13405.72
745.86	13412.5
746.199	13364.59
746.538	13409.11
746.877	13429
747.216	13452.27
747.556	13367.3
747.895	13348.77
748.234	13290.92
748.573	13313.07
748.911	13263.35
749.25	13339.51
749.589	13211.38
749.928	13304.48
750.267	13283.92
750.605	13234.43
750.944	13175.22
751.283	13185.39
751.621	13216.57
751.96	13107.65
752.298	13153.52
752.636	13078.95
752.975	12958.95
753.313	12981.55
753.651	12984.94
753.989	12916.47
754.327	12938.61
754.666	12993.08
755.004	12939.97
755.342	13021.32
755.679	12946.07
756.017	12878.28
756.355	12890.03
756.693	12779.97
757.031	12766.64
757.368	12746.76
757.706	12731.39
758.044	12675.8
