Data from tablewood_brown_FLMS001491_028.txt Node
Date: Tue Feb 07 11:10:15 GMT 2017
User: dcchb
Spectrometer: FLMS00149
Trigger mode: 0
Integration Time (sec): 2.000000E-2
Scans to average: 10
Electric dark correction enabled: true
Nonlinearity correction enabled: false
Boxcar width: 0
XAxis mode: Wavelengths
Number of Pixels in Spectrum: 2048
>>>>>Begin Spectral Data<<<<<
341.393	-6.79
341.776	-6.79
342.16	-6.79
342.543	-54.7
342.927	-55.15
343.31	-55.15
343.693	-65.32
344.077	-70.29
344.46	-61.03
344.843	-57.87
345.226	-40.47
345.61	-26
345.993	-39.34
346.376	-25.32
346.759	8.12
347.142	44.05
347.525	37.05
347.908	60.1
348.291	90.6
348.674	80.21
349.057	120.66
349.44	132.64
349.823	148.68
350.206	147.33
350.588	179.42
350.971	204.05
351.354	207.44
351.737	245.4
352.119	230.49
352.502	248.11
352.884	271.84
353.267	269.36
353.65	295.35
354.032	310.03
354.414	304.84
354.797	282.46
355.179	320.43
355.562	336.7
355.944	300.32
356.326	317.49
356.709	334.21
357.091	323.14
357.473	347.32
357.855	353.65
358.238	344.38
358.62	348.68
359.002	349.36
359.384	344.38
359.766	341.9
360.148	343.71
360.53	325.85
360.912	326.08
361.294	344.38
361.676	321.56
362.057	339.41
362.439	322.24
362.821	323.59
363.203	327.66
363.584	317.04
363.966	326.76
364.348	323.14
364.729	325.85
365.111	296.93
365.493	318.62
365.874	312.07
366.256	312.97
366.637	322.01
367.019	324.27
367.4	323.14
367.781	336.93
368.163	312.97
368.544	316.36
368.925	306.19
369.306	335.57
369.688	321.79
370.069	301.9
370.45	327.21
370.831	320.2
371.212	322.24
371.593	308.9
371.974	329.92
372.355	322.46
372.736	317.94
373.117	312.29
373.498	308.9
373.879	308.45
374.26	315.01
374.641	324.95
375.021	319.07
375.402	322.01
375.783	346.19
376.163	345.06
376.544	329.24
376.925	327.89
377.305	325.63
377.686	319.75
378.066	352.74
378.447	345.29
378.827	349.81
379.208	348.45
379.588	329.24
379.968	351.16
380.349	371.05
380.729	341.22
381.109	350.94
381.489	347.32
381.87	356.81
382.25	352.29
382.63	374.44
383.01	341.22
383.39	355.68
383.77	366.98
384.15	368.11
384.53	356.59
384.91	386.19
385.29	361.11
385.67	372.63
386.049	383.03
386.429	388.9
386.809	367.89
387.189	366.08
387.568	367.43
387.948	404.95
388.328	388.45
388.707	380.31
389.087	394.1
389.466	414.44
389.846	387.77
390.225	402.69
390.605	388.9
390.984	384.83
391.363	392.29
391.743	417.6
392.122	408.56
392.501	423.03
392.881	416.47
393.26	420.77
393.639	402.24
394.018	420.77
394.397	429.13
394.776	426.64
395.155	435.68
395.534	432.52
395.913	437.04
396.292	459.41
396.671	429.35
397.05	455.12
397.429	444.95
397.808	444.72
398.186	434.78
398.565	452.18
398.944	449.24
399.323	455.12
399.701	460.76
400.08	447.88
400.458	470.48
400.837	469.8
401.215	478.17
401.594	482.01
401.972	475.23
402.351	475
402.729	479.07
403.107	482.01
403.486	491.95
403.864	484.94
404.242	486.07
404.62	484.49
404.999	487.43
405.377	503.7
405.755	547.99
406.133	509.58
406.511	534.44
406.889	547.54
407.267	524.94
407.645	560.2
408.023	530.37
408.401	547.54
408.779	566.07
409.156	552.51
409.534	572.85
409.912	553.64
410.29	586.41
410.667	554.77
411.045	573.53
411.422	585.51
411.8	597.48
412.178	599.07
412.555	585.06
412.933	598.84
413.31	604.26
413.687	609.46
414.065	597.94
414.442	613.53
414.819	632.06
415.197	633.42
415.574	645.17
415.951	643.81
416.328	655.56
416.705	622.12
417.082	637.94
417.46	646.52
417.837	696.69
418.214	668.44
418.591	670.48
418.967	685.84
419.344	684.04
419.721	686.75
420.098	693.3
420.475	713.64
420.852	722
421.228	695.33
421.605	695.11
421.982	724.71
422.358	735.11
422.735	727.65
423.111	740.08
423.488	715.45
423.864	727.42
424.241	754.54
424.617	755.9
424.994	786.63
425.37	761.77
425.746	757.71
426.123	763.13
426.499	776.01
426.875	773.98
427.251	796.58
427.627	793.64
428.003	827.76
428.379	815.78
428.756	819.85
429.132	857.59
429.507	853.3
429.883	851.71
430.259	863.01
430.635	858.49
431.011	854.43
431.387	886.97
431.763	894.43
432.138	898.95
432.514	921.77
432.89	935.1
433.265	962.45
433.641	944.37
434.016	933.07
434.392	944.37
434.767	954.99
435.143	980.07
435.518	954.31
435.894	994.08
436.269	1017.13
436.644	1045.38
437.02	1037.02
437.395	1014.42
437.77	1051.03
438.145	1048.55
438.52	1064.59
438.895	1086.51
439.271	1061.88
439.646	1098.94
440.021	1094.19
440.395	1134.87
440.77	1101.65
441.145	1097.13
441.52	1133.97
441.895	1144.59
442.27	1151.14
442.645	1153.18
443.019	1160.18
443.394	1163.57
443.769	1180.75
444.143	1175.1
444.518	1222.78
444.892	1186.4
445.267	1215.55
445.641	1225.94
446.016	1223
446.39	1237.92
446.764	1247.18
447.139	1266.85
447.513	1255.55
447.887	1254.42
448.262	1277.47
448.636	1272.27
449.01	1265.26
449.384	1306.17
449.758	1301.87
450.132	1312.27
450.506	1308.88
450.88	1305.26
451.254	1320.18
451.628	1348.65
452.002	1355.2
452.376	1378.71
452.75	1386.39
453.123	1382.55
453.497	1400.18
453.871	1403.56
454.244	1430.68
454.618	1447.18
454.992	1458.7
455.365	1474.07
455.739	1478.14
456.112	1510.23
456.486	1524.47
456.859	1527.4
457.232	1549.1
457.606	1533.96
457.979	1559.72
458.352	1589.77
458.725	1612.37
459.099	1646.04
459.472	1622.99
459.845	1682.43
460.218	1694.4
460.591	1711.58
460.964	1710.68
461.337	1750.45
461.71	1769.43
462.083	1798.13
462.456	1783.89
462.829	1811.24
463.201	1853.72
463.574	1851.91
463.947	1923.55
464.32	1921.07
464.692	1923.1
465.065	1949.54
465.438	2007.84
465.81	2010.55
466.183	1994.96
466.555	2062.98
466.928	2076.77
467.3	2079.71
467.672	2121.96
468.045	2169.19
468.417	2185.92
468.789	2215.29
469.161	2252.58
469.534	2295.74
469.906	2298.91
470.278	2347.49
470.65	2375.29
471.022	2464.55
471.394	2509.52
471.766	2504.78
472.138	2577.09
472.51	2618.45
472.882	2657.54
473.253	2675.62
473.625	2716.98
473.997	2773.25
474.369	2798.56
474.74	2884.66
475.112	2902.51
475.484	2965.33
475.855	3022.28
476.227	3077.42
476.598	3146.8
476.97	3239.67
477.341	3271.31
477.713	3370.97
478.084	3399.9
478.455	3428.82
478.827	3530.51
479.198	3603.51
479.569	3642.38
479.94	3747.23
480.311	3820.22
480.682	3836.04
481.053	3991.97
481.424	4026.32
481.795	4073.33
482.166	4156.03
482.537	4203.49
482.908	4337.72
483.279	4386.09
483.65	4449.81
484.021	4560.32
484.391	4592.63
484.762	4651.61
485.133	4692.07
485.503	4842.12
485.874	4903.13
486.244	4976.13
486.615	5056.58
486.985	5103.35
487.356	5220.64
487.726	5262.22
488.097	5389.67
488.467	5411.37
488.837	5519.39
489.207	5620.18
489.578	5718.93
489.948	5712.6
490.318	5836.44
490.688	5835.09
491.058	5946.72
491.428	6022.2
491.798	6197.56
492.168	6225.81
492.538	6240.05
492.908	6261.52
493.278	6408.86
493.648	6454.28
494.017	6524.11
494.387	6572.02
494.757	6688.17
495.126	6686.59
495.496	6767.49
495.866	6782.86
496.235	6849.98
496.605	6934.27
496.974	7005.68
497.344	7048.61
497.713	7131.1
498.082	7207.93
498.452	7295.61
498.821	7271.89
499.19	7241.6
499.559	7410.64
499.928	7509.62
500.298	7425.33
500.667	7520.47
501.036	7559.11
501.405	7730.18
501.774	7695.38
502.143	7801.59
502.512	7831.42
502.88	7919.33
503.249	7938.31
503.618	7974.01
503.987	8072.09
504.356	8125.87
504.724	8136.04
505.093	8253.55
505.462	8245.64
505.83	8378.07
506.199	8398.86
506.567	8513.66
506.936	8534.9
507.304	8634.79
507.672	8647.89
508.041	8734.45
508.409	8753.65
508.777	8848.34
509.145	8955.68
509.514	8928.56
509.882	9036.81
510.25	9075.91
510.618	9091.05
510.986	9172.17
511.354	9307.31
511.722	9431.6
512.09	9408.78
512.458	9467.99
512.826	9608.32
513.193	9692.84
513.561	9734.65
513.929	9804.02
514.297	9970.8
514.664	9960.18
515.032	10053.73
515.4	10151.81
515.767	10135.54
516.135	10254.18
516.502	10175.31
516.869	10417.79
517.237	10473.83
517.604	10460.5
517.972	10610.1
518.339	10720.83
518.706	10736.88
519.073	10814.62
519.44	10897.55
519.808	10987.27
520.175	11074.5
520.542	11173.03
520.909	11294.83
521.276	11244.89
521.643	11484.2
522.009	11495.95
522.376	11601.71
522.743	11720.58
523.11	11803.52
523.477	12030.4
523.843	12080.35
524.21	12145.66
524.577	12220.46
524.943	12342.71
525.31	12430.62
525.676	12543.61
526.043	12601.24
526.409	12682.59
526.776	12800.1
527.142	12898.63
527.508	12942.24
527.874	13043.48
528.241	13209.36
528.607	13198.28
528.973	13350.6
529.339	13261.78
529.705	13463.13
530.071	13654.09
530.437	13689.12
530.803	13740.87
531.169	13756.01
531.535	13852.28
531.901	13867.42
532.267	13960.07
532.632	14099.05
532.998	14113.97
533.364	14257.24
533.73	14302.66
534.095	14393.51
534.461	14368.42
534.826	14537.91
535.192	14572.03
535.557	14763.44
535.923	14664.01
536.288	14743.55
536.653	14835.3
537.019	14859.26
537.384	14872.14
537.749	14985.58
538.114	14959.14
538.479	15057.22
538.845	15099.7
539.21	15152.58
539.575	15317.32
539.94	15347.15
540.305	15382.63
540.67	15433.48
541.034	15401.61
541.399	15574.27
541.764	15566.58
542.129	15607.26
542.494	15761.15
542.858	15735.62
543.223	15786.01
543.587	15918.89
543.952	15956.85
544.316	15946.69
544.681	16007.47
545.045	16028.72
545.41	16163.63
545.774	16118.88
546.138	16184.65
546.503	16268.94
546.867	16354.36
547.231	16494.69
547.595	16445.2
547.959	16630.96
548.324	16622.6
548.688	16722.48
549.052	16752.99
549.416	16926.77
549.779	16840.22
550.143	17023.49
550.507	16993.44
550.871	17122.47
551.235	17148.46
551.599	17344.84
551.962	17353.2
552.326	17415.12
552.689	17520.66
553.053	17538.73
553.417	17635
553.78	17869.8
554.143	17895.79
554.507	17994.31
554.87	18094.65
555.234	18321.54
555.597	18220.75
555.96	18462.1
556.323	18532.61
556.686	18592.94
557.05	18725.6
557.413	18895.53
557.776	18906.16
558.139	19071.12
558.502	19210.78
558.865	19252.81
559.228	19546.59
559.59	19517.21
559.953	19711.56
560.316	19933.25
560.679	19998.33
561.041	20149.06
561.404	20263.86
561.767	20455.04
562.129	20422.73
562.492	20654.58
562.854	20629.95
563.217	20842.6
563.579	21054.12
563.941	21056.83
564.304	21366.88
564.666	21616.59
565.028	21546.31
565.39	21757.38
565.753	21925.51
566.115	22038.28
566.477	22106.98
566.839	22320.53
567.201	22517.13
567.563	22648.2
567.925	22805.49
568.287	22902.89
568.648	23059.27
569.01	23213.16
569.372	23414.51
569.734	23457
570.095	23689.76
570.457	23829.42
570.819	23964.78
571.18	24061.05
571.542	24240.48
571.903	24462.62
572.265	24518.44
572.626	24681.82
572.987	24822.16
573.349	25010.18
573.71	25167.69
574.071	25312.77
574.432	25499.88
574.794	25755.01
575.155	25784.17
575.516	25859.19
575.877	26021.22
576.238	26171.95
576.599	26331.04
576.96	26393.64
577.32	26418.05
577.681	26633.64
578.042	26707.98
578.403	26978.03
578.763	26942.55
579.124	27167.63
579.485	27306.84
579.845	27452.37
580.206	27469.32
580.566	27588.86
580.927	27616.89
581.287	27778.92
581.648	27748.18
582.008	28012.36
582.368	27958.57
582.728	28114.5
583.089	28182.97
583.449	28271.11
583.809	28284.67
584.169	28290.09
584.529	28278.34
584.889	28594.26
585.249	28400.6
585.609	28366.7
585.969	28599.91
586.329	28535.05
586.688	28620.25
587.048	28755.16
587.408	28627.93
587.768	28681.04
588.127	28763.07
588.487	28808.95
588.846	29013.23
589.206	28888.94
589.565	28937.08
589.925	29017.3
590.284	29079.45
590.643	29061.82
591.003	29130.07
591.362	29306.79
591.721	29203.74
592.08	29150.63
592.44	29370.74
592.799	29328.71
593.158	29318.09
593.517	29356.05
593.876	29304.07
594.235	29360.12
594.593	29317.86
594.952	29539.1
595.311	29272.89
595.67	29444.64
596.029	29525.09
596.387	29608.7
596.746	29698.41
597.104	29705.42
597.463	29614.57
597.822	29774.8
598.18	29652.99
598.538	29770.28
598.897	29826.55
599.255	29579.55
599.613	29993.55
599.972	29850.5
600.33	29911.06
600.688	29689.15
601.046	29812.54
601.404	30065.18
601.762	29873.55
602.12	30057.27
602.478	30068.35
602.836	30181.11
603.194	30001.68
603.552	30179.98
603.91	30020.67
604.268	30274.67
604.625	30121.23
604.983	30134.11
605.341	30074
605.698	30180.21
606.056	30241.68
606.413	30285.29
606.771	30367.55
607.128	30361.22
607.485	30237.61
607.843	30288.68
608.2	30505.4
608.557	30542.01
608.914	30488
609.272	30626.75
609.629	30537.26
609.986	30733.64
610.343	30641.67
610.7	30800.53
611.057	30625.85
611.414	30738.39
611.771	30812.51
612.127	30979.74
612.484	30854.54
612.841	30938.61
613.198	30874.88
613.554	30882.79
613.911	31074.65
614.267	31119.62
614.624	31013.86
614.98	31149.45
615.337	31260.63
615.693	31158.04
616.05	31123.46
616.406	31439.61
616.762	31255.44
617.118	31224.02
617.475	31222.67
617.831	31320.74
618.187	31435.32
618.543	31427.86
618.899	31494.3
619.255	31560.06
619.611	31422.89
619.967	31601.64
620.323	31609.78
620.678	31630.57
621.034	31439.39
621.39	31539.5
621.746	31438.48
622.101	31870.79
622.457	31527.97
622.812	31607.74
623.168	31687.06
623.523	31664.92
623.879	31786.72
624.234	31585.37
624.589	31705.82
624.945	31761.86
625.3	31732.71
625.655	31702.66
626.01	31770.9
626.365	31720.51
626.72	31713.73
627.075	31691.13
627.43	31621.08
627.785	31515.09
628.14	31756.21
628.495	31647.52
628.85	31597.12
629.205	31470.8
629.559	31598.03
629.914	31381.76
630.269	31472.6
630.623	31524.58
630.978	31379.05
631.332	31596.22
631.687	31584.92
632.041	31367.07
632.396	31473.51
632.75	31440.74
633.104	31410.46
633.459	31286.62
633.813	31233.29
634.167	31195.32
634.521	31346.51
634.875	31305.38
635.229	31200.3
635.583	31083.91
635.937	31031.26
636.291	31171.14
636.645	30985.84
636.999	30927.08
637.352	31124.14
637.706	30823.13
638.06	30839.63
638.413	30838.95
638.767	30787.65
639.121	30796.92
639.474	30754.88
639.828	30607.99
640.181	30731.83
640.534	30782.23
640.888	30640.76
641.241	30551.5
641.594	30736.13
641.947	30636.69
642.301	30517.6
642.654	30641.44
643.007	30631.72
643.36	30491.61
643.713	30368
644.066	30593.98
644.419	30271.05
644.771	30203.49
645.124	29922.14
645.477	29855.25
645.83	29709.04
646.182	29533.45
646.535	29597.4
646.888	29585.2
647.24	29463.84
647.593	29506.1
647.945	29523.05
648.298	29245.32
648.65	29371.42
649.002	29149.73
649.355	29391.98
649.707	29428.59
650.059	29470.17
650.411	29889.37
650.763	29803.27
651.115	30143.83
651.467	30049.14
651.819	30077.39
652.171	29867
652.523	29860.22
652.875	29958.07
653.227	29850.27
653.578	29954.68
653.93	29955.13
654.282	29922.81
654.633	29756.27
654.985	29796.49
655.337	29823.16
655.688	29829.71
656.039	29882.14
656.391	29587.68
656.742	29758.07
657.094	29720.79
657.445	29830.16
657.796	29818.18
658.147	29817.51
658.498	29716.04
658.849	29789.03
659.2	29764.63
659.551	29765.08
659.902	29923.27
660.253	29717.4
660.604	29833.55
660.955	29622.94
661.306	29711.52
661.656	29722.59
662.007	29606.89
662.358	29635.14
662.708	29628.36
663.059	29652.09
663.409	29409.83
663.76	29639.43
664.11	29630.62
664.461	29629.49
664.811	29667.23
665.161	29732.09
665.511	29580.9
665.862	29653.67
666.212	29655.25
666.562	29784.51
666.912	29670.84
667.262	29604.63
667.612	29645.99
667.962	29762.37
668.312	29667
668.662	29702.26
669.011	29489.61
669.361	29449.16
669.711	29533.67
670.06	29443.05
670.41	29447.8
670.76	29489.15
671.109	29499.78
671.459	29421.13
671.808	29375.48
672.157	29454.35
672.507	29228.14
672.856	29265.66
673.205	29441.92
673.554	29314.24
673.904	29138.43
674.253	29347.91
674.602	29325.09
674.951	28860.02
675.3	28736.86
675.649	29187.92
675.998	29053.01
676.346	28928.94
676.695	29136.85
677.044	28928.26
677.393	29073.8
677.741	29140.69
678.09	29113.12
678.438	28944.76
678.787	28999.9
679.135	28894.82
679.484	28749.51
679.832	28942.95
680.181	28765.11
680.529	28789.96
680.877	28748.16
681.225	28718.78
681.573	28805.1
681.922	28541.83
682.27	28458.22
682.618	28577.54
682.966	28496.19
683.314	28538.44
683.661	28399.92
684.009	28115.63
684.357	28187.49
684.705	28244.89
685.053	28112.24
685.4	28071.56
685.748	27910.89
686.095	27973.49
686.443	27735.3
686.79	27872.93
687.138	27790.22
687.485	27875.19
687.832	27744.12
688.18	27723.55
688.527	27508.64
688.874	27583.89
689.221	27402.66
689.568	27345.26
689.915	27154.07
690.262	27347.06
690.609	27177.8
690.956	27019.39
691.303	27128.54
691.65	26940.97
691.997	26959.28
692.344	26759.73
692.69	26645.61
693.037	26839.05
693.383	26490.36
693.73	26588.89
694.077	26345.73
694.423	26385.51
694.769	26340.54
695.116	26251.95
695.462	26174.89
695.808	25999.75
696.155	26084.05
696.501	25776.03
696.847	25860.77
697.193	25655.36
697.539	25816.48
697.885	25565.19
698.231	25498.98
698.577	25475.7
698.923	25410.39
699.269	25221.24
699.614	25174.69
699.96	25118.2
700.306	25031.19
700.651	24924.3
700.997	24874.59
701.342	24883.85
701.688	24782.61
702.033	24777.41
702.379	24696.74
702.724	24648.38
703.069	24581.71
703.415	24281.61
703.76	24323.41
704.105	24346.46
704.45	24241.61
704.795	24024.66
705.14	23987.6
705.485	23980.15
705.83	23950.32
706.175	23867.15
706.52	23696.99
706.865	23708.29
707.209	23731.57
707.554	23502.64
707.899	23570.89
708.243	23461.74
708.588	23477.56
708.932	23300.39
709.277	23222.88
709.621	23293.16
709.966	23073.96
710.31	23122.77
710.654	22908.08
710.998	23049.78
711.342	23092.49
711.687	22931.36
712.031	22807.97
712.375	22694.3
712.719	22816.34
713.063	22775.88
713.407	22779.05
713.75	22618.15
714.094	22613.63
714.438	22469.9
714.782	22551.94
715.125	22438.94
715.469	22469.68
715.812	22407.31
716.156	22256.12
716.499	22315.78
716.843	22410.24
717.186	22060.2
717.53	22032.63
717.873	22223.58
718.216	22145.17
718.559	22036.47
718.902	22008.22
719.246	22139.97
719.589	22004.15
719.932	21905.17
720.275	21979.07
720.617	21867.66
720.96	21921.22
721.303	21866.53
721.646	21913.31
721.989	21777.27
722.331	21723.26
722.674	21715.57
723.016	21676.7
723.359	21703.6
723.701	21698.85
724.044	21598.97
724.386	21581.79
724.729	21622.92
725.071	21478.29
725.413	21524.17
725.755	21548.12
726.097	21450.72
726.439	21370.27
726.782	21460.66
727.124	21564.16
727.465	21558.06
727.807	21398.97
728.149	21346.09
728.491	21239.2
728.833	21347.45
729.175	21339.31
729.516	21318.75
729.858	21262.93
730.199	21293.44
730.541	21231.07
730.882	21263.16
731.224	21226.32
731.565	21159.88
731.906	21149.26
732.248	21052.31
732.589	20975.48
732.93	21054.35
733.271	21108.13
733.612	21181.58
733.953	21142.93
734.294	20993.33
734.635	21062.71
734.976	21170.5
735.317	21124.85
735.658	20999.66
735.999	21010.51
736.339	21058.64
736.68	21026.55
737.021	20972.32
737.361	20975.48
737.702	21148.81
738.042	21019.32
738.383	21019.09
738.723	21029.94
739.063	20950.4
739.404	21060
739.744	20970.51
740.084	20785.2
740.424	20910.4
740.764	20933.67
741.104	21015.25
741.444	20878.76
741.784	20802.83
742.124	20886.89
742.464	20856.61
742.804	20899.1
743.143	20873.11
743.483	20941.58
743.823	20798.08
744.162	20813
744.502	20946.33
744.841	20705.66
745.181	20945.88
745.52	20866.1
745.86	20806.22
746.199	20811.42
746.538	20761.93
746.877	20825.65
747.216	20753.79
747.556	20700.46
747.895	20693
748.234	20685.09
748.573	20677.18
748.911	20757.63
749.25	20737.52
749.589	20569.16
749.928	20620.69
750.267	20639.22
750.605	20609.61
750.944	20635.15
751.283	20521.48
751.621	20568.26
751.96	20422.05
752.298	20512.89
752.636	20491.88
752.975	20407.58
753.313	20354.25
753.651	20534.59
753.989	20394.03
754.327	20328.26
754.666	20280.13
755.004	20278.1
755.342	20327.14
755.679	20301.6
756.017	20174.37
756.355	20224.76
