Data from tablewood_dark_bookshelf_FLMS001491_00087.txt Node
Date: Wed Feb 08 14:15:50 GMT 2017
User: dcchb
Spectrometer: FLMS00149
Trigger mode: 0
Integration Time (sec): 2.000000E-2
Scans to average: 10
Electric dark correction enabled: true
Nonlinearity correction enabled: false
Boxcar width: 0
XAxis mode: Wavelengths
Number of Pixels in Spectrum: 2048
>>>>>Begin Spectral Data<<<<<
341.393	-14.96
341.776	-14.96
342.16	-14.96
342.543	-59.7
342.927	-60.83
343.31	-66.26
343.693	-72.58
344.077	-80.72
344.46	-43.21
344.843	-46.37
345.226	-41.17
345.61	-19.7
345.993	-27.84
346.376	-4.56
346.759	5.16
347.142	30.01
347.525	41.09
347.908	54.19
348.291	68.2
348.674	103.68
349.057	100.07
349.44	103.23
349.823	168.54
350.206	150.69
350.588	189.11
350.971	207.18
351.354	220.74
351.737	206.28
352.119	250.35
352.502	254.64
352.884	265.04
353.267	267.3
353.65	298.25
354.032	272.72
354.414	292.61
354.797	301.64
355.179	321.53
355.562	329.21
355.944	328.31
356.326	343.45
356.709	333.96
357.091	324.02
357.473	331.25
357.855	344.36
358.238	328.54
358.62	347.75
359.002	333.28
359.384	343.9
359.766	321.53
360.148	338.25
360.53	335.32
360.912	324.24
361.294	333.73
361.676	333.06
362.057	345.26
362.439	338.71
362.821	323.79
363.203	322.21
363.584	328.31
363.966	326.5
364.348	334.19
364.729	317.24
365.111	307.75
365.493	322.66
365.874	303
366.256	335.99
366.637	325.15
367.019	308.2
367.4	323.56
367.781	311.59
368.163	313.4
368.544	306.62
368.925	319.27
369.306	326.5
369.688	329.67
370.069	347.29
370.45	319.5
370.831	317.01
371.212	333.51
371.593	298.93
371.974	348.65
372.355	310.23
372.736	333.06
373.117	303.23
373.498	324.47
373.879	327.18
374.26	328.08
374.641	313.62
375.021	322.21
375.402	332.6
375.783	315.88
376.163	319.27
376.544	353.85
376.925	317.24
377.305	338.71
377.686	330.12
378.066	341.42
378.447	335.99
378.827	355.2
379.208	341.87
379.588	319.95
379.968	343.45
380.349	359.5
380.729	366.95
381.109	350.68
381.489	373.28
381.87	349.33
382.25	350.46
382.63	364.92
383.01	376.22
383.39	360.85
383.77	380.29
384.15	378.93
384.53	377.35
384.91	381.19
385.29	397.46
385.67	398.37
386.049	389.1
386.429	394.98
386.809	383
387.189	391.36
387.568	385.26
387.948	377.35
388.328	401.08
388.707	396.56
389.087	409.21
389.466	406.05
389.846	405.82
390.225	412.38
390.605	413.96
390.984	410.79
391.363	421.64
391.743	424.58
392.122	423.68
392.501	432.26
392.881	431.58
393.26	417.35
393.639	433.62
394.018	449.21
394.397	452.83
394.776	451.47
395.155	443.56
395.534	435.43
395.913	447.86
396.292	460.96
396.671	467.74
397.05	460.28
397.429	453.28
397.808	458.48
398.186	449.21
398.565	455.31
398.944	471.36
399.323	480.62
399.701	461.41
400.08	470.91
400.458	483.11
400.837	475.88
401.215	480.4
401.594	488.31
401.972	510.9
402.351	498.25
402.729	498.02
403.107	499.83
403.486	490.79
403.864	509.77
404.242	518.14
404.62	519.27
404.999	524.24
405.377	514.29
405.755	521.75
406.133	539.15
406.511	528.76
406.889	544.12
407.267	539.6
407.645	534.18
408.023	548.64
408.401	568.3
408.779	537.8
409.156	569.66
409.534	568.3
409.912	598.81
410.29	569.43
410.667	582.09
411.045	592.94
411.422	591.58
411.8	578.47
412.178	594.07
412.555	619.15
412.933	604.01
413.31	626.61
413.687	643.1
414.065	620.51
414.442	613.95
414.819	644.23
415.197	662.09
415.574	643.78
415.951	666.83
416.328	642.88
416.705	664.8
417.082	688.98
417.46	688.3
417.837	674.97
418.214	714.29
418.591	687.4
418.967	703.67
419.344	707.51
419.721	712.48
420.098	714.74
420.475	737.11
420.852	717
421.228	738.47
421.605	742.76
421.982	754.97
422.358	728.98
422.735	769.43
423.111	746.15
423.488	767.62
423.864	752.71
424.241	787.51
424.617	771.01
424.994	793.61
425.37	796.09
425.746	800.39
426.123	798.58
426.499	806.94
426.875	825.92
427.251	853.72
427.627	855.75
428.003	863.21
428.379	871.35
428.756	878.58
429.132	883.32
429.507	896.66
429.883	895.3
430.259	925.81
430.635	914.96
431.011	942.98
431.387	941.85
431.763	975.75
432.138	980.04
432.514	961.74
432.89	967.62
433.265	980.72
433.641	986.82
434.016	1003.55
434.392	1028.86
434.767	1031.57
435.143	1035.41
435.518	1070.44
435.894	1074.05
436.269	1091.91
436.644	1093.94
437.02	1096.88
437.395	1100.04
437.77	1086.71
438.145	1122.41
438.52	1116.09
438.895	1156.54
439.271	1148.85
439.646	1165.12
440.021	1168.29
440.395	1200.6
440.77	1154.96
441.145	1183.88
441.52	1212.58
441.895	1224.33
442.27	1208.51
442.645	1207.61
443.019	1224.11
443.394	1227.5
443.769	1240.38
444.143	1227.72
444.518	1281.05
444.892	1258.91
445.267	1261.39
445.641	1288.29
446.016	1277.44
446.39	1283.54
446.764	1323.76
447.139	1303.88
447.513	1293.93
447.887	1322.41
448.262	1333.03
448.636	1349.07
449.01	1370.77
449.384	1359.92
449.758	1380.71
450.132	1392.01
450.506	1373.93
450.88	1393.59
451.254	1425.91
451.628	1415.29
452.002	1452.12
452.376	1455.96
452.75	1481.95
453.123	1485.34
453.497	1497.32
453.871	1500.26
454.244	1515.17
454.618	1563.53
454.992	1575.06
455.365	1597.2
455.739	1587.49
456.112	1611.44
456.486	1639.24
456.859	1628.16
457.232	1672.46
457.606	1679.46
457.979	1678.33
458.352	1709.97
458.725	1725.79
459.099	1752.23
459.472	1774.6
459.845	1794.71
460.218	1801.49
460.591	1830.42
460.964	1838.55
461.337	1873.81
461.71	1893.69
462.083	1913.58
462.456	1940.02
462.829	1944.77
463.201	1950.19
463.574	2001.71
463.947	1981.15
464.32	2021.15
464.692	2065.21
465.065	2072.45
465.438	2119.45
465.81	2139.79
466.183	2138.88
466.555	2207.58
466.928	2212.33
467.3	2225.44
467.672	2269.5
468.045	2318.54
468.417	2316.96
468.789	2325.77
469.161	2357.18
469.534	2373.91
469.906	2445.32
470.278	2425.43
470.65	2497.52
471.022	2501.81
471.394	2554.24
471.766	2591.53
472.138	2592.43
472.51	2690.28
472.882	2675.59
473.253	2716.5
473.625	2807.57
473.997	2854.8
474.369	2836.27
474.74	2896.38
475.112	2907.9
475.484	2965.76
475.855	3002.14
476.227	3040.1
476.598	3115.36
476.97	3177.28
477.341	3204.39
477.713	3248.91
478.084	3281.23
478.455	3387.21
478.827	3415.01
479.198	3455.91
479.569	3453.65
479.94	3555.34
480.311	3620.65
480.682	3667.43
481.053	3735.23
481.424	3806.86
481.795	3851.16
482.166	3926.18
482.537	3968.89
482.908	4039.63
483.279	4100.19
483.65	4155.33
484.021	4237.81
484.391	4291.82
484.762	4263.57
485.133	4303.12
485.503	4409.79
485.874	4504.25
486.244	4537.01
486.615	4639.38
486.985	4709.44
487.356	4753.73
487.726	4763
488.097	4881.64
488.467	4894.74
488.837	4988.98
489.207	5056.77
489.578	5118.24
489.948	5193.95
490.318	5207.05
490.688	5284.34
491.058	5330.21
491.428	5416.54
491.798	5518.46
492.168	5608.85
492.538	5625.35
492.908	5632.35
493.278	5713.25
493.648	5723.42
494.017	5782.4
494.387	5851.56
494.757	5910.08
495.126	5970.2
495.496	6024.21
495.866	6008.39
496.235	6075.96
496.605	6115.28
496.974	6195.73
497.344	6226.69
497.713	6275.5
498.082	6336.97
498.452	6400.24
498.821	6403.41
499.19	6437.75
499.559	6522.27
499.928	6599.78
500.298	6619.9
500.667	6691.99
501.036	6688.37
501.405	6791.42
501.774	6760.68
502.143	6856.5
502.512	6860.12
502.88	6953.22
503.249	6926.33
503.618	6980.79
503.987	7050.62
504.356	7082.94
504.724	7159.09
505.093	7164.52
505.462	7222.37
505.83	7249.03
506.199	7197.96
506.567	7406.99
506.936	7455.81
507.304	7510.49
507.672	7521.79
508.041	7620.55
508.409	7637.04
508.777	7730.83
509.145	7818.74
509.514	7721.34
509.882	7817.83
510.25	7858.96
510.618	7933.08
510.986	7924.95
511.354	8070.25
511.722	8091.27
512.09	8214.88
512.458	8189.12
512.826	8344.6
513.193	8372.39
513.561	8341.43
513.929	8451.03
514.297	8542.33
514.664	8534.42
515.032	8579.62
515.4	8653.74
515.767	8750.24
516.135	8774.42
516.502	8770.12
516.869	8927.63
517.237	8940.74
517.604	8924.02
517.972	9020.74
518.339	9127.63
518.706	9172.6
519.073	9188.19
519.44	9253.5
519.808	9345.93
520.175	9425.25
520.542	9585.92
520.909	9634.05
521.276	9577.56
521.643	9700.72
522.009	9704.11
522.376	9823.65
522.743	9860.26
523.11	9906.59
523.477	10050.77
523.843	10146.13
524.21	10204.21
524.577	10321.49
524.943	10385.67
525.31	10365.11
525.676	10613.92
526.043	10582.96
526.409	10656.85
526.776	10781.37
527.142	10736.4
527.508	10821.82
527.874	11024.3
528.241	11080.8
528.607	11060.01
528.973	11193.34
529.339	11227.01
529.705	11352.65
530.071	11376.16
530.437	11379.09
530.803	11508.13
531.169	11646.88
531.535	11582.48
531.901	11639.88
532.267	11751.06
532.632	11777.5
532.998	11814.11
533.364	11920.77
533.73	11945.18
534.095	11994.22
534.461	12085.52
534.826	12124.38
535.192	12175.46
535.557	12330.71
535.923	12281.67
536.288	12364.6
536.653	12315.79
537.019	12383.13
537.384	12526.18
537.749	12529.8
538.114	12574.09
538.479	12603.02
538.845	12692.28
539.21	12692.28
539.575	12744.26
539.94	12806.85
540.305	12915.32
540.67	12893.63
541.034	12973.63
541.399	13022.89
541.764	13028.54
542.129	13083
542.494	13073.51
542.858	13184.7
543.223	13220.17
543.587	13215.88
543.952	13234.19
544.316	13379.49
544.681	13274.41
545.045	13403
545.41	13454.97
545.774	13463.56
546.138	13580.62
546.503	13573.61
546.867	13534.52
547.231	13671.46
547.595	13760.05
547.959	13777.22
548.324	13799.82
548.688	13913.26
549.052	13993.49
549.416	13963.66
549.779	14042.98
550.143	14065.35
550.507	14096.99
550.871	14127.5
551.235	14193.03
551.599	14294.5
551.962	14285.23
552.326	14373.37
552.689	14499.46
553.053	14408.17
553.417	14467.6
553.78	14658.56
554.143	14577.88
554.507	14743.52
554.87	14805.67
555.234	14874.37
555.597	14948.72
555.96	14925.89
556.323	15023.97
556.686	14980.13
557.05	15138.54
557.413	15160.24
557.776	15215.15
558.139	15349.38
558.502	15350.74
558.865	15390.06
559.228	15516.39
559.59	15608.81
559.953	15599.32
560.316	15802.25
560.679	15822.82
561.041	15863.27
561.404	15998.63
561.767	16038.18
562.129	16115.69
562.492	16211.51
562.854	16230.94
563.217	16189.59
563.579	16334.67
563.941	16467.1
564.304	16528.56
564.666	16569.92
565.028	16693.3
565.39	16718.16
565.753	16924.03
566.115	16927.42
566.477	17010.58
566.839	16984.14
567.201	17185.95
567.563	17200.18
567.925	17337.58
568.287	17313.4
568.648	17445.37
569.01	17499.84
569.372	17666.39
569.734	17547.52
570.095	17760.39
570.457	17793.61
570.819	17886.94
571.18	17896.44
571.542	17976.89
571.903	18030.67
572.265	18025.02
572.626	18209.2
572.987	18244
573.349	18261.62
573.71	18366.03
574.071	18419.13
574.432	18480.15
574.794	18619.81
575.155	18662.29
575.516	18674.27
575.877	18800.59
576.238	18796.07
576.599	18875.85
576.96	18865.68
577.32	19015.28
577.681	19054.15
578.042	19161.04
578.403	19107.7
578.763	19112.9
579.124	19160.36
579.485	19281.71
579.845	19461.37
580.206	19279.9
580.566	19358.32
580.927	19347.02
581.287	19508.6
581.648	19434.7
582.008	19577.3
582.368	19555.15
582.728	19557.41
583.089	19615.49
583.449	19699.33
583.809	19746.11
584.169	19704.52
584.529	19666.11
584.889	19840.57
585.249	19732.55
585.609	19655.94
585.969	19901.81
586.329	19680.8
586.688	19897.51
587.048	19858.42
587.408	19874.92
587.768	19979.32
588.127	20003.95
588.487	19939.32
588.846	20119.88
589.206	19986.55
589.565	20077.85
589.925	20165.76
590.284	20014.57
590.643	20087.57
591.003	20097.96
591.362	20229.26
591.721	20260.22
592.08	20243.27
592.44	20275.13
592.799	20255.47
593.158	20278.52
593.517	20424.73
593.876	20361.46
594.235	20305.86
594.593	20314
594.952	20516.25
595.311	20456.82
595.67	20354.45
596.029	20495.46
596.387	20606.87
596.746	20655.46
597.104	20507.44
597.463	20548.57
597.822	20588.79
598.18	20673.54
598.538	20591.96
598.897	20731.39
599.255	20573.2
599.613	20940.2
599.972	20746.08
600.33	20855.91
600.688	20765.97
601.046	20895.91
601.404	20876.47
601.762	20903.36
602.12	20892.06
602.478	21008.9
602.836	21043.47
603.194	20908.11
603.552	21005.06
603.91	20928.45
604.268	21032.4
604.625	20999.86
604.983	21105.39
605.341	21191.49
605.698	21109.01
606.056	21245.5
606.413	21108.78
606.771	21254.09
607.128	21285.05
607.485	21159.63
607.843	21223.81
608.2	21310.13
608.557	21494.08
608.914	21491.37
609.272	21603.01
609.629	21519.17
609.986	21619.73
610.343	21458.6
610.7	21680.52
611.057	21657.24
611.414	21658.15
611.771	21725.49
612.127	21794.41
612.484	21648.65
612.841	21804.58
613.198	21708.54
613.554	21828.08
613.911	21906.05
614.267	22022.66
614.624	21910.57
614.98	21955.54
615.337	22094.29
615.693	22012.71
616.05	21943.34
616.406	22160.96
616.762	22089.55
617.118	22052.03
617.475	22067.63
617.831	22185.81
618.187	22241.18
618.543	22213.84
618.899	22218.81
619.255	22184.69
619.611	22221.29
619.967	22323.44
620.323	22316.43
620.678	22208.41
621.034	22188.07
621.39	22299.71
621.746	22133.61
622.101	22463.32
622.457	22240.73
622.812	22321.63
623.168	22408.86
623.523	22390.1
623.879	22411.8
624.234	22401.63
624.589	22303.78
624.945	22398.46
625.3	22392.14
625.655	22407.73
626.01	22379.93
626.365	22395.75
626.72	22409.99
627.075	22252.25
627.43	22458.12
627.785	22343.78
628.14	22357.34
628.495	22357.79
628.85	22305.36
629.205	22329.54
629.559	22411.57
629.914	22347.62
630.269	22280.95
630.623	22140.62
630.978	22161.18
631.332	22308.52
631.687	22339.26
632.041	22266.72
632.396	22275.3
632.75	22247.51
633.104	22202.99
633.459	22177.68
633.813	21970.23
634.167	22047.97
634.521	22073.28
634.875	22013.39
635.229	22076.44
635.583	22011.13
635.937	21945.14
636.291	21951.24
636.645	22083.67
636.999	21818.59
637.352	21964.35
637.706	21810.01
638.06	21855.65
638.413	21797.35
638.767	21721.42
639.121	21868.08
639.474	21666.28
639.828	21687.07
640.181	21736.79
640.534	21680.52
640.888	21628.54
641.241	21544.93
641.594	21598.94
641.947	21622.21
642.301	21566.17
642.654	21618.82
643.007	21674.19
643.36	21547.87
643.713	21534.98
644.066	21562.1
644.419	21452.95
644.771	21262
645.124	21087.09
645.477	21056.58
645.83	20967.77
646.182	20797.6
646.535	20860.2
646.888	20803.03
647.24	20596.25
647.593	20745.85
647.945	20611.39
648.298	20613.65
648.65	20642.13
649.002	20576.14
649.355	20565.29
649.707	20658.17
650.059	20778.39
650.411	21000.76
650.763	21072.17
651.115	21277.14
651.467	21127.09
651.819	21120.98
652.171	21001.67
652.523	20975.45
652.875	21030.14
653.227	20838.51
653.578	21078.05
653.93	21112.62
654.282	21010.48
654.633	20871.73
654.985	20873.99
655.337	20887.32
655.688	20881.44
656.039	20946.75
656.391	20886.64
656.742	20815.91
657.094	20770.26
657.445	20922.8
657.796	20869.01
658.147	20900.2
658.498	20942.46
658.849	20894.32
659.2	20870.37
659.551	20876.92
659.902	20869.47
660.253	20770.03
660.604	20843.48
660.955	20740.88
661.306	20753.08
661.656	20808
662.007	20756.02
662.358	20803.48
662.708	20809.58
663.059	20735.23
663.409	20642.13
663.76	20770.26
664.11	20755.12
664.461	20738.62
664.811	20779.52
665.161	20826.3
665.511	20736.59
665.862	20724.38
666.212	20727.1
666.562	20798.73
666.912	20746.76
667.262	20706.53
667.612	20727.32
667.962	20706.08
668.312	20620.21
668.662	20787.21
669.011	20745.17
669.361	20649.36
669.711	20548.57
670.06	20714.44
670.41	20720.32
670.76	20619.3
671.109	20612.97
671.459	20663.14
671.808	20607.55
672.157	20556.25
672.507	20563.94
672.856	20558.06
673.205	20516.93
673.554	20676.25
673.904	20518.29
674.253	20570.72
674.602	20559.42
674.951	20281.01
675.3	20111.75
675.649	20372.08
675.998	20459.31
676.346	20414.79
676.695	20485.29
677.044	20323.04
677.393	20358.07
677.741	20358.97
678.09	20378.86
678.438	20345.19
678.787	20373.66
679.135	20407.56
679.484	20302.47
679.832	20280.55
680.181	20250.72
680.529	20201.01
680.877	20222.48
681.225	20141.35
681.573	20239.2
681.922	20039.43
682.27	20043.72
682.618	20109.03
682.966	20042.82
683.314	20011.18
683.661	19880.11
684.009	19885.08
684.357	19837.18
684.705	19870.17
685.053	19941.13
685.4	19896.38
685.748	19676.73
686.095	19736.84
686.443	19692.1
686.79	19594.47
687.138	19588.6
687.485	19604.64
687.832	19520.12
688.18	19587.69
688.527	19478.32
688.874	19502.04
689.221	19547.47
689.568	19452.33
689.915	19339.34
690.262	19409.84
690.609	19383.85
690.956	19231.77
691.303	19274.48
691.65	19117.42
691.997	19085.33
692.344	19088.5
692.69	18966.46
693.037	18967.37
693.383	18886.47
693.73	18871.1
694.077	18788.39
694.423	18762.18
694.769	18738.67
695.116	18717.66
695.462	18633.59
695.808	18416.42
696.155	18672.91
696.501	18400.6
696.847	18541.17
697.193	18248.07
697.539	18406.03
697.885	18247.16
698.231	18161.29
698.577	18109.09
698.923	18090.78
699.269	18050.56
699.614	18056.66
699.96	18098.92
700.306	18074.74
700.651	17940.95
700.997	17880.39
701.342	17851.92
701.688	17765.59
702.033	17699.15
702.379	17737.57
702.724	17665.48
703.069	17704.35
703.415	17404.47
703.76	17505.26
704.105	17530.8
704.45	17459.61
704.795	17316.79
705.14	17409.9
705.485	17282.22
705.83	17318.6
706.175	17340.74
706.52	17164.93
706.865	17275.21
707.209	17158.6
707.554	17051.49
707.899	17154.76
708.243	17076.8
708.588	16968.1
708.932	16866.63
709.277	16844.49
709.621	16859.4
709.966	16715.22
710.31	16856.92
710.654	16588
710.998	16747.77
711.342	16611.5
711.687	16614.44
712.031	16557.94
712.375	16608.11
712.719	16540.54
713.063	16465.06
713.407	16576.92
713.75	16460.32
714.094	16503.48
714.438	16351.84
714.782	16396.59
715.125	16409.7
715.469	16369.24
715.812	16261.9
716.156	16065.07
716.499	16220.1
716.843	16214.9
717.186	16156.82
717.53	16185.07
717.873	16259.87
718.216	16103.94
718.559	16054.9
718.902	15972.19
719.246	15964.74
719.589	15920.67
719.932	15850.84
720.275	15989.14
720.617	15930.84
720.96	15883.16
721.303	15803.38
721.646	15811.75
721.989	15806.32
722.331	15886.77
722.674	15708.92
723.016	15799.32
723.359	15747.11
723.701	15833.21
724.044	15552.77
724.386	15553.22
724.729	15639.55
725.071	15613.56
725.413	15510.51
725.755	15606.1
726.097	15546.89
726.439	15502.83
726.782	15496.73
727.124	15548.25
727.465	15377.18
727.807	15437.97
728.149	15416.95
728.491	15345.09
728.833	15409.5
729.175	15355.94
729.516	15306
729.858	15319.78
730.199	15312.1
730.541	15301.25
730.882	15287.47
731.224	15360.23
731.565	15188.26
731.906	15245.43
732.248	15198.2
732.589	15162.04
732.93	15122.27
733.271	15216.96
733.612	15170.18
733.953	15171.31
734.294	15099
734.635	15165.43
734.976	15235.49
735.317	15094.02
735.658	15077.53
735.999	15058.77
736.339	14957.08
736.68	15034.82
737.021	14988.94
737.361	14880.92
737.702	14943.07
738.042	14999.34
738.383	14814.94
738.723	14966.34
739.063	14958.89
739.404	14963.86
739.744	14945.1
740.084	14873.92
740.424	14837.08
740.764	14866.01
741.104	14922.73
741.444	14767.93
741.784	14752.34
742.124	14759.34
742.464	14751.43
742.804	14717.08
743.143	14731.32
743.483	14731.1
743.823	14690.87
744.162	14700.59
744.502	14713.24
744.841	14579.91
745.181	14762.28
745.52	14562.06
745.86	14688.16
746.199	14631.89
746.538	14595.73
746.877	14542.4
747.216	14606.35
747.556	14530.42
747.895	14536.52
748.234	14454.49
748.573	14576.07
748.911	14425.57
749.25	14442.52
749.589	14419.01
749.928	14369.3
750.267	14346.02
750.605	14361.39
750.944	14440.48
751.283	14366.36
751.621	14329.75
751.96	14202.97
752.298	14180.83
752.636	14254.05
752.975	14213.82
753.313	14190.77
753.651	14265.8
753.989	14119.36
754.327	14062.41
754.666	14046.59
755.004	14019.93
755.342	14120.94
755.679	14063.09
756.017	14031
756.355	14148.29
