Data from tablewood_brown_FLMS001491_008.txt Node
Date: Tue Feb 07 11:09:56 GMT 2017
User: dcchb
Spectrometer: FLMS00149
Trigger mode: 0
Integration Time (sec): 2.000000E-2
Scans to average: 10
Electric dark correction enabled: true
Nonlinearity correction enabled: false
Boxcar width: 0
XAxis mode: Wavelengths
Number of Pixels in Spectrum: 2048
>>>>>Begin Spectral Data<<<<<
341.393	-28.86
341.776	-28.86
342.16	-28.86
342.543	-58.91
342.927	-68.18
343.31	-61.17
343.693	-77.89
344.077	-75.41
344.46	-68.63
344.843	-52.13
345.226	-40.83
345.61	-24.11
345.993	-9.42
346.376	6.17
346.759	11.14
347.142	17.92
347.525	48.88
347.908	45.72
348.291	79.16
348.674	83.91
349.057	116.68
349.44	147.19
349.823	125.04
350.206	169.11
350.588	205.04
350.971	203
351.354	214.98
351.737	236.9
352.119	265.15
352.502	280.97
352.884	292.04
353.267	275.54
353.65	275.32
354.032	301.53
354.414	296.56
354.797	323
355.179	316.67
355.562	339.04
355.944	340.4
356.326	320.51
356.709	353.06
357.091	347.63
357.473	352.83
357.855	355.32
358.238	330.23
358.62	347.86
359.002	348.76
359.384	345.37
359.766	350.34
360.148	335.43
360.53	328.65
360.912	337.01
361.294	368.2
361.676	348.76
362.057	354.41
362.439	343.79
362.821	341.76
363.203	325.03
363.584	342.66
363.966	327.52
364.348	363
364.729	322.32
365.111	323.45
365.493	331.59
365.874	315.99
366.256	309.89
366.637	339.04
367.019	339.27
367.4	346.73
367.781	312.83
368.163	347.63
368.544	335.88
368.925	318.03
369.306	351.7
369.688	324.13
370.069	329.55
370.45	340.4
370.831	350.12
371.212	337.24
371.593	331.14
371.974	348.99
372.355	329.1
372.736	341.98
373.117	342.43
373.498	320.74
373.879	345.37
374.26	339.27
374.641	333.4
375.021	309.22
375.402	327.75
375.783	342.66
376.163	349.67
376.544	344.47
376.925	356.45
377.305	368.42
377.686	339.27
378.066	355.99
378.447	353.96
378.827	342.89
379.208	344.92
379.588	361.87
379.968	370.68
380.349	373.39
380.729	367.74
381.109	370.46
381.489	384.69
381.87	363.9
382.25	402.77
382.63	382.66
383.01	386.28
383.39	383.56
383.77	389.66
384.15	381.98
384.53	383.34
384.91	376.33
385.29	380.63
385.67	401.42
386.049	393.28
386.429	402.55
386.809	392.6
387.189	399.38
387.568	420.4
387.948	408.65
388.328	402.77
388.707	385.82
389.087	426.5
389.466	417.23
389.846	414.75
390.225	418.14
390.605	417.23
390.984	414.07
391.363	453.84
391.743	441.64
392.122	429.89
392.501	444.8
392.881	456.1
393.26	462.43
393.639	455.43
394.018	473.05
394.397	455.65
394.776	461.53
395.155	466.05
395.534	479.61
395.913	463.79
396.292	485.48
396.671	493.16
397.05	493.16
397.429	502.66
397.808	506.05
398.186	490.68
398.565	499.94
398.944	490.68
399.323	494.97
399.701	492.49
400.08	507.4
400.458	498.81
400.837	518.7
401.215	509.66
401.594	497.91
401.972	541.07
402.351	527.97
402.729	533.62
403.107	526.61
403.486	568.64
403.864	540.4
404.242	566.61
404.62	558.93
404.999	563.45
405.377	570.68
405.755	570.23
406.133	552.82
406.511	598.02
406.889	604.57
407.267	608.64
407.645	605.7
408.023	594.41
408.401	596.44
408.779	631.01
409.156	628.53
409.534	616.33
409.912	618.13
410.29	650.9
410.667	649.55
411.045	621.3
411.422	651.58
411.8	647.06
412.178	650.67
412.555	664.46
412.933	682.09
413.31	700.84
413.687	695.87
414.065	683.67
414.442	707.85
414.819	711.92
415.197	706.27
415.574	707.85
415.951	714.85
416.328	739.03
416.705	740.62
417.082	729.77
417.46	742.2
417.837	737.45
418.214	741.75
418.591	761.63
418.967	756.66
419.344	774.06
419.721	784.68
420.098	791.46
420.475	787.17
420.852	783.78
421.228	817.22
421.605	812.48
421.982	828.07
422.358	808.18
422.735	812.7
423.111	815.42
423.488	852.7
423.864	845.47
424.241	835.3
424.617	836.66
424.994	860.61
425.37	895.19
425.746	882.53
426.123	857.22
426.499	897.22
426.875	906.49
427.251	908.97
427.627	938.35
428.003	944.9
428.379	946.26
428.756	916.88
429.132	933.61
429.507	942.64
429.883	965.24
430.259	973.83
430.635	1011.34
431.011	1012.02
431.387	1005.47
431.763	1026.03
432.138	1031
432.514	1040.27
432.89	1075.3
433.265	1068.97
433.641	1080.27
434.016	1072.58
434.392	1113.71
434.767	1130.89
435.143	1117.1
435.518	1105.58
435.894	1128.85
436.269	1164.56
436.644	1186.48
437.02	1194.16
437.395	1185.8
437.77	1179.02
438.145	1216.54
438.52	1227.83
438.895	1240.94
439.271	1249.76
439.646	1245.46
440.021	1280.04
440.395	1300.6
440.77	1258.57
441.145	1296.53
441.52	1338.11
441.895	1286.36
442.27	1298.79
442.645	1357.55
443.019	1358.9
443.394	1344.22
443.769	1320.49
444.143	1330.66
444.518	1363.88
444.892	1357.1
445.267	1371.33
445.641	1406.81
446.016	1384.89
446.39	1420.15
446.764	1439.35
447.139	1422.18
447.513	1440.94
447.887	1446.59
448.262	1447.26
448.636	1455.4
449.01	1463.31
449.384	1471.67
449.758	1467.83
450.132	1523.65
450.506	1513.48
450.88	1523.87
451.254	1534.04
451.628	1558.45
452.002	1579.92
452.376	1579.24
452.75	1574.72
453.123	1598.45
453.497	1593.02
453.871	1631.89
454.244	1646.13
454.618	1677.99
454.992	1718.22
455.365	1688.61
455.739	1728.61
456.112	1706.01
456.486	1736.52
456.859	1757.54
457.232	1802.28
457.606	1765.67
457.979	1806.58
458.352	1859.46
458.725	1847.25
459.099	1870.08
459.472	1906.69
459.845	1939
460.218	1959.12
460.591	1976.29
460.964	1979.91
461.337	1994.82
461.71	2060.58
462.083	2096.29
462.456	2107.59
462.829	2102.84
463.201	2113.24
463.574	2165.21
463.947	2142.61
464.32	2207.24
464.692	2232.1
465.065	2236.17
465.438	2269.62
465.81	2303.29
466.183	2347.13
466.555	2381.48
466.928	2397.75
467.3	2411.76
467.672	2439.33
468.045	2501.47
468.417	2525.43
468.789	2561.59
469.161	2603.84
469.534	2647.01
469.906	2660.79
470.278	2708.7
470.65	2727.23
471.022	2826.66
471.394	2836.61
471.766	2861.46
472.138	2937.17
472.51	2953.44
472.882	2993.66
473.253	3058.75
473.625	3096.71
473.997	3194.56
474.369	3205.86
474.74	3259.19
475.112	3319.08
475.484	3409.47
475.855	3429.36
476.227	3494.22
476.598	3617.6
476.97	3672.74
477.341	3738.73
477.713	3787.77
478.084	3802
478.455	3911.61
478.827	3950.7
479.198	4089.68
479.569	4106.86
479.94	4246.06
480.311	4270.69
480.682	4385.49
481.053	4441.99
481.424	4551.14
481.795	4598.59
482.166	4713.17
482.537	4750.23
482.908	4860.51
483.279	4919.26
483.65	4992.48
484.021	5086.94
484.391	5182.76
484.762	5255.53
485.133	5314.28
485.503	5377.33
485.874	5518.12
486.244	5534.16
486.615	5658.23
486.985	5760.37
487.356	5871.1
487.726	5872.23
488.097	6017.09
488.467	6040.59
488.837	6176.63
489.207	6255.73
489.578	6371.88
489.948	6416.63
490.318	6448.04
490.688	6560.8
491.058	6639.9
491.428	6683.06
491.798	6819.55
492.168	6900
492.538	6983.62
492.908	7030.62
493.278	7166.21
493.648	7140.22
494.017	7248.92
494.387	7327.34
494.757	7415.02
495.126	7478.52
495.496	7492.75
495.866	7606.65
496.235	7739.3
496.605	7767.32
496.974	7775.69
497.344	7916.92
497.713	7869.92
498.082	7975.68
498.452	8050.03
498.821	8124.83
499.19	8174.54
499.559	8286.18
499.928	8281.89
500.298	8282.79
500.667	8429.45
501.036	8393.3
501.405	8562.33
501.774	8567.53
502.143	8573.18
502.512	8657.92
502.88	8759.84
503.249	8830.8
503.618	8868.31
503.987	8873.74
504.356	8960.51
504.724	9029.89
505.093	9063.56
505.462	9150.79
505.83	9165.71
506.199	9286.15
506.567	9432.14
506.936	9418.81
507.304	9530.44
507.672	9554.62
508.041	9631.91
508.409	9700.15
508.777	9736.54
509.145	9950.54
509.514	9856.08
509.882	9975.4
510.25	10019.02
510.618	10131.78
510.986	10199.12
511.354	10261.72
511.722	10330.19
512.09	10531.55
512.458	10489.06
512.826	10596.4
513.193	10689.28
513.561	10735.83
513.929	10826.9
514.297	10812.89
514.664	10970.63
515.032	11062.15
515.4	11137.4
515.767	11218.98
516.135	11315.03
516.502	11244.52
516.869	11470.96
517.237	11544.85
517.604	11568.35
517.972	11683.38
518.339	11792.3
518.706	11847.67
519.073	11874.33
519.44	11949.81
519.808	12179.86
520.175	12127.66
520.542	12347.54
520.909	12519.29
521.276	12433.42
521.643	12558.61
522.009	12675.22
522.376	12830.92
522.743	12915.44
523.11	12966.96
523.477	13141.65
523.843	13290.12
524.21	13362.43
524.577	13409.66
524.943	13488.08
525.31	13705.02
525.676	13698.24
526.043	13901.4
526.409	13883.1
526.776	14118.34
527.142	14145.24
527.508	14221.17
527.874	14452.8
528.241	14443.53
528.607	14565.79
528.973	14746.58
529.339	14715.62
529.705	14890.3
530.071	14951.77
530.437	15091.65
530.803	15105.21
531.169	15232.66
531.535	15205.55
531.901	15289.39
532.267	15351.76
532.632	15478.76
532.998	15641.47
533.364	15712.43
533.73	15620.9
534.095	15943.15
534.461	15893.66
534.826	16031.29
535.192	16119.87
535.557	16163.94
535.923	16124.62
536.288	16278.74
536.653	16320.55
537.019	16285.52
537.384	16455.01
537.749	16546.3
538.114	16592.85
538.479	16582.46
538.845	16807.31
539.21	16799.63
539.575	16870.36
539.94	16930.7
540.305	17068.55
540.67	17088.43
541.034	17072.39
541.399	17092.28
541.764	17167.98
542.129	17350.57
542.494	17278.94
542.858	17445.26
543.223	17468.31
543.587	17576.78
543.952	17557.12
544.316	17568.42
544.681	17605.48
545.045	17772.03
545.41	17841.18
545.774	17871.69
546.138	17948.3
546.503	17984
546.867	18098.13
547.231	18233.26
547.595	18252.92
547.959	18353.71
548.324	18312.58
548.688	18428.06
549.052	18484.1
549.416	18712.8
549.779	18718.45
550.143	18732.23
550.507	18994.6
550.871	19040.02
551.235	18978.1
551.599	19194.82
551.962	19239.34
552.326	19248.83
552.689	19410.63
553.053	19398.88
553.417	19499.22
553.78	19697.41
554.143	19737.18
554.507	19915.71
554.87	19999.32
555.234	20260.78
555.597	20066.21
555.96	20214.68
556.323	20347.56
556.686	20418.06
557.05	20698.28
557.413	20787.32
557.776	20879.52
558.139	21028.44
558.502	21119.52
558.865	21224.82
559.228	21437.93
559.59	21616
559.953	21723.57
560.316	21920.62
560.679	21938.02
561.041	22087.85
561.404	22260.05
561.767	22563.55
562.129	22549.53
562.492	22813.93
562.854	22784.78
563.217	22887.15
563.579	23104.77
563.941	23302.51
564.304	23393.13
564.666	23634.25
565.028	23718.54
565.39	23819.33
565.753	24076.05
566.115	24178.42
566.477	24333.67
566.839	24394.68
567.201	24685.75
567.563	24789.02
567.925	25071.5
568.287	25229.01
568.648	25316.02
569.01	25574.31
569.372	25745.61
569.734	25887.98
570.095	25982.66
570.457	26318.47
570.819	26428.3
571.18	26419.49
571.542	26675.08
571.903	26834.62
572.265	27074.61
572.626	27279.81
572.987	27277.09
573.349	27454.94
573.71	27658.55
574.071	27880.47
574.432	27941.26
574.794	28247.69
575.155	28224.41
575.516	28299.44
575.877	28614.91
576.238	28684.74
576.599	28963.15
576.96	29071.85
577.32	29163.82
577.681	29131.51
578.042	29542.34
578.403	29629.57
578.763	29760.19
579.124	29790.47
579.485	29965.16
579.845	30219.62
580.206	30170.58
580.566	30302.32
580.927	30302.78
581.287	30467.07
581.648	30453.73
582.008	30785.48
582.368	30754.29
582.728	30786.61
583.089	30938.24
583.449	30921.29
583.809	31026.15
584.169	31260.72
584.529	31274.28
584.889	31443.54
585.249	31185.01
585.609	31358.79
585.969	31593.14
586.329	31516.08
586.688	31566.92
587.048	31612.12
587.408	31649.86
587.768	31623.65
588.127	31614.83
588.487	31730.54
588.846	31985.9
589.206	31788.84
589.565	31841.27
589.925	32002.62
590.284	32007.36
590.643	32077.87
591.003	32109.28
591.362	32297.07
591.721	32161.71
592.08	32232.44
592.44	32396.28
592.799	32455.26
593.158	32291.2
593.517	32441.48
593.876	32485.32
594.235	32316.06
594.593	32459.33
594.952	32460.91
595.311	32359.22
595.67	32321.93
596.029	32654.81
596.387	32695.71
596.746	32801.02
597.104	32558.08
597.463	32634.47
597.822	32785.88
598.18	32533.45
598.538	32653.68
598.897	32816.61
599.255	32656.16
599.613	33085.3
599.972	32917.17
600.33	32952.42
600.688	32851.18
601.046	32871.3
601.404	33196.71
601.762	32998.07
602.12	33264.05
602.478	33166.2
602.836	33125.3
603.194	32946.55
603.552	33152.87
603.91	33052.99
604.268	33161.68
604.625	32990.62
604.983	33331.85
605.341	33108.8
605.698	33341.11
606.056	33444.16
606.413	33342.47
606.771	33452.98
607.128	33511.96
607.485	33326.88
607.843	33355.13
608.2	33585.63
608.557	33598.96
608.914	33473.99
609.272	33717.6
609.629	33686.19
609.986	33921.21
610.343	33770.03
610.7	33801.67
611.057	33780.43
611.414	33806.19
611.771	33817.26
612.127	34058.16
612.484	34036.01
612.841	34113.75
613.198	33901.33
613.554	33972.51
613.911	34273.07
614.267	34188.78
614.624	34183.58
614.98	34197.82
615.337	34400.97
615.693	34282.11
616.05	34313.07
616.406	34619.05
616.762	34452.27
617.118	34300.86
617.475	34492.95
617.831	34484.59
618.187	34569.33
618.543	34638.71
618.899	34785.14
619.255	34788.53
619.611	34738.59
619.967	34861.07
620.323	34999.38
620.678	34746.5
621.034	34682.32
621.39	34839.83
621.746	34721.87
622.101	35105.36
622.457	34824.24
622.812	34971.81
623.168	34797.8
623.523	34901.53
623.879	35012.26
624.234	34758.03
624.589	34884.58
624.945	34965.25
625.3	34966.16
625.655	34880.51
626.01	34959.38
626.365	34936.1
626.72	34926.38
627.075	34797.57
627.43	34897.01
627.785	34710.34
628.14	34699.27
628.495	34835.31
628.85	34703.34
629.205	34533.17
629.559	34958.7
629.914	34803.45
630.269	34727.75
630.623	34625.37
630.978	34537.92
631.332	34838.7
631.687	34905.37
632.041	34646.17
632.396	34865.59
632.75	34538.6
633.104	34559.61
633.459	34478.03
633.813	34345.16
634.167	34508.54
634.521	34450.24
634.875	34521.87
635.229	34330.02
635.583	34175.67
635.937	34263.58
636.291	34276.68
636.645	34170.92
636.999	34109.46
637.352	34301.32
637.706	34106.74
638.06	34284.37
638.413	34137.03
638.767	34025.39
639.121	34078.27
639.474	34010.02
639.828	33939.97
640.181	33945.39
640.534	33836.02
640.888	33817.03
641.241	33582.46
641.594	33741.33
641.947	33815.9
642.301	33776.36
642.654	33738.62
643.007	33666.3
643.36	33671.05
643.713	33500.66
644.066	33752.18
644.419	33518.74
644.771	33349.93
645.124	33070.84
645.477	32968.02
645.83	32822.03
646.182	32626.11
646.535	32570.74
646.888	32632.66
647.24	32401.7
647.593	32646.22
647.945	32652.09
648.298	32475.37
648.65	32342.05
649.002	32415.26
649.355	32493.68
649.707	32336.85
650.059	32545.43
650.411	32898.87
650.763	32845.99
651.115	33314.22
651.467	33083.49
651.819	33174.57
652.171	33049.37
652.523	33035.13
652.875	33045.53
653.227	32878.3
653.578	33142.93
653.93	33198.07
654.282	32968.47
654.633	32999.65
654.985	33000.33
655.337	32983.84
655.688	32999.2
656.039	33136.15
656.391	32747.46
656.742	32954.91
657.094	32914.01
657.445	33083.49
657.796	32780.9
658.147	32984.97
658.498	32945.65
658.849	32997.85
659.2	32904.06
659.551	32899.77
659.902	32761.92
660.253	32824.29
660.604	32904.52
660.955	32696.61
661.306	32947.9
661.656	32847.12
662.007	32790.17
662.358	32848.25
662.708	32842.14
663.059	32762.82
663.409	32664.75
663.76	32825.42
664.11	32868.13
664.461	32843.27
664.811	32732.32
665.161	32693.45
665.511	32865.42
665.862	32900.22
666.212	32874.01
666.562	32880.34
666.912	32923.27
667.262	32675.82
667.612	32828.36
667.962	32780.68
668.312	32720.57
668.662	32885.08
669.011	32702.04
669.361	32635.82
669.711	32716.72
670.06	32664.97
670.41	32567.58
670.76	32595.37
671.109	32703.62
671.459	32599.67
671.808	32595.15
672.157	32541.36
672.507	32434.25
672.856	32341.37
673.205	32401.25
673.554	32539.78
673.904	32326.9
674.253	32431.99
674.602	32418.88
674.951	32019.12
675.3	31803.3
675.649	32301.14
675.998	32350.18
676.346	32281.26
676.695	32403.06
677.044	32077.87
677.393	32231.09
677.741	32315.38
678.09	32106.57
678.438	32161.03
678.787	32135.27
679.135	32094.82
679.484	31945.9
679.832	31966.01
680.181	31825.9
680.529	31850.98
680.877	31843.53
681.225	31832.91
681.573	31971.89
681.922	31672.23
682.27	31596.53
682.618	31598.11
682.966	31450.32
683.314	31550.43
683.661	31362.86
684.009	31170.32
684.357	31153.6
684.705	31166.71
685.053	31252.36
685.4	31136.65
685.748	31027.05
686.095	30923.78
686.443	30979.6
686.79	30747.96
687.138	30927.39
687.485	30786.15
687.832	30785.02
688.18	30746.61
688.527	30574.86
688.874	30570.11
689.221	30388.42
689.568	30306.84
689.915	30196.11
690.262	30192.95
690.609	30192.95
690.956	30022.56
691.303	30019.62
691.65	29799.06
691.997	29887.87
692.344	29616.24
692.69	29561.78
693.037	29573.98
693.383	29492.85
693.73	29495.11
694.077	29454.21
694.423	29281.56
694.769	29103.71
695.116	29176.48
695.462	28989.36
695.808	28842.02
696.155	28958.41
696.501	28634.35
696.847	28716.15
697.193	28469.6
697.539	28616.27
697.885	28343.28
698.231	28179.44
698.577	28143.29
698.923	28186.9
699.269	27987.13
699.614	27835.95
699.96	27811.77
700.306	27779.45
700.651	27706.46
700.997	27597.31
701.342	27569.97
701.688	27559.8
702.033	27363.87
702.379	27408.39
702.724	27152.35
703.069	27263.08
703.415	26846.6
703.76	26990.1
704.105	26805.69
704.45	26799.82
704.795	26660.16
705.14	26638.69
705.485	26600.73
705.83	26423.1
706.175	26353.73
706.52	26327.29
706.865	26292.26
707.209	26234.64
707.554	26069.22
707.899	26156.22
708.243	25937.92
708.588	25868.32
708.932	25785.16
709.277	25799.17
709.621	25784.7
709.966	25488.21
710.31	25638.72
710.654	25367.77
710.998	25480.76
711.342	25403.47
711.687	25438.27
712.031	25207.09
712.375	25106.08
712.719	25268.56
713.063	25193.08
713.407	25227.88
713.75	25088.22
714.094	25080.77
714.438	24829.7
714.782	24990.6
715.125	24866.99
715.469	24961.45
715.812	24720.32
716.156	24530.95
716.499	24658.18
716.843	24609.37
717.186	24553.32
717.53	24529.37
717.873	24533.44
718.216	24535.92
718.559	24419.77
718.902	24306.78
719.246	24296.61
719.589	24208.7
719.932	24049.83
720.275	24188.36
720.617	24163.73
720.96	24275.59
721.303	24148.81
721.646	24074.47
721.989	24048.03
722.331	24123.5
722.674	24055.71
723.016	24087.57
723.359	24028.59
723.701	24028.82
724.044	23998.76
724.386	23766.23
724.729	23984.52
725.071	23878.99
725.413	23921.93
725.755	23940.23
726.097	23834.47
726.439	23630.18
726.782	23847.58
727.124	23909.27
727.465	23627.47
727.807	23677.64
728.149	23627.47
728.491	23706.57
728.833	23710.18
729.175	23601.26
729.516	23695.72
729.858	23574.37
730.199	23540.24
730.541	23617.98
730.882	23574.37
731.224	23603.97
731.565	23562.39
731.906	23469.28
732.248	23530.07
732.589	23366.91
732.93	23377.54
733.271	23422.51
733.612	23448.04
733.953	23420.92
734.294	23454.6
734.635	23443.07
734.976	23441.94
735.317	23371.89
735.658	23370.3
735.999	23389.96
736.339	23450.98
736.68	23479
737.021	23412.56
737.361	23259.12
737.702	23406.69
738.042	23394.48
738.383	23375.5
738.723	23481.26
739.063	23431.09
739.404	23501.83
739.744	23368.04
740.084	23260.02
740.424	23370.08
740.764	23324.88
741.104	23537.08
741.444	23238.56
741.784	23273.81
742.124	23317.65
742.464	23242.85
742.804	23390.42
743.143	23190.65
743.483	23360.13
743.823	23108.39
744.162	23209.86
744.502	23235.39
744.841	23204.88
745.181	23274.71
745.52	23121.95
745.86	23292.11
746.199	23215.05
746.538	23137.32
746.877	23268.16
747.216	23263.19
747.556	23309.74
747.895	23363.52
748.234	23220.7
748.573	23265.67
748.911	23202.85
749.25	23170.31
749.589	23053.93
749.928	23123.98
750.267	23181.61
750.605	23112.46
750.944	23097.32
751.283	23087.15
751.621	23114.04
751.96	23044.21
752.298	23044.89
752.636	23066.13
752.975	22988.62
753.313	22895.97
753.651	23128.28
753.989	22933.93
754.327	22893.71
754.666	22827.04
755.004	22865.01
755.342	22875.18
