Data from tablewood_brown_FLMS001491_074.txt Node
Date: Tue Feb 07 11:10:59 GMT 2017
User: dcchb
Spectrometer: FLMS00149
Trigger mode: 0
Integration Time (sec): 2.000000E-2
Scans to average: 10
Electric dark correction enabled: true
Nonlinearity correction enabled: false
Boxcar width: 0
XAxis mode: Wavelengths
Number of Pixels in Spectrum: 2048
>>>>>Begin Spectral Data<<<<<
341.393	-14.28
341.776	-14.28
342.16	-14.28
342.543	-57.22
342.927	-61.74
343.31	-43.21
343.693	-70.1
344.077	-66.26
344.46	-50.89
344.843	-63.32
345.226	-47.5
345.61	-15.18
345.993	-20.15
346.376	-10.89
346.759	14.65
347.142	30.47
347.525	44.02
347.908	60.75
348.291	61.2
348.674	84.25
349.057	92.16
349.44	133.97
349.823	135.55
350.206	159.28
350.588	186.39
350.971	191.82
351.354	223.91
351.737	249.89
352.119	238.6
352.502	262.32
352.884	281.76
353.267	289.89
353.65	277.01
354.032	314.75
354.414	311.81
354.797	319.27
355.179	316.11
355.562	329.21
355.944	321.31
356.326	343.68
356.709	317.92
357.091	340.97
357.473	348.88
357.855	352.26
358.238	330.34
358.62	351.13
359.002	335.09
359.384	320.4
359.766	344.13
360.148	328.08
360.53	350.68
360.912	342.77
361.294	330.8
361.676	332.6
362.057	330.34
362.439	344.13
362.821	333.06
363.203	333.51
363.584	346.39
363.966	343.9
364.348	330.8
364.729	337.8
365.111	327.86
365.493	322.66
365.874	335.32
366.256	315.2
366.637	326.73
367.019	312.49
367.4	321.53
367.781	314.3
368.163	328.08
368.544	306.84
368.925	313.85
369.306	324.24
369.688	324.24
370.069	321.08
370.45	333.96
370.831	340.74
371.212	326.95
371.593	330.57
371.974	317.46
372.355	346.39
372.736	349.1
373.117	333.73
373.498	347.97
373.879	331.02
374.26	317.69
374.641	326.5
375.021	327.41
375.402	329.89
375.783	340.51
376.163	340.29
376.544	347.52
376.925	344.81
377.305	351.81
377.686	363.34
378.066	355.65
378.447	351.81
378.827	341.64
379.208	362.89
379.588	363.56
379.968	329.44
380.349	357.91
380.729	346.39
381.109	340.51
381.489	350
381.87	367.41
382.25	368.08
382.63	355.65
383.01	355.65
383.39	384.81
383.77	387.07
384.15	355.88
384.53	379.16
384.91	393.85
385.29	375.99
385.67	347.07
386.049	383.9
386.429	382.55
386.809	366.28
387.189	388.42
387.568	389.33
387.948	378.03
388.328	391.13
388.707	392.94
389.087	399.27
389.466	401.75
389.846	407.18
390.225	409.44
390.605	414.64
390.984	401.75
391.363	401.98
391.743	421.87
392.122	428.42
392.501	404.92
392.881	440.62
393.26	429.55
393.639	442.88
394.018	430.45
394.397	459.83
394.776	422.09
395.155	436.1
395.534	414.64
395.913	482.43
396.292	463
396.671	469.32
397.05	438.14
397.429	461.64
397.808	455.09
398.186	456.89
398.565	460.51
398.944	465.03
399.323	473.39
399.701	482.2
400.08	484.24
400.458	492.83
400.837	499.83
401.215	474.07
401.594	494.41
401.972	500.96
402.351	496.67
402.729	505.48
403.107	517.23
403.486	531.92
403.864	528.08
404.242	526.5
404.62	507.97
404.999	538.93
405.377	526.72
405.755	547.97
406.133	563.11
406.511	525.59
406.889	549.55
407.267	539.38
407.645	556.33
408.023	574.63
408.401	567.17
408.779	565.14
409.156	581.41
409.534	583.45
409.912	583.45
410.29	585.7
410.667	624.35
411.045	601.07
411.422	633.39
411.8	583.67
412.178	625.7
412.555	629.09
412.933	612.6
413.31	627.51
413.687	659.38
414.065	639.49
414.442	647.17
414.819	668.41
415.197	654.4
415.574	670.22
415.951	669.09
416.328	681.07
416.705	671.58
417.082	692.82
417.46	679.49
417.837	715.19
418.214	709.54
418.591	714.97
418.967	733.05
419.344	736.44
419.721	729.43
420.098	740.5
420.475	716.32
420.852	728.98
421.228	756.32
421.605	759.03
421.982	763.1
422.358	767.4
422.735	769.2
423.111	741.86
423.488	802.42
423.864	787.51
424.241	802.2
424.617	812.37
424.994	786.15
425.37	810.33
425.746	798.13
426.123	837.9
426.499	823.21
426.875	834.29
427.251	848.75
427.627	842.42
428.003	890.1
428.379	871.35
428.756	888.52
429.132	885.13
429.507	894.62
429.883	911.12
430.259	919.26
430.635	916.54
431.011	929.65
431.387	928.97
431.763	946.37
432.138	962.19
432.514	991.12
432.89	949.76
433.265	975.53
433.641	1006.26
434.016	1002.87
434.392	1022.3
434.767	1053.49
435.143	1034.28
435.518	1041.96
435.894	1072.47
436.269	1093.26
436.644	1092.13
437.02	1105.69
437.395	1110.66
437.77	1110.89
438.145	1127.39
438.52	1150.66
438.895	1167.38
439.271	1165.8
439.646	1181.85
440.021	1183.88
440.395	1204.67
440.77	1181.85
441.145	1199.02
441.52	1215.29
441.895	1215.29
442.27	1256.42
442.645	1225.69
443.019	1261.39
443.394	1262.75
443.769	1262.3
444.143	1262.07
444.518	1296.19
444.892	1287.83
445.267	1294.84
445.641	1300.26
446.016	1282.64
446.39	1321.28
446.764	1333.26
447.139	1328.51
447.513	1319.47
447.887	1352.92
448.262	1359.47
448.636	1361.05
449.01	1365.57
449.384	1400.15
449.758	1383.88
450.132	1437.43
450.506	1428.39
450.88	1437.43
451.254	1427.49
451.628	1437.43
452.002	1455.96
452.376	1473.82
452.75	1484.89
453.123	1505.45
453.497	1538.9
453.871	1501.16
454.244	1538.9
454.618	1568.73
454.992	1571.67
455.365	1568.73
455.739	1622.74
456.112	1648.28
456.486	1636.52
456.859	1649.86
457.232	1684.66
457.606	1702.74
457.979	1716.07
458.352	1767.82
458.725	1768.5
459.099	1754.94
459.472	1784.09
459.845	1843.3
460.218	1829.74
460.591	1853.02
460.964	1860.93
461.337	1895.5
461.71	1938.21
462.083	1957.19
462.456	1937.31
462.829	1982.96
463.201	2001.03
463.574	2036.29
463.947	2035.61
464.32	2100.69
464.692	2098.66
465.065	2127.13
465.438	2174.82
465.81	2169.39
466.183	2204.19
466.555	2224.76
466.928	2262.95
467.3	2293
467.672	2323.74
468.045	2398.54
468.417	2392.21
468.789	2412.55
469.161	2463.85
469.534	2493.9
469.906	2557.18
470.278	2560.12
470.65	2605.09
471.022	2650.06
471.394	2717.85
471.766	2735.48
472.138	2781.35
472.51	2813.44
472.882	2894.12
473.253	2996.04
473.625	2958.3
473.997	3070.16
474.369	3084.17
474.74	3122.59
475.112	3198.29
475.484	3222.02
475.855	3278.29
476.227	3354.22
476.598	3452.07
476.97	3460.66
477.341	3594.44
477.713	3626.3
478.084	3701.78
478.455	3771.84
478.827	3803.02
479.198	3938.39
479.569	4008.21
479.94	4081.21
480.311	4143.58
480.682	4252.5
481.053	4337.24
481.424	4381.54
481.795	4473.51
482.166	4560.74
482.537	4612.94
482.908	4716.22
483.279	4756.89
483.65	4917.12
484.021	4974.74
484.391	5040.96
484.762	5100.16
485.133	5122.08
485.503	5234.17
485.874	5318.24
486.244	5382.87
486.615	5527.04
486.985	5566.14
487.356	5644.1
487.726	5738.79
488.097	5859.24
488.467	5888.39
488.837	6025.11
489.207	6083.41
489.578	6194.6
489.948	6296.52
490.318	6334.71
490.688	6361.6
491.058	6487.7
491.428	6614.7
491.798	6681.14
492.168	6809.04
492.538	6869.38
492.908	6863.73
493.278	6977.63
493.648	6958.42
494.017	7092.65
494.387	7171.52
494.757	7274.12
495.126	7356.15
495.496	7369.03
495.866	7385.98
496.235	7511.17
496.605	7636.37
496.974	7644.05
497.344	7719.3
497.713	7833.42
498.082	7864.16
498.452	7975.12
498.821	7978.96
499.19	8036.13
499.559	8102.8
499.928	8181.21
500.298	8154.55
500.667	8251.04
501.036	8287.42
501.405	8406.74
501.774	8426.63
502.143	8482.9
502.512	8554.08
502.88	8630.24
503.249	8653.97
503.618	8749.78
503.987	8759.5
504.356	8832.95
504.724	8886.05
505.093	8952.26
505.462	9020.29
505.83	9094.63
506.199	9099.15
506.567	9209.43
506.936	9282.65
507.304	9426.6
507.672	9452.36
508.041	9483.1
508.409	9572.36
508.777	9645.13
509.145	9724.67
509.514	9746.37
509.882	9903.43
510.25	9880.83
510.618	9995.4
510.986	10007.83
511.354	10110.43
511.722	10219.12
512.09	10260.25
512.458	10313.58
512.826	10418.67
513.193	10507.25
513.561	10622.5
513.929	10669.51
514.297	10800.8
514.664	10884.19
515.032	10865.43
515.4	11046.45
515.767	11068.14
516.135	11151.75
516.502	11138.65
516.869	11276.95
517.237	11416.15
517.604	11462.48
517.972	11519.2
518.339	11635.36
518.706	11697.5
519.073	11749.48
519.44	11864.28
519.808	11982.24
520.175	12017.27
520.542	12271.73
520.909	12316.02
521.276	12340.88
521.643	12502.68
522.009	12558.05
522.376	12580.87
522.743	12737.02
523.11	12891.37
523.477	12992.16
523.843	13057.02
524.21	13238.93
524.577	13357.12
524.943	13382.88
525.31	13546.95
525.676	13642.08
526.043	13685.7
526.409	13899.48
526.776	13911.68
527.142	14077.78
527.508	14110.77
527.874	14197.78
528.241	14303.31
528.607	14362.52
528.973	14469.18
529.339	14578.78
529.705	14729.74
530.071	14783.75
530.437	14832.79
530.803	15030.97
531.169	14964.08
531.535	15055.61
531.901	15134.25
532.267	15228.71
532.632	15352.32
532.998	15456.5
533.364	15496.05
533.73	15545.31
534.095	15696.49
534.461	15714.57
534.826	15839.54
535.192	15767.23
535.557	15969.71
535.923	15933.78
536.288	16092.42
536.653	16202.24
537.019	16141.91
537.384	16291.96
537.749	16389.13
538.114	16350.94
538.479	16364.5
538.845	16451.5
539.21	16476.13
539.575	16516.81
539.94	16617.37
540.305	16738.5
540.67	16749.35
541.034	16809.69
541.399	16979.85
541.764	17043.8
542.129	17051.49
542.494	17137.13
542.858	17144.59
543.223	17199.96
543.587	17307.53
543.952	17287.19
544.316	17318.82
544.681	17421.87
545.045	17493.28
545.41	17609.44
545.774	17698.02
546.138	17769.89
546.503	17766.72
546.867	17774.63
547.231	17985.25
547.595	17936.89
547.959	18065.7
548.324	18064.57
548.688	18099.82
549.052	18182.53
549.416	18270.89
549.779	18328.52
550.143	18430.89
550.507	18555.63
550.871	18632.46
551.235	18643.08
551.599	18773.02
551.962	18812.57
552.326	18883.75
552.689	19081.72
553.053	19026.58
553.417	19047.37
553.78	19404.42
554.143	19303.18
554.507	19540.46
554.87	19545.66
555.234	19758.53
555.597	19689.38
555.96	19855.03
556.323	20087.11
556.686	20050.5
557.05	20359.65
557.413	20375.92
557.776	20360.78
558.139	20568.91
558.502	20660.88
558.865	20729.81
559.228	21041.66
559.59	21134.54
559.953	21115.79
560.316	21397.81
560.679	21517.36
561.041	21719.16
561.404	21826.5
561.767	21988.31
562.129	21918.7
562.492	22259.03
562.854	22269.65
563.217	22411.57
563.579	22581.96
563.941	22752.35
564.304	23004.78
564.666	23151.21
565.028	23292
565.39	23364.99
565.753	23465.1
566.115	23573.8
566.477	23807.69
566.839	24014.24
567.201	24207
567.563	24221.47
567.925	24517.96
568.287	24674.79
568.648	24678.4
569.01	24974.89
569.372	25334.88
569.734	25198.62
570.095	25514.32
570.457	25679.96
570.819	25756.12
571.18	25964.92
571.542	26168.31
571.903	26164.47
572.265	26528.98
572.626	26627.51
572.987	26582.08
573.349	26913.83
573.71	27067.27
574.071	27130.09
574.432	27328.5
574.794	27650.53
575.155	27567.82
575.516	27702.28
575.877	27807.59
576.238	27989.05
576.599	28278.76
576.96	28300.46
577.32	28452.09
577.681	28584.29
578.042	28840.78
578.403	28787.9
578.763	28938.86
579.124	28995.13
579.485	29200.55
579.845	29374.55
580.206	29515.79
580.566	29483.7
580.927	29537.94
581.287	29761.89
581.648	29627.88
582.008	29861.32
582.368	29911.49
582.728	29950.36
583.089	30047.08
583.449	30068.55
583.809	30131.59
584.169	30335.66
584.529	30422.21
584.889	30702.43
585.249	30396.45
585.609	30344.7
585.969	30739.94
586.329	30520.06
586.688	30684.8
587.048	30750.79
587.408	30704.91
587.768	30849.99
588.127	30749.66
588.487	30777.91
588.846	31001.63
589.206	30751.69
589.565	31075.98
589.925	31101.96
590.284	31024.9
590.643	31092.02
591.003	31071.46
591.362	31274.62
591.721	31282.98
592.08	31216.76
592.44	31300.83
592.799	31327.27
593.158	31216.31
593.517	31231.68
593.876	31387.38
594.235	31365.46
594.593	31360.49
594.952	31536.08
595.311	31413.59
595.67	31548.96
596.029	31717.99
596.387	31705.79
596.746	31783.08
597.104	31571.1
597.463	31674.15
597.822	31830.31
598.18	31642.97
598.538	31681.38
598.897	31774.49
599.255	31568.85
599.613	31999.12
599.972	31775.39
600.33	31862.85
600.688	31830.76
601.046	32047.7
601.404	32195.95
601.762	32078.89
602.12	32197.76
602.478	32118.21
602.836	32152.56
603.194	31926.35
603.552	32046.8
603.91	32014.94
604.268	32084.99
604.625	32053.58
604.983	32335.6
605.341	32140.36
605.698	32517.97
606.056	32370.41
606.413	32235.27
606.771	32425.32
607.128	32491.98
607.485	32269.62
607.843	32452.21
608.2	32564.53
608.557	32623.28
608.914	32519.78
609.272	32665.54
609.629	32562.49
609.986	32910.05
610.343	32646.1
610.7	32960.22
611.057	32892.65
611.414	32741.02
611.771	32838.42
612.127	32987.79
612.484	32951.18
612.841	32965.87
613.198	32892.65
613.554	32987.11
613.911	33130.61
614.267	33170.38
614.624	33069.6
614.98	33293.32
615.337	33370.15
615.693	33198.63
616.05	33168.35
616.406	33473.43
616.762	33433.65
617.118	33270.5
617.475	33430.94
617.831	33466.65
618.187	33574.89
618.543	33504.84
618.899	33787.54
619.255	33467.78
619.611	33435.91
619.967	33677.26
620.323	33842.91
620.678	33565.85
621.034	33421
621.39	33572.86
621.746	33606.31
622.101	34054.2
622.457	33658.73
622.812	33756.13
623.168	33754.78
623.523	33759.07
623.879	33834.55
624.234	33614.44
624.589	33804.04
624.945	33766.53
625.3	33917.48
625.655	33802.23
626.01	33757.26
626.365	33793.42
626.72	33801.78
627.075	33818.96
627.43	33798.84
627.785	33704.61
628.14	33774.66
628.495	33860.76
628.85	33823.02
629.205	33641.11
629.559	33812.4
629.914	33733.99
630.269	33605.18
630.623	33584.61
630.978	33524.95
631.332	33630.03
631.687	33629.36
632.041	33544.84
632.396	33543.48
632.75	33353.66
633.104	33495.57
633.459	33260.78
633.813	33159.31
634.167	33312.53
634.521	33245.41
634.875	33359.53
635.229	33271.17
635.583	33026.21
635.937	33134.68
636.291	33036.15
636.645	33071.86
636.999	33086.55
637.352	33149.14
637.706	33001.8
638.06	33101.01
638.413	32991.41
638.767	32851.52
639.121	33023.04
639.474	32748.25
639.828	32813.33
640.181	32760.23
640.534	32779.89
640.888	32596.84
641.241	32598.87
641.594	32572.43
641.947	32716.61
642.301	32748.25
642.654	32663.28
643.007	32574.92
643.36	32610.4
643.713	32483.17
644.066	32524.98
644.419	32411.99
644.771	32278.88
645.124	32043.18
645.477	31927.03
645.83	31769.29
646.182	31565.46
646.535	31431.45
646.888	31488.4
647.24	31392.35
647.593	31428.74
647.945	31297.67
648.298	31180.83
648.65	31174.05
649.002	31065.58
649.355	31213.83
649.707	31160.04
650.059	31543.08
650.411	31773.36
650.763	31827.37
651.115	32093.35
651.467	31928.16
651.819	31999.12
652.171	31789.63
652.523	31927.48
652.875	31861.04
653.227	31747.6
653.578	32012.68
653.93	31853.36
654.282	31799.8
654.633	31696.75
654.985	31786.92
655.337	31789.18
655.688	31850.65
656.039	31782.85
656.391	31655.62
656.742	31790.76
657.094	31821.72
657.445	31894.49
657.796	31877.09
658.147	31793.7
658.498	31745.56
658.849	31750.08
659.2	31743.3
659.551	31725.45
659.902	31726.81
660.253	31708.95
660.604	31731.1
660.955	31503.08
661.306	31745.56
661.656	31665.34
662.007	31560.71
662.358	31752.57
662.708	31798.22
663.059	31665.57
663.409	31494.72
663.76	31717.77
664.11	31683.64
664.461	31718.9
664.811	31670.76
665.161	31620.82
665.511	31544.66
665.862	31454.27
666.212	31608.62
666.562	31663.98
666.912	31581.5
667.262	31576.08
667.612	31637.09
667.962	31630.99
668.312	31535.4
668.662	31823.98
669.011	31641.39
669.361	31423.76
669.711	31598.67
670.06	31529.52
670.41	31449.3
670.76	31361.17
671.109	31366.82
671.459	31329.53
671.808	31276.2
672.157	31337.21
672.507	31154.17
672.856	31156.43
673.205	31214.05
673.554	31271.68
673.904	31197.1
674.253	31357.55
674.602	31259.7
674.951	30660.17
675.3	30751.24
675.649	31149.42
675.998	30967.5
676.346	30956.43
676.695	31137.9
677.044	30835.98
677.393	30905.81
677.741	31095.19
678.09	30829.43
678.438	30814.97
678.787	30741.97
679.135	30975.64
679.484	30671.47
679.832	30810.9
680.181	30614.97
680.529	30759.6
680.877	30503.11
681.225	30455.88
681.573	30675.99
681.922	30372.49
682.27	30232.84
682.618	30350.12
682.966	30170.46
683.314	30338.37
683.661	30223.12
684.009	29998.04
684.357	30002.78
684.705	30023.35
685.053	30062.67
685.4	29975.67
685.748	29880.75
686.095	29891.83
686.443	29667.88
686.79	29620.87
687.138	29687.31
687.485	29632.17
687.832	29596.24
688.18	29463.36
688.527	29357.6
688.874	29368
689.221	29245.52
689.568	29208.46
689.915	29164.84
690.262	29126.2
690.609	28994.22
690.956	28941.12
691.303	28886.66
691.65	28789.71
691.997	28736.38
692.344	28512.43
692.69	28636.27
693.037	28454.12
693.383	28377.06
693.73	28356.5
694.077	28170.74
694.423	28201.48
694.769	27900.24
695.116	27979.56
695.462	27865.89
695.808	27841.03
696.155	27756.97
696.501	27548.84
696.847	27619.8
697.193	27406.47
697.539	27552.68
697.885	27226.59
698.231	27193.59
698.577	27202.18
698.923	27148.85
699.269	27068.17
699.614	26887.61
699.96	26806.26
700.306	26758.12
700.651	26694.85
700.997	26539.37
701.342	26473.16
701.688	26352.94
702.033	26329.66
702.379	26199.95
702.724	26095.77
703.069	26234.3
703.415	25946.62
703.76	25768.32
704.105	25832.5
704.45	25851.93
704.795	25589.79
705.14	25560.42
705.485	25583.69
705.83	25455.79
706.175	25475.45
706.52	25256.47
706.865	25175.79
707.209	25029.13
707.554	24948.68
707.899	25146.64
708.243	24962.92
708.588	24952.52
708.932	24754.56
709.277	24886.08
709.621	24909.81
709.966	24550.27
710.31	24701.91
710.654	24414.91
710.998	24538.07
711.342	24510.05
711.687	24349.83
712.031	24422.37
712.375	24298.3
712.719	24268.92
713.063	24271.86
713.407	24193.67
713.75	24100.79
714.094	24127.91
714.438	23938.31
714.782	24144.86
715.125	23924.53
715.469	24029.16
715.812	23801.82
716.156	23757.07
716.499	23711.42
716.843	23796.17
717.186	23600.24
717.53	23728.37
717.873	23761.59
718.216	23641.14
718.559	23494.26
718.902	23409.96
719.246	23383.52
719.589	23387.14
719.932	23363.86
720.275	23291.77
720.617	23244.32
720.96	23265.79
721.303	23320.25
721.646	23279.35
721.989	23110.54
722.331	23218.33
722.674	23187.37
723.016	23222.62
723.359	23118.67
723.701	23082.29
724.044	22978.11
724.386	22759.59
724.729	23040.03
725.071	22845.01
725.413	22933.59
725.755	22959.35
726.097	22918
726.439	22644.56
726.782	22798.68
727.124	23003.42
727.465	22798.23
727.807	22830.77
728.149	22776.99
728.491	22740.83
728.833	22810.43
729.175	22675.07
729.516	22529.99
729.858	22674.62
730.199	22714.39
730.541	22544.22
730.882	22659.25
731.224	22642.98
731.565	22603.88
731.906	22568.4
732.248	22668.74
732.589	22595.07
732.93	22416.77
733.271	22542.19
733.612	22553.04
733.953	22599.59
734.294	22435.53
734.635	22432.14
734.976	22565.92
735.317	22474.17
735.658	22463.32
735.999	22415.41
736.339	22378.35
736.68	22554.84
737.021	22384.45
737.361	22362.76
737.702	22458.35
738.042	22446.83
738.383	22304.68
738.723	22466.03
739.063	22301.07
739.404	22355.75
739.744	22337.22
740.084	22173.39
740.424	22444.11
740.764	22381.97
741.104	22483.21
741.444	22263.78
741.784	22214.74
742.124	22311.24
742.464	22210.45
742.804	22192.82
743.143	22191.69
743.483	22319.6
743.823	22114.4
744.162	22217.68
744.502	22206.38
744.841	22091.58
745.181	22181.97
745.52	22167.74
745.86	22139.49
746.199	22137.91
746.538	22069.89
746.877	22137.91
747.216	22197.57
747.556	22001.19
747.895	22025.59
748.234	22004.12
748.573	21991.7
748.911	22058.81
749.25	22041.64
749.589	21964.58
749.928	22013.62
750.267	22044.12
750.605	21925.26
750.944	21929.32
751.283	21904.47
751.621	21880.51
751.96	21764.36
752.298	21837.58
752.636	21891.59
752.975	21764.36
753.313	21774.53
753.651	21833.06
753.989	21751.25
754.327	21660.86
754.666	21628.99
755.004	21648.43
755.342	21688.88
755.679	21640.29
