Data from tablewood_dark_bookshelf_FLMS001491_00026.txt Node
Date: Wed Feb 08 14:14:06 GMT 2017
User: dcchb
Spectrometer: FLMS00149
Trigger mode: 0
Integration Time (sec): 2.000000E-2
Scans to average: 10
Electric dark correction enabled: true
Nonlinearity correction enabled: false
Boxcar width: 0
XAxis mode: Wavelengths
Number of Pixels in Spectrum: 2048
>>>>>Begin Spectral Data<<<<<
341.393	-7.49
341.776	-7.49
342.16	-7.49
342.543	-55.85
342.927	-64.21
343.31	-63.53
343.693	-66.02
344.077	-65.56
344.46	-70.31
344.843	-39.35
345.226	-49.29
345.61	-22.85
345.993	-16.3
346.376	-0.93
346.759	-3.19
347.142	27.32
347.525	38.39
347.908	58.28
348.291	67.77
348.674	88.11
349.057	117.48
349.44	89.46
349.823	124.04
350.206	129.69
350.588	185.5
350.971	226.41
351.354	215.56
351.737	234.09
352.119	233.86
352.502	257.14
352.884	247.65
353.267	267.08
353.65	267.99
354.032	278.83
354.414	293.3
354.797	297.82
355.179	302.11
355.562	295.33
355.944	319.96
356.326	303.69
356.709	312.96
357.091	310.02
357.473	304.6
357.855	343.01
358.238	332.84
358.62	306.86
359.002	346.4
359.384	346.86
359.766	346.63
360.148	330.13
360.53	336.46
360.912	337.14
361.294	333.97
361.676	323.81
362.057	335.33
362.439	316.35
362.821	320.42
363.203	315.9
363.584	326.06
363.966	331.04
364.348	309.12
364.729	316.12
365.111	310.02
365.493	315.44
365.874	324.93
366.256	296.24
366.637	295.33
367.019	304.14
367.4	335.56
367.781	313.64
368.163	315.9
368.544	306.86
368.925	303.69
369.306	315.9
369.688	329.68
370.069	317.25
370.45	321.32
370.831	305.05
371.212	318.83
371.593	298.27
371.974	317.93
372.355	314.31
372.736	320.87
373.117	300.98
373.498	326.97
373.879	332.17
374.26	315.67
374.641	300.3
375.021	320.64
375.402	308.66
375.783	312.73
376.163	317.03
376.544	340.3
376.925	326.06
377.305	333.52
377.686	329.91
378.066	326.06
378.447	321.32
378.827	352.96
379.208	306.63
379.588	360.41
379.968	350.25
380.349	320.19
380.729	320.42
381.109	318.61
381.489	336.91
381.87	337.59
382.25	353.86
382.63	330.58
383.01	365.61
383.39	346.86
383.77	338.72
384.15	365.39
384.53	352.96
384.91	347.53
385.29	342.34
385.67	346.86
386.049	376.91
386.429	370.58
386.809	361.54
387.189	350.7
387.568	371.94
387.948	361.32
388.328	371.04
388.707	358.83
389.087	377.14
389.466	365.16
389.846	359.28
390.225	385.05
390.605	366.97
390.984	376.01
391.363	371.94
391.743	387.98
392.122	377.36
392.501	375.78
392.881	365.39
393.26	390.7
393.639	383.69
394.018	411.03
394.397	398.15
394.776	393.86
395.155	379.4
395.534	399.51
395.913	412.62
396.292	403.8
396.671	388.66
397.05	405.84
397.429	404.48
397.808	383.24
398.186	410.36
398.565	409.23
398.944	409.45
399.323	423.01
399.701	403.12
400.08	411.49
400.458	406.74
400.837	422.33
401.215	443.35
401.594	424.14
401.972	441.77
402.351	427.98
402.729	429.11
403.107	439.06
403.486	446.97
403.864	465.5
404.242	442.22
404.62	439.28
404.999	463.24
405.377	462.33
405.755	446.29
406.133	432.05
406.511	468.21
406.889	458.04
407.267	450.13
407.645	487.64
408.023	464.82
408.401	467.98
408.779	470.02
409.156	456.23
409.534	469.79
409.912	495.55
410.29	503.01
410.667	489
411.045	507.98
411.422	507.53
411.8	493.97
412.178	494.2
412.555	507.98
412.933	512.05
413.31	527.42
413.687	534.87
414.065	518.6
414.442	535.55
414.819	537.81
415.197	527.87
415.574	548.66
415.951	550.01
416.328	556.79
416.705	545.27
417.082	553.18
417.46	548.66
417.837	549.11
418.214	561.54
418.591	571.93
418.967	570.58
419.344	577.36
419.721	578.94
420.098	578.49
420.475	590.01
420.852	593.85
421.228	607.87
421.605	587.75
421.982	597.7
422.358	601.31
422.735	618.26
423.111	624.36
423.488	622.55
423.864	600.18
424.241	616.45
424.617	649.9
424.994	618.03
425.37	647.64
425.746	634.53
426.123	642.44
426.499	634.31
426.875	631.59
427.251	654.64
427.627	658.03
428.003	674.53
428.379	679.95
428.756	694.19
429.132	686.96
429.507	705.94
429.883	688.77
430.259	719.27
430.635	698.48
431.011	724.7
431.387	717.69
431.763	743
432.138	767.86
432.514	767.64
432.89	757.69
433.265	761.76
433.641	782.32
434.016	762.44
434.392	781.42
434.767	816
435.143	806.5
435.518	816.22
435.894	817.8
436.269	797.69
436.644	852.83
437.02	836.11
437.395	851.25
437.77	822.77
438.145	848.76
438.52	838.14
438.895	873.85
439.271	848.54
439.646	900.97
440.021	858.03
440.395	867.52
440.77	886.5
441.145	907.29
441.52	899.61
441.895	909.55
442.27	901.42
442.645	920.4
443.019	934.41
443.394	908.65
443.769	931.47
444.143	917.91
444.518	952.94
444.892	931.47
445.267	943.45
445.641	964.24
446.016	944.35
446.39	985.26
446.764	964.01
447.139	955.88
447.513	983.67
447.887	979.38
448.262	980.74
448.636	986.61
449.01	990.68
449.384	1028.65
449.758	1006.05
450.132	1034.97
450.506	1030
450.88	1043.11
451.254	1039.94
451.628	1030.45
452.002	1065.93
452.376	1069.55
452.75	1066.16
453.123	1049.89
453.497	1086.27
453.871	1082.88
454.244	1141.41
454.618	1093.95
454.992	1154.97
455.365	1138.7
455.739	1150
456.112	1158.81
456.486	1192.26
456.859	1182.54
457.232	1211.69
457.606	1220.28
457.979	1204.91
458.352	1222.99
458.725	1240.17
459.099	1265.02
459.472	1265.48
459.845	1267.28
460.218	1273.38
460.591	1314.97
460.964	1292.59
461.337	1344.8
461.71	1349.09
462.083	1334.63
462.456	1387.73
462.829	1371.69
463.201	1394.96
463.574	1394.74
463.947	1407.84
464.32	1443.78
464.692	1433.38
465.065	1489.2
465.438	1467.5
465.81	1535.75
466.183	1519.25
466.555	1556.99
466.928	1574.62
467.3	1552.47
467.672	1544.79
468.045	1581.4
468.417	1596.09
468.789	1613.71
469.161	1638.35
469.534	1659.14
469.906	1683.77
470.278	1708.85
470.65	1745.91
471.022	1760.38
471.394	1772.35
471.766	1784.11
472.138	1812.81
472.51	1825.91
472.882	1853.26
473.253	1876.53
473.625	1898.9
473.997	1925.12
474.369	1922.86
474.74	1972.35
475.112	2019.35
475.484	2028.62
475.855	2046.02
476.227	2071.78
476.598	2125.34
476.97	2141.16
477.341	2128.28
477.713	2197.65
478.084	2202.85
478.455	2319.01
478.827	2314.94
479.198	2344.54
479.569	2347.25
479.94	2429.51
480.311	2449.62
480.682	2442.62
481.053	2518.78
481.424	2550.87
481.795	2590.41
482.166	2635.38
482.537	2644.65
482.908	2690.75
483.279	2748.6
483.65	2767.81
484.021	2822.04
484.391	2887.13
484.762	2874.92
485.133	2855.26
485.503	2970.74
485.874	2992.44
486.244	3010.74
486.615	3096.84
486.985	3095.26
487.356	3150.4
487.726	3211.41
488.097	3234.46
488.467	3259.77
488.837	3335.93
489.207	3362.82
489.578	3403.27
489.948	3401.46
490.318	3463.84
490.688	3493.89
491.058	3549.26
491.428	3564.4
491.798	3591.06
492.168	3687.78
492.538	3704.51
492.908	3708.35
493.278	3802.13
493.648	3822.24
494.017	3849.81
494.387	3868.34
494.757	3918.06
495.126	3968.45
495.496	3943.82
495.866	4019.98
496.235	4041.9
496.605	4052.75
496.974	4050.26
497.344	4122.8
497.713	4128.45
498.082	4153.53
498.452	4245.51
498.821	4201.67
499.19	4248
499.559	4327.77
499.928	4313.08
500.298	4364.38
500.667	4405.28
501.036	4411.38
501.405	4446.41
501.774	4462.91
502.143	4538.61
502.512	4503.58
502.88	4544.94
503.249	4523.02
503.618	4586.07
503.987	4610.25
504.356	4652.73
504.724	4643.01
505.093	4667.42
505.462	4709.45
505.83	4755.78
506.199	4799.17
506.567	4866.06
506.936	4818.83
507.304	4871.26
507.672	4908.77
508.041	4951.03
508.409	5004.81
508.777	5005.72
509.145	5023.34
509.514	5073.06
509.882	5106.5
510.25	5110.57
510.618	5165.71
510.986	5197.35
511.354	5207.29
511.722	5265.6
512.09	5333.84
512.458	5307.4
512.826	5386.95
513.193	5415.2
513.561	5410.22
513.929	5440.05
514.297	5532.71
514.664	5610.9
515.032	5590.11
515.4	5636.21
515.767	5581.97
516.135	5704
516.502	5644.34
516.869	5704.91
517.237	5809.99
517.604	5793.72
517.972	5894.51
518.339	5946.93
518.706	5937.44
519.073	5989.87
519.44	6012.47
519.808	6083.43
520.175	6072.13
520.542	6194.39
520.909	6213.37
521.276	6196.87
521.643	6233.71
522.009	6316.42
522.376	6348.73
522.743	6433.25
523.11	6485.22
523.477	6499.69
523.843	6550.31
524.21	6650.64
524.577	6703.98
524.943	6689.51
525.31	6705.56
525.676	6802.73
526.043	6849.28
526.409	6884.31
526.776	6969.73
527.142	6974.25
527.508	7023.06
527.874	7020.8
528.241	7156.85
528.607	7150.74
528.973	7223.51
529.339	7179.9
529.705	7284.75
530.071	7400
530.437	7428.93
530.803	7438.65
531.169	7465.31
531.535	7469.61
531.901	7534.24
532.267	7586.66
532.632	7604.74
532.998	7656.27
533.364	7700.79
533.73	7703.95
534.095	7821.01
534.461	7749.15
534.826	7844.51
535.192	7904.62
535.557	7943.27
535.923	7914.34
536.288	7987.56
536.653	8030.72
537.019	8011.29
537.384	8072.08
537.749	8116.59
538.114	8074.11
538.479	8171.51
538.845	8128.35
539.21	8147.78
539.575	8217.61
539.94	8308.23
540.305	8250.83
540.67	8356.36
541.034	8325.18
541.399	8417.15
541.764	8425.29
542.129	8446.53
542.494	8505.96
542.858	8467.55
543.223	8507.77
543.587	8566.3
543.952	8545.96
544.316	8639.97
544.681	8589.8
545.045	8648.11
545.41	8727.43
545.774	8712.06
546.138	8785.28
546.503	8832.28
546.867	8780.76
547.231	8890.59
547.595	8941.66
547.959	9037.93
548.324	8995.89
548.688	8949.79
549.052	8995.67
549.416	9034.31
549.779	9093.74
550.143	9144.82
550.507	9138.04
550.871	9194.98
551.235	9240.63
551.599	9230.69
551.962	9333.74
552.326	9371.7
552.689	9394.08
553.053	9345.71
553.417	9334.19
553.78	9468.88
554.143	9506.84
554.507	9555.88
554.87	9545.03
555.234	9648.98
555.597	9613.28
555.96	9677.46
556.323	9713.61
556.686	9701.86
557.05	9841.29
557.413	9854.63
557.776	9835.42
558.139	9964
558.502	9974.17
558.865	10018.24
559.228	10128.52
559.59	10189.53
559.953	10158.35
560.316	10264.11
560.679	10284.67
561.041	10309.98
561.404	10400.15
561.767	10489.87
562.129	10391.34
562.492	10540.94
562.854	10581.61
563.217	10592.46
563.579	10600.37
563.941	10716.53
564.304	10778.45
564.666	10806.92
565.028	10885.34
565.39	10947.93
565.753	10950.42
566.115	10967.14
566.477	11082.39
566.839	11162.84
567.201	11229.96
567.563	11200.81
567.925	11299.11
568.287	11328.49
568.648	11393.34
569.01	11430.41
569.372	11508.82
569.734	11523.28
570.095	11633.11
570.457	11636.5
570.819	11710.85
571.18	11742.04
571.542	11796.05
571.903	11887.34
572.265	11863.84
572.626	11854.58
572.987	11970.5
573.349	11966.21
573.71	12063.16
574.071	12109.48
574.432	12195.13
574.794	12304.73
575.155	12256.6
575.516	12267.67
575.877	12296.82
576.238	12373.88
576.599	12471.06
576.96	12504.73
577.32	12457.5
577.681	12539.53
578.042	12591.96
578.403	12648
578.763	12631.5
579.124	12663.14
579.485	12780.2
579.845	12787.21
580.206	12834.21
580.566	12822.91
580.927	12822.23
581.287	12957.6
581.648	12914.66
582.008	13091.38
582.368	12994.66
582.728	13123.47
583.089	13069.23
583.449	13123.92
583.809	13132.96
584.169	13205.27
584.529	13111.49
584.889	13222.67
585.249	13116.91
585.609	13231.04
585.969	13384.93
586.329	13268.55
586.688	13392.84
587.048	13303.35
587.408	13367.98
587.768	13334.54
588.127	13379.73
588.487	13367.98
588.846	13534.76
589.206	13471.26
589.565	13449.56
589.925	13605.72
590.284	13565.72
590.643	13619.5
591.003	13583.34
591.362	13728.42
591.721	13665.15
592.08	13708.99
592.44	13670.8
592.799	13751.25
593.158	13695.2
593.517	13748.08
593.876	13699.05
594.235	13833.96
594.593	13750.12
594.952	13872.83
595.311	13845.48
595.67	13948.98
596.029	13956.21
596.387	13940.85
596.746	13986.5
597.104	13996.21
597.463	13999.83
597.822	14068.75
598.18	14048.87
598.538	14045.25
598.897	14108.75
599.255	14037.12
599.613	14273.49
599.972	14202.99
600.33	14193.27
600.688	14098.36
601.046	14252.48
601.404	14222.42
601.762	14215.87
602.12	14359.82
602.478	14365.47
602.836	14440.04
603.194	14285.47
603.552	14416.32
603.91	14343.78
604.268	14400.5
604.625	14426.26
604.983	14548.52
605.341	14341.06
605.698	14474.62
606.056	14549.87
606.413	14492.92
606.771	14555.75
607.128	14648.63
607.485	14644.11
607.843	14551.68
608.2	14568.4
608.557	14732.47
608.914	14628.51
609.272	14774.05
609.629	14722.3
609.986	14835.51
610.343	14787.15
610.7	14886.81
611.057	14793.93
611.414	14904.21
611.771	14866.93
612.127	14912.8
612.484	14973.14
612.841	15026.02
613.198	15002.74
613.554	14943.31
613.911	15078.9
614.267	15062.17
614.624	15089.52
614.98	15089.07
615.337	15153.25
615.693	15207.71
616.05	15114.83
616.406	15278.89
616.762	15205.45
617.118	15190.53
617.475	15155.51
617.831	15192.34
618.187	15254.26
618.543	15288.61
618.899	15336.07
619.255	15364.54
619.611	15347.36
619.967	15354.6
620.323	15384.65
620.678	15377.19
621.034	15402.96
621.39	15403.41
621.746	15376.74
622.101	15556.4
622.457	15294.71
622.812	15437.98
623.168	15437.98
623.523	15473.24
623.879	15494.71
624.234	15388.04
624.589	15500.58
624.945	15442.05
625.3	15452.67
625.655	15474.37
626.01	15501.03
626.365	15535.61
626.72	15506.46
627.075	15444.99
627.43	15475.72
627.785	15411.54
628.14	15530.18
628.495	15463.07
628.85	15445.44
629.205	15443.86
629.559	15429.62
629.914	15444.76
630.269	15399.11
630.623	15342.62
630.978	15366.35
631.332	15407.02
631.687	15454.25
632.041	15311.89
632.396	15320.92
632.75	15363.41
633.104	15337.42
633.459	15280.93
633.813	15325.44
634.167	15324.54
634.521	15287.25
634.875	15311.21
635.229	15181.72
635.583	15159.35
635.937	15259.91
636.291	15225.33
636.645	15278.21
636.999	15170.19
637.352	15261.04
637.706	15135.62
638.06	15294.03
638.413	15177.2
638.767	15109.86
639.121	15210.19
639.474	15145.79
639.828	15112.57
640.181	15151.44
640.534	15019.24
640.888	14977.43
641.241	14950.77
641.594	14997.09
641.947	15026.7
642.301	14948.73
642.654	14997.77
643.007	14990.76
643.36	15014.72
643.713	14950.77
644.066	15018.56
644.419	14956.41
644.771	14883.42
645.124	14681.62
645.477	14615.41
645.83	14593.94
646.182	14601.4
646.535	14518.01
646.888	14501.96
647.24	14484.79
647.593	14549.65
647.945	14459.7
648.298	14444.79
648.65	14461.06
649.002	14385.58
649.355	14477.33
649.707	14348.97
650.059	14403.43
650.411	14633.94
650.763	14638.46
651.115	14772.01
651.467	14808.62
651.819	14839.58
652.171	14749.87
652.523	14684.33
652.875	14655.63
653.227	14707.16
653.578	14708.96
653.93	14604.11
654.282	14685.01
654.633	14662.41
654.985	14729.53
655.337	14675.29
655.688	14616.76
656.039	14626.25
656.391	14567.72
656.742	14567.27
657.094	14625.58
657.445	14675.29
657.796	14685.46
658.147	14590.1
658.498	14614.5
658.849	14619.93
659.2	14581.51
659.551	14645.01
659.902	14650.89
660.253	14617.89
660.604	14627.38
660.955	14493.38
661.306	14579.25
661.656	14640.04
662.007	14602.07
662.358	14642.3
662.708	14534.05
663.059	14626.71
663.409	14614.28
663.76	14677.78
664.11	14607.5
664.461	14601.4
664.811	14529.53
665.161	14581.74
665.511	14532.7
665.862	14584.67
666.212	14537.67
666.562	14662.19
666.912	14562.75
667.262	14547.61
667.612	14668.29
667.962	14611.79
668.312	14578.12
668.662	14649.3
669.011	14665.12
669.361	14643.2
669.711	14537.22
670.06	14488.4
670.41	14535.41
670.76	14542.64
671.109	14559.59
671.459	14575.86
671.808	14549.87
672.157	14532.25
672.507	14452.02
672.856	14442.08
673.205	14606.14
673.554	14616.08
673.904	14506.48
674.253	14556.2
674.602	14497.44
674.951	14309.65
675.3	14320.27
675.649	14465.35
675.998	14505.13
676.346	14522.08
676.695	14507.16
677.044	14462.42
677.393	14473.72
677.741	14464.68
678.09	14441.85
678.438	14386.49
678.787	14412.02
679.135	14358.24
679.484	14368.41
679.832	14327.5
680.181	14337.67
680.529	14460.83
680.877	14351.91
681.225	14336.32
681.573	14348.75
681.922	14235.3
682.27	14239.82
682.618	14230.33
682.966	14154.18
683.314	14197.56
683.661	14051.81
684.009	14091.58
684.357	14110.56
684.705	14109.21
685.053	14141.52
685.4	14080.51
685.748	14054.52
686.095	14047.06
686.443	13919.83
686.79	13939.04
687.138	14049.77
687.485	13870.34
687.832	13903.56
688.18	13883.22
688.527	13858.14
688.874	13781.76
689.221	13777.24
689.568	13736.11
689.915	13763.9
690.262	13735.2
690.609	13721.42
690.956	13654.98
691.303	13729.78
691.65	13570.46
691.997	13577.24
692.344	13546.73
692.69	13506.74
693.037	13536.11
693.383	13417.02
693.73	13459.96
694.077	13340.41
694.423	13435.78
694.769	13360.07
695.116	13418.6
695.462	13329.11
695.808	13265.39
696.155	13311.71
696.501	13146.52
696.847	13127.54
697.193	13063.58
697.539	13156.46
697.885	13061.32
698.231	13030.82
698.577	13083.47
698.923	12999.4
699.269	13000.76
699.614	12852.52
699.96	12933.87
700.306	12912.17
700.651	12833.53
700.997	12785.62
701.342	12733.42
701.688	12760.31
702.033	12709.92
702.379	12706.08
702.724	12633.76
703.069	12673.08
703.415	12555.35
703.76	12526.42
704.105	12618.4
704.45	12483.26
704.795	12452.07
705.14	12422.24
705.485	12443.26
705.83	12374.56
706.175	12325.3
706.52	12282.59
706.865	12257.5
707.209	12227.9
707.554	12198.52
707.899	12263.6
708.243	12161.01
708.588	12160.56
708.932	12124.17
709.277	12099.54
709.621	12131.4
709.966	12011.63
710.31	12014.12
710.654	12027.45
710.998	11953.33
711.342	12000.33
711.687	11979.77
712.031	11942.48
712.375	11862.03
712.719	11946.32
713.063	11824.52
713.407	11905.87
713.75	11830.85
714.094	11824.52
714.438	11743.39
714.782	11817.74
715.125	11714.01
715.469	11755.82
715.812	11728.93
716.156	11648.48
716.499	11691.19
716.843	11694.13
717.186	11633.34
717.53	11669.72
717.873	11620.46
718.216	11594.24
718.559	11493.45
718.902	11503.62
719.246	11559.67
719.589	11501.14
719.932	11434.25
720.275	11540.91
720.617	11543.62
720.96	11434.25
721.303	11508.14
721.646	11408.49
721.989	11353.57
722.331	11484.42
722.674	11392.44
723.016	11381.14
723.359	11370.29
723.701	11423.85
724.044	11319
724.386	11280.58
724.729	11366.68
725.071	11283.97
725.413	11334.81
725.755	11233.8
726.097	11275.16
726.439	11232.44
726.782	11238.77
727.124	11257.98
727.465	11203.07
727.807	11229.73
728.149	11212.78
728.491	11132.33
728.833	11161.94
729.175	11157.64
729.516	11148.38
729.858	11156.06
730.199	11136.18
730.541	11099.79
730.882	11104.09
731.224	11090.08
731.565	11031.32
731.906	11085.56
732.248	11169.17
732.589	11042.17
732.93	11011.21
733.271	11086.23
733.612	11015.95
733.953	11029.06
734.294	11021.6
734.635	11034.26
734.976	11032.9
735.317	10971.43
735.658	11043.3
735.999	11019.12
736.339	11011.21
736.68	10937.99
737.021	10982.96
737.361	10899.12
737.702	11011.43
738.042	10949.06
738.383	10925.33
738.723	10988.16
739.063	10907.03
739.404	10921.72
739.744	10900.02
740.084	10933.02
740.424	10923.75
740.764	10862.74
741.104	10997.2
741.444	10867.71
741.784	10884.66
742.124	10902.96
742.464	10844.66
742.804	10834.04
743.143	10775.73
743.483	10857.31
743.823	10806.47
744.162	10782.51
744.502	10809.18
744.841	10801.95
745.181	10852.79
745.52	10785.68
745.86	10754.04
746.199	10803.53
746.538	10762.63
746.877	10782.06
747.216	10780.71
747.556	10797.2
747.895	10712.23
748.234	10744.77
748.573	10712.01
748.911	10803.76
749.25	10752.01
749.589	10689.63
749.928	10722.4
750.267	10707.49
750.605	10703.65
750.944	10712.91
751.283	10672.69
751.621	10674.49
751.96	10590.2
752.298	10564.21
752.636	10684.21
752.975	10526.25
753.313	10514.05
753.651	10593.14
753.989	10590.43
754.327	10503.2
754.666	10455.06
755.004	10562.18
755.342	10451.45
755.679	10454.61
756.017	10399.02
756.355	10419.81
756.693	10418.23
757.031	10411.68
757.368	10405.57
757.706	10337.55
758.044	10296.2
758.381	10315.63
758.719	10295.29
