Data from tablewood_dark_bookshelf_FLMS001491_00005.txt Node
Date: Wed Feb 08 14:13:19 GMT 2017
User: dcchb
Spectrometer: FLMS00149
Trigger mode: 0
Integration Time (sec): 2.000000E-2
Scans to average: 10
Electric dark correction enabled: true
Nonlinearity correction enabled: false
Boxcar width: 0
XAxis mode: Wavelengths
Number of Pixels in Spectrum: 2048
>>>>>Begin Spectral Data<<<<<
341.393	-5.18
341.776	-5.18
342.16	-5.18
342.543	-60.55
342.927	-74.33
343.31	-72.98
343.693	-69.59
344.077	-67.33
344.46	-56.03
344.843	-56.93
345.226	-34.56
345.61	-18.06
345.993	-22.81
346.376	-3.38
346.759	21.26
347.142	29.62
347.525	40.69
347.908	59.22
348.291	61.71
348.674	87.7
349.057	101.48
349.44	118.88
349.823	126.79
350.206	161.82
350.588	195.26
350.971	209.95
351.354	233.91
351.737	209.5
352.119	247.24
352.502	259.22
352.884	264.19
353.267	283.85
353.65	289.05
354.032	278.42
354.414	318.42
354.797	319.55
355.179	310.97
355.562	314.13
355.944	325.66
356.326	330.4
356.709	323.62
357.091	336.73
357.473	355.03
357.855	350.51
358.238	337.86
358.62	343.28
359.002	354.36
359.384	340.8
359.766	348.25
360.148	344.64
360.53	329.72
360.912	348.93
361.294	321.36
361.676	329.5
362.057	348.03
362.439	310.74
362.821	319.78
363.203	338.31
363.584	345.32
363.966	337.41
364.348	326.56
364.729	328.59
365.111	325.88
365.493	327.92
365.874	336.05
366.256	333.79
366.637	309.38
367.019	305.99
367.4	317.07
367.781	318.42
368.163	320.01
368.544	321.14
368.925	305.32
369.306	327.92
369.688	317.07
370.069	340.57
370.45	333.56
370.831	301.25
371.212	333.34
371.593	336.05
371.974	315.26
372.355	314.13
372.736	344.41
373.117	307.35
373.498	353.68
373.879	329.95
374.26	330.17
374.641	325.2
375.021	317.75
375.402	329.72
375.783	348.03
376.163	340.8
376.544	363.39
376.925	343.51
377.305	327.24
377.686	325.66
378.066	339.44
378.447	346.22
378.827	352.77
379.208	356.61
379.588	359.33
379.968	350.51
380.349	367.46
380.729	364.07
381.109	367.24
381.489	359.55
381.87	360.46
382.25	362.94
382.63	381.7
383.01	380.57
383.39	377.41
383.77	376.5
384.15	382.15
384.53	385.09
384.91	374.92
385.29	410.4
385.67	381.92
386.049	387.57
386.429	378.31
386.809	399.1
387.189	375.15
387.568	394.13
387.948	382.83
388.328	377.86
388.707	412.21
389.087	385.31
389.466	408.59
389.846	425.99
390.225	410.4
390.605	395.26
390.984	401.81
391.363	407.46
391.743	400.46
392.122	418.31
392.501	421.47
392.881	439.32
393.26	435.48
393.639	448.59
394.018	444.75
394.397	447.91
394.776	448.36
395.155	442.04
395.534	460.79
395.913	450.17
396.292	450.17
396.671	455.6
397.05	457.86
397.429	477.52
397.808	455.14
398.186	473
398.565	459.44
398.944	496.05
399.323	456.73
399.701	493.79
400.08	507.8
400.458	487.01
400.837	486.78
401.215	508.93
401.594	503.5
401.972	514.8
402.351	486.33
402.729	498.76
403.107	502.83
403.486	530.17
403.864	515.48
404.242	506.67
404.62	510.28
404.999	555.25
405.377	527.46
405.755	525.42
406.133	543.28
406.511	541.69
406.889	555.93
407.267	559.32
407.645	548.7
408.023	566.33
408.401	554.12
408.779	582.6
409.156	596.38
409.534	595.03
409.912	573.78
410.29	616.04
410.667	594.35
411.045	629.38
411.422	610.39
411.8	621.47
412.178	648.13
412.555	605.87
412.933	621.01
413.31	652.2
413.687	665.31
414.065	648.36
414.442	663.27
414.819	670.96
415.197	670.96
415.574	689.49
415.951	697.62
416.328	680.22
416.705	723.38
417.082	698.75
417.46	679.54
417.837	708.02
418.214	710.28
418.591	722.48
418.967	717.06
419.344	735.81
419.721	758.19
420.098	721.35
420.475	732.42
420.852	758.86
421.228	729.94
421.605	756.15
421.982	779.43
422.358	783.04
422.735	769.94
423.111	768.13
423.488	799.09
423.864	778.3
424.241	811.29
424.617	823.72
424.994	826.21
425.37	837.28
425.746	816.49
426.123	852.87
426.499	857.62
426.875	862.36
427.251	867.79
427.627	872.99
428.003	862.82
428.379	880.22
428.756	899.2
429.132	917.73
429.507	911.18
429.883	923.15
430.259	945.3
430.635	974.23
431.011	939.88
431.387	980.78
431.763	990.5
432.138	979.65
432.514	984.17
432.89	998.63
433.265	1033.66
433.641	1037.5
434.016	1062.13
434.392	1059.42
434.767	1078.4
435.143	1072.75
435.518	1099.19
435.894	1101.45
436.269	1086.54
436.644	1134.22
437.02	1134.45
437.395	1131.51
437.77	1146.88
438.145	1176.48
438.52	1178.74
438.895	1162.24
439.271	1180.55
439.646	1191.62
440.021	1210.83
440.395	1218.06
440.77	1216.93
441.145	1258.74
441.52	1244.95
441.895	1243.37
442.27	1228.23
442.645	1254.22
443.019	1281.11
443.394	1268.91
443.769	1298.96
444.143	1265.07
444.518	1329.92
444.892	1273.43
445.267	1291.28
445.641	1315.46
446.016	1356.81
446.39	1344.16
446.764	1354.78
447.139	1379.86
447.513	1361.79
447.887	1383.25
448.262	1366.08
448.636	1404.72
449.01	1392.52
449.384	1441.33
449.758	1401.79
450.132	1451.5
450.506	1423.03
450.88	1472.74
451.254	1443.37
451.628	1463.03
452.002	1521.78
452.376	1496.25
452.75	1515.91
453.123	1548.22
453.497	1541.67
453.871	1581.44
454.244	1606.98
454.618	1600.42
454.992	1621.67
455.365	1647.43
455.739	1641.55
456.112	1688.11
456.486	1674.32
456.859	1684.49
457.232	1747.09
457.606	1760.65
457.979	1752.51
458.352	1774.66
458.725	1800.42
459.099	1819.18
459.472	1902.34
459.845	1869.57
460.218	1883.58
460.591	1890.59
460.964	1891.04
461.337	1979.4
461.71	1985.72
462.083	2019.85
462.456	2006.74
462.829	2034.31
463.201	2077.7
463.574	2081.54
463.947	2105.72
464.32	2162.67
464.692	2171.48
465.065	2167.64
465.438	2182.33
465.81	2226.4
466.183	2240.63
466.555	2287.86
466.928	2314.53
467.3	2319.73
467.672	2359.5
468.045	2403.57
468.417	2451.7
468.789	2418.93
469.161	2499.61
469.534	2497.12
469.906	2566.05
470.278	2574.41
470.65	2579.61
471.022	2652.83
471.394	2675.65
471.766	2723.33
472.138	2716.33
472.51	2799.04
472.882	2818.92
473.253	2863.22
473.625	2919.49
473.997	2966.94
474.369	2989.54
474.74	3023.44
475.112	3015.53
475.484	3109.54
475.855	3182.08
476.227	3184.11
476.598	3302.53
476.97	3275.18
477.341	3343.43
477.713	3417.55
478.084	3393.15
478.455	3505.23
478.827	3555.4
479.198	3638.79
479.569	3680.82
479.94	3748.16
480.311	3781.38
480.682	3869.29
481.053	3935.5
481.424	3997.2
481.795	4009.17
482.166	4105.44
482.537	4160.13
482.908	4260.24
483.279	4231.54
483.65	4319.22
484.021	4402.61
484.391	4499.78
484.762	4501.14
485.133	4570.74
485.503	4612.1
485.874	4686.22
486.244	4727.57
486.615	4854.58
486.985	4909.72
487.356	4998.98
487.726	5028.36
488.097	5107.9
488.467	5167.56
488.837	5212.98
489.207	5334.79
489.578	5374.11
489.948	5437.39
490.318	5490.94
490.688	5516.93
491.058	5620.88
491.428	5677.15
491.798	5745.85
492.168	5850.26
492.538	5822.91
492.908	5917.82
493.278	5988.11
493.648	5981.1
494.017	6076.92
494.387	6173.41
494.757	6205.27
495.126	6294.31
495.496	6257.25
495.866	6333.63
496.235	6428.09
496.605	6438.71
496.974	6457.02
497.344	6553.51
497.713	6588.32
498.082	6690.23
498.452	6709.67
498.821	6758.25
499.19	6743.79
499.559	6872.6
499.928	6845.71
500.298	6968.19
500.667	7033.73
501.036	7019.72
501.405	7061.07
501.774	7103.56
502.143	7189.88
502.512	7219.26
502.88	7290.67
503.249	7278.47
503.618	7368.18
503.987	7409.99
504.356	7455.64
504.724	7530.89
505.093	7511.68
505.462	7615.86
505.83	7614.28
506.199	7729.53
506.567	7857.21
506.936	7814.95
507.304	7925.46
507.672	7980.14
508.041	7986.47
508.409	8051.55
508.777	8089.97
509.145	8143.53
509.514	8233.24
509.882	8182.17
510.25	8322.28
510.618	8347.82
510.986	8407.93
511.354	8456.29
511.722	8597.08
512.09	8630.75
512.458	8636.62
512.826	8723.4
513.193	8764.98
513.561	8836.62
513.929	8915.26
514.297	9036.16
514.664	9070.51
515.032	9092.2
515.4	9115.48
515.767	9208.81
516.135	9280
516.502	9295.14
516.869	9425.3
517.237	9436.83
517.604	9364.29
517.972	9583.04
518.339	9603.6
518.706	9660.1
519.073	9703.49
519.44	9809.7
519.808	9939.87
520.175	9905.74
520.542	10070.26
520.909	10118.84
521.276	10143.02
521.643	10236.81
522.009	10345.73
522.376	10450.81
522.743	10446.07
523.11	10583.92
523.477	10658.49
523.843	10669.56
524.21	10843.8
524.577	10963.12
524.943	11010.35
525.31	11061.42
525.676	11103.45
526.043	11187.06
526.409	11323.56
526.776	11347.29
527.142	11376.66
527.508	11474.06
527.874	11631.8
528.241	11651.91
528.607	11745.92
528.973	11847.84
529.339	11898.46
529.705	11989.53
530.071	12089.19
530.437	12018.68
530.803	12269.52
531.169	12339.58
531.535	12269.75
531.901	12361.05
532.267	12512.68
532.632	12547.93
532.998	12506.35
533.364	12673.81
533.73	12657.08
534.095	12839
534.461	12791.09
534.826	12878.09
535.192	12928.71
535.557	13019.78
535.923	13009.16
536.288	13051.87
536.653	13175.03
537.019	13175.71
537.384	13265.43
537.749	13334.35
538.114	13320.34
538.479	13399.89
538.845	13468.81
539.21	13472.65
539.575	13569.6
539.94	13579.54
540.305	13663.84
540.67	13744.96
541.034	13772.08
541.399	13873.32
541.764	13852.53
542.129	13942.25
542.494	14042.36
542.858	13960.33
543.223	13998.06
543.587	14213.43
543.952	14201.22
544.316	14246.65
544.681	14216.36
545.045	14384.49
545.41	14307.21
545.774	14483.93
546.138	14410.03
546.503	14498.39
546.867	14499.75
547.231	14615.22
547.595	14617.26
547.959	14754.88
548.324	14723.69
548.688	14748.55
549.052	14829
549.416	14896.57
549.779	14913.97
550.143	15030.35
550.507	15063.12
550.871	15158.26
551.235	15064.25
551.599	15289.33
551.962	15314.87
552.326	15342.89
552.689	15410.46
553.053	15370.23
553.417	15415.65
553.78	15680.05
554.143	15559.15
554.507	15705.82
554.87	15807.06
555.234	15923.21
555.597	15784.46
555.96	15927.96
556.323	16050.67
556.686	16073.49
557.05	16237.78
557.413	16237.1
557.776	16307.83
558.139	16429.19
558.502	16509.64
558.865	16497.43
559.228	16646.81
559.59	16688.16
559.953	16710.76
560.316	16868.5
560.679	16939.23
561.041	16990.53
561.404	17059
561.767	17177.64
562.129	17200.47
562.492	17481.59
562.854	17354.13
563.217	17412.21
563.579	17472.1
563.941	17544.64
564.304	17722.03
564.666	17792.31
565.028	17818.08
565.39	17978.98
565.753	18029.6
566.115	18091.52
566.477	18087.67
566.839	18252.87
567.201	18392.52
567.563	18462.81
567.925	18620.54
568.287	18633.42
568.648	18632.52
569.01	18760.2
569.372	18823.25
569.734	18872.96
570.095	18934.43
570.457	19067.99
570.819	19020.76
571.18	19139.17
571.542	19256.91
571.903	19267.53
572.265	19305.95
572.626	19562.21
572.987	19497.81
573.349	19645.37
573.71	19760.4
574.071	19718.82
574.432	19858.25
574.794	19980.51
575.155	19968.3
575.516	19971.47
575.877	20139.37
576.238	20097.11
576.599	20283.1
576.96	20286.49
577.32	20314.51
577.681	20378.69
578.042	20514.5
578.403	20499.14
578.763	20463.66
579.124	20532.36
579.485	20626.36
579.845	20825.23
580.206	20707.72
580.566	20710.2
580.927	20838.56
581.287	20895.74
581.648	20910.88
582.008	21001.04
582.368	21015.51
582.728	21231.09
583.089	20969.86
583.449	21160.36
583.809	21063.19
584.169	21192.68
584.529	21156.29
584.889	21354.25
585.249	21193.58
585.609	21209.17
585.969	21421.6
586.329	21366.46
586.688	21457.53
587.048	21409.39
587.408	21374.14
587.768	21385.67
588.127	21401.49
588.487	21438.32
588.846	21576.62
589.206	21538.43
589.565	21535.72
589.925	21614.14
590.284	21710.63
590.643	21730.29
591.003	21742.72
591.362	21776.84
591.721	21715.83
592.08	21830.4
592.44	21763.06
592.799	21961.92
593.158	21905.43
593.517	21913.11
593.876	21948.36
594.235	21890.29
594.593	21944.52
594.952	22058.19
595.311	21959.66
595.67	22069.04
596.029	22131.64
596.387	22201.01
596.746	22175.02
597.104	22124.18
597.463	22137.96
597.822	22317.17
598.18	22150.84
598.538	22338.64
598.897	22344.51
599.255	22268.13
599.613	22562.58
599.972	22399.88
600.33	22522.13
600.688	22475.58
601.046	22547.67
601.404	22576.6
601.762	22573.88
602.12	22780.21
602.478	22671.73
602.836	22725.29
603.194	22574.56
603.552	22686.2
603.91	22732.75
604.268	22810.71
604.625	22687.1
604.983	22705.63
605.341	22749.47
605.698	22918.51
606.056	22914.21
606.413	22915.12
606.771	22928.45
607.128	23122.34
607.485	22921.22
607.843	23013.87
608.2	23017.71
608.557	23199.18
608.914	23015.91
609.272	23169.35
609.629	23364.15
609.986	23251.15
610.343	23229.46
610.7	23494.99
611.057	23375.67
611.414	23453.41
611.771	23425.16
612.127	23414.77
612.484	23476.91
612.841	23599.85
613.198	23498.38
613.554	23509
613.911	23620.86
614.267	23688.2
614.624	23657.25
614.98	23629
615.337	23764.14
615.693	23822.66
616.05	23830.12
616.406	24013.85
616.762	23705.83
617.118	23801.2
617.475	23806.85
617.831	23998.71
618.187	23861.08
618.543	24059.72
618.899	24132.94
619.255	24029.89
619.611	24101.3
619.967	24065.14
620.323	24103.34
620.678	24071.92
621.034	23983.56
621.39	24038.25
621.746	23980.17
622.101	24302.2
622.457	24090.23
622.812	24111.92
623.168	24214.52
623.523	24262.88
623.879	24247.96
624.234	24132.49
624.589	24202.99
624.945	24210.9
625.3	24290
625.655	24197.34
626.01	24163.67
626.365	24247.74
626.72	24259.72
627.075	24285.25
627.43	24188.3
627.785	24053.17
628.14	24240.96
628.495	24196.89
628.85	24200.28
629.205	24135.88
629.559	24318.02
629.914	24179.72
630.269	24123.22
630.623	24049.33
630.978	24022.43
631.332	24214.97
631.687	24153.5
632.041	24053.84
632.396	24192.6
632.75	24021.08
633.104	24053.39
633.459	24013.62
633.813	23941.31
634.167	23876.22
634.521	23965.49
634.875	23925.71
635.229	23902.44
635.583	23868.31
635.937	23800.07
636.291	23820.4
636.645	23892.95
636.999	23794.42
637.352	23804.13
637.706	23706.28
638.06	23788.77
638.413	23648.88
638.767	23520.75
639.121	23645.95
639.474	23488.89
639.828	23489.79
640.181	23565.72
640.534	23493.63
640.888	23446.18
641.241	23404.6
641.594	23475.78
641.947	23528.89
642.301	23568.43
642.654	23549.45
643.007	23462.9
643.36	23520.3
643.713	23442.11
644.066	23485.72
644.419	23308.55
644.771	23135.45
645.124	22939.07
645.477	22911.05
645.83	22871.5
646.182	22578.18
646.535	22547.44
646.888	22620.44
647.24	22336.15
647.593	22637.84
647.945	22552.42
648.298	22423.61
648.65	22309.71
649.002	22311.97
649.355	22362.59
649.707	22389.03
650.059	22591.28
650.411	22692.75
650.763	22747.89
651.115	23104.72
651.467	22954.21
651.819	22876.47
652.171	22927.55
652.523	22892.29
652.875	22912.63
653.227	22800.54
653.578	22871.28
653.93	22858.85
654.282	22810.49
654.633	22608.46
654.985	22772.52
655.337	22823.82
655.688	22729.13
656.039	22760.32
656.391	22687.78
656.742	22629.02
657.094	22707.67
657.445	22808.23
657.796	22837.38
658.147	22689.36
658.498	22706.31
658.849	22733.43
659.2	22641
659.551	22581.34
659.902	22701.79
660.253	22549.03
660.604	22711.73
660.955	22546.31
661.306	22630.61
661.656	22570.72
662.007	22574.79
662.358	22597.16
662.708	22522.36
663.059	22562.36
663.409	22434.68
663.76	22655.69
664.11	22577.5
664.461	22670.83
664.811	22639.19
665.161	22522.13
665.511	22485.3
665.862	22590.83
666.212	22529.37
666.562	22602.36
666.912	22517.39
667.262	22467.9
667.612	22556.71
667.962	22526.2
668.312	22550.16
668.662	22654.33
669.011	22466.09
669.361	22489.82
669.711	22537.27
670.06	22510.16
670.41	22458.63
670.76	22416.83
671.109	22469.71
671.459	22365.98
671.808	22358.07
672.157	22355.81
672.507	22315.13
672.856	22269.49
673.205	22228.81
673.554	22370.05
673.904	22367.79
674.253	22338.86
674.602	22422.7
674.951	21975.93
675.3	21904.52
675.649	22282.14
675.998	22230.39
676.346	22176.61
676.695	22315.81
677.044	22177.28
677.393	22243.5
677.741	22214.8
678.09	22216.38
678.438	22148.36
678.787	22172.76
679.135	22226.32
679.484	22053.67
679.832	22162.6
680.181	22055.71
680.529	22121.92
680.877	22012.99
681.225	22007.8
681.573	22113.56
681.922	21965.31
682.27	21991.07
682.618	21938.42
682.966	21882.38
683.314	21894.13
683.661	21842.15
684.009	21707.92
684.357	21673.34
684.705	21715.38
685.053	21688.94
685.4	21612.78
685.748	21571.65
686.095	21461.37
686.443	21471.09
686.79	21449.85
687.138	21454.14
687.485	21325.78
687.832	21376.4
688.18	21376.63
688.527	21388.38
688.874	21222.51
689.221	21205.56
689.568	21125.56
689.915	21124.88
690.262	21245.33
690.609	21036.98
690.956	21049.63
691.303	21002.85
691.65	20848.73
691.997	20989.07
692.344	20740.03
692.69	20720.83
693.037	20671.56
693.383	20571.68
693.73	20646.02
694.077	20481.51
694.423	20470.21
694.769	20400.83
695.116	20375.75
695.462	20324.23
695.808	20254.17
696.155	20406.94
696.501	20164.68
696.847	20269.99
697.193	20082.88
697.539	20285.13
697.885	20007.17
698.231	19959.72
698.577	19961.3
698.923	19934.18
699.269	19901.64
699.614	19702.55
699.96	19806.72
700.306	19842.2
700.651	19630.01
700.997	19511.59
701.342	19573.96
701.688	19506.17
702.033	19486.73
702.379	19432.5
702.724	19355.44
703.069	19334.2
703.415	19188.44
703.76	19271.37
704.105	19215.78
704.45	19186.4
704.795	19134.88
705.14	18981.89
705.485	18933.08
705.83	18960.65
706.175	18957.03
706.52	18871.61
706.865	18713.42
707.209	18653.31
707.554	18719.97
707.899	18680.43
708.243	18642.91
708.588	18667.09
708.932	18527.66
709.277	18446.99
709.621	18625.51
709.966	18451.96
710.31	18446.76
710.654	18217.16
710.998	18284.28
711.342	18180.78
711.687	18290.15
712.031	18192.3
712.375	18110.72
712.719	18243.38
713.063	18087
713.407	18180.1
713.75	18037.96
714.094	18030.73
714.438	17908.7
714.782	17964.74
715.125	17970.39
715.469	17960.22
715.812	17889.26
716.156	17798.87
716.499	17762.26
716.843	17792.77
717.186	17720.23
717.53	17840.67
717.873	17805.87
718.216	17752.54
718.559	17664.18
718.902	17559.1
719.246	17523.4
719.589	17574.47
719.932	17416.96
720.275	17485.88
720.617	17403.4
720.96	17423.51
721.303	17357.98
721.646	17418.09
721.989	17242.72
722.331	17402.04
722.674	17338.54
723.016	17341.93
723.359	17303.51
723.701	17367.02
724.044	17247.92
724.386	17211.99
724.729	17268.71
725.071	17139.22
725.413	17084.76
725.755	17132.9
726.097	17094.93
726.439	16945.11
726.782	17030.07
727.124	17117.08
727.465	16949.85
727.807	16941.94
728.149	16907.37
728.491	16948.04
728.833	16969.06
729.175	16901.49
729.516	16848.84
729.858	16939.46
730.199	16895.39
730.541	16897.42
730.882	16790.08
731.224	16876.41
731.565	16648.62
731.906	16758.67
732.248	16686.81
732.589	16671.44
732.93	16638.9
733.271	16708.05
733.612	16707.82
733.953	16677.54
734.294	16629.41
734.635	16547.83
734.976	16618.11
735.317	16530.2
735.658	16496.76
735.999	16593.02
736.339	16532.01
736.68	16581.27
737.021	16475.74
737.361	16452.69
737.702	16503.31
738.042	16470.77
738.383	16462.63
738.723	16540.14
739.063	16446.81
739.404	16401.16
739.744	16400.71
740.084	16310.77
740.424	16334.95
740.764	16268.96
741.104	16370.43
741.444	16212.7
741.784	16172.24
742.124	16315.97
742.464	16222.19
742.804	16230.77
743.143	16204.33
743.483	16190.55
743.823	16010.89
744.162	16076.88
744.502	16187.39
744.841	15960.05
745.181	16154.84
745.52	16100.38
745.86	16095.86
746.199	16128.18
746.538	16047.5
746.877	16141.06
747.216	16013.83
747.556	15928.63
747.895	16034.62
748.234	15925.25
748.573	15869.43
748.911	15904
749.25	15929.09
749.589	15859.26
749.928	15802.54
750.267	15818.13
750.605	15817.9
750.944	15726.61
751.283	15795.53
751.621	15781.29
751.96	15735.65
752.298	15613.39
752.636	15668.08
752.975	15488.65
753.313	15604.35
753.651	15539.04
753.989	15595.99
754.327	15554.86
754.666	15478.03
755.004	15539.94
755.342	15479.61
755.679	15491.13
756.017	15375.43
