Data from tablewood_brown_FLMS001491_016.txt Node
Date: Tue Feb 07 11:10:05 GMT 2017
User: dcchb
Spectrometer: FLMS00149
Trigger mode: 0
Integration Time (sec): 2.000000E-2
Scans to average: 10
Electric dark correction enabled: true
Nonlinearity correction enabled: false
Boxcar width: 0
XAxis mode: Wavelengths
Number of Pixels in Spectrum: 2048
>>>>>Begin Spectral Data<<<<<
341.393	-27.29
341.776	-27.29
342.16	-27.29
342.543	-62.54
342.927	-73.84
343.31	-54.41
343.693	-74.74
344.077	-75.42
344.46	-58.47
344.843	-48.3
345.226	-61.86
345.61	-30.9
345.993	-12.82
346.376	1.41
346.759	9.32
347.142	16.1
347.525	42.77
347.908	68.53
348.291	77.34
348.674	90.45
349.057	111.01
349.44	111.24
349.823	157.34
350.206	153.5
350.588	200.05
350.971	212.03
351.354	217.9
351.737	238.92
352.119	242.31
352.502	245.25
352.884	249.09
353.267	292.7
353.65	287.96
354.032	303.78
354.414	312.14
354.797	321.86
355.179	339.03
355.562	310.56
355.944	339.71
356.326	344.45
356.709	346.04
357.091	346.49
357.473	339.48
357.855	338.13
358.238	353.04
358.62	352.14
359.002	347.39
359.384	340.84
359.766	342.87
360.148	344
360.53	355.3
360.912	344.23
361.294	325.25
361.676	334.28
362.057	343.32
362.439	353.95
362.821	321.86
363.203	344.91
363.584	339.48
363.966	336.54
364.348	325.25
364.729	334.51
365.111	331.57
365.493	336.32
365.874	328.18
366.256	332.93
366.637	325.25
367.019	323.66
367.4	337
367.781	315.08
368.163	348.75
368.544	306.72
368.925	329.99
369.306	335.87
369.688	327.05
370.069	313.49
370.45	330.9
370.831	329.31
371.212	326.15
371.593	321.63
371.974	324.57
372.355	344.23
372.736	354.62
373.117	326.38
373.498	337.67
373.879	320.73
374.26	335.87
374.641	321.4
375.021	311.23
375.402	334.51
375.783	344
376.163	386.26
376.544	354.17
376.925	357.56
377.305	357.11
377.686	333.38
378.066	354.4
378.447	360.5
378.827	344
379.208	367.05
379.588	360.27
379.968	352.36
380.349	367.28
380.729	382.42
381.109	357.11
381.489	366.15
381.87	383.1
382.25	364.34
382.63	372.48
383.01	385.58
383.39	372.48
383.77	384.23
384.15	356.21
384.53	372.48
384.91	383.55
385.29	381.06
385.67	372.7
386.049	396.88
386.429	372.02
386.809	394.4
387.189	394.4
387.568	414.06
387.948	398.46
388.328	415.64
388.707	415.19
389.087	404.11
389.466	431.91
389.846	426.49
390.225	412.02
390.605	425.36
390.984	436.2
391.363	414.28
391.743	433.94
392.122	431.23
392.501	434.85
392.881	445.24
393.26	448.63
393.639	460.16
394.018	456.32
394.397	444.11
394.776	456.54
395.155	455.64
395.534	460.38
395.913	471.91
396.292	475.07
396.671	467.84
397.05	474.85
397.429	478.46
397.808	453.38
398.186	482.76
398.565	475.3
398.944	482.08
399.323	493.38
399.701	491.79
400.08	486.82
400.458	503.55
400.837	494.73
401.215	516.2
401.594	512.81
401.972	518.91
402.351	536.31
402.729	513.49
403.107	507.16
403.486	548.52
403.864	544.22
404.242	549.19
404.62	553.26
404.999	553.94
405.377	553.94
405.755	535.86
406.133	555.07
406.511	561.62
406.889	567.27
407.267	584.22
407.645	573.37
408.023	582.87
408.401	576.99
408.779	588.74
409.156	590.1
409.534	602.53
409.912	611.79
410.29	624.45
410.667	626.71
411.045	619.48
411.422	607.95
411.8	633.71
412.178	626.03
412.555	652.24
412.933	619.93
413.31	661.51
413.687	671.45
414.065	679.59
414.442	675.52
414.819	680.26
415.197	698.57
415.574	677.78
415.951	695.63
416.328	679.59
416.705	712.35
417.082	701.06
417.46	711.45
417.837	697.21
418.214	721.39
418.591	711.45
418.967	727.04
419.344	727.27
419.721	746.93
420.098	746.93
420.475	726.14
420.852	755.74
421.228	782.63
421.605	794.84
421.982	760.04
422.358	792.8
422.735	766.14
423.111	789.41
423.488	813.59
423.864	821.28
424.241	825.35
424.617	807.72
424.994	806.59
425.37	847.94
425.746	826.02
426.123	852.69
426.499	827.15
426.875	860.6
427.251	854.27
427.627	857.89
428.003	893.37
428.379	917.09
428.756	883.42
429.132	912.35
429.507	889.52
429.883	912.12
430.259	930.43
430.635	940.37
431.011	971.1
431.387	964.1
431.763	960.48
432.138	970.88
432.514	996.41
432.89	976.3
433.265	993.25
433.641	1033.7
434.016	1010.43
434.392	1035.06
434.767	1082.97
435.143	1074.15
435.518	1093.14
435.894	1096.07
436.269	1105.79
436.644	1114.15
437.02	1087.71
437.395	1100.14
437.77	1139.46
438.145	1155.05
438.52	1172
438.895	1192.57
439.271	1164.55
439.646	1194.38
440.021	1188.05
440.395	1177.65
440.77	1182.17
441.145	1210.42
441.52	1229.63
441.895	1240.48
442.27	1202.96
442.645	1254.03
443.019	1264.2
443.394	1293.58
443.769	1284.77
444.143	1269.63
444.518	1290.87
444.892	1288.38
445.267	1326.8
445.641	1299.23
446.016	1295.39
446.39	1310.3
446.764	1317.54
447.139	1311.43
447.513	1357.31
447.887	1367.48
448.262	1341.04
448.636	1355.05
449.01	1362.73
449.384	1381.94
449.758	1403.86
450.132	1443.18
450.506	1425.78
450.88	1444.99
451.254	1429.4
451.628	1429.4
452.002	1453.58
452.376	1451.77
452.75	1484.76
453.123	1494.71
453.497	1532.9
453.871	1520.69
454.244	1545.55
454.618	1584.87
454.992	1568.6
455.365	1593.01
455.739	1630.75
456.112	1603.4
456.486	1648.6
456.859	1645.66
457.232	1683.85
457.606	1694.7
457.979	1687.24
458.352	1728.82
458.725	1776.73
459.099	1785.77
459.472	1768.82
459.845	1819.67
460.218	1831.87
460.591	1831.19
460.964	1829.39
461.337	1886.56
461.71	1904.41
462.083	1937.41
462.456	1948.25
462.829	1935.82
463.201	1989.16
463.574	1971.53
463.947	2043.62
464.32	2074.58
464.692	2093.11
465.065	2083.17
465.438	2156.38
465.81	2136.95
466.183	2185.31
466.555	2251.52
466.928	2250.62
467.3	2249.04
467.672	2258.3
468.045	2329.94
468.417	2349.37
468.789	2348.02
469.161	2399.32
469.534	2444.29
469.906	2478.18
470.278	2511.63
470.65	2565.19
471.022	2563.38
471.394	2678.63
471.766	2688.57
472.138	2686.77
472.51	2765.18
472.882	2809.02
473.253	2843.15
473.625	2862.35
473.997	2959.98
474.369	2961.33
474.74	3045.17
475.112	3042.46
475.484	3141.67
475.855	3227.54
476.227	3276.58
476.598	3325.62
476.97	3366.52
477.341	3454.65
477.713	3488.78
478.084	3517.7
478.455	3639.96
478.827	3695.55
479.198	3785.04
479.569	3798.15
479.94	3919.05
480.311	3975.55
480.682	4080.18
481.053	4148.87
481.424	4197.46
481.795	4299.6
482.166	4291.02
482.537	4391.58
482.908	4522.65
483.279	4577.79
483.65	4668.86
484.021	4711.57
484.391	4842.42
484.762	4859.14
485.133	4900.04
485.503	5029.98
485.874	5060.26
486.244	5151.79
486.615	5188.17
486.985	5323.98
487.356	5429.29
487.726	5507.26
488.097	5586.12
488.467	5601.49
488.837	5782.5
489.207	5804.42
489.578	5867.02
489.948	5993.8
490.318	6071.54
490.688	6061.59
491.058	6142.49
491.428	6241.02
491.798	6296.61
492.168	6464.07
492.538	6439.44
492.908	6524.63
493.278	6602.82
493.648	6637.17
494.017	6673.33
494.387	6793.55
494.757	6880.33
495.126	6918.97
495.496	6953.55
495.866	7003.71
496.235	7051.17
496.605	7122.58
496.974	7218.85
497.344	7232.41
497.713	7328.9
498.082	7393.99
498.452	7452.52
498.821	7552.17
499.19	7558.28
499.559	7614.32
499.928	7646.86
500.298	7746.97
500.667	7777.93
501.036	7786.29
501.405	7922.11
501.774	7925.05
502.143	7998.49
502.512	8105.61
502.88	8184.25
503.249	8166.4
503.618	8251.14
503.987	8274.64
504.356	8307.41
504.724	8386.28
505.093	8469.89
505.462	8473.05
505.83	8555.09
506.199	8570.45
506.567	8733.39
506.936	8669.66
507.304	8851.12
507.672	8858.13
508.041	8923.89
508.409	8998.92
508.777	9094.51
509.145	9130.44
509.514	9182.87
509.882	9222.19
510.25	9256.08
510.618	9384.67
510.986	9450.43
511.354	9514.61
511.722	9567.71
512.09	9696.98
512.458	9739.91
512.826	9748.95
513.193	9866.92
513.561	9917.76
513.929	9997.31
514.297	10104.88
514.664	10246.57
515.032	10230.97
515.4	10345.55
515.767	10422.38
516.135	10529.27
516.502	10449.95
516.869	10679.1
517.237	10653.34
517.604	10608.59
517.972	10747.12
518.339	10957.06
518.706	10898.98
519.073	10976.04
519.44	11090.84
519.808	11244.05
520.175	11240.21
520.542	11373.54
520.909	11506.65
521.276	11570.83
521.643	11655.57
522.009	11763.14
522.376	11803.81
522.743	11877.48
523.11	12022.34
523.477	12196.57
523.843	12205.39
524.21	12360.86
524.577	12491.48
524.943	12556.11
525.31	12644.47
525.676	12708.87
526.043	12810.34
526.409	12936.67
526.776	13069.32
527.142	13145.7
527.508	13211.01
527.874	13346.37
528.241	13369.42
528.607	13476.54
528.973	13578.91
529.339	13640.15
529.705	13768.28
530.071	13909.97
530.437	13956.53
530.803	14032.23
531.169	14059.12
531.535	14039.46
531.901	14148.16
532.267	14253.69
532.632	14371.43
532.998	14422.73
533.364	14457.76
533.73	14533.91
534.095	14633.12
534.461	14743.4
534.826	14816.62
535.192	14890.51
535.557	14963.28
535.923	14955.6
536.288	14965.54
536.653	15035.82
537.019	15046.21
537.384	15254.8
537.749	15255.93
538.114	15313.33
538.479	15394.45
538.845	15410.27
539.21	15474
539.575	15535.24
539.94	15540.21
540.305	15728.68
540.67	15730.04
541.034	15842.58
541.399	15846.65
541.764	15889.58
542.129	15932.07
542.494	16073.76
542.858	16013.87
543.223	16035.12
543.587	16129.58
543.952	16226.3
544.316	16240.99
544.681	16255.67
545.045	16357.37
545.41	16446.63
545.774	16456.57
546.138	16517.14
546.503	16611.15
546.867	16708.54
547.231	16746.96
547.595	16859.95
547.959	16967.07
548.324	16948.99
548.688	16952.38
549.052	17068.53
549.416	17148.08
549.779	17070.34
550.143	17226.27
550.507	17467.85
550.871	17457.68
551.235	17500.61
551.599	17712.36
551.962	17679.14
552.326	17824.9
552.689	17926.82
553.053	17911.45
553.417	17995.06
553.78	18256.53
554.143	18209.97
554.507	18334.04
554.87	18469.4
555.234	18597.31
555.597	18555.27
555.96	18693.8
556.323	18786.46
556.686	18812.44
557.05	19085.88
557.413	19119.33
557.776	19246.1
558.139	19422.82
558.502	19497.17
558.865	19558.86
559.228	19900.1
559.59	19877.05
559.953	19941.68
560.316	20222.12
560.679	20247.89
561.041	20407.2
561.404	20586.86
561.767	20806.97
562.129	20766.29
562.492	21051.25
562.854	21052.16
563.217	21106.39
563.579	21290.12
563.941	21523.33
564.304	21585.25
564.666	21908.63
565.028	21891.68
565.39	21992.47
565.753	22234.27
566.115	22450.77
566.477	22465.45
566.839	22694.15
567.201	22965.33
567.563	22959.68
567.925	23130.3
568.287	23313.12
568.648	23385.43
569.01	23751.75
569.372	23837.62
569.734	23895.02
570.095	24070.61
570.457	24211.62
570.819	24416.82
571.18	24492.29
571.542	24763.47
571.903	24833.08
572.265	25058.15
572.626	25279.17
572.987	25368.43
573.349	25488.2
573.71	25835.99
574.071	25916.66
574.432	25959.83
574.794	26323.21
575.155	26337.22
575.516	26373.37
575.877	26496.08
576.238	26612.46
576.599	26838.22
576.96	26937.65
577.32	27117.76
577.681	27259.23
578.042	27356.85
578.403	27564.76
578.763	27642.49
579.124	27762.49
579.485	27764.3
579.845	28003.39
580.206	28089.26
580.566	28173.78
580.927	28155.93
581.287	28445.64
581.648	28428.69
582.008	28503.71
582.368	28542.81
582.728	28656.93
583.089	28724.5
583.449	28745.52
583.809	28924.72
584.169	29043.36
584.529	29074.32
584.889	29445.16
585.249	29156.8
585.609	29098.27
585.969	29411.03
586.329	29313.18
586.688	29449.68
587.048	29387.08
587.408	29461.65
587.768	29471.15
588.127	29465.5
588.487	29503.91
588.846	29818.71
589.206	29588.21
589.565	29584.36
589.925	29848.99
590.284	29759.73
590.643	29818.48
591.003	29911.81
591.362	30042.88
591.721	29985.93
592.08	30054.18
592.44	30013.96
592.799	30123.78
593.158	30161.52
593.517	30068.42
593.876	30178.47
594.235	30087.85
594.593	30164.91
594.952	30349.54
595.311	30182.09
595.67	30217.34
596.029	30467.73
596.387	30505.24
596.746	30496.43
597.104	30311.35
597.463	30291.24
597.822	30379.37
598.18	30515.19
598.538	30507.28
598.897	30631.57
599.255	30450.56
599.613	30700.49
599.972	30621.62
600.33	30651.45
600.688	30585.47
601.046	30681.06
601.404	30709.08
601.762	30773.03
602.12	30942.52
602.478	30838.79
602.836	31014.16
603.194	30826.59
603.552	30912.24
603.91	30833.37
604.268	31083.98
604.625	30846.03
604.983	31031.1
605.341	30865.46
605.698	31050.99
606.056	31110.65
606.413	31031.1
606.771	31166.24
607.128	31254.38
607.485	30967.6
607.843	31087.6
608.2	31275.39
608.557	31283.53
608.914	31117.66
609.272	31330.98
609.629	31351.55
609.986	31542.5
610.343	31310.42
610.7	31603.97
611.057	31485.1
611.414	31518.55
611.771	31567.59
612.127	31747.24
612.484	31551.54
612.841	31787.47
613.198	31711.54
613.554	31684.42
613.911	31708.15
614.267	31828.6
614.624	31746.57
614.98	31838.77
615.337	32056.84
615.693	32027.24
616.05	32035.15
616.406	32183.17
616.762	31997.63
617.118	32269.04
617.475	32045.09
617.831	32274.46
618.187	32141.81
618.543	32264.74
618.899	32353.56
619.255	32224.52
619.611	32296.38
619.967	32271.75
620.323	32339.55
620.678	32389.04
621.034	32394.68
621.39	32418.64
621.746	32234.46
622.101	32634.68
622.457	32472.2
622.812	32421.35
623.168	32616.6
623.523	32511.74
623.879	32609.14
624.234	32546.32
624.589	32558.97
624.945	32511.07
625.3	32569.37
625.655	32589.71
626.01	32525.08
626.365	32575.92
626.72	32560.56
627.075	32458.41
627.43	32542.03
627.785	32557.84
628.14	32551.74
628.495	32531.63
628.85	32435.81
629.205	32330.05
629.559	32469.71
629.914	32264.97
630.269	32230.4
630.623	32176.16
630.978	32067.46
631.332	32293.22
631.687	32262.49
632.041	32074.92
632.396	32257.51
632.75	32166.44
633.104	32073.79
633.459	32092.77
633.813	32012.77
634.167	32050.51
634.521	32027.46
634.875	32067.69
635.229	31964.87
635.583	31775.49
635.937	31853.46
636.291	31854.59
636.645	31783.18
636.999	31657.76
637.352	31767.81
637.706	31632.67
638.06	31769.39
638.413	31766.68
638.767	31764.19
639.121	31684.2
639.474	31426.12
639.828	31546.12
640.181	31502.05
640.534	31439.46
640.888	31415.95
641.241	31311.1
641.594	31436.07
641.947	31456.18
642.301	31287.14
642.654	31395.62
643.007	31354.03
643.36	31245.11
643.713	31248.5
644.066	31242.62
644.419	31085.34
644.771	31011.22
645.124	30655.07
645.477	30620.27
645.83	30358.58
646.182	30268.41
646.535	30168.3
646.888	30290.56
647.24	30125.59
647.593	30290.11
647.945	30245.14
648.298	30118.81
648.65	30092.37
649.002	30035.65
649.355	30122.88
649.707	30068.87
650.059	30264.12
650.411	30606.94
650.763	30627.95
651.115	30863.88
651.467	30724.45
651.819	30778.23
652.171	30772.35
652.523	30725.58
652.875	30775.74
653.227	30529.42
653.578	30763.99
653.93	30539.14
654.282	30724.67
654.633	30488.97
654.985	30647.39
655.337	30648.52
655.688	30727.16
656.039	30783.43
656.391	30473.61
656.742	30678.8
657.094	30652.36
657.445	30589.53
657.796	30578.91
658.147	30591.79
658.498	30563.77
658.849	30441.74
659.2	30468.86
659.551	30422.53
659.902	30531.46
660.253	30515.64
660.604	30559.93
660.955	30425.25
661.306	30578.69
661.656	30468.63
662.007	30441.29
662.358	30479.93
662.708	30446.94
663.059	30499.82
663.409	30284.01
663.76	30464.79
664.11	30505.02
664.461	30486.94
664.811	30564.68
665.161	30488.07
665.511	30313.38
665.862	30568.29
666.212	30398.35
666.562	30558.12
666.912	30380.27
667.262	30407.62
667.612	30521.51
667.962	30420.73
668.312	30392.48
668.662	30516.32
669.011	30466.37
669.361	30298.02
669.711	30388.18
670.06	30114.29
670.41	30183.67
670.76	30193.84
671.109	30451.01
671.459	30209.66
671.808	30117.91
672.157	30111.81
672.507	30058.48
672.856	30144.57
673.205	30101.41
673.554	30217.57
673.904	30084.01
674.253	30142.77
674.602	30055.31
674.951	29638.37
675.3	29498.04
675.649	29955.2
675.998	29968.76
676.346	29840.4
676.695	30072.03
677.044	29797.69
677.393	29968.76
677.741	29969.44
678.09	29792.27
678.438	29599.73
678.787	29710.01
679.135	29736
679.484	29522.44
679.832	29684.93
680.181	29369.91
680.529	29516.12
680.877	29441.54
681.225	29340.3
681.573	29521.99
681.922	29267.76
682.27	29274.77
682.618	29278.38
682.966	29108.67
683.314	29225.28
683.661	29104.38
684.009	28885.4
684.357	28899.86
684.705	28927.88
685.053	28948.45
685.4	28783.93
685.748	28746.42
686.095	28775.12
686.443	28567.44
686.79	28602.02
687.138	28543.94
687.485	28510.27
687.832	28358.63
688.18	28427.78
688.527	28324.06
688.874	28260.78
689.221	28193.21
689.568	28135.59
689.915	28012.43
690.262	27935.59
690.609	27991.18
690.956	27747.8
691.303	27837.52
691.65	27671.65
691.997	27622.83
692.344	27447.24
692.69	27410.18
693.037	27407.02
693.383	27184.65
693.73	27277.31
694.077	27095.39
694.423	27068.95
694.769	26917.09
695.116	26911.67
695.462	26822.18
695.808	26675.51
696.155	26815.62
696.501	26468.74
696.847	26553.93
697.193	26229.42
697.539	26440.27
697.885	26182.87
698.231	26143.78
698.577	26112.14
698.923	26040.95
699.269	25948.75
699.614	25762.32
699.96	25751.47
700.306	25688.19
700.651	25579.72
700.997	25598.03
701.342	25504.92
701.688	25420.63
702.033	25234.2
702.379	25165.5
702.724	25162.56
703.069	25168.21
703.415	24843.92
703.76	24956.46
704.105	24779.07
704.45	24664.27
704.795	24598.73
705.14	24478.96
705.485	24498.4
705.83	24458.85
706.175	24391.28
706.52	24323.48
706.865	24220.66
707.209	24206.43
707.554	24086.43
707.899	24144.28
708.243	23987.67
708.588	23996.04
708.932	23814.35
709.277	23822.71
709.621	23764.4
709.966	23758.53
710.31	23628.81
710.654	23468.82
710.998	23575.26
711.342	23476.05
711.687	23492.32
712.031	23305.88
712.375	23242.61
712.719	23377.52
713.063	23260.01
713.407	23160.8
713.75	23202.16
714.094	23235.15
714.438	23126.68
714.782	23000.58
715.125	23033.8
715.469	22926.46
715.812	22891.66
716.156	22727.59
716.499	22702.74
716.843	22848.27
717.186	22688.95
717.53	22799.23
717.873	22643.08
718.216	22615.06
718.559	22594.04
718.902	22436.53
719.246	22573.02
719.589	22552.68
719.932	22314.72
720.275	22315.4
720.617	22352.24
720.96	22319.92
721.303	22333.48
721.646	22317.66
721.989	22228.85
722.331	22206.93
722.674	22272.24
723.016	22235.4
723.359	22240.38
723.701	22130.32
724.044	22138.68
724.386	22160.83
724.729	22237.44
725.071	22120.83
725.413	22199.7
725.755	22073.37
726.097	21993.6
726.439	21936.2
726.782	21909.99
727.124	22011
727.465	21819.37
727.807	21913.15
728.149	21880.84
728.491	21885.36
728.833	21967.84
729.175	21879.03
729.516	21771.01
729.858	21792.93
730.199	21826.15
730.541	21812.59
730.882	21797.9
731.224	21853.95
731.565	21772.59
731.906	21787.05
732.248	21812.82
732.589	21722.2
732.93	21644.69
733.271	21751.8
733.612	21747.51
733.953	21691.24
734.294	21658.47
734.635	21606.49
734.976	21691.92
735.317	21711.58
735.658	21675.42
735.999	21628.41
736.339	21597.23
736.68	21672.26
737.021	21578.7
737.361	21488.31
737.702	21585.48
738.042	21644.69
738.383	21539.83
738.723	21648.53
739.063	21572.6
739.404	21613.95
739.744	21513.16
740.084	21540.51
740.424	21576.89
740.764	21646.04
741.104	21655.08
741.444	21584.12
741.784	21495.76
742.124	21493.73
742.464	21576.21
742.804	21483.11
743.143	21441.53
743.483	21564.91
743.823	21483.33
744.162	21494.18
744.502	21528.08
744.841	21371.7
745.181	21549.77
745.52	21496.89
745.86	21477.01
746.199	21453.73
746.538	21517.46
746.877	21607.62
747.216	21528.76
747.556	21538.02
747.895	21547.51
748.234	21439.04
748.573	21448.31
748.911	21476.55
749.25	21435.65
749.589	21448.53
749.928	21389.55
750.267	21482.88
750.605	21385.48
750.944	21406.05
751.283	21282.89
751.621	21442.43
751.96	21246.73
752.298	21390.68
752.636	21372.6
752.975	21240.63
753.313	21209.44
753.651	21287.41
753.989	21161.31
754.327	21128.09
754.666	21100.52
755.004	21161.31
755.342	21042.22
755.679	21136
