Data from tablewood_brown_FLMS001491_012.txt Node
Date: Tue Feb 07 11:10:04 GMT 2017
User: dcchb
Spectrometer: FLMS00149
Trigger mode: 0
Integration Time (sec): 2.000000E-2
Scans to average: 10
Electric dark correction enabled: true
Nonlinearity correction enabled: false
Boxcar width: 0
XAxis mode: Wavelengths
Number of Pixels in Spectrum: 2048
>>>>>Begin Spectral Data<<<<<
341.393	2.37
341.776	2.37
342.16	2.37
342.543	-65.42
342.927	-85.99
343.31	-51.64
343.693	-66.55
344.077	-52.09
344.46	-65.87
344.843	-55.25
345.226	-40.56
345.61	-36.27
345.993	-36.95
346.376	11.64
346.759	-7.12
347.142	35.59
347.525	19.32
347.908	67.91
348.291	82.37
348.674	89.83
349.057	105.65
349.44	112.2
349.823	142.48
350.206	168.02
350.588	205.31
350.971	218.19
351.354	221.8
351.737	248.92
352.119	249.15
352.502	264.29
352.884	279.88
353.267	282.82
353.65	293.89
354.032	299.77
354.414	306.09
354.797	295.7
355.179	326.43
355.562	317.84
355.944	347
356.326	311.29
356.709	329.14
357.091	329.82
357.473	342.7
357.855	328.92
358.238	346.32
358.62	348.8
359.002	342.02
359.384	350.39
359.766	351.52
360.148	356.71
360.53	344.06
360.912	332.99
361.294	341.8
361.676	339.99
362.057	344.06
362.439	335.7
362.821	349.03
363.203	324.4
363.584	347.45
363.966	330.73
364.348	326.43
364.729	319.2
365.111	337.51
365.493	329.82
365.874	331.86
366.256	346.32
366.637	328.24
367.019	313.78
367.4	344.28
367.781	299.99
368.163	339.31
368.544	307.45
368.925	342.93
369.306	344.74
369.688	327.11
370.069	323.95
370.45	314.68
370.831	325.53
371.212	345.19
371.593	343.61
371.974	323.95
372.355	331.86
372.736	347.67
373.117	334.57
373.498	338.86
373.879	333.21
374.26	307.22
374.641	326.88
375.021	324.62
375.402	327.56
375.783	335.92
376.163	348.13
376.544	349.93
376.925	362.14
377.305	370.5
377.686	326.21
378.066	364.4
378.447	362.36
378.827	363.49
379.208	350.84
379.588	339.31
379.968	360.1
380.349	368.92
380.729	370.72
381.109	365.98
381.489	362.59
381.87	376.6
382.25	368.69
382.63	377.05
383.01	373.44
383.39	363.72
383.77	389.93
384.15	388.58
384.53	390.84
384.91	385.19
385.29	363.27
385.67	383.38
386.049	419.09
386.429	404.85
386.809	382.25
387.189	389.26
387.568	380.89
387.948	411.18
388.328	387.9
388.707	400.33
389.087	402.81
389.466	423.83
389.846	412.53
390.225	417.5
390.605	433.77
390.984	407.56
391.363	416.15
391.743	430.61
392.122	438.97
392.501	420.44
392.881	459.54
393.26	458.86
393.639	451.85
394.018	467.9
394.397	465.41
394.776	443.27
395.155	481.46
395.534	466.77
395.913	450.04
396.292	462.25
396.671	500.21
397.05	474
397.429	498.18
397.808	471.96
398.186	476.71
398.565	496.37
398.944	500.66
399.323	497.05
399.701	493.89
400.08	494.34
400.458	498.63
400.837	523.49
401.215	497.5
401.594	502.92
401.972	496.82
402.351	526.65
402.729	510.38
403.107	520.55
403.486	547.67
403.864	514.22
404.242	519.2
404.62	529.36
404.999	534.56
405.377	543.6
405.755	544.73
406.133	549.7
406.511	562.58
406.889	570.72
407.267	575.47
407.645	563.94
408.023	582.24
408.401	586.09
408.779	609.36
409.156	603.49
409.534	601
409.912	587.67
410.29	618.63
410.667	614.33
411.045	643.26
411.422	640.1
411.8	627.89
412.178	634.67
412.555	647.1
412.933	645.07
413.31	657.04
413.687	673.32
414.065	667.44
414.442	660.89
414.819	678.74
415.197	669.93
415.574	703.6
415.951	693.65
416.328	702.92
416.705	688.46
417.082	689.81
417.46	697.72
417.837	731.62
418.214	727.1
418.591	725.97
418.967	750.38
419.344	727.1
419.721	750.38
420.098	719.87
420.475	768.68
420.852	758.51
421.228	758.29
421.605	760.32
421.982	776.36
422.358	817.72
422.735	791.05
423.111	761.9
423.488	800.54
423.864	816.36
424.241	813.42
424.617	806.65
424.994	813.65
425.37	822.69
425.746	818.17
426.123	846.64
426.499	830.83
426.875	856.14
427.251	851.62
427.627	859.07
428.003	872.18
428.379	890.03
428.756	881.67
429.132	888.9
429.507	912.86
429.883	928
430.259	930.26
430.635	928.45
431.011	921.9
431.387	939.52
431.763	970.71
432.138	986.98
432.514	999.18
432.89	1004.38
433.265	993.76
433.641	1008.45
434.016	1025.17
434.392	1040.76
434.767	1027.2
435.143	1066.98
435.518	1072.85
435.894	1086.64
436.269	1104.26
436.644	1083.25
437.02	1109.01
437.395	1142.46
437.77	1125.51
438.145	1143.13
438.52	1148.56
438.895	1147.2
439.271	1150.82
439.646	1186.07
440.021	1201.89
440.395	1203.02
440.77	1212.51
441.145	1207.76
441.52	1221.55
441.895	1243.02
442.27	1245.5
442.645	1220.65
443.019	1252.96
443.394	1261.55
443.769	1283.92
444.143	1276.46
444.518	1281.89
444.892	1297.03
445.267	1299.51
445.641	1303.58
446.016	1291.38
446.39	1307.2
446.764	1345.61
447.139	1325.95
447.513	1338.61
447.887	1341.32
448.262	1327.31
448.636	1387.2
449.01	1351.04
449.384	1406.86
449.758	1398.27
450.132	1420.19
450.506	1426.97
450.88	1434.88
451.254	1430.81
451.628	1448.66
452.002	1463.35
452.376	1465.61
452.75	1500.86
453.123	1484.14
453.497	1505.84
453.871	1510.81
454.244	1542.22
454.618	1551.03
454.992	1577.25
455.365	1558.49
455.739	1616.79
456.112	1611.37
456.486	1664.02
456.859	1648.88
457.232	1673.74
457.606	1677.58
457.979	1669.67
458.352	1719.16
458.725	1752.84
459.099	1730.01
459.472	1771.82
459.845	1831.25
460.218	1829.44
460.591	1822.66
460.964	1838.71
461.337	1887.3
461.71	1905.83
462.083	1932.49
462.456	1937.69
462.829	1923
463.201	1962.32
463.574	1993.96
463.947	2011.36
464.32	2064.24
464.692	2081.87
465.065	2092.94
465.438	2139.49
465.81	2149.89
466.183	2148.98
466.555	2184.91
466.928	2229.66
467.3	2233.73
467.672	2262.2
468.045	2360.73
468.417	2344.68
468.789	2354.4
469.161	2428.98
469.534	2445.92
469.906	2488.86
470.278	2545.58
470.65	2526.6
471.022	2601.85
471.394	2646.6
471.766	2652.7
472.138	2676.65
472.51	2766.14
472.882	2800.04
473.253	2842.52
473.625	2913.93
473.997	2986.7
474.369	2947.61
474.74	2995.74
475.112	3050.43
475.484	3148.96
475.855	3188.05
476.227	3238.67
476.598	3348.73
476.97	3414.03
477.341	3434.82
477.713	3475.5
478.084	3554.82
478.455	3637.31
478.827	3703.97
479.198	3779.67
479.569	3798.88
479.94	3870.07
480.311	3958.43
480.682	4033
481.053	4136.73
481.424	4242.49
481.795	4272.32
482.166	4344.18
482.537	4390.05
482.908	4528.58
483.279	4588.69
483.65	4687.9
484.021	4775.58
484.391	4777.84
484.762	4853.54
485.133	4873.43
485.503	5003.15
485.874	5119.53
486.244	5152.52
486.615	5237.72
486.985	5290.37
487.356	5466.64
487.726	5485.17
488.097	5599.97
488.467	5604.94
488.837	5756.57
489.207	5781.88
489.578	5895.1
489.948	5955.66
490.318	6060.29
490.688	6056
491.058	6156.56
491.428	6270.91
491.798	6345.93
492.168	6454.18
492.538	6515.65
492.908	6601.97
493.278	6619.15
493.648	6672.03
494.017	6662.08
494.387	6819.37
494.757	6878.35
495.126	6915.41
495.496	6996.77
495.866	6962.19
496.235	7107.04
496.605	7159.47
496.974	7180.04
497.344	7348.17
497.713	7353.37
498.082	7340.03
498.452	7494.83
498.821	7518.33
499.19	7571.44
499.559	7582.96
499.928	7691.66
500.298	7735.05
500.667	7809.17
501.036	7783.41
501.405	7927.81
501.774	7881.71
502.143	7923.29
502.512	8044.87
502.88	8149.5
503.249	8088.04
503.618	8254.81
503.987	8266.56
504.356	8294.81
504.724	8363.96
505.093	8434.92
505.462	8516.05
505.83	8485.54
506.199	8609.38
506.567	8711.75
506.936	8660.9
507.304	8827.23
507.672	8926.21
508.041	8941.35
508.409	8984.96
508.777	9132.98
509.145	9161.68
509.514	9175.46
509.882	9239.64
510.25	9299.76
510.618	9340.21
510.986	9415.46
511.354	9497.72
511.722	9637.83
512.09	9665.62
512.458	9677.6
512.826	9832.62
513.193	9891.83
513.561	9946.07
513.929	10047.98
514.297	10102.67
514.664	10228.77
515.032	10226.06
515.4	10361.2
515.767	10431.93
516.135	10482.55
516.502	10415.43
516.869	10564.81
517.237	10662.88
517.604	10704.01
517.972	10791.02
518.339	10893.84
518.706	10947.17
519.073	10991.24
519.44	11041.4
519.808	11187.62
520.175	11251.34
520.542	11416.54
520.909	11462.18
521.276	11526.59
521.643	11636.19
522.009	11730.88
522.376	11790.09
522.743	11858.33
523.11	12075.95
523.477	12113.01
523.843	12250.64
524.21	12418.77
524.577	12446.11
524.943	12450.63
525.31	12643.17
525.676	12759.55
526.043	12807.46
526.409	12936.95
526.776	12973.11
527.142	13142.59
527.508	13160.44
527.874	13294.9
528.241	13402.7
528.607	13450.38
528.973	13550.04
529.339	13586.42
529.705	13717.04
530.071	13870.93
530.437	13942.57
530.803	14001.1
531.169	14087.43
531.535	14150.25
531.901	14237.25
532.267	14214.88
532.632	14341.2
532.998	14437.7
533.364	14453.07
533.73	14494.2
534.095	14742.32
534.461	14672.04
534.826	14796.56
535.192	14906.84
535.557	14974.63
535.923	14968.08
536.288	15009.44
536.653	15100.28
537.019	15150
537.384	15250.79
537.749	15266.38
538.114	15333.27
538.479	15394.28
538.845	15388.63
539.21	15387.05
539.575	15573.04
539.94	15620.95
540.305	15727.38
540.67	15657.1
541.034	15709.08
541.399	15796.08
541.764	15891.67
542.129	15828.62
542.494	15921.05
542.858	16039.69
543.223	16032.91
543.587	16258.22
543.952	16095.06
544.316	16210.08
544.681	16262.51
545.045	16334.15
545.41	16435.61
545.774	16488.27
546.138	16454.82
546.503	16649.62
546.867	16704.31
547.231	16790.86
547.595	16805.09
547.959	16899.78
548.324	16910.63
548.688	17058.87
549.052	17119.89
549.416	17069.72
549.779	17162.37
550.143	17284.18
550.507	17409.82
550.871	17553.55
551.235	17492.31
551.599	17692.08
551.962	17715.81
552.326	17799.64
552.689	17883.03
553.053	17930.26
553.417	17988.57
553.78	18275.79
554.143	18224.49
554.507	18380.65
554.87	18433.75
555.234	18629.68
555.597	18580.64
555.96	18695.67
556.323	18802.56
556.686	18893.18
557.05	19071.48
557.413	19178.59
557.776	19271.24
558.139	19410.68
558.502	19541.29
558.865	19644.34
559.228	19878.91
559.59	19967.05
559.953	20042.75
560.316	20343.76
560.679	20277.55
561.041	20468.73
561.404	20515.96
561.767	20777.19
562.129	20773.13
562.492	21093.34
562.854	21059.45
563.217	21117.75
563.579	21280.46
563.941	21573.33
564.304	21642.93
564.666	21925.86
565.028	21920.44
565.39	22123.15
565.753	22264.39
566.115	22447.43
566.477	22474.1
566.839	22655.79
567.201	22889.68
567.563	22969.68
567.925	23148.43
568.287	23305.71
568.648	23498.48
569.01	23670
569.372	23917.45
569.734	23785.25
570.095	24089.88
570.457	24331.68
570.819	24407.61
571.18	24540.03
571.542	24756.75
571.903	24894.15
572.265	25107.93
572.626	25214.14
572.987	25454.58
573.349	25638.31
573.71	25812.54
574.071	25891.18
574.432	26008.02
574.794	26274.9
575.155	26316.26
575.516	26374.56
575.877	26517.61
576.238	26683.71
576.599	26856.13
576.96	26998.05
577.32	27133.41
577.681	27403.23
578.042	27395.78
578.403	27601.65
578.763	27565.26
579.124	27760.96
579.485	27894.52
579.845	28066.72
580.206	28038.7
580.566	28071.92
580.927	28218.81
581.287	28408.86
581.648	28373.38
582.008	28513.04
582.368	28523.88
582.728	28736.31
583.089	28635.29
583.449	28757.55
583.809	28954.15
584.169	29082.96
584.529	28975.17
584.889	29260.13
585.249	29151.66
585.609	29132.91
585.969	29351.88
586.329	29328.83
586.688	29429.4
587.048	29404.76
587.408	29342.84
587.768	29520.24
588.127	29466
588.487	29574.02
588.846	29845.66
589.206	29640.24
589.565	29616.74
589.925	29788.93
590.284	29859.67
590.643	29896.5
591.003	29950.96
591.362	30108.93
591.721	29971.08
592.08	30008.36
592.44	30064.86
592.799	30104.41
593.158	30115.71
593.517	30170.85
593.876	30203.84
594.235	30103.95
594.593	30062.83
594.952	30279.77
595.311	30121.58
595.67	30131.07
596.029	30414.23
596.387	30397.05
596.746	30561.34
597.104	30374
597.463	30303.05
597.822	30527.22
598.18	30431.86
598.538	30333.55
598.897	30602.25
599.255	30407
599.613	30790.94
599.972	30670.27
600.33	30635.69
600.688	30594.34
601.046	30743.71
601.404	30799.76
601.762	30737.16
602.12	31010.15
602.478	30888.11
602.836	30892.18
603.194	30764.28
603.552	30878.17
603.91	30895.12
604.268	31056.02
604.625	30912.52
604.983	31144.83
605.341	30884.95
605.698	31068.22
606.056	31113.19
606.413	30976.93
606.771	31245.62
607.128	31149.8
607.485	31089.24
607.843	31124.72
608.2	31289.91
608.557	31349.57
608.914	31152.74
609.272	31420.98
609.629	31330.59
609.986	31472.73
610.343	31302.79
610.7	31617.13
611.057	31595.44
611.414	31494.65
611.771	31535.55
612.127	31561.32
612.484	31630.69
612.841	31680.18
613.198	31711.82
613.554	31645.38
613.911	31943.91
614.267	31778.26
614.624	31838.82
614.98	31972.38
615.337	32011.02
615.693	31961.76
616.05	32040.63
616.406	32063.22
616.762	32073.62
617.118	32042.89
617.475	32072.26
617.831	32221.86
618.187	32096.44
618.543	32239.94
618.899	32415.98
619.255	32255.54
619.611	32263.22
619.967	32363.1
620.323	32452.37
620.678	32253.5
621.034	32251.69
621.39	32247.85
621.746	32271.35
622.101	32653.49
622.457	32408.53
622.812	32335.76
623.168	32623.21
623.523	32557.68
623.879	32510.67
624.234	32390.22
624.589	32589.54
624.945	32445.59
625.3	32483.55
625.655	32543.21
626.01	32529.43
626.365	32488.98
626.72	32520.39
627.075	32444.68
627.43	32499.15
627.785	32317.23
628.14	32485.59
628.495	32539.37
628.85	32474.74
629.205	32287.63
629.559	32525.81
629.914	32311.35
630.269	32301.64
630.623	32181.87
630.978	32197.91
631.332	32223.22
631.687	32253.5
632.041	32220.73
632.396	32211.7
632.75	32107.07
633.104	32072.94
633.459	31962.66
633.813	32070.23
634.167	31926.73
634.521	32041.76
634.875	32028.2
635.229	31929.22
635.583	31812.61
635.937	31757.92
636.291	31712.5
636.645	31903
636.999	31645.16
637.352	31838.15
637.706	31546.85
638.06	31705.72
638.413	31786.62
638.767	31561.09
639.121	31736.68
639.474	31517.02
639.828	31564.03
640.181	31627.3
640.534	31667.75
640.888	31351.38
641.241	31289.01
641.594	31394.54
641.947	31482.22
642.301	31333.3
642.654	31368.1
643.007	31343.92
643.36	31251.04
643.713	31349.12
644.066	31182.12
644.419	31266.86
644.771	30858.06
645.124	30734.9
645.477	30588.91
645.83	30306.43
646.182	30214.69
646.535	30295.81
646.888	30217.62
647.24	30066.22
647.593	30341.01
647.945	30228.7
648.298	29981.7
648.65	30070.28
649.002	30101.47
649.355	30078.87
649.707	30176.04
650.059	30146.89
650.411	30670.49
650.763	30617.84
651.115	30961.78
651.467	30910.71
651.819	30795.01
652.171	30849.25
652.523	30699.87
652.875	30797.95
653.227	30513.89
653.578	30857.15
653.93	30762.02
654.282	30586.88
654.633	30499.2
654.985	30537.16
655.337	30630.95
655.688	30580.1
656.039	30704.16
656.391	30522.93
656.742	30543.04
657.094	30630.04
657.445	30671.62
657.796	30607.22
658.147	30526.99
658.498	30514.56
658.849	30589.82
659.2	30647.44
659.551	30388.24
659.902	30649.02
660.253	30521.34
660.604	30483.83
660.955	30309.6
661.306	30512.98
661.656	30336.94
662.007	30527.22
662.358	30445.19
662.708	30400.22
663.059	30461.23
663.409	30329.03
663.76	30380.33
664.11	30569.48
664.461	30593.43
664.811	30506.2
665.161	30489.03
665.511	30253.1
665.862	30435.7
666.212	30505.98
666.562	30481.57
666.912	30350.5
667.262	30338.75
667.612	30416.71
667.962	30339.88
668.312	30298.07
668.662	30523.83
669.011	30304.4
669.361	30297.4
669.711	30265.98
670.06	30320.9
670.41	30240.9
670.76	30213.78
671.109	30325.87
671.459	30248.58
671.808	30146.66
672.157	30223.27
672.507	29974.92
672.856	30044.29
673.205	30071.41
673.554	30175.82
673.904	30039.55
674.253	30212.65
674.602	30104.63
674.951	29663.74
675.3	29422.62
675.649	29899.44
675.998	30039.78
676.346	29909.16
676.695	30054.46
677.044	29785.54
677.393	29856.5
677.741	29951.87
678.09	29868.93
678.438	29704.19
678.787	29704.87
679.135	29650.63
679.484	29535.16
679.832	29639.79
680.181	29372.9
680.529	29557.3
680.877	29476.17
681.225	29264.88
681.573	29405.89
681.922	29260.81
682.27	29121.16
682.618	29231.43
682.966	29139.01
683.314	29212.23
683.661	29041.38
684.009	28962.52
684.357	28874.61
684.705	28779.02
685.053	29011.33
685.4	28791.9
685.748	28682.3
686.095	28710.09
686.443	28595.52
686.79	28460.16
687.138	28615.63
687.485	28607.95
687.832	28402.98
688.18	28497.67
688.527	28250.44
688.874	28249.54
689.221	28141.07
689.568	28049.09
689.915	27950.79
690.262	27952.6
690.609	27875.54
690.956	27776.11
691.303	27809.55
691.65	27578.6
691.997	27581.08
692.344	27445.27
692.69	27377.25
693.037	27354.65
693.383	27097.03
693.73	27301.99
694.077	27104.03
694.423	27089.12
694.769	26852.97
695.116	26871.72
695.462	26810.71
695.808	26652.75
696.155	26769.8
696.501	26409.36
696.847	26466.54
697.193	26323.49
697.539	26471.06
697.885	26226.99
698.231	26100.44
698.577	26144.06
698.923	26071.29
699.269	25846.89
699.614	25817.74
699.96	25761.02
700.306	25605.32
700.651	25567.12
700.997	25433.12
701.342	25378.88
701.688	25372.1
702.033	25288.94
702.379	25308.83
702.724	25144.08
703.069	25052.79
703.415	24890.08
703.76	24787.71
704.105	24694.83
704.45	24679.92
704.795	24602.4
705.14	24535.06
705.485	24519.02
705.83	24419.81
706.175	24462.29
706.52	24409.41
706.865	24142.98
707.209	24175.07
707.554	24006.71
707.899	24150.89
708.243	23995.41
708.588	23939.37
708.932	23799.49
709.277	23707.51
709.621	23833.84
709.966	23587.06
710.31	23580.51
710.654	23362.21
710.998	23584.13
711.342	23502.77
711.687	23489.44
712.031	23352.49
712.375	23278.37
712.719	23322.44
713.063	23330.35
713.407	23303.23
713.75	23155.44
714.094	23183.23
714.438	23011.94
714.782	23033.63
715.125	23024.37
715.469	22878.61
715.812	22842.9
716.156	22781.66
716.499	22815.33
716.843	22838.16
717.186	22663.47
717.53	22692.62
717.873	22740.08
718.216	22607.88
718.559	22549.58
718.902	22557.49
719.246	22547.77
719.589	22531.95
719.932	22303.71
720.275	22263.48
720.617	22267.32
720.96	22330.6
721.303	22335.8
721.646	22274.78
721.989	22195.24
722.331	22261.22
722.674	22168.12
723.016	22277.27
723.359	22241.56
723.701	22282.69
724.044	22048.12
724.386	21985.07
724.729	22263.48
725.071	22067.78
725.413	22166.99
725.755	22075.24
726.097	21960.67
726.439	21936.49
726.782	21962.25
727.124	22092.87
727.465	21887.45
727.807	21978.97
728.149	21966.09
728.491	21887.45
728.833	21926.09
729.175	21845.41
729.516	21797.96
729.858	21703.27
730.199	21873.66
730.541	21719.77
730.882	21839.99
731.224	21891.06
731.565	21805.42
731.906	21798.86
732.248	21830.95
732.589	21748.24
732.93	21573.33
733.271	21755.93
733.612	21681.58
733.953	21815.36
734.294	21712.76
734.635	21566.55
734.976	21684.51
735.317	21513.45
735.658	21534.01
735.999	21551.41
736.339	21710.95
736.68	21653.55
737.021	21599.77
737.361	21588.92
737.702	21734.68
738.042	21470.51
738.383	21558.87
738.723	21711.63
739.063	21570.62
739.404	21575.82
739.744	21635.02
740.084	21432.32
740.424	21565.87
740.764	21559.09
741.104	21630.73
741.444	21491.98
741.784	21618.98
742.124	21557.51
742.464	21544.41
742.804	21588.47
743.143	21484.97
743.483	21478.42
743.823	21410.4
744.162	21439.1
744.502	21517.97
744.841	21452.43
745.181	21569.72
745.52	21577.62
745.86	21498.76
746.199	21442.49
746.538	21432.77
746.877	21570.17
747.216	21558.42
747.556	21414.01
747.895	21477.29
748.234	21448.81
748.573	21477.29
748.911	21454.92
749.25	21451.3
749.589	21404.97
749.928	21340.34
750.267	21428.25
750.605	21370.85
750.944	21441.58
751.283	21400
751.621	21379.44
751.96	21307.58
752.298	21286.11
752.636	21310.97
752.975	21219.22
753.313	21225.32
753.651	21313
753.989	21155.71
754.327	21089.95
754.666	21053.57
755.004	21080.24
755.342	21163.85
755.679	21152.55
756.017	21005.89
