Data from tablewood_brown_FLMS001491_053.txt Node
Date: Tue Feb 07 11:10:41 GMT 2017
User: dcchb
Spectrometer: FLMS00149
Trigger mode: 0
Integration Time (sec): 2.000000E-2
Scans to average: 10
Electric dark correction enabled: true
Nonlinearity correction enabled: false
Boxcar width: 0
XAxis mode: Wavelengths
Number of Pixels in Spectrum: 2048
>>>>>Begin Spectral Data<<<<<
341.393	-16.84
341.776	-16.84
342.16	-16.84
342.543	-65.42
342.927	-78.98
343.31	-62.48
343.693	-39.89
344.077	-85.31
344.46	-69.04
344.843	-66.78
345.226	-40.34
345.61	-18.87
345.993	-34.69
346.376	-2.15
346.759	1.02
347.142	27.23
347.525	47.12
347.908	52.99
348.291	78.75
348.674	112.65
349.057	99.77
349.44	119.88
349.823	143.61
350.206	168.92
350.588	186.77
350.971	198.75
351.354	213.67
351.737	262.93
352.119	246.21
352.502	279.88
352.884	293.21
353.267	314.91
353.65	292.76
354.032	296.6
354.414	312.42
354.797	322.59
355.179	339.54
355.562	337.73
355.944	329.14
356.326	339.09
356.709	351.74
357.091	346.77
357.473	359.65
357.855	342.25
358.238	356.04
358.62	362.14
359.002	369.82
359.384	364.4
359.766	354.45
360.148	343.38
360.53	351.74
360.912	336.15
361.294	362.59
361.676	340.89
362.057	324.85
362.439	351.97
362.821	335.7
363.203	344.96
363.584	326.43
363.966	330.95
364.348	348.8
364.729	343.61
365.111	333.21
365.493	336.83
365.874	337.96
366.256	341.8
366.637	321.69
367.019	339.77
367.4	339.54
367.781	336.6
368.163	340.89
368.544	337.51
368.925	321.46
369.306	342.02
369.688	355.13
370.069	320.56
370.45	326.88
370.831	324.85
371.212	331.63
371.593	322.14
371.974	345.64
372.355	341.12
372.736	336.6
373.117	343.15
373.498	335.47
373.879	354.68
374.26	316.26
374.641	334.12
375.021	341.57
375.402	340.44
375.783	358.07
376.163	374.34
376.544	358.3
376.925	341.12
377.305	354.23
377.686	366.43
378.066	353.1
378.447	370.72
378.827	334.34
379.208	363.49
379.588	358.75
379.968	373.21
380.349	366.66
380.729	350.84
381.109	400.1
381.489	386.32
381.87	375.92
382.25	377.05
382.63	399.42
383.01	373.44
383.39	401.91
383.77	381.8
384.15	395.58
384.53	392.19
384.91	410.27
385.29	393.55
385.67	410.72
386.049	417.73
386.429	412.98
386.809	397.16
387.189	407.33
387.568	416.83
387.948	437.84
388.328	438.07
388.707	398.75
389.087	444.62
389.466	402.59
389.846	430.16
390.225	413.89
390.605	428.12
390.984	451.17
391.363	456.37
391.743	439.88
392.122	453.43
392.501	461.12
392.881	461.8
393.26	452.98
393.639	461.8
394.018	453.89
394.397	475.35
394.776	466.99
395.155	474.22
395.534	471.51
395.913	482.13
396.292	488.69
396.671	496.37
397.05	496.37
397.429	493.66
397.808	502.92
398.186	481.68
398.565	521.23
398.944	525.52
399.323	511.96
399.701	540.21
400.08	520.78
400.458	524.84
400.837	549.93
401.215	557.16
401.594	550.16
401.972	535.47
402.351	566.65
402.729	530.49
403.107	543.6
403.486	576.82
403.864	581.57
404.242	568.46
404.62	585.41
404.999	598.52
405.377	617.27
405.755	573.66
406.133	610.04
406.511	615.01
406.889	589.02
407.267	630.6
407.645	623.37
408.023	638.29
408.401	625.41
408.779	638.51
409.156	640.32
409.534	622.7
409.912	657.27
410.29	675.35
410.667	658.17
411.045	667.89
411.422	686.65
411.8	699.08
412.178	694.33
412.555	742.24
412.933	720.55
413.31	735.23
413.687	742.24
414.065	747.21
414.442	749.7
414.819	761.22
415.197	763.03
415.574	749.7
415.951	770.04
416.328	767.55
416.705	770.94
417.082	778.17
417.46	781.34
417.837	776.59
418.214	786.76
418.591	803.48
418.967	804.84
419.344	800.77
419.721	836.7
420.098	840.99
420.475	828.79
420.852	838.06
421.228	849.58
421.605	857.72
421.982	857.04
422.358	880.09
422.735	853.88
423.111	883.71
423.488	898.62
423.864	899.52
424.241	894.78
424.617	919.41
424.994	911.28
425.37	944.27
425.746	914.21
426.123	965.74
426.499	950.14
426.875	942.91
427.251	977.49
427.627	1002.12
428.003	973.87
428.379	1004.83
428.756	1024.27
429.132	1030.14
429.507	1027.88
429.883	1031.5
430.259	1066.3
430.635	1063.81
431.011	1059.29
431.387	1103.81
431.763	1117.37
432.138	1125.51
432.514	1152.85
432.89	1154.43
433.265	1192.85
433.641	1174.55
434.016	1166.41
434.392	1228.78
434.767	1221.78
435.143	1215.67
435.518	1204.15
435.894	1250.25
436.269	1248.67
436.644	1316.46
437.02	1331.6
437.395	1303.36
437.77	1332.06
438.145	1318.04
438.52	1342
438.895	1371.6
439.271	1340.87
439.646	1379.51
440.021	1394.65
440.395	1418.61
440.77	1381.09
441.145	1417.02
441.52	1443.24
441.895	1439.62
442.27	1476.46
442.645	1455.22
443.019	1491.37
443.394	1465.39
443.769	1478.27
444.143	1490.24
444.518	1516.01
444.892	1511.71
445.267	1520.52
445.641	1532.73
446.016	1544.71
446.39	1581.54
446.764	1579.05
447.139	1589.9
447.513	1588.09
447.887	1643.01
448.262	1581.54
448.636	1624.93
449.01	1647.75
449.384	1622.44
449.758	1659.5
450.132	1691.14
450.506	1697.92
450.88	1707.86
451.254	1682.55
451.628	1701.09
452.002	1738.37
452.376	1775.21
452.75	1742.89
453.123	1792.16
453.497	1807.52
453.871	1818.37
454.244	1879.39
454.618	1871.7
454.992	1883.68
455.365	1890.68
455.739	1963.68
456.112	1972.26
456.486	1966.84
456.859	1985.37
457.232	2021.53
457.606	1995.77
457.979	2047.74
458.352	2094.52
458.725	2131.58
459.099	2119.83
459.472	2127.51
459.845	2165.48
460.218	2198.7
460.591	2218.36
460.964	2219.04
461.337	2283.89
461.71	2325.7
462.083	2357.11
462.456	2347.62
462.829	2358.92
463.201	2412.93
463.574	2404.12
463.947	2466.71
464.32	2501.74
464.692	2548.97
465.065	2550.55
465.438	2640.95
465.81	2630.1
466.183	2679.82
466.555	2744.67
466.928	2761.85
467.3	2752.36
467.672	2823.54
468.045	2884.56
468.417	2887.95
468.789	2903.54
469.161	2961.62
469.534	3017.21
469.906	3078.22
470.278	3093.59
470.65	3112.35
471.022	3200.71
471.394	3256.3
471.766	3288.16
472.138	3366.13
472.51	3412.68
472.882	3485.9
473.253	3537.87
473.625	3597.76
473.997	3674.82
474.369	3712.56
474.74	3759.79
475.112	3861.03
475.484	3885.89
475.855	3965.88
476.227	4025.54
476.598	4151.87
476.97	4175.37
477.341	4320.68
477.713	4405.87
478.084	4408.81
478.455	4517.96
478.827	4559.77
479.198	4747.56
479.569	4743.94
479.94	4862.81
480.311	4974.9
480.682	5119.53
481.053	5210.15
481.424	5270.48
481.795	5384.6
482.166	5512.28
482.537	5501.66
482.908	5670.25
483.279	5740.98
483.65	5876.34
484.021	5956.57
484.391	6070.01
484.762	6125.83
485.133	6166.05
485.503	6234.53
485.874	6405.37
486.244	6433.16
486.615	6643.78
486.985	6659.15
487.356	6904.11
487.726	6926.48
488.097	7051.9
488.467	7084.67
488.837	7277.21
489.207	7301.39
489.578	7410.54
489.948	7508.84
490.318	7573.93
490.688	7658.89
491.058	7825.44
491.428	7949.28
491.798	7980.02
492.168	8164.19
492.538	8162.16
492.908	8299.1
493.278	8381.14
493.648	8438.76
494.017	8590.85
494.387	8657.06
494.757	8713.33
495.126	8834.01
495.496	8936.38
495.866	8902.25
496.235	9059.76
496.605	9137.27
496.974	9227.89
497.344	9326.87
497.713	9359.41
498.082	9375.46
498.452	9596.7
498.821	9595.57
499.19	9626.3
499.559	9726.64
499.928	9795.79
500.298	9878.95
500.667	9926.63
501.036	9883.69
501.405	10097.93
501.774	10116.46
502.143	10241.88
502.512	10294.76
502.88	10378.82
503.249	10430.57
503.618	10453.62
503.987	10580.63
504.356	10618.36
504.724	10731.81
505.093	10794.18
505.462	10808.42
505.83	10913.5
506.199	11030.11
506.567	11168.18
506.936	11142.64
507.304	11328.18
507.672	11405.69
508.041	11426.71
508.409	11532.47
508.777	11671.44
509.145	11784.44
509.514	11727.49
509.882	11892.68
510.25	11883.87
510.618	12072.79
510.986	12096.29
511.354	12232.79
511.722	12371.99
512.09	12504.42
512.458	12487.69
512.826	12642.72
513.193	12741.25
513.561	12755.26
513.929	12916.38
514.297	13055.59
514.664	13133.33
515.032	13232.76
515.4	13308.01
515.767	13436.82
516.135	13542.13
516.502	13502.58
516.869	13726.31
517.237	13757.72
517.604	13806.53
517.972	14015.79
518.339	14096.01
518.706	14139.4
519.073	14264.37
519.44	14373.07
519.808	14490.13
520.175	14525.38
520.542	14731.93
520.909	14880.17
521.276	14934.41
521.643	15066.84
522.009	15127.62
522.376	15357.68
522.743	15345.47
523.11	15616.88
523.477	15831.79
523.843	15823.2
524.21	16076.3
524.577	16166.69
524.943	16205.56
525.31	16393.35
525.676	16495.72
526.043	16624.53
526.409	16775.49
526.776	16896.62
527.142	16971.42
527.508	17143.62
527.874	17263.39
528.241	17276.27
528.607	17439.65
528.973	17622.25
529.339	17627.67
529.705	17788.57
530.071	18054.1
530.437	18004.84
530.803	18144.95
531.169	18281.44
531.535	18322.8
531.901	18402.34
532.267	18581.09
532.632	18646.4
532.998	18739.96
533.364	18853.63
533.73	18812.73
534.095	19078.93
534.461	19098.14
534.826	19148.99
535.192	19345.37
535.557	19467.4
535.923	19273.5
536.288	19447.51
536.653	19568.41
537.019	19609.09
537.384	19728.63
537.749	19879.36
538.114	19932.47
538.479	19974.5
538.845	20111
539.21	19998.23
539.575	20208.62
539.94	20165.68
540.305	20296.08
540.67	20371.55
541.034	20480.93
541.399	20576.3
541.764	20574.94
542.129	20795.5
542.494	20790.07
542.858	20891.32
543.223	20954.36
543.587	21002.05
543.952	20962.95
544.316	21168.37
544.681	21161.36
545.045	21202.95
545.41	21398.42
545.774	21512.32
546.138	21465.54
546.503	21595.93
546.867	21639.09
547.231	21752.99
547.595	21822.82
547.959	21893.77
548.324	21976.48
548.688	21992.08
549.052	22121.34
549.416	22268.91
549.779	22252.64
550.143	22349.81
550.507	22583.47
550.871	22639.07
551.235	22613.08
551.599	22859.62
551.962	22853.98
552.326	22950.24
552.689	23136
553.053	23198.15
553.417	23311.59
553.78	23628.64
554.143	23589.1
554.507	23646.95
554.87	23833.38
555.234	24068.18
555.597	23880.62
555.96	24180.95
556.323	24289.42
556.686	24365.35
557.05	24676.3
557.413	24776.41
557.776	24832.68
558.139	24973.24
558.502	25164.2
558.865	25362.61
559.228	25471.76
559.59	25560.57
559.953	25752.43
560.316	26212.76
560.679	26048.02
561.041	26318.74
561.404	26443.03
561.767	26630.83
562.129	26675.57
562.492	26922.79
562.854	27077.37
563.217	27119.85
563.579	27396.45
563.941	27562.78
564.304	27722.55
564.666	27981.07
565.028	28050.9
565.39	28205.25
565.753	28490.66
566.115	28699.02
566.477	28770.88
566.839	28998.45
567.201	29139.69
567.563	29334.48
567.925	29690.86
568.287	29626.23
568.648	29769.95
569.01	29995.26
569.372	30250.39
569.734	30366.09
570.095	30583.04
570.457	30839.3
570.819	30988.22
571.18	31188.45
571.542	31432.96
571.903	31518.38
572.265	31696.68
572.626	31898.26
572.987	32033.17
573.349	32259.15
573.71	32357.91
574.071	32555.64
574.432	32832.92
574.794	33158.79
575.155	33250.31
575.516	33311.78
575.877	33377.77
576.238	33515.39
576.599	33807.81
576.96	33774.37
577.32	34062.49
577.681	34194.92
578.042	34287.8
578.403	34320.11
578.763	34438.3
579.124	34660.67
579.485	34823.38
579.845	35078.06
580.206	35052.98
580.566	35222.01
580.927	35269.24
581.287	35324.16
581.648	35328.9
582.008	35637.59
582.368	35546.97
582.728	35693.19
583.089	35735.22
583.449	35794.2
583.809	35953.29
584.169	36060.41
584.529	35973.63
584.889	36308.08
585.249	36073.51
585.609	36183.79
585.969	36305.15
586.329	36392.83
586.688	36581.07
587.048	36592.6
587.408	36600.96
587.768	36497.01
588.127	36584.46
588.487	36554.63
588.846	36935.64
589.206	36724.12
589.565	36694.97
589.925	37051.79
590.284	36770.67
590.643	36894.96
591.003	37016.54
591.362	37125.92
591.721	37066.93
592.08	37048.4
592.44	37201.39
592.799	37249.3
593.158	37085.69
593.517	37161.62
593.876	37271.22
594.235	37237.33
594.593	37261.96
594.952	37310.32
595.311	37241.39
595.67	37355.51
596.029	37566.13
596.387	37605.68
596.746	37637.32
597.104	37525
597.463	37500.37
597.822	37785.79
598.18	37512.8
598.538	37649.07
598.897	37782.62
599.255	37465.79
599.613	38079.34
599.972	37750.31
600.33	38019.9
600.688	37797.76
601.046	38006.12
601.404	37990.98
601.762	37927.03
602.12	38207.24
602.478	38318.2
602.836	38215.83
603.194	38082.73
603.552	38142.39
603.91	38011.77
604.268	38169.05
604.625	38228.94
604.983	38243.63
605.341	38014.03
605.698	38336.96
606.056	38396.84
606.413	38422.15
606.771	38474.13
607.128	38551.42
607.485	38450.63
607.843	38536.73
608.2	38699.21
608.557	38838.87
608.914	38570.4
609.272	38745.31
609.629	38884.06
609.986	38819.88
610.343	38807.68
610.7	39029.14
611.057	38984.17
611.414	39017.39
611.771	38914.57
612.127	39072.98
612.484	39088.12
612.841	39365.41
613.198	39173.32
613.554	39261
613.911	39429.58
614.267	39464.39
614.624	39338.51
614.98	39378.06
615.337	39462.58
615.693	39469.58
616.05	39404.73
616.406	39707.54
616.762	39450.15
617.118	39488.79
617.475	39545.29
617.831	39603.59
618.187	39768.11
618.543	39809.24
618.899	40013.75
619.255	39841.33
619.611	39999.74
619.967	39898.05
620.323	40113.18
620.678	39915.22
621.034	39829.12
621.39	39833.87
621.746	39679.52
622.101	40218.26
622.457	40011.94
622.812	40135.55
623.168	40037.48
623.523	40257.13
623.879	40182.11
624.234	39921.78
624.589	40060.98
624.945	40117.48
625.3	40216.91
625.655	40139.85
626.01	40198.83
626.365	40106.63
626.72	40047.65
627.075	40172.62
627.43	39935.11
627.785	39980.53
628.14	39993.86
628.495	40049.23
628.85	40100.08
629.205	39886.97
629.559	40114.09
629.914	39802
630.269	39995.45
630.623	39766.3
630.978	39676.81
631.332	39964.49
631.687	39967.88
632.041	39609.02
632.396	39783.93
632.75	39641.56
633.104	39691.72
633.459	39519.3
633.813	39627.55
634.167	39498.74
634.521	39548.9
634.875	39695.34
635.229	39578.06
635.583	39318.18
635.937	39341.68
636.291	39324.5
636.645	39378.29
636.999	39263.94
637.352	39309.14
637.706	39050.16
638.06	39165.18
638.413	39104.4
638.767	39138.97
639.121	39053.32
639.474	38899.88
639.828	38972.2
640.181	38849.04
640.534	38927.9
640.888	38798.19
641.241	38508.25
641.594	38708.25
641.947	38743.5
642.301	38615.37
642.654	38659.89
643.007	38691.3
643.36	38591.87
643.713	38514.58
644.066	38648.14
644.419	38352.55
644.771	38279.33
645.124	38051.54
645.477	38001.37
645.83	37684.32
646.182	37619.46
646.535	37270.32
646.888	37402.75
647.24	37071
647.593	37350.54
647.945	37210.43
648.298	37181.96
648.65	37158.91
649.002	36993.94
649.355	37256.53
649.707	37035.07
650.059	37297.66
650.411	37808.84
650.763	37807.25
651.115	38109.39
651.467	37890.42
651.819	38003.41
652.171	37903.98
652.523	37902.62
652.875	37999.11
653.227	37797.99
653.578	37955.95
653.93	37854.03
654.282	37783.75
654.633	37707.14
654.985	37716.86
655.337	37810.42
655.688	37770.65
656.039	37806.35
656.391	37547.15
656.742	37634.83
657.094	37696.3
657.445	37755.96
657.796	37675.51
658.147	37620.37
658.498	37546.47
658.849	37684.55
659.2	37624.21
659.551	37495.62
659.902	37747.14
660.253	37659.69
660.604	37602.06
660.955	37448.85
661.306	37550.31
661.656	37458.56
662.007	37422.63
662.358	37447.49
662.708	37562.74
663.059	37553.48
663.409	37220.6
663.76	37414.72
664.11	37446.13
664.461	37460.6
664.811	37455.63
665.161	37403.42
665.511	37322.97
665.862	37445.46
666.212	37548.73
666.562	37615.4
666.912	37442.97
667.262	37311.9
667.612	37301.51
667.962	37335.85
668.312	37246.82
668.662	37451.78
669.011	37385.34
669.361	37241.39
669.711	37263.77
670.06	37223.77
670.41	37066.03
670.76	37196.65
671.109	37244.78
671.459	37132.02
671.808	37133.83
672.157	37167.5
672.507	36888.86
672.856	36983.77
673.205	37065.58
673.554	37121.62
673.904	36901.06
674.253	37087.95
674.602	36955.3
674.951	36376.56
675.3	36266.05
675.649	36820.84
675.998	36890.89
676.346	36777.68
676.695	36909.65
677.044	36693.39
677.393	36631.01
677.741	36828.75
678.09	36653.16
678.438	36498.36
678.787	36657
679.135	36481.41
679.484	36465.14
679.832	36535.2
680.181	36378.82
680.529	36377.91
680.877	36319.38
681.225	36220.63
681.573	36377.91
681.922	36054.53
682.27	35938.6
682.618	36073.06
682.966	35861.54
683.314	35973.63
683.661	35908.32
684.009	35755.11
684.357	35604.37
684.705	35694.09
685.053	35769.79
685.4	35552.62
685.748	35506.98
686.095	35509.46
686.443	35205.97
686.79	35235.34
687.138	35335.91
687.485	35188.11
687.832	35065.41
688.18	35160.32
688.527	34907.44
688.874	34747.67
689.221	34714.68
689.568	34719.2
689.915	34424.07
690.262	34483.5
690.609	34348.14
690.956	34330.28
691.303	34215.03
691.65	34115.6
691.997	34011.87
692.344	33826.12
692.69	33857.98
693.037	33970.07
693.383	33658.89
693.73	33812.11
694.077	33496.18
694.423	33483.07
694.769	33377.31
695.116	33349.07
695.462	33281.5
695.808	33227.49
696.155	33142.74
696.501	32834.5
696.847	32858.01
697.193	32507.05
697.539	32677.67
697.885	32454.63
698.231	32332.37
698.577	32214.18
698.923	32172.37
699.269	32062.32
699.614	32025.26
699.96	31844.47
700.306	31847.41
700.651	31705.72
700.997	31612.39
701.342	31581.88
701.688	31565.16
702.033	31326.75
702.379	31263.92
702.724	31043.59
703.069	31325.84
703.415	30842.92
703.76	30841.11
704.105	30979.19
704.45	30748.46
704.795	30688.35
705.14	30582.81
705.485	30461.01
705.83	30319.09
706.175	30307.34
706.52	30359.77
706.865	30271.18
707.209	30105.08
707.554	30029.38
707.899	30046.1
708.243	29856.96
708.588	30000.45
708.932	29544.87
709.277	29615.61
709.621	29564.08
709.966	29504.65
710.31	29562.27
710.654	29288.83
710.998	29275.5
711.342	29209.74
711.687	29096.3
712.031	28979.24
712.375	28987.37
712.719	28968.84
713.063	28899.24
713.407	29019.91
713.75	28877.77
714.094	28769.98
714.438	28691.34
714.782	28736.31
715.125	28690.43
715.469	28637.55
715.812	28497.89
716.156	28442.75
716.499	28354.62
716.843	28383.1
717.186	28175.42
717.53	28275.98
717.873	28347.84
718.216	28180.16
718.559	28072.6
718.902	27958.7
719.246	28072.14
719.589	27975.2
719.932	27861.08
720.275	27870.11
720.617	27929.77
720.96	27824.92
721.303	27788.99
721.646	27825.37
721.989	27688.42
722.331	27834.41
722.674	27644.58
723.016	27775.65
723.359	27661.08
723.701	27684.36
724.044	27494.53
724.386	27256.35
724.729	27493.85
725.071	27395.1
725.413	27327.76
725.755	27271.03
726.097	27211.6
726.439	27156.01
726.782	27182.68
727.124	27381.31
727.465	27220.19
727.807	27176.8
728.149	27056.8
728.491	27037.59
728.833	27149.91
729.175	27038.05
729.516	26987.43
729.858	26915.79
730.199	27061.1
730.541	27019.52
730.882	26908.56
731.224	27078.72
731.565	26864.04
731.906	26899.52
732.248	26935.22
732.589	26856.36
732.93	26850.48
733.271	26785.85
733.612	26910.59
733.953	26858.62
734.294	26707.89
734.635	26706.53
734.976	26800.31
735.317	26624.5
735.658	26657.94
735.999	26727.09
736.339	26586.31
736.68	26602.13
737.021	26693.65
737.361	26505.18
737.702	26563.93
738.042	26502.02
738.383	26447.78
738.723	26604.16
739.063	26534.56
739.404	26508.79
739.744	26614.33
740.084	26509.25
740.424	26571.84
740.764	26428.12
741.104	26548.12
741.444	26315.81
741.784	26387.44
742.124	26440.32
742.464	26338.4
742.804	26391.06
743.143	26325.97
743.483	26389.93
743.823	26228.8
744.162	26209.82
744.502	26455.01
744.841	26320.1
745.181	26247.78
745.52	26248.01
745.86	26346.99
746.199	26255.69
746.538	26166.66
746.877	26311.74
747.216	26250.5
747.556	26127.34
747.895	26165.98
748.234	26134.57
748.573	26124.62
748.911	25993.78
749.25	26103.38
749.589	25954.91
749.928	25927.57
750.267	25998.07
750.605	25884.18
750.944	25862.94
751.283	25779.77
751.621	25934.35
751.96	25673.11
752.298	25780.68
752.636	25788.81
752.975	25681.7
753.313	25583.85
753.651	25729.38
753.989	25589.5
754.327	25594.92
754.666	25444.64
755.004	25453.91
