Data from tablewood_brown_FLMS001491_029.txt Node
Date: Tue Feb 07 11:10:15 GMT 2017
User: dcchb
Spectrometer: FLMS00149
Trigger mode: 0
Integration Time (sec): 2.000000E-2
Scans to average: 10
Electric dark correction enabled: true
Nonlinearity correction enabled: false
Boxcar width: 0
XAxis mode: Wavelengths
Number of Pixels in Spectrum: 2048
>>>>>Begin Spectral Data<<<<<
341.393	-10.56
341.776	-10.56
342.16	-10.56
342.543	-46.27
342.927	-36.33
343.31	-60.05
343.693	-61.41
344.077	-62.99
344.46	-62.99
344.843	-81.98
345.226	-36.1
345.61	-12.82
345.993	-0.85
346.376	-9.66
346.759	-7.63
347.142	7.74
347.525	30.56
347.908	46.83
348.291	87.74
348.674	108.75
349.057	114.86
349.44	125.7
349.823	155.08
350.206	163.44
350.588	187.4
350.971	209.32
351.354	206.6
351.737	243.89
352.119	240.73
352.502	253.61
352.884	270.11
353.267	287.28
353.65	271.46
354.032	287.05
354.414	301.29
354.797	304
355.179	320.27
355.562	313.72
355.944	336.32
356.326	328.41
356.709	329.99
357.091	336.77
357.473	330.67
357.855	311.01
358.238	348.3
358.62	328.41
359.002	319.37
359.384	371.12
359.766	341.06
360.148	348.97
360.53	337
360.912	318.69
361.294	338.13
361.676	329.99
362.057	329.31
362.439	348.75
362.821	349.88
363.203	312.36
363.584	346.49
363.966	319.82
364.348	332.93
364.729	351.69
365.111	317.34
365.493	330.9
365.874	335.41
366.256	310.1
366.637	329.77
367.019	327.28
367.4	318.47
367.781	339.26
368.163	311.01
368.544	335.19
368.925	305.36
369.306	332.93
369.688	307.85
370.069	327.96
370.45	332.03
370.831	328.86
371.212	325.47
371.593	301.74
371.974	318.69
372.355	335.19
372.736	314.4
373.117	323.89
373.498	322.08
373.879	322.08
374.26	328.64
374.641	352.59
375.021	318.01
375.402	317.34
375.783	324.79
376.163	325.92
376.544	327.73
376.925	334.51
377.305	336.77
377.686	341.06
378.066	347.84
378.447	341.29
378.827	331.8
379.208	343.78
379.588	339.26
379.968	348.07
380.349	347.39
380.729	329.31
381.109	346.26
381.489	358.69
381.87	347.17
382.25	361.63
382.63	365.47
383.01	360.05
383.39	363.89
383.77	345.81
384.15	361.4
384.53	346.94
384.91	367.5
385.29	358.24
385.67	358.47
386.049	371.8
386.429	359.6
386.809	363.89
387.189	396.66
387.568	375.64
387.948	387.62
388.328	400.05
388.707	383.32
389.087	384.23
389.466	380.61
389.846	388.75
390.225	391.23
390.605	391.91
390.984	385.13
391.363	413.83
391.743	406.83
392.122	410.22
392.501	411.35
392.881	409.76
393.26	427.62
393.639	418.12
394.018	423.32
394.397	422.87
394.776	440.72
395.155	445.69
395.534	438.01
395.913	457.67
396.292	432.36
396.671	431.46
397.05	455.19
397.429	458.12
397.808	453.83
398.186	435.3
398.565	450.89
398.944	467.39
399.323	452.02
399.701	453.83
400.08	455.19
400.458	458.58
400.837	491.57
401.215	474.39
401.594	495.18
401.972	475.52
402.351	490.89
402.729	466.26
403.107	509.87
403.486	459.48
403.864	478.91
404.242	496.54
404.62	493.83
404.999	502.42
405.377	489.76
405.755	527.95
406.133	532.7
406.511	522.98
406.889	545.13
407.267	512.59
407.645	541.51
408.023	555.3
408.401	524.79
408.779	554.84
409.156	544.45
409.534	586.03
409.912	571.34
410.29	562.53
410.667	576.99
411.045	570.44
411.422	601.17
411.8	581.96
412.178	582.19
412.555	600.94
412.933	621.51
413.31	604.33
413.687	618.8
414.065	619.48
414.442	627.84
414.819	666.48
415.197	641.4
415.574	635.75
415.951	644.11
416.328	665.58
416.705	656.31
417.082	660.6
417.46	659.02
417.837	668.29
418.214	677.78
418.591	693.37
418.967	677.1
419.344	674.84
419.721	651.56
420.098	685.24
420.475	692.47
420.852	683.2
421.228	693.15
421.605	723.2
421.982	742.41
422.358	731.11
422.735	745.8
423.111	736.08
423.488	748.29
423.864	756.42
424.241	757.32
424.617	753.26
424.994	743.31
425.37	773.6
425.746	762.3
426.123	765.46
426.499	780.6
426.875	796.87
427.251	801.17
427.627	815.63
428.003	814.27
428.379	847.94
428.756	835.29
429.132	824.89
429.507	850.88
429.883	870.99
430.259	869.19
430.635	883.2
431.011	879.58
431.387	887.72
431.763	892.69
432.138	901.5
432.514	924.33
432.89	915.74
433.265	936.98
433.641	932.91
434.016	954.16
434.392	989.41
434.767	976.08
435.143	983.76
435.518	978.11
435.894	1000.03
436.269	1006.81
436.644	1014.49
437.02	1047.49
437.395	1031.22
437.77	1044.77
438.145	1074.83
438.52	1089.75
438.895	1075.96
439.271	1100.14
439.646	1085.68
440.021	1101.95
440.395	1104.43
440.77	1110.99
441.145	1122.74
441.52	1149.18
441.895	1169.74
442.27	1152.12
442.645	1140.37
443.019	1167.71
443.394	1165
443.769	1173.36
444.143	1198.67
444.518	1214.94
444.892	1195.28
445.267	1214.94
445.641	1207.71
446.016	1215.39
446.39	1232.34
446.764	1258.1
447.139	1267.82
447.513	1268.27
447.887	1277.31
448.262	1278.89
448.636	1270.76
449.01	1281.38
449.384	1302.17
449.758	1301.27
450.132	1308.95
450.506	1336.52
450.88	1348.95
451.254	1334.03
451.628	1348.5
452.002	1327.03
452.376	1350.3
452.75	1360.25
453.123	1397.31
453.497	1426.91
453.871	1423.75
454.244	1437.53
454.618	1455.61
454.992	1470.53
455.365	1443.18
455.739	1502.62
456.112	1515.72
456.486	1522.5
456.859	1554.14
457.232	1537.64
457.606	1576.29
457.979	1568.15
458.352	1598.21
458.725	1620.35
459.099	1640.47
459.472	1633.69
459.845	1671.65
460.218	1667.13
460.591	1714.36
460.964	1716.17
461.337	1753.46
461.71	1771.99
462.083	1784.19
462.456	1850.4
462.829	1825.32
463.201	1861.48
463.574	1845.66
463.947	1912.32
464.32	1929.5
464.692	1942.38
465.065	1951.19
465.438	1995.26
465.81	2022.6
466.183	2034.35
466.555	2083.17
466.928	2095.59
467.3	2107.12
467.672	2124.07
468.045	2157.51
468.417	2183.95
468.789	2222.6
469.161	2218.98
469.534	2273.44
469.906	2362.25
470.278	2353.21
470.65	2388.92
471.022	2441.12
471.394	2492.19
471.766	2505.98
472.138	2570.61
472.51	2604.96
472.882	2636.37
473.253	2687.9
473.625	2755.92
473.997	2769.48
474.369	2812.19
474.74	2874.78
475.112	2896.03
475.484	2966.31
475.855	3039.75
476.227	3087.43
476.598	3187.32
476.97	3203.14
477.341	3295.79
477.713	3370.36
478.084	3388.44
478.455	3486.52
478.827	3470.02
479.198	3626.4
479.569	3649.45
479.94	3745.04
480.311	3792.27
480.682	3892.16
481.053	3962.21
481.424	4025.04
481.795	4140.06
482.166	4150.68
482.537	4250.79
482.908	4320.39
483.279	4396.33
483.65	4498.92
484.021	4550.9
484.391	4659.14
484.762	4666.6
485.133	4742.76
485.503	4789.99
485.874	4945.92
486.244	4954.95
486.615	5066.14
486.985	5172.12
487.356	5229.52
487.726	5280.6
488.097	5398.56
488.467	5426.35
488.837	5528.95
489.207	5623.64
489.578	5634.71
489.948	5747.02
490.318	5809.62
490.688	5892.56
491.058	5930.75
491.428	6031.76
491.798	6091.65
492.168	6233.11
492.538	6278.08
492.908	6357.86
493.278	6412.77
493.648	6451.19
494.017	6549.49
494.387	6543.39
494.757	6651.63
495.126	6752.65
495.496	6848.01
495.866	6820.89
496.235	6922.81
496.605	6971.85
496.974	7033.32
497.344	7060.66
497.713	7121.23
498.082	7205.97
498.452	7247.55
498.821	7268.34
499.19	7320.77
499.559	7411.16
499.928	7441.44
500.298	7473.31
500.667	7570.48
501.036	7573.19
501.405	7623.13
501.774	7662.23
502.143	7745.39
502.512	7819.06
502.88	7959.4
503.249	7942.22
503.618	8040.98
503.987	8077.36
504.356	8097.24
504.724	8129.11
505.093	8156.68
505.462	8251.14
505.83	8363.45
506.199	8390.34
506.567	8472.38
506.936	8499.04
507.304	8597.8
507.672	8598.7
508.041	8711.24
508.409	8765.7
508.777	8864.23
509.145	8959.59
509.514	8884.12
509.882	8994.62
510.25	9068.74
510.618	9128.18
510.986	9204.56
511.354	9298.12
511.722	9373.82
512.09	9470.54
512.458	9452.92
512.826	9572.23
513.193	9651.1
513.561	9667.82
513.929	9783.08
514.297	9887.25
514.664	9983.3
515.032	10052.67
515.4	10119.56
515.767	10242.27
516.135	10213.35
516.502	10169.96
516.869	10410.86
517.237	10506.22
517.604	10402.49
517.972	10622.38
518.339	10698.31
518.706	10762.26
519.073	10807.68
519.44	10956.38
519.808	11113.66
520.175	11077.51
520.542	11286.77
520.909	11281.12
521.276	11281.34
521.643	11489.7
522.009	11508.68
522.376	11616.7
522.743	11692.4
523.11	11772.63
523.477	11929.23
523.843	11986.18
524.21	12217.81
524.577	12322.67
524.943	12390.24
525.31	12396.11
525.676	12507.98
526.043	12670.46
526.409	12706.62
526.776	12871.13
527.142	12872.49
527.508	13017.57
527.874	13073.84
528.241	13122.42
528.607	13224.57
528.973	13331.01
529.339	13403.09
529.705	13452.81
530.071	13695.29
530.437	13662.07
530.803	13764.89
531.169	13870.43
531.535	13878.79
531.901	13933.25
532.267	13977.99
532.632	14124.66
532.998	14162.4
533.364	14245.78
533.73	14324.65
534.095	14509.05
534.461	14402.39
534.826	14497.53
535.192	14607.13
535.557	14679.9
535.923	14642.61
536.288	14743.17
536.653	14851.19
537.019	14790.63
537.384	14937.52
537.749	15017.51
538.114	15061.81
538.479	15089.38
538.845	15160.56
539.21	15162.82
539.575	15215.25
539.94	15303.83
540.305	15381.8
540.67	15329.37
541.034	15583.38
541.399	15470.16
541.764	15573.21
542.129	15690.49
542.494	15735.91
542.858	15750.38
543.223	15819.3
543.587	15949.47
543.952	15870.83
544.316	15946.3
544.681	16010.03
545.045	16035.57
545.41	16120.31
545.774	16172.74
546.138	16184.94
546.503	16289.35
546.867	16393.98
547.231	16554.88
547.595	16541.32
547.959	16669
548.324	16660.18
548.688	16678.71
549.052	16760.07
549.416	16832.38
549.779	16843.23
550.143	16971.81
550.507	17108.31
550.871	17108.31
551.235	17253.84
551.599	17233.28
551.962	17366.61
552.326	17474.85
552.689	17605.92
553.053	17515.75
553.417	17749.19
553.78	17886.14
554.143	17884.56
554.507	17983.76
554.87	18099.69
555.234	18272.8
555.597	18207.26
555.96	18346.01
556.323	18549.17
556.686	18624.65
557.05	18696.29
557.413	18954.59
557.776	18950.52
558.139	19128.82
558.502	19213.79
558.865	19211.98
559.228	19470.73
559.59	19606.09
559.953	19692.42
560.316	19920.89
560.679	19878.63
561.041	20165.4
561.404	20306.87
561.767	20346.19
562.129	20463.25
562.492	20660.3
562.854	20659.63
563.217	21001.09
563.579	20895.1
563.941	21127.18
564.304	21316.78
564.666	21595.19
565.028	21473.39
565.39	21797.45
565.753	21923.55
566.115	22103.88
566.477	22185.01
566.839	22264.1
567.201	22534.38
567.563	22642.17
567.925	22869.06
568.287	22939.11
568.648	22981.6
569.01	23148.6
569.372	23379.78
569.734	23437.41
570.095	23665.87
570.457	23862.93
570.819	24047.11
571.18	24138.18
571.542	24360.32
571.903	24445.29
572.265	24590.37
572.626	24765.06
572.987	24896.58
573.349	25060.41
573.71	25190.58
574.071	25273.06
574.432	25496.56
574.794	25670.57
575.155	25845.93
575.516	25853.61
575.877	26009.99
576.238	26078.69
576.599	26396.2
576.96	26414.05
577.32	26555.74
577.681	26715.06
578.042	26813.14
578.403	26849.52
578.763	27027.14
579.124	27200.7
579.485	27290.41
579.845	27430.75
580.206	27390.3
580.566	27436.85
580.927	27651.53
581.287	27831.64
581.648	27771.3
582.008	28042.71
582.368	27994.35
582.728	28118.64
583.089	28162.71
583.449	28180.11
583.809	28348.24
584.169	28319.76
584.529	28347.11
584.889	28553.88
585.249	28390.95
585.609	28397.28
585.969	28628.91
586.329	28522.24
586.688	28663.48
587.048	28621
587.408	28658.96
587.768	28746.87
588.127	28768.79
588.487	28762.24
588.846	29028.67
589.206	28763.37
589.565	28914.55
589.925	29178.72
590.284	29013.98
590.643	29202.68
591.003	29116.35
591.362	29239.97
591.721	29152.74
592.08	29257.82
592.44	29327.42
592.799	29359.28
593.158	29305.73
593.517	29372.84
593.876	29401.32
594.235	29455.78
594.593	29272.96
594.952	29376.23
595.311	29412.39
595.67	29395.67
596.029	29624.14
596.387	29699.39
596.746	29687.64
597.104	29536.91
597.463	29682.89
597.822	29725.83
598.18	29768.09
598.538	29654.64
598.897	29797.69
599.255	29629.11
599.613	30037.91
599.972	29831.14
600.33	29906.39
600.688	29734.87
601.046	29920.63
601.404	29983.67
601.762	29924.69
602.12	30134.41
602.478	30112.71
602.836	30206.04
603.194	30029.55
603.552	30196.55
603.91	30136.89
604.268	30227.51
604.625	30127.63
604.983	30148.42
605.341	30075.42
605.698	30283.33
606.056	30349.77
606.413	30366.94
606.771	30374.85
607.128	30402.65
607.485	30240.62
607.843	30246.04
608.2	30461.85
608.557	30557.67
608.914	30418.24
609.272	30575.98
609.629	30614.84
609.986	30745.46
610.343	30537.33
610.7	30796.31
611.057	30784.33
611.414	30778.23
611.771	30652.81
612.127	30819.13
612.484	30802.64
612.841	30970.77
613.198	30940.94
613.554	30993.82
613.911	31022.29
614.267	31091.22
614.624	31069.75
614.98	31078.11
615.337	31298.44
615.693	31122.4
616.05	31184.77
616.406	31377.99
616.762	31192
617.118	31297.54
617.475	31244.66
617.831	31388.16
618.187	31417.76
618.543	31432.22
618.899	31550.87
619.255	31590.64
619.611	31417.76
619.967	31606.01
620.323	31527.36
620.678	31473.81
621.034	31471.55
621.39	31585.21
621.746	31577.53
622.101	31829.95
622.457	31542.28
622.812	31730.07
623.168	31821.37
623.523	31824.53
623.879	31690.97
624.234	31606.46
624.589	31744.31
624.945	31709.28
625.3	31766
625.655	31695.95
626.01	31751.54
626.365	31779.56
626.72	31671.54
627.075	31704.76
627.43	31698.21
627.785	31639.45
628.14	31736.17
628.495	31747.92
628.85	31584.08
629.205	31422.06
629.559	31701.6
629.914	31582.95
630.269	31507.93
630.623	31485.1
630.978	31377.76
631.332	31639.22
631.687	31609.39
632.041	31336.41
632.396	31407.82
632.75	31421.83
633.104	31436.52
633.459	31278.78
633.813	31230.65
634.167	31358.78
634.521	31324.43
634.875	31354.94
635.229	31265.68
635.583	31015.29
635.937	31017.32
636.291	31001.73
636.645	31045.34
636.999	31013.48
637.352	30982.97
637.706	30824.78
638.06	30950.2
638.413	30860.26
638.767	30844.9
639.121	30953.14
639.474	30722.86
639.828	30678.8
640.181	30795.18
640.534	30740.49
640.888	30782.3
641.241	30549.08
641.594	30583.66
641.947	30711.57
642.301	30661.4
642.654	30555.19
643.007	30627.05
643.36	30422.31
643.713	30462.98
644.066	30504.57
644.419	30432.93
644.771	30248.98
645.124	29870.68
645.477	29966.27
645.83	29662.1
646.182	29637.02
646.535	29603.57
646.888	29663.23
647.24	29427.53
647.593	29650.58
647.945	29382.56
648.298	29357.02
648.65	29382.79
649.002	29270.93
649.355	29492.16
649.707	29371.26
650.059	29496.46
650.411	29865.03
650.763	29827.07
651.115	30156.55
651.467	30040.85
651.819	30032.26
652.171	30057.8
652.523	29953.85
652.875	29960.17
653.227	29842.66
653.578	30057.8
653.93	29962.66
654.282	29858.03
654.633	29791.14
654.985	29846.28
655.337	29836.56
655.688	29813.06
656.039	30034.97
656.391	29609
656.742	29834.3
657.094	29786.84
657.445	29921.3
657.796	29783.68
658.147	29730.8
658.498	29673.17
658.849	29890.12
659.2	29760.63
659.551	29651.25
659.902	29762.66
660.253	29687.64
660.604	29741.87
660.955	29648.99
661.306	29738.03
661.656	29712.5
662.007	29569
662.358	29682.89
662.708	29716.11
663.059	29702.1
663.409	29434.08
663.76	29643.34
664.11	29718.37
664.461	29639.05
664.811	29729.44
665.161	29752.04
665.511	29558.6
665.862	29662.1
666.212	29743.91
666.562	29736
666.912	29618.71
667.262	29690.8
667.612	29618.26
667.962	29658.71
668.312	29601.76
668.662	29789.78
669.011	29633.4
669.361	29565.83
669.711	29534.65
670.06	29460.52
670.41	29399.06
670.76	29345.5
671.109	29603.57
671.459	29422.56
671.808	29423.01
672.157	29561.54
672.507	29224.37
672.856	29373.97
673.205	29402.67
673.554	29413.07
673.904	29295.56
674.253	29317.93
674.602	29369.68
674.951	28803.14
675.3	28686.53
675.649	29041.33
675.998	29070.93
676.346	29142.57
676.695	29157.26
677.044	28995.23
677.393	29002.01
677.741	29101.89
678.09	28922.69
678.438	29037.71
678.787	28954.55
679.135	28963.81
679.484	28704.61
679.832	28915.45
680.181	28846.53
680.529	28884.49
680.877	28763.37
681.225	28800.88
681.573	28838.39
681.922	28549.59
682.27	28469.36
682.618	28466.88
682.966	28506.43
683.314	28469.59
683.661	28354.34
684.009	28244.29
684.357	28164.06
684.705	28182.14
685.053	28122.71
685.4	28069.6
685.748	27959.77
686.095	27974.46
686.443	27820.79
686.79	27752.55
687.138	27745.32
687.485	27818.76
687.832	27809.27
688.18	27795.94
688.527	27571.08
688.874	27399.56
689.221	27468.71
689.568	27348.49
689.915	27377.64
690.262	27418.54
690.609	27140.81
690.956	27184.65
691.303	27169.96
691.65	26933.13
691.997	26949.4
692.344	26764.1
692.69	26711.67
693.037	26702.63
693.383	26470.32
693.73	26611.79
694.077	26404.56
694.423	26508.06
694.769	26347.39
695.116	26167.73
695.462	26223.77
695.808	26052.25
696.155	26062.2
696.501	25872.6
696.847	25859.26
697.193	25626.73
697.539	25765.93
697.885	25569.1
698.231	25423.79
698.577	25499.5
698.923	25397.35
699.269	25349.67
699.614	25250.24
699.96	25136.57
700.306	25103.13
700.651	24929.57
700.997	24889.8
701.342	24846.41
701.688	24850.7
702.033	24591.27
702.379	24584.72
702.724	24554.89
703.069	24577.49
703.415	24257.95
703.76	24238.29
704.105	24313.54
704.45	24226.31
704.795	23977.51
705.14	24017.96
705.485	23989.03
705.83	23813.67
706.175	23893.89
706.52	23827.68
706.865	23664.52
707.209	23663.84
707.554	23500.46
707.899	23609.15
708.243	23488.03
708.588	23441.25
708.932	23269.95
709.277	23315.83
709.621	23315.38
709.966	23043.52
710.31	23153.12
710.654	22909.96
710.998	22948.15
711.342	23003.52
711.687	22846.46
712.031	22781.38
712.375	22781.83
712.719	22839.23
713.063	22824.32
713.407	22773.02
713.75	22707.03
714.094	22642.62
714.438	22574.38
714.782	22561.72
715.125	22416.19
715.469	22537.54
715.812	22367.83
716.156	22366.02
716.499	22269.53
716.843	22277.89
717.186	22179.13
717.53	22341.16
717.873	22209.64
718.216	22106.59
718.559	22177.55
718.902	21956.99
719.246	22100.94
719.589	22014.39
719.932	21958.58
720.275	21955.64
720.617	21914.96
720.96	21941.85
721.303	21874.06
721.646	21772.59
721.989	21791.35
722.331	21825.25
722.674	21711.58
723.016	21775.08
723.359	21728.75
723.701	21761.29
724.044	21652.37
724.386	21562.88
724.729	21723.1
725.071	21571.69
725.413	21600.84
725.755	21597
726.097	21522.2
726.439	21305.26
726.782	21434.3
727.124	21614.86
727.465	21387.74
727.807	21331.25
728.149	21337.35
728.491	21419.61
728.833	21313.62
729.175	21227.07
729.516	21275.88
729.858	21338.7
730.199	21298.48
730.541	21186.84
730.882	21251.7
731.224	21357.69
731.565	21248.09
731.906	21089.22
732.248	21282.43
732.589	21124.7
732.93	21158.37
733.271	21154.75
733.612	21207.86
733.953	21158.82
734.294	21133.51
734.635	21077.92
734.976	21141.42
735.317	20997.47
735.658	21049.45
735.999	21113.85
736.339	21101.42
736.68	21079.73
737.021	21016.45
737.361	20882.45
737.702	21158.82
738.042	21029.11
738.383	21010.35
738.723	21048.09
739.063	21027.98
739.404	21012.16
739.744	21060.52
740.084	20998.37
740.424	21050.8
740.764	20951.14
741.104	21001.99
741.444	20813.97
741.784	20887.64
742.124	20919.05
742.464	20905.5
742.804	20870.92
743.143	20932.39
743.483	20945.95
743.823	20756.57
744.162	20816.68
744.502	20874.76
744.841	20853.07
745.181	20968.54
745.52	20764.26
745.86	20793.18
746.199	20770.58
746.538	20778.04
746.877	20803.58
747.216	20779.85
747.556	20695.33
747.895	20686.74
748.234	20624.6
748.573	20672.06
748.911	20731.71
749.25	20687.2
749.589	20595.45
749.928	20660.98
750.267	20591.15
750.605	20603.13
750.944	20619.4
751.283	20653.98
751.621	20614.66
751.96	20555.22
752.298	20515.9
752.636	20503.02
752.975	20415.11
753.313	20443.13
753.651	20475
753.989	20387.54
754.327	20357.49
754.666	20232.97
755.004	20408.11
755.342	20311.61
755.679	20281.33
756.017	20216.25
756.355	20123.14
