Data from tablewood_brown_FLMS001491_046.txt Node
Date: Tue Feb 07 11:10:31 GMT 2017
User: dcchb
Spectrometer: FLMS00149
Trigger mode: 0
Integration Time (sec): 2.000000E-2
Scans to average: 10
Electric dark correction enabled: true
Nonlinearity correction enabled: false
Boxcar width: 0
XAxis mode: Wavelengths
Number of Pixels in Spectrum: 2048
>>>>>Begin Spectral Data<<<<<
341.393	-7.73
341.776	-7.73
342.16	-7.73
342.543	-74.16
342.927	-61.51
343.31	-65.58
343.693	-79.14
344.077	-67.84
344.46	-61.06
344.843	-64.9
345.226	-54.5
345.61	-53.6
345.993	-9.76
346.376	3.12
346.759	12.61
347.142	36.11
347.525	46.28
347.908	58.71
348.291	57.81
348.674	103.68
349.057	138.03
349.44	121.08
349.823	146.85
350.206	189.11
350.588	180.97
350.971	220.97
351.354	214.19
351.737	236.79
352.119	248.99
352.502	253.51
352.884	268.88
353.267	283.57
353.65	304.81
354.032	304.81
354.414	311.81
354.797	352.26
355.179	330.57
355.562	327.41
355.944	316.11
356.326	333.96
356.709	331.25
357.091	345.26
357.473	348.65
357.855	324.92
358.238	333.73
358.62	347.52
359.002	324.69
359.384	337.12
359.766	348.65
360.148	340.51
360.53	349.78
360.912	352.49
361.294	358.37
361.676	321.08
362.057	345.03
362.439	312.04
362.821	339.61
363.203	333.51
363.584	331.7
363.966	322.89
364.348	328.54
364.729	325.6
365.111	331.02
365.493	319.27
365.874	315.66
366.256	343
366.637	328.31
367.019	347.29
367.4	316.11
367.781	331.02
368.163	335.09
368.544	320.4
368.925	327.63
369.306	310.23
369.688	322.44
370.069	321.08
370.45	316.56
370.831	331.93
371.212	341.19
371.593	322.89
371.974	344.13
372.355	330.34
372.736	333.96
373.117	326.95
373.498	335.32
373.879	329.21
374.26	330.34
374.641	336.45
375.021	328.99
375.402	333.51
375.783	320.18
376.163	348.88
376.544	349.78
376.925	343.23
377.305	336.45
377.686	319.95
378.066	348.2
378.447	368.08
378.827	352.49
379.208	352.94
379.588	364.47
379.968	359.27
380.349	346.62
380.729	353.85
381.109	358.14
381.489	349.78
381.87	364.69
382.25	375.77
382.63	398.37
383.01	355.43
383.39	360.4
383.77	367.86
384.15	363.79
384.53	365.6
384.91	402.21
385.29	382.77
385.67	393.85
386.049	385.48
386.429	370.57
386.809	389.1
387.189	382.77
387.568	390.68
387.948	408.08
388.328	405.82
388.707	392.26
389.087	404.69
389.466	406.5
389.846	426.61
390.225	408.08
390.605	418.48
390.984	398.82
391.363	398.37
391.743	412.15
392.122	412.38
392.501	438.59
392.881	427.29
393.26	434.75
393.639	423
394.018	438.59
394.397	416.67
394.776	427.52
395.155	456.67
395.534	443.79
395.913	454.86
396.292	438.82
396.671	443.79
397.05	463.9
397.429	469.32
397.808	465.26
398.186	467.74
398.565	468.87
398.944	466.61
399.323	483.79
399.701	448.53
400.08	471.81
400.458	478.14
400.837	472.71
401.215	474.3
401.594	482.88
401.972	492.37
402.351	496.22
402.729	497.12
403.107	499.83
403.486	518.36
403.864	516.1
404.242	526.27
404.62	525.82
404.999	513.39
405.377	514.29
405.755	530.79
406.133	519.49
406.511	543.45
406.889	524.69
407.267	553.16
407.645	552.94
408.023	563.56
408.401	546.16
408.779	557.01
409.156	561.07
409.534	566.04
409.912	582.77
410.29	594.07
410.667	605.82
411.045	601.3
411.422	615.76
411.8	585.25
412.178	594.74
412.555	626.16
412.933	619.83
413.31	635.87
413.687	619.83
414.065	644.46
414.442	632.94
414.819	644.69
415.197	660.51
415.574	644.23
415.951	664.8
416.328	677.45
416.705	652.37
417.082	667.06
417.46	690.79
417.837	667.06
418.214	671.58
418.591	702.76
418.967	697.79
419.344	708.19
419.721	710
420.098	700.28
420.475	739.15
420.852	718.58
421.228	723.33
421.605	730.33
421.982	738.02
422.358	748.64
422.735	737.34
423.111	734.85
423.488	764.91
423.864	764.23
424.241	766.27
424.617	767.17
424.994	752.93
425.37	792.25
425.746	802.42
426.123	807.85
426.499	792.71
426.875	788.41
427.251	831.57
427.627	819.82
428.003	826.6
428.379	828.64
428.756	848.52
429.132	854.17
429.507	865.92
429.883	878.8
430.259	857.79
430.635	876.32
431.011	865.25
431.387	919.71
431.763	933.27
432.138	914.96
432.514	945.24
432.89	951.8
433.265	952.7
433.641	961.51
434.016	961.29
434.392	952.93
434.767	1001.97
435.143	1001.51
435.518	1015.75
435.894	1016.88
436.269	1031.57
436.644	1056.88
437.02	1055.52
437.395	1057.1
437.77	1041.06
438.145	1086.03
438.52	1108.63
438.895	1091.45
439.271	1118.12
439.646	1117.22
440.021	1128.06
440.395	1144.79
440.77	1136.42
441.145	1143.43
441.52	1149.98
441.895	1145.24
442.27	1174.16
442.645	1164.9
443.019	1178.01
443.394	1178.23
443.769	1194.95
444.143	1204.9
444.518	1238.57
444.892	1237.89
445.267	1225.01
445.641	1209.64
446.016	1247.38
446.39	1262.98
446.764	1238.8
447.139	1248.51
447.513	1244.22
447.887	1279.92
448.262	1286.7
448.636	1302.52
449.01	1299.58
449.384	1314.27
449.758	1311.34
450.132	1319.47
450.506	1349.07
450.88	1331.45
451.254	1355.18
451.628	1360.83
452.002	1379.58
452.376	1407.6
452.75	1392.69
453.123	1410.99
453.497	1434.27
453.871	1465.68
454.244	1447.6
454.618	1453.93
454.992	1494.83
455.365	1510.2
455.739	1499.81
456.112	1542.97
456.486	1522.4
456.859	1556.53
457.232	1598.79
457.606	1575.06
457.979	1589.75
458.352	1639.69
458.725	1616.64
459.099	1661.61
459.472	1671.78
459.845	1716.52
460.218	1733.92
460.591	1743.64
460.964	1773.7
461.337	1786.8
461.71	1786.13
462.083	1816.18
462.456	1853.47
462.829	1868.16
463.201	1888.5
463.574	1871.77
463.947	1907.93
464.32	1943.18
464.692	1937.53
465.065	1968.49
465.438	2017.31
465.81	2025.44
466.183	2083.29
466.555	2103.63
466.928	2118.77
467.3	2134.14
467.672	2195.15
468.045	2218.66
468.417	2218.66
468.789	2260.24
469.161	2291.65
469.534	2333
469.906	2386.34
470.278	2354.25
470.65	2407.35
471.022	2476.05
471.394	2523.28
471.766	2534.35
472.138	2545.43
472.51	2620.91
472.882	2669.04
473.253	2712.65
473.625	2743.84
473.997	2810.96
474.369	2818.41
474.74	2892.99
475.112	2975.02
475.484	3025.19
475.855	3055.92
476.227	3123.49
476.598	3168.69
476.97	3210.72
477.341	3326.65
477.713	3378.85
478.084	3407.33
478.455	3507.44
478.827	3553.08
479.198	3626.75
479.569	3678.5
479.94	3765.73
480.311	3846.41
480.682	3927.54
481.053	3978.61
481.424	4052.73
481.795	4100.64
482.166	4207.76
482.537	4301.31
482.908	4346.96
483.279	4396.23
483.65	4503.12
484.021	4556.45
484.391	4666.28
484.762	4664.47
485.133	4779.27
485.503	4818.14
485.874	4948.98
486.244	5037.11
486.615	5146.04
486.985	5161.18
487.356	5246.6
487.726	5336.54
488.097	5464.9
488.467	5455.18
488.837	5607.49
489.207	5614.27
489.578	5754.16
489.948	5797.32
490.318	5854.27
490.688	5856.53
491.058	5954.6
491.428	6092
491.798	6158.21
492.168	6262.62
492.538	6330.41
492.908	6367.25
493.278	6491.09
493.648	6493.35
494.017	6551.42
494.387	6598.88
494.757	6663.96
495.126	6738.09
495.496	6753.9
495.866	6835.71
496.235	6912.77
496.605	7048.59
496.974	6996.16
497.344	7103.73
497.713	7165.64
498.082	7181.69
498.452	7325.87
498.821	7349.14
499.19	7381.91
499.559	7463.72
499.928	7481.12
500.298	7547.1
500.667	7678.17
501.036	7675.01
501.405	7754.1
501.774	7730.15
502.143	7817.38
502.512	7864.84
502.88	7973.76
503.249	7931.05
503.618	8018.73
503.987	8053.53
504.356	8148.67
504.724	8173.3
505.093	8185.51
505.462	8271.6
505.83	8328.33
506.199	8390.02
506.567	8536
506.936	8541.65
507.304	8617.58
507.672	8674.08
508.041	8763.57
508.409	8831.59
508.777	8904.36
509.145	9009.44
509.514	8983.68
509.882	9069.1
510.25	9064.58
510.618	9208.76
510.986	9182.54
511.354	9378.92
511.722	9422.76
512.09	9528.07
512.458	9497.79
512.826	9627.73
513.193	9630.89
513.561	9742.53
513.929	9763.32
514.297	9973.71
514.664	9987.49
515.032	10085.57
515.4	10118.34
515.767	10217.32
516.135	10257.32
516.502	10282.4
516.869	10370.53
517.237	10514.03
517.604	10551.77
517.972	10676.97
518.339	10748.15
518.706	10783.85
519.073	10927.58
519.44	10985.66
519.808	11056.62
520.175	11082.83
520.542	11216.39
520.909	11310.62
521.276	11363.05
521.643	11502.71
522.009	11555.36
522.376	11706.99
522.743	11718.97
523.11	11829.25
523.477	12009.13
523.843	12116.02
524.21	12214.78
524.577	12331.38
524.943	12384.26
525.31	12494.09
525.676	12537.93
526.043	12652.73
526.409	12734.99
526.776	12805.27
527.142	12950.35
527.508	13048.43
527.874	13076
528.241	13236.45
528.607	13277.12
528.973	13383.56
529.339	13399.38
529.705	13495.87
530.071	13607.51
530.437	13706.72
530.803	13800.95
531.169	13956.2
531.535	13959.14
531.901	13998.91
532.267	14048.4
532.632	14107.61
532.998	14214.05
533.364	14300.6
533.73	14347.6
534.095	14460.59
534.461	14545.11
534.826	14573.81
535.192	14699.91
535.557	14769.96
535.923	14815.84
536.288	14856.06
536.653	14926.12
537.019	14930.86
537.384	15070.07
537.749	14979
538.114	15104.42
538.479	15218.99
538.845	15289.05
539.21	15314.13
539.575	15370.17
539.94	15431.42
540.305	15568.36
540.67	15514.8
541.034	15578.76
541.399	15661.92
541.764	15728.36
542.129	15744.4
542.494	15723.84
542.858	15865.98
543.223	15950.95
543.587	15992.98
543.952	15952.76
544.316	16101
544.681	16149.36
545.045	16174.67
545.41	16296.25
545.774	16348
546.138	16331.28
546.503	16430.03
546.867	16427.55
547.231	16596.58
547.595	16602.68
547.959	16704.15
548.324	16783.92
548.688	16904.82
549.052	16875.45
549.416	17026.4
549.779	17140.52
550.143	17007.19
550.507	17246.06
550.871	17361.08
551.235	17354.53
551.599	17463.68
551.962	17616.22
552.326	17637.01
552.689	17750
553.053	17782.99
553.417	17841.75
553.78	18076.54
554.143	18070.67
554.507	18190.67
554.87	18266.6
555.234	18482.18
555.597	18433.37
555.96	18486.25
556.323	18817.32
556.686	18766.7
557.05	19062.06
557.413	19051.43
557.776	19074.03
558.139	19262.05
558.502	19281.26
558.865	19474.7
559.228	19678.31
559.59	19708.14
559.953	19770.51
560.316	20020.67
560.679	20135.25
561.041	20342.47
561.404	20343.83
561.767	20570.49
562.129	20523.94
562.492	20817.04
562.854	20832.18
563.217	21032.4
563.579	21145.16
563.941	21303.8
564.304	21497.02
564.666	21652.95
565.028	21793.28
565.39	21893.62
565.753	22096.1
566.115	22229.2
566.477	22423.55
566.839	22575.86
567.201	22788.96
567.563	22915.29
567.925	23123.19
568.287	23191.89
568.648	23249.06
569.01	23571.99
569.372	23725.44
569.734	23742.16
570.095	23938.09
570.457	24110.96
570.819	24318.41
571.18	24345.53
571.542	24667.33
571.903	24707.33
572.265	24992.75
572.626	25056.25
572.987	25216.92
573.349	25325.62
573.71	25565.16
574.071	25776.23
574.432	25748.66
574.794	26170.79
575.155	26071.81
575.516	26152.04
575.877	26390.68
576.238	26456.44
576.599	26806.71
576.96	26856.65
577.32	26828.4
577.681	27055.97
578.042	27204.21
578.403	27207.83
578.763	27467.26
579.124	27445.79
579.485	27488.05
579.845	27803.29
580.206	27813.01
580.566	27901.37
580.927	27956.96
581.287	28174.36
581.648	28198.99
582.008	28314.92
582.368	28349.95
582.728	28506.33
583.089	28534.35
583.449	28651.63
583.809	28656.61
584.169	28873.77
584.529	28758.3
584.889	28929.37
585.249	28825.41
585.609	28833.78
585.969	29081.68
586.329	29139.76
586.688	29205.07
587.048	29073.32
587.408	29149.93
587.768	29204.84
588.127	29260.88
588.487	29195.35
588.846	29588.78
589.206	29434.89
589.565	29462.01
589.925	29564.83
590.284	29426.3
590.643	29671.04
591.003	29683.92
591.362	29748.1
591.721	29665.84
592.08	29743.81
592.44	29849.12
592.799	29927.98
593.158	29808.89
593.517	29822.9
593.876	29805.73
594.235	29866.97
594.593	29748.1
594.952	29952.39
595.311	29836.24
595.67	29849.79
596.029	30250.46
596.387	30152.61
596.746	30232.16
597.104	30095.44
597.463	30091.82
597.822	30281.65
598.18	30160.07
598.538	30069
598.897	30274.19
599.255	30015.89
599.613	30602.32
599.972	30273.74
600.33	30478.93
600.688	30284.36
601.046	30507.63
601.404	30587.63
601.762	30542.21
602.12	30563.9
602.478	30642.99
602.836	30721.64
603.194	30532.04
603.552	30601.19
603.91	30535.88
604.268	30615.65
604.625	30523.9
604.983	30785.14
605.341	30555.76
605.698	30835.53
606.056	30777.91
606.413	30794.4
606.771	30956.21
607.128	30969.54
607.485	30708.3
607.843	30866.49
608.2	31050.21
608.557	31155.97
608.914	31019.93
609.272	31169.08
609.629	31210.21
609.986	31382.86
610.343	31199.82
610.7	31342.41
611.057	31351.68
611.414	31269.87
611.771	31346.03
612.127	31433.71
612.484	31494.27
612.841	31723.64
613.198	31477.32
613.554	31579.47
613.911	31703.53
614.267	31763.19
614.624	31636.19
614.98	31581.05
615.337	31795.05
615.693	31710.08
616.05	31739.91
616.406	31914.82
616.762	31734.94
617.118	31791.21
617.475	31861.72
617.831	31908.72
618.187	31913.24
618.543	31949.17
618.899	32258.09
619.255	32201.14
619.611	32164.08
619.967	32205.44
620.323	32235.27
620.678	32054.03
621.034	32031.43
621.39	32110.53
621.746	32057.19
622.101	32391.65
622.457	32000.7
622.812	32216.96
623.168	32267.81
623.523	32283.63
623.879	32234.36
624.234	32213.35
624.589	32235.95
624.945	32214.03
625.3	32514.58
625.655	32398.88
626.01	32297.87
626.365	32407.02
626.72	32418.54
627.075	32272.1
627.43	32158.89
627.785	32264.65
628.14	32272.78
628.495	32312.55
628.85	32340.8
629.205	32185.33
629.559	32455.15
629.914	32083.63
630.269	32164.08
630.623	32169.28
630.978	32007.7
631.332	32218.77
631.687	32167.02
632.041	32019.23
632.396	32186.91
632.75	31972
633.104	32059.91
633.459	31962.28
633.813	31852.91
634.167	31805.22
634.521	31888.61
634.875	31882.96
635.229	31780.36
635.583	31701.5
635.937	31695.62
636.291	31625.79
636.645	31682.97
636.999	31630.99
637.352	31619.24
637.706	31486.59
638.06	31541.73
638.413	31410.43
638.767	31433.71
639.121	31447.27
639.474	31398.91
639.828	31386.48
640.181	31313.26
640.534	31402.75
640.888	31229.42
641.241	31195.52
641.594	31166.82
641.947	31152.81
642.301	31240.72
642.654	31288.4
643.007	31146.71
643.36	31223.54
643.713	31102.64
644.066	31153.04
644.419	31002.98
644.771	30759.37
645.124	30573.39
645.477	30409.33
645.83	30304.92
646.182	30060.64
646.535	30092.73
646.888	30240.07
647.24	30065.83
647.593	30207.3
647.945	30186.96
648.298	30125.95
648.65	30003.91
649.002	29890.92
649.355	30005.95
649.707	30005.72
650.059	30197.58
650.411	30424.02
650.763	30393.06
651.115	30810.9
651.467	30533.39
651.819	30651.81
652.171	30617.01
652.523	30639.38
652.875	30566.61
653.227	30458.59
653.578	30671.47
653.93	30676.44
654.282	30443.22
654.633	30421.53
654.985	30557.12
655.337	30442.77
655.688	30555.76
656.039	30622.88
656.391	30462.89
656.742	30312.83
657.094	30461.3
657.445	30514.86
657.796	30531.36
658.147	30397.35
658.498	30391.47
658.849	30445.71
659.2	30440.74
659.551	30398.03
659.902	30468.76
660.253	30378.59
660.604	30417.91
660.955	30303.57
661.306	30353.06
661.656	30421.76
662.007	30404.13
662.358	30414.53
662.708	30428.08
663.059	30316.45
663.409	30202.1
663.76	30360.97
664.11	30347.86
664.461	30436.9
664.811	30349.67
665.161	30413.17
665.511	30238.94
665.862	30316.22
666.212	30340.4
666.562	30390.34
666.912	30348.09
667.262	30377.24
667.612	30319.61
667.962	30350.57
668.312	30300.18
668.662	30380.85
669.011	30250.24
669.361	30233.51
669.711	30141.76
670.06	30197.58
670.41	30201.65
670.76	30100.41
671.109	30180.41
671.459	30096.57
671.808	29946.06
672.157	30137.24
672.507	29905.16
672.856	29957.36
673.205	30030.35
673.554	30021.32
673.904	29905.16
674.253	30089.56
674.602	29956.01
674.951	29567.32
675.3	29409.58
675.649	29853.86
675.998	29937.48
676.346	29965.05
676.695	29960.75
677.044	29688.89
677.393	29879.4
677.741	29903.13
678.09	29733.19
678.438	29611.16
678.787	29626.75
679.135	29754.43
679.484	29613.87
679.832	29546.53
680.181	29479.63
680.529	29471.73
680.877	29341.33
681.225	29448.22
681.573	29459.3
681.922	29163.03
682.27	29331.84
682.618	29380.2
682.966	29176.82
683.314	29245.29
683.661	29177.04
684.009	28965.07
684.357	28902.47
684.705	28800.1
685.053	28927.33
685.4	28878.97
685.748	28675.36
686.095	28693.67
686.443	28507.46
686.79	28385.65
687.138	28541.13
687.485	28606.89
687.832	28386.1
688.18	28388.59
688.527	28273.56
688.874	28292.32
689.221	28175.26
689.568	28092.1
689.915	27947.02
690.262	28030.86
690.609	27855.27
690.956	27785.22
691.303	27787.02
691.65	27568.72
691.997	27636.07
692.344	27525.11
692.69	27320.6
693.037	27395.85
693.383	27205.12
693.73	27292.8
694.077	27152.24
694.423	27137.78
694.769	26912.02
695.116	26899.59
695.462	26840.38
695.808	26695.53
696.155	26786.37
696.501	26539.6
696.847	26551.12
697.193	26355.65
697.539	26518.58
697.885	26237.23
698.231	26126.28
698.577	26131.7
698.923	26200.62
699.269	25977.13
699.614	25876.79
699.96	25749.11
700.306	25705.95
700.651	25658.72
700.997	25536.01
701.342	25479.74
701.688	25432.51
702.033	25279.74
702.379	25314.77
702.724	25178.05
703.069	25173.08
703.415	24983.71
703.76	24933.77
704.105	24843.82
704.45	24769.25
704.795	24663.72
705.14	24547.79
705.485	24682.47
705.83	24559.09
706.175	24481.12
706.52	24251.98
706.865	24268.25
707.209	24273.67
707.554	24202.26
707.899	24188.7
708.243	24052.88
708.588	23981.93
708.932	23814.7
709.277	23880.69
709.621	23863.74
709.966	23664.42
710.31	23760.24
710.654	23597.53
710.998	23624.87
711.342	23575.61
711.687	23431.43
712.031	23314.37
712.375	23281.83
712.719	23404.09
713.063	23353.47
713.407	23347.82
713.75	23286.8
714.094	23250.19
714.438	23129.97
714.782	23194.38
715.125	23047.04
715.469	23131.55
715.812	22952.8
716.156	22949.64
716.499	23001.16
716.843	22966.59
717.186	22801.84
717.53	22908.06
717.873	22837.55
718.216	22806.14
718.559	22642.75
718.902	22426.71
719.246	22607.05
719.589	22554.84
719.932	22486.15
720.275	22446.6
720.617	22456.54
720.96	22449.54
721.303	22461.06
721.646	22423.1
721.989	22278.69
722.331	22353.49
722.674	22327.28
723.016	22272.14
723.359	22211.58
723.701	22340.39
724.044	22209.77
724.386	22159.6
724.729	22196.44
725.071	22242.08
725.413	22250.45
725.755	22099.49
726.097	22109.21
726.439	22054.97
726.782	22082.31
727.124	22214.74
727.465	22023.11
727.807	22020.62
728.149	22002.77
728.491	21896.78
728.833	22042.32
729.175	21918.93
729.516	21976.33
729.858	21883.68
730.199	21898.14
730.541	21899.27
730.882	21845.71
731.224	21889.1
731.565	21795.09
731.906	21837.58
732.248	21854.98
732.589	21813.85
732.93	21719.61
733.271	21812.04
733.612	21719.16
733.953	21832.83
734.294	21697.92
734.635	21688.65
734.976	21794.86
735.317	21628.09
735.658	21777.46
735.999	21646.17
736.339	21720.52
736.68	21744.24
737.021	21663.12
737.361	21700.18
737.702	21725.04
738.042	21696.79
738.383	21653.63
738.723	21701.53
739.063	21580.63
739.404	21697.01
739.744	21725.71
740.084	21671.03
740.424	21660.86
740.764	21583.57
741.104	21749.22
741.444	21703.12
741.784	21566.62
742.124	21600.52
742.464	21558.26
742.804	21600.07
743.143	21490.69
743.483	21577.7
743.823	21322.56
744.162	21482.56
744.502	21637.58
744.841	21474.65
745.181	21596.45
745.52	21419.73
745.86	21625.6
746.199	21532.05
746.538	21352.62
746.877	21522.56
747.216	21531.82
747.556	21519.39
747.895	21512.61
748.234	21540.41
748.573	21470.58
748.911	21529.11
749.25	21444.59
749.589	21484.14
749.928	21467.19
750.267	21395.1
750.605	21390.13
750.944	21234.2
751.283	21278.95
751.621	21312.39
751.96	21246.18
752.298	21247.99
752.636	21314.65
752.975	21315.1
753.313	21110.81
753.651	21238.04
753.989	21117.82
754.327	21126.18
754.666	21065.39
755.004	21129.35
755.342	21155.11
755.679	21090.02
756.017	21034.43
