Data from tablewood_dark_bookshelf_FLMS001491_00028.txt Node
Date: Wed Feb 08 14:14:06 GMT 2017
User: dcchb
Spectrometer: FLMS00149
Trigger mode: 0
Integration Time (sec): 2.000000E-2
Scans to average: 10
Electric dark correction enabled: true
Nonlinearity correction enabled: false
Boxcar width: 0
XAxis mode: Wavelengths
Number of Pixels in Spectrum: 2048
>>>>>Begin Spectral Data<<<<<
341.393	-27.64
341.776	-27.64
342.16	-27.64
342.543	-71.93
342.927	-76.23
343.31	-60.18
343.693	-74.19
344.077	-66.74
344.46	-62.44
344.843	-62.22
345.226	-18.83
345.61	-32.61
345.993	-42.1
346.376	5.35
346.759	22.08
347.142	20.72
347.525	37.44
347.908	60.04
348.291	88.06
348.674	97.78
349.057	87.84
349.44	119.7
349.823	124.9
350.206	158.57
350.588	169.87
350.971	202.86
351.354	215.52
351.737	221.17
352.119	237.66
352.502	240.38
352.884	262.07
353.267	256.87
353.65	279.7
354.032	281.96
354.414	286.25
354.797	298.45
355.179	292.8
355.562	301.84
355.944	318.57
356.326	314.95
356.709	318.57
357.091	313.37
357.473	317.44
357.855	337.55
358.238	320.82
358.62	327.38
359.002	328.51
359.384	339.13
359.766	340.71
360.148	333.25
360.53	336.19
360.912	328.06
361.294	329.64
361.676	310.2
362.057	327.15
362.439	329.86
362.821	331.22
363.203	325.12
363.584	321.73
363.966	314.72
364.348	307.49
364.729	344.78
365.111	313.14
365.493	309.3
365.874	332.35
366.256	298.23
366.637	309.75
367.019	305.46
367.4	314.05
367.781	308.4
368.163	295.29
368.544	307.94
368.925	317.44
369.306	318.11
369.688	291
370.069	292.58
370.45	310.88
370.831	293.48
371.212	301.16
371.593	312.01
371.974	314.05
372.355	289.87
372.736	313.59
373.117	310.88
373.498	323.76
373.879	300.94
374.26	321.5
374.641	308.17
375.021	327.15
375.402	304.33
375.783	319.92
376.163	330.77
376.544	312.92
376.925	317.44
377.305	315.85
377.686	319.69
378.066	319.24
378.447	324.44
378.827	307.27
379.208	327.83
379.588	333.93
379.968	323.76
380.349	308.85
380.729	310.88
381.109	326.02
381.489	331.67
381.87	323.54
382.25	336.19
382.63	340.03
383.01	344.1
383.39	343.42
383.77	329.41
384.15	346.59
384.53	347.49
384.91	346.59
385.29	342.29
385.67	356.98
386.049	367.83
386.429	336.19
386.809	347.04
387.189	370.77
387.568	353.82
387.948	370.99
388.328	349.98
388.707	356.98
389.087	359.24
389.466	370.99
389.846	369.86
390.225	375.96
390.605	374.38
390.984	360.82
391.363	356.76
391.743	370.99
392.122	391.11
392.501	386.13
392.881	386.36
393.26	385
393.639	378
394.018	395.85
394.397	398.56
394.776	411.9
395.155	395.4
395.534	391.11
395.913	390.88
396.292	379.58
396.671	391.33
397.05	395.85
397.429	405.34
397.808	413.25
398.186	389.75
398.565	410.31
398.944	411.44
399.323	435.17
399.701	404.66
400.08	422.29
400.458	410.77
400.837	426.58
401.215	436.08
401.594	418.22
401.972	428.39
402.351	428.84
402.729	452.35
403.107	440.14
403.486	434.27
403.864	441.27
404.242	445.34
404.62	445.12
404.999	431.33
405.377	456.41
405.755	437.88
406.133	438.11
406.511	458
406.889	457.32
407.267	464.55
407.645	439.92
408.023	463.42
408.401	469.97
408.779	475.4
409.156	476.53
409.534	484.66
409.912	470.65
410.29	479.46
410.667	478.56
411.045	483.76
411.422	488.5
411.8	491.22
412.178	521.72
412.555	515.4
412.933	518.33
413.31	532.8
413.687	492.35
414.065	531.89
414.442	529.18
414.819	537.09
415.197	544.55
415.574	551.1
415.951	545
416.328	566.92
416.705	572.57
417.082	539.8
417.46	538.22
417.837	557.43
418.214	580.03
418.591	572.34
418.967	547.49
419.344	575.73
419.721	574.38
420.098	573.93
420.475	586.58
420.852	585.45
421.228	590.2
421.605	622.51
421.982	599.69
422.358	605.56
422.735	613.7
423.111	598.78
423.488	602.4
423.864	604.43
424.241	644.66
424.617	620.25
424.994	651.89
425.37	626.13
425.746	644.66
426.123	664.09
426.499	652.12
426.875	665
427.251	663.41
427.627	682.17
428.003	681.27
428.379	668.61
428.756	679.23
429.132	711.1
429.507	693.24
429.883	692.57
430.259	696.18
430.635	725.33
431.011	728.72
431.387	713.13
431.763	746.58
432.138	747.71
432.514	740.93
432.89	766.69
433.265	750.19
433.641	757.42
434.016	781.38
434.392	784.99
434.767	759.46
435.143	787.25
435.518	782.96
435.894	823.18
436.269	818.89
436.644	827.25
437.02	822.28
437.395	845.56
437.77	851.21
438.145	837.2
438.52	851.43
438.895	878.1
439.271	855.95
439.646	863.86
440.021	879
440.395	883.07
440.77	860.7
441.145	891.88
441.52	914.48
441.895	908.61
442.27	894.6
442.645	910.64
443.019	933.01
443.394	926.46
443.769	895.5
444.143	905.22
444.518	919.23
444.892	916.06
445.267	911.54
445.641	944.54
446.016	951.32
446.39	953.58
446.764	958.1
447.139	980.02
447.513	970.53
447.887	981.37
448.262	999.68
448.636	995.61
449.01	1007.81
449.384	1012.56
449.758	997.64
450.132	1031.77
450.506	1013.24
450.88	1021.15
451.254	1029.96
451.628	1034.25
452.002	1079.9
452.376	1069.96
452.75	1065.66
453.123	1075.38
453.497	1085.1
453.871	1089.62
454.244	1126.68
454.618	1143.85
454.992	1112.67
455.365	1107.92
455.739	1141.82
456.112	1172.55
456.486	1189.28
456.859	1154.02
457.232	1197.86
457.606	1207.81
457.979	1206.9
458.352	1236.51
458.725	1242.61
459.099	1250.07
459.472	1256.39
459.845	1268.82
460.218	1300.23
460.591	1307.69
460.964	1325.32
461.337	1342.27
461.71	1343.4
462.083	1378.88
462.456	1366.9
462.829	1359.89
463.201	1373
463.574	1406.22
463.947	1406.22
464.32	1410.29
464.692	1430.85
465.065	1438.99
465.438	1492.77
465.81	1505.43
466.183	1501.36
466.555	1517.4
466.928	1563.28
467.3	1549.49
467.672	1561.47
468.045	1608.02
468.417	1622.49
468.789	1624.97
469.161	1603.05
469.534	1662.26
469.906	1684.86
470.278	1668.81
470.65	1706.78
471.022	1727.12
471.394	1756.27
471.766	1766.21
472.138	1783.61
472.51	1838.75
472.882	1850.95
473.253	1885.3
473.625	1882.14
473.997	1946.54
474.369	1922.59
474.74	1973.89
475.112	2020.67
475.484	2022.25
475.855	2045.75
476.227	2082.13
476.598	2099.54
476.97	2134.79
477.341	2154.45
477.713	2188.35
478.084	2192.64
478.455	2276.25
478.827	2263.15
479.198	2352.18
479.569	2343.14
479.94	2432.63
480.311	2456.81
480.682	2482.8
481.053	2534.78
481.424	2568.45
481.795	2575.68
482.166	2647.77
482.537	2646.87
482.908	2692.29
483.279	2731.16
483.65	2751.27
484.021	2829.69
484.391	2834.66
484.762	2859.06
485.133	2894.32
485.503	2924.6
485.874	3031.04
486.244	3040.75
486.615	3114.2
486.985	3109.23
487.356	3178.6
487.726	3171.37
488.097	3264.48
488.467	3259.28
488.837	3310.58
489.207	3342.67
489.578	3389.22
489.948	3422.44
490.318	3472.83
490.688	3494.75
491.058	3556.9
491.428	3562.55
491.798	3625.14
492.168	3684.8
492.538	3682.54
492.908	3706.72
493.278	3778.81
493.648	3766.61
494.017	3839.6
494.387	3890.45
494.757	3859.49
495.126	3941.07
495.496	3928.87
495.866	3998.69
496.235	4004.12
496.605	4034.85
496.974	4046.38
497.344	4116.43
497.713	4127.96
498.082	4188.52
498.452	4220.84
498.821	4224.23
499.19	4240.5
499.559	4263.09
499.928	4320.49
500.298	4340.15
500.667	4345.35
501.036	4355.75
501.405	4408.85
501.774	4410.21
502.143	4460.38
502.512	4490.21
502.88	4536.53
503.249	4506.7
503.618	4543.54
503.987	4642.07
504.356	4665.34
504.724	4672.57
505.093	4686.13
505.462	4696.08
505.83	4796.64
506.199	4790.54
506.567	4818.33
506.936	4825.57
507.304	4911.44
507.672	4942.4
508.041	4936.75
508.409	4969.52
508.777	5016.75
509.145	5030.76
509.514	5056.97
509.882	5117.31
510.25	5077.99
510.618	5139.23
510.986	5189.62
511.354	5225.78
511.722	5311.43
512.09	5310.75
512.458	5319.56
512.826	5390.75
513.193	5403.4
513.561	5414.02
513.929	5502.38
514.297	5456.51
514.664	5555.26
515.032	5583.06
515.4	5677.29
515.767	5669.61
516.135	5656.28
516.502	5689.5
516.869	5755.94
517.237	5761.59
517.604	5809.27
517.972	5887.46
518.339	5861.7
518.706	5935.14
519.073	5966.78
519.44	5948.25
519.808	6042.26
520.175	6117.28
520.542	6152.76
520.909	6140.11
521.276	6215.36
521.643	6235.7
522.009	6275.92
522.376	6356.15
522.743	6405.41
523.11	6464.17
523.477	6470.04
523.843	6527.22
524.21	6601.79
524.577	6724.27
524.943	6710.26
525.31	6755.91
525.676	6818.73
526.043	6781.67
526.409	6873.19
526.776	6937.37
527.142	6957.26
527.508	7025.51
527.874	7076.81
528.241	7159.97
528.607	7117.26
528.973	7169.68
529.339	7200.64
529.705	7263.24
530.071	7326.52
530.437	7403.8
530.803	7431.37
531.169	7460.3
531.535	7511.6
531.901	7523.57
532.267	7555.21
532.632	7659.16
532.998	7572.61
533.364	7709.56
533.73	7696.9
534.095	7775.54
534.461	7830.91
534.826	7825.49
535.192	7872.49
535.557	7943.22
535.923	7995.43
536.288	7996.33
536.653	7961.3
537.019	7948.42
537.384	8027.29
537.749	8092.37
538.114	8081.07
538.479	8176.21
538.845	8207.62
539.21	8181.41
539.575	8154.97
539.94	8269.99
540.305	8305.7
540.67	8309.99
541.034	8347.96
541.399	8380.5
541.764	8451.01
542.129	8471.12
542.494	8470.44
542.858	8503.43
543.223	8526.94
543.587	8559.03
543.952	8564.68
544.316	8591.79
544.681	8615.75
545.045	8693.94
545.41	8696.42
545.774	8766.7
546.138	8782.75
546.503	8809.87
546.867	8777.55
547.231	8858
547.595	8920.37
547.959	8946.59
548.324	8945.23
548.688	8924.89
549.052	9020.94
549.416	9007.83
549.779	9040.6
550.143	9116.75
550.507	9098.45
550.871	9187.03
551.235	9164.66
551.599	9235.84
551.962	9266.8
552.326	9308.84
552.689	9305.22
553.053	9309.97
553.417	9380.7
553.78	9530.53
554.143	9410.53
554.507	9490.75
554.87	9556.29
555.234	9632.44
555.597	9588.6
555.96	9733.91
556.323	9705.89
556.686	9767.81
557.05	9732.33
557.413	9910.4
557.776	9850.97
558.139	10008.25
558.502	9980.91
558.865	10021.81
559.228	10075.6
559.59	10116.73
559.953	10134.58
560.316	10321.01
560.679	10287.34
561.041	10291.41
561.404	10370.73
561.767	10422.48
562.129	10443.72
562.492	10535.47
562.854	10578.63
563.217	10539.77
563.579	10654.79
563.941	10688.46
564.304	10815.69
564.666	10886.2
565.028	10854.11
565.39	10877.61
565.753	10947.44
566.115	11013.65
566.477	11052.75
566.839	11125.96
567.201	11156.25
567.563	11214.32
567.925	11276.24
568.287	11342
568.648	11355.79
569.01	11409.35
569.372	11531.38
569.734	11448.67
570.095	11590.59
570.457	11636.46
570.819	11683.92
571.18	11694.76
571.542	11779.05
571.903	11858.15
572.265	11951.93
572.626	11950.35
572.987	12033.74
573.349	11982.44
573.71	12104.7
574.071	12106.73
574.432	12163
574.794	12261.3
575.155	12296.78
575.516	12218.59
575.877	12367.74
576.238	12344.01
576.599	12428.98
576.96	12454.07
577.32	12532.48
577.681	12600.05
578.042	12610.67
578.403	12637.11
578.763	12659.71
579.124	12758.69
579.485	12775.86
579.845	12919.14
580.206	12795.53
580.566	12830.78
580.927	12782.19
581.287	12895.18
581.648	12974.28
582.008	13046.59
582.368	13012.69
582.728	13016.31
583.089	13045.69
583.449	13060.38
583.809	13188.51
584.169	13164.55
584.529	13169.07
584.889	13175.63
585.249	13134.5
585.609	13208.85
585.969	13241.39
586.329	13255.4
586.688	13325.68
587.048	13433.47
587.408	13327.94
587.768	13323.87
588.127	13368.39
588.487	13367.94
588.846	13533.13
589.206	13328.62
589.565	13532
589.925	13486.13
590.284	13552.57
590.643	13600.02
591.003	13578.78
591.362	13640.02
591.721	13655.62
592.08	13740.59
592.44	13687.03
592.799	13749.85
593.158	13692.9
593.517	13755.5
593.876	13867.36
594.235	13799.57
594.593	13742.62
594.952	13884.31
595.311	13790.53
595.67	13884.31
596.029	13957.53
596.387	13865.1
596.746	13960.24
597.104	13966.57
597.463	13967.47
597.822	14071.88
598.18	13927.47
598.538	13996.17
598.897	14120.69
599.255	14041.37
599.613	14198.43
599.972	14166.79
600.33	14098.99
600.688	14196.84
601.046	14250.63
601.404	14253.79
601.762	14190.29
602.12	14248.59
602.478	14349.61
602.836	14334.24
603.194	14291.98
603.552	14320.68
603.91	14332.21
604.268	14428.02
604.625	14377.86
604.983	14479.55
605.341	14400.68
605.698	14463.73
606.056	14518.64
606.413	14481.58
606.771	14573.11
607.128	14599.32
607.485	14524.52
607.843	14648.58
608.2	14631.64
608.557	14711.18
608.914	14661.46
609.272	14679.54
609.629	14740.56
609.986	14897.39
610.343	14731.75
610.7	14929.48
611.057	14875.92
611.414	14820.78
611.771	14847.67
612.127	15019.2
612.484	14959.31
612.841	15034.11
613.198	14902.81
613.554	15012.87
613.911	15091.28
614.267	15061.23
614.624	15050.83
614.98	15099.42
615.337	15129.48
615.693	15101.91
616.05	15112.98
616.406	15198.63
616.762	15157.27
617.118	15220.32
617.475	15094.22
617.831	15204.05
618.187	15252.18
618.543	15240.66
618.899	15282.47
619.255	15337.38
619.611	15259.64
619.967	15269.58
620.323	15439.3
620.678	15332.18
621.034	15349.81
621.39	15315.01
621.746	15407.21
622.101	15510.71
622.457	15296.25
622.812	15382.12
623.168	15385.74
623.523	15442.69
623.879	15370.82
624.234	15383.48
624.589	15460.99
624.945	15432.07
625.3	15474.78
625.655	15388.68
626.01	15528.33
626.365	15475.23
626.72	15469.13
627.075	15493.08
627.43	15477.94
627.785	15410.37
628.14	15460.09
628.495	15491.73
628.85	15470.48
629.205	15416.93
629.559	15491.05
629.914	15289.02
630.269	15405.85
630.623	15324.05
630.978	15286.99
631.332	15482.01
631.687	15408.79
632.041	15345.97
632.396	15385.51
632.75	15349.81
633.104	15285.4
633.459	15298.06
633.813	15260.09
634.167	15378.06
634.521	15341.45
634.875	15289.92
635.229	15314.33
635.583	15279.98
635.937	15261.45
636.291	15166.31
636.645	15226.2
636.999	15216.48
637.352	15270.26
637.706	15081.34
638.06	15189.36
638.413	15186.65
638.767	15149.59
639.121	15060.55
639.474	15023.04
639.828	15067.78
640.181	15127.89
640.534	15055.13
640.888	15028.69
641.241	14934.9
641.594	15044.28
641.947	14975.35
642.301	15019.65
642.654	14924.28
643.007	14957.28
643.36	14978.52
643.713	14999.31
644.066	14985.98
644.419	14895.81
644.771	14794.79
645.124	14613.78
645.477	14576.04
645.83	14511.19
646.182	14467.8
646.535	14563.61
646.888	14503.95
647.24	14454.24
647.593	14507.12
647.945	14427.57
648.298	14486.78
648.65	14434.58
649.002	14375.14
649.355	14501.24
649.707	14446.1
650.059	14515.48
650.411	14540.34
650.763	14668.02
651.115	14766.55
651.467	14701.46
651.819	14727.9
652.171	14625.99
652.523	14671.86
652.875	14675.48
653.227	14585.08
653.578	14746.43
653.93	14717.73
654.282	14588.25
654.633	14625.08
654.985	14652.65
655.337	14628.7
655.688	14621.92
656.039	14709.15
656.391	14607.23
656.742	14528.36
657.094	14561.81
657.445	14701.69
657.796	14626.21
658.147	14634.35
658.498	14587.57
658.849	14664.63
659.2	14662.37
659.551	14602.71
659.902	14642.26
660.253	14661.92
660.604	14635.02
660.955	14501.02
661.306	14655.36
661.656	14548.02
662.007	14594.35
662.358	14601.35
662.708	14550.51
663.059	14585.99
663.409	14492.2
663.76	14650.39
664.11	14620.34
664.461	14566.33
664.811	14506.67
665.161	14491.3
665.511	14585.53
665.862	14479.32
666.212	14547.57
666.562	14531.52
666.912	14535.14
667.262	14532.2
667.612	14518.64
667.962	14612.88
668.312	14588.7
668.662	14680
669.011	14688.58
669.361	14630.73
669.711	14591.41
670.06	14542.15
670.41	14481.13
670.76	14546.21
671.109	14551.19
671.459	14514.8
671.808	14485.88
672.157	14478.64
672.507	14433
672.856	14578.3
673.205	14503.73
673.554	14581.01
673.904	14491.98
674.253	14510.51
674.602	14527.23
674.951	14330.4
675.3	14251.08
675.649	14485.42
675.998	14451.98
676.346	14447.01
676.695	14560.68
677.044	14409.95
677.393	14393.22
677.741	14463.73
678.09	14367.91
678.438	14361.13
678.787	14440.23
679.135	14393.45
679.484	14347.35
679.832	14421.92
680.181	14339.89
680.529	14315.71
680.877	14244.3
681.225	14370.85
681.573	14320
681.922	14296.5
682.27	14201.14
682.618	14196.39
682.966	14150.07
683.314	14156.17
683.661	14187.58
684.009	14069.84
684.357	14049.05
684.705	14080.01
685.053	14031.2
685.4	13998.88
685.748	13943.07
686.095	14086.79
686.443	13915.04
686.79	13877.3
687.138	14011.09
687.485	13911.65
687.832	13896.29
688.18	13824.65
688.527	13774.93
688.874	13908.04
689.221	13871.43
689.568	13757.53
689.915	13761.15
690.262	13791.88
690.609	13727.93
690.956	13679.8
691.303	13626.92
691.65	13568.16
691.997	13643.41
692.344	13492.46
692.69	13532.91
693.037	13517.31
693.383	13424.66
693.73	13445.45
694.077	13423.08
694.423	13412.23
694.769	13411.78
695.116	13287.94
695.462	13279.13
695.808	13318.68
696.155	13311.9
696.501	13139.92
696.847	13118.45
697.193	13071.45
697.539	13175.18
697.885	13058.57
698.231	13082.3
698.577	13077.55
698.923	13025.58
699.269	12890.66
699.614	12976.99
699.96	12859.48
700.306	12904
700.651	12756.66
700.997	12785.13
701.342	12738.35
701.688	12773.6
702.033	12664.23
702.379	12713.04
702.724	12647.28
703.069	12625.36
703.415	12575.42
703.76	12578.58
704.105	12537
704.45	12494.52
704.795	12446.16
705.14	12345.37
705.485	12433.73
705.83	12349.44
706.175	12359.83
706.52	12304.24
706.865	12282.09
707.209	12260.17
707.554	12177.46
707.899	12244.81
708.243	12189.21
708.588	12167.52
708.932	12131.81
709.277	12112.38
709.621	12088.43
709.966	11988.31
710.31	12014.75
710.654	11986.96
710.998	11992.16
711.342	12007.75
711.687	11919.39
712.031	11935.89
712.375	11873.97
712.719	11888.88
713.063	11835.78
713.407	11934.98
713.75	11827.87
714.094	11874.19
714.438	11753.29
714.782	11794.2
715.125	11722.33
715.469	11740.41
715.812	11711.26
716.156	11616.8
716.499	11646.63
716.843	11704.93
717.186	11514.65
717.53	11611.15
717.873	11693.18
718.216	11594.88
718.559	11579.06
718.902	11456.13
719.246	11551.94
719.589	11532.51
719.932	11450.02
720.275	11520.3
720.617	11481.89
720.96	11494.77
721.303	11447.31
721.646	11485.28
721.989	11360.99
722.331	11430.82
722.674	11376.35
723.016	11356.24
723.359	11323.7
723.701	11331.83
724.044	11388.78
724.386	11245.74
724.729	11404.83
725.071	11243.7
725.413	11310.82
725.755	11232.85
726.097	11224.49
726.439	11230.59
726.782	11181.56
727.124	11282.8
727.465	11227.43
727.807	11145.85
728.149	11181.56
728.491	11230.37
728.833	11143.37
729.175	11151.95
729.516	11116.47
729.858	11141.11
730.199	11223.14
730.541	11117.15
730.882	11074.44
731.224	11081.9
731.565	11036.02
731.906	11090.49
732.248	11097.72
732.589	10981.79
732.93	10989.02
733.271	10991.5
733.612	11022.24
733.953	11015.01
734.294	11016.36
734.635	10993.54
734.976	11080.77
735.317	11022.46
735.658	10975.46
735.999	11028.11
736.339	10993.76
736.68	11005.06
737.021	10991.73
737.361	11003.93
737.702	10984.73
738.042	11023.59
738.383	10988.79
738.723	10954.44
739.063	10924.16
739.404	10885.29
739.744	10903.6
740.084	10895.01
740.424	10957.16
740.764	10877.38
741.104	10934.11
741.444	10890.72
741.784	10764.39
742.124	10929.13
742.464	10878.97
742.804	10887.1
743.143	10797.84
743.483	10810.72
743.823	10774.56
744.162	10850.04
744.502	10850.04
744.841	10812.98
745.181	10848.91
745.52	10784.96
745.86	10809.36
746.199	10788.35
746.538	10833.99
746.877	10776.14
747.216	10761.45
747.556	10772.75
747.895	10731.85
748.234	10685.3
748.573	10721.23
748.911	10666.32
749.25	10697.5
749.589	10646.88
749.928	10649.14
750.267	10752.42
750.605	10674.22
750.944	10682.59
751.283	10587.67
751.621	10681.46
751.96	10626.99
752.298	10657.73
752.636	10572.53
752.975	10565.08
753.313	10546.09
753.651	10632.42
753.989	10525.08
754.327	10422.48
754.666	10459.54
755.004	10497.96
755.342	10467.9
755.679	10447.79
756.017	10452.99
756.355	10406.44
756.693	10396.94
757.031	10447.79
757.368	10302.03
757.706	10375.93
758.044	10391.75
758.381	10396.94
758.719	10287.34
759.056	10273.11
