Data from tablewood_dark_bookshelf_FLMS001491_00022.txt Node
Date: Wed Feb 08 14:14:05 GMT 2017
User: dcchb
Spectrometer: FLMS00149
Trigger mode: 0
Integration Time (sec): 2.000000E-2
Scans to average: 10
Electric dark correction enabled: true
Nonlinearity correction enabled: false
Boxcar width: 0
XAxis mode: Wavelengths
Number of Pixels in Spectrum: 2048
>>>>>Begin Spectral Data<<<<<
341.393	4.68
341.776	4.68
342.16	4.68
342.543	-55.21
342.927	-78.71
343.31	-62.22
343.693	-67.87
344.077	-58.37
344.46	-56.34
344.843	-46.17
345.226	-63.8
345.61	-30.8
345.993	-11.6
346.376	-0.75
346.759	15.52
347.142	26.37
347.525	45.58
347.908	59.36
348.291	79.48
348.674	77.89
349.057	93.71
349.44	116.08
349.823	137.78
350.206	150.89
350.588	207.16
350.971	208.74
351.354	207.61
351.737	221.39
352.119	241.5
352.502	266.36
352.884	252.35
353.267	267.27
353.65	291.67
354.032	298.68
354.414	296.42
354.797	304.55
355.179	299.58
355.562	304.78
355.944	313.59
356.326	316.08
356.709	320.82
357.091	339.36
357.473	317.89
357.855	353.59
358.238	335.29
358.62	326.7
359.002	342.07
359.384	324.21
359.766	328.06
360.148	323.08
360.53	325.8
360.912	328.28
361.294	335.29
361.676	341.84
362.057	316.08
362.439	323.99
362.821	319.47
363.203	306.81
363.584	320.6
363.966	332.58
364.348	318.34
364.729	314.95
365.111	314.05
365.493	294.84
365.874	331.9
366.256	312.69
366.637	312.92
367.019	311.79
367.4	307.72
367.781	323.54
368.163	306.14
368.544	296.64
368.925	305.46
369.306	299.13
369.688	318.34
370.069	304.1
370.45	315.18
370.831	293.93
371.212	323.54
371.593	318.57
371.974	321.73
372.355	306.14
372.736	296.42
373.117	327.15
373.498	302.52
373.879	317.44
374.26	314.95
374.641	315.18
375.021	331.9
375.402	315.85
375.783	309.75
376.163	339.81
376.544	318.11
376.925	312.24
377.305	304.78
377.686	323.08
378.066	323.76
378.447	312.46
378.827	339.81
379.208	330.99
379.588	337.77
379.968	337.1
380.349	347.94
380.729	351.11
381.109	349.98
381.489	336.42
381.87	326.93
382.25	347.94
382.63	342.29
383.01	335.97
383.39	369.86
383.77	338.68
384.15	339.13
384.53	341.62
384.91	352.24
385.29	333.93
385.67	359.24
386.049	359.02
386.429	348.39
386.809	367.6
387.189	335.97
387.568	371.67
387.948	358.11
388.328	363.99
388.707	378.68
389.087	352.01
389.466	375.96
389.846	348.85
390.225	375.96
390.605	369.64
390.984	386.59
391.363	371.22
391.743	371.45
392.122	375.29
392.501	382.52
392.881	409.86
393.26	412.35
393.639	387.72
394.018	376.64
394.397	389.3
394.776	397.43
395.155	408.05
395.534	388.39
395.913	400.37
396.292	395.63
396.671	402.4
397.05	396.3
397.429	405.34
397.808	395.85
398.186	411.9
398.565	411.9
398.944	425.91
399.323	394.04
399.701	424.33
400.08	430.43
400.458	405.12
400.837	426.81
401.215	415.96
401.594	421.84
401.972	442.4
402.351	425.68
402.729	438.56
403.107	429.75
403.486	444.21
403.864	440.82
404.242	436.53
404.62	445.12
404.999	440.37
405.377	459.8
405.755	458.67
406.133	453.7
406.511	435.17
406.889	456.87
407.267	469.07
407.645	471.78
408.023	469.97
408.401	468.84
408.779	477.66
409.156	493.93
409.534	486.02
409.912	489.18
410.29	505.23
410.667	493.02
411.045	502.29
411.422	496.87
411.8	486.02
412.178	506.81
412.555	523.98
412.933	503.19
413.31	520.37
413.687	516.98
414.065	529.41
414.442	540.93
414.819	550.88
415.197	540.71
415.574	552.46
415.951	542.51
416.328	560.59
416.705	554.49
417.082	552.91
417.46	578.22
417.837	575.51
418.214	539.58
418.591	565.11
418.967	565.79
419.344	581.38
419.721	574.83
420.098	592.46
420.475	584.55
420.852	588.16
421.228	588.61
421.605	580.03
421.982	590.65
422.358	609.86
422.735	629.52
423.111	627.03
423.488	613.92
423.864	608.27
424.241	655.73
424.617	630.65
424.994	633.13
425.37	645.11
425.746	633.81
426.123	626.81
426.499	656.18
426.875	669.06
427.251	673.36
427.627	668.39
428.003	668.39
428.379	682.17
428.756	677.65
429.132	716.75
429.507	680.14
429.883	693.92
430.259	717.2
430.635	727.82
431.011	725.79
431.387	728.05
431.763	736.86
432.138	750.42
432.514	787.71
432.89	779.34
433.265	761.27
433.641	767.82
434.016	781.15
434.392	774.82
434.767	789.06
435.143	798.33
435.518	821.38
435.894	817.76
436.269	798.1
436.644	828.38
437.02	827.48
437.395	845.33
437.77	852.34
438.145	845.78
438.52	848.95
438.895	850.53
439.271	864.54
439.646	868.38
440.021	877.42
440.395	893.01
440.77	873.35
441.145	865.67
441.52	923.07
441.895	917.19
442.27	887.36
442.645	922.17
443.019	914.48
443.394	936.63
443.769	921.26
444.143	922.39
444.518	953.12
444.892	959.45
445.267	944.99
445.641	932.33
446.016	970.53
446.39	951.77
446.764	964.2
447.139	977.3
447.513	971.66
447.887	990.41
448.262	955.38
448.636	1006.68
449.01	1005.78
449.384	1000.36
449.758	998.77
450.132	1023.86
450.506	1018.43
450.88	1027.02
451.254	1035.61
451.628	1025.67
452.002	1059.56
452.376	1078.77
452.75	1064.76
453.123	1057.08
453.497	1092.56
453.871	1108.37
454.244	1087.81
454.618	1124.65
454.992	1140.69
455.365	1123.29
455.739	1148.15
456.112	1175.27
456.486	1181.37
456.859	1176.4
457.232	1243.06
457.606	1183.18
457.979	1174.59
458.352	1236.73
458.725	1250.74
459.099	1276.28
459.472	1316.73
459.845	1311.76
460.218	1273.34
460.591	1292.1
460.964	1321.48
461.337	1327.35
461.71	1357.18
462.083	1384.75
462.456	1370.06
462.829	1386.33
463.201	1381.59
463.574	1399.67
463.947	1412.55
464.32	1454.35
464.692	1424.98
465.065	1467.46
465.438	1482.6
465.81	1503.39
466.183	1510.62
466.555	1529.15
466.928	1549.72
467.3	1567.12
467.672	1581.13
468.045	1596.05
468.417	1606.67
468.789	1595.82
469.161	1615.25
469.534	1638.3
469.906	1690.96
470.278	1709.04
470.65	1740.45
471.022	1759.43
471.394	1772.76
471.766	1797.4
472.138	1805.31
472.51	1834.23
472.882	1853.67
473.253	1890.05
473.625	1919.43
473.997	1955.58
474.369	1949.26
474.74	1951.29
475.112	1990.84
475.484	2032.19
475.855	2079.65
476.227	2096.15
476.598	2131.4
476.97	2153.55
477.341	2210.04
477.713	2225.18
478.084	2255.69
478.455	2290.04
478.827	2292.07
479.198	2356.48
479.569	2359.87
479.94	2391.5
480.311	2454.1
480.682	2456.59
481.053	2534.1
481.424	2550.37
481.795	2579.75
482.166	2625.85
482.537	2647.32
482.908	2733.42
483.279	2743.13
483.65	2796.69
484.021	2794.21
484.391	2852.51
484.762	2915.11
485.133	2944.94
485.503	2963.24
485.874	3024.48
486.244	3056.35
486.615	3048.21
486.985	3126.4
487.356	3149.45
487.726	3212.5
488.097	3234.42
488.467	3247.08
488.837	3322.1
489.207	3340.86
489.578	3399.84
489.948	3440.74
490.318	3460.4
490.688	3497.24
491.058	3552.15
491.428	3575.43
491.798	3613.85
492.168	3692.49
492.538	3697.23
492.908	3728.87
493.278	3757.12
493.648	3789.89
494.017	3822.43
494.387	3831.24
494.757	3885.7
495.126	3960.05
495.496	3975.64
495.866	3977.68
496.235	4029.43
496.605	4066.04
496.974	4078.92
497.344	4165.24
497.713	4153.27
498.082	4133.61
498.452	4242.53
498.821	4243.43
499.19	4234.85
499.559	4336.99
499.928	4293.38
500.298	4328.86
500.667	4386.25
501.036	4383.54
501.405	4403.66
501.774	4409.53
502.143	4490.88
502.512	4508.96
502.88	4511.68
503.249	4548.51
503.618	4568.85
503.987	4603.65
504.356	4642.07
504.724	4734.95
505.093	4710.54
505.462	4725.68
505.83	4744.44
506.199	4819.01
506.567	4813.59
506.936	4860.82
507.304	4890.42
507.672	4925.22
508.041	4961.15
508.409	4980.82
508.777	5037.76
509.145	5031.21
509.514	5082.73
509.882	5129.74
510.25	5141.04
510.618	5156.63
510.986	5166.12
511.354	5237.76
511.722	5283.86
512.09	5345.78
512.458	5292.67
512.826	5383.29
513.193	5444.31
513.561	5431.88
513.929	5496.06
514.297	5525.89
514.664	5604.3
515.032	5594.81
515.4	5671.87
515.767	5619.89
516.135	5710.74
516.502	5657.41
516.869	5782.6
517.237	5800.23
517.604	5785.09
517.972	5853.33
518.339	5954.8
518.706	5942.37
519.073	5975.82
519.44	5996.83
519.808	6059.43
520.175	6118.64
520.542	6197.28
520.909	6209.71
521.276	6191.18
521.643	6277.05
522.009	6314.34
522.376	6359.99
522.743	6417.39
523.11	6445.86
523.477	6545.52
523.843	6578.74
524.21	6639.3
524.577	6709.58
524.943	6728.11
525.31	6739.41
525.676	6835.91
526.043	6837.72
526.409	6905.74
526.776	6933.76
527.142	6973.98
527.508	7043.13
527.874	7103.25
528.241	7172.4
528.607	7101.21
528.973	7220.08
529.339	7178.95
529.705	7296.46
530.071	7343.01
530.437	7401.32
530.803	7456.91
531.169	7544.82
531.535	7488.09
531.901	7530.8
532.267	7553.4
532.632	7657.36
532.998	7638.15
533.364	7729.9
533.73	7734.87
534.095	7830.23
534.461	7807.41
534.826	7887.63
535.192	7853.28
535.557	7886.5
535.923	7951.58
536.288	7990.45
536.653	7967.18
537.019	8011.47
537.384	8039.94
537.749	8080.85
538.114	8131.92
538.479	8157.68
538.845	8134.63
539.21	8181.86
539.575	8181.18
539.94	8300.73
540.305	8338.02
540.67	8330.11
541.034	8389.31
541.399	8400.16
541.764	8383.89
542.129	8512.47
542.494	8476.09
542.858	8474.06
543.223	8546.82
543.587	8601.51
543.952	8629.31
544.316	8600.38
544.681	8562.42
545.045	8747.27
545.41	8729.64
545.774	8811
546.138	8730.55
546.503	8836.31
546.867	8854.61
547.231	8886.48
547.595	8926.93
547.959	8968.28
548.324	8962.86
548.688	9023.87
549.052	9073.36
549.416	9023.42
549.779	9096.41
550.143	9080.82
550.507	9176.41
550.871	9129.63
551.235	9247.37
551.599	9215.05
551.962	9295.05
552.326	9334.37
552.689	9422.51
553.053	9326.01
553.417	9372.11
553.78	9484.65
554.143	9443.52
554.507	9491.88
554.87	9616.85
555.234	9613.46
555.597	9686.91
555.96	9706.79
556.323	9722.39
556.686	9747.47
557.05	9783.63
557.413	9888.71
557.776	9920.12
558.139	9912.89
558.502	9991.98
558.865	10083.73
559.228	10155.14
559.59	10116.73
559.953	10213.67
560.316	10247.34
560.679	10297.74
561.041	10297.06
561.404	10350.84
561.767	10520.78
562.129	10409.37
562.492	10538.64
562.854	10612.53
563.217	10615.92
563.579	10640.55
563.941	10760.55
564.304	10807.1
564.666	10804.84
565.028	10860.89
565.39	10888.91
565.753	10993.76
566.115	11094.55
566.477	11139.07
566.839	11125.74
567.201	11169.58
567.563	11255.9
567.925	11350.14
568.287	11278.5
568.648	11371.83
569.01	11403.02
569.372	11471.04
569.734	11430.14
570.095	11568.44
570.457	11683.24
570.819	11660.41
571.18	11666.29
571.542	11770.92
571.903	11900.63
572.265	11839.84
572.626	11979.28
572.987	11979.95
573.349	12016.56
573.71	12130.91
574.071	12148.08
574.432	12226.5
574.794	12286.84
575.155	12319.38
575.516	12281.19
575.877	12377.46
576.238	12365.48
576.599	12477.34
576.96	12513.72
577.32	12549.88
577.681	12581.07
578.042	12653.83
578.403	12606.6
578.763	12705.58
579.124	12694.74
579.485	12796.66
579.845	12852.02
580.206	12837.33
580.566	12898.8
580.927	12852.02
581.287	13019.47
581.648	12916.2
582.008	13036.65
582.368	13047.27
582.728	13078.68
583.089	13213.37
583.449	13150.09
583.809	13158
584.169	13165.01
584.529	13104.9
584.889	13242.97
585.249	13280.26
585.609	13194.61
585.969	13315.51
586.329	13270.09
586.688	13307.15
587.048	13362.74
587.408	13379.92
587.768	13432.12
588.127	13432.34
588.487	13375.62
588.846	13507.14
589.206	13407.71
589.565	13488.39
589.925	13574.71
590.284	13529.07
590.643	13603.64
591.003	13615.62
591.362	13735.61
591.721	13630.76
592.08	13738.55
592.44	13654.03
592.799	13817.65
593.158	13758.89
593.517	13747.36
593.876	13763.64
594.235	13734.26
594.593	13870.07
594.952	13881.6
595.311	13893.58
595.67	13827.36
596.029	13977.19
596.387	14018.54
596.746	13960.01
597.104	13888.83
597.463	13949.39
597.822	14095.38
598.18	14039.79
598.538	13975.38
598.897	14158.65
599.255	14008.37
599.613	14261.48
599.972	14090.63
600.33	14207.47
600.688	14131.08
601.046	14290.4
601.404	14295.6
601.762	14273
602.12	14329.04
602.478	14412.21
602.836	14396.61
603.194	14320
603.552	14366.11
603.91	14335.37
604.268	14442.94
604.625	14390.96
604.983	14492.66
605.341	14342.38
605.698	14458.31
606.056	14529.04
606.413	14541.02
606.771	14629.38
607.128	14610.17
607.485	14618.08
607.843	14580.34
608.2	14688.81
608.557	14739.88
608.914	14668.24
609.272	14664.63
609.629	14740.11
609.986	14859.2
610.343	14845.41
610.7	14927.9
611.057	14863.04
611.414	14896.94
611.771	14903.94
612.127	14894.68
612.484	14941.23
612.841	15003.15
613.198	14937.84
613.554	14997.28
613.911	15074.34
614.267	15016.03
614.624	15111.4
614.98	15100.55
615.337	15192.3
615.693	15099.65
616.05	15197.5
616.406	15189.13
616.762	15163.82
617.118	15133.54
617.475	15121.79
617.831	15260.09
618.187	15242.24
618.543	15270.04
618.899	15335.57
619.255	15291.96
619.611	15346.19
619.967	15374.67
620.323	15458.28
620.678	15356.81
621.034	15428.68
621.39	15338.51
621.746	15353.2
622.101	15432.97
622.457	15369.92
622.812	15372.86
623.168	15451.5
623.523	15463.25
623.879	15559.75
624.234	15366.98
624.589	15499.41
624.945	15552.06
625.3	15504.38
625.655	15483.59
626.01	15487.43
626.365	15568.11
626.72	15443.37
627.075	15528.79
627.43	15542.12
627.785	15459.86
628.14	15559.07
628.495	15552.06
628.85	15482.46
629.205	15373.76
629.559	15460.54
629.914	15441.33
630.269	15405.17
630.623	15432.29
630.978	15378.28
631.332	15383.48
631.687	15466.19
632.041	15502.12
632.396	15379.19
632.75	15363.82
633.104	15437.49
633.459	15296.93
633.813	15348
634.167	15270.71
634.521	15335.8
634.875	15323.37
635.229	15207.67
635.583	15300.77
635.937	15155.92
636.291	15217.83
636.645	15216.03
636.999	15223.26
637.352	15156.59
637.706	15088.57
638.06	15192.3
638.413	15145.75
638.767	15183.26
639.121	15107.55
639.474	15147.78
639.828	15089.02
640.181	15055.8
640.534	15063.49
640.888	15106.65
641.241	15014.9
641.594	15069.14
641.947	15081.79
642.301	15034.79
642.654	14955.02
643.007	15010.61
643.36	15008.35
643.713	15023.26
644.066	15080.66
644.419	15016.03
644.771	14840.44
645.124	14733.55
645.477	14659.2
645.83	14585.31
646.182	14470.28
646.535	14497.63
646.888	14503.5
647.24	14447.91
647.593	14575.37
647.945	14578.98
648.298	14523.84
648.65	14465.31
649.002	14438.87
649.355	14466.44
649.707	14395.26
650.059	14567.91
650.411	14630.96
650.763	14718.64
651.115	14836.6
651.467	14774
651.819	14786.21
652.171	14767.68
652.523	14696.94
652.875	14638.87
653.227	14600.22
653.578	14719.99
653.93	14749.82
654.282	14707.79
654.633	14614.46
654.985	14689.26
655.337	14614.46
655.688	14692.2
656.039	14684.97
656.391	14617.85
656.742	14661.92
657.094	14627.12
657.445	14624.4
657.796	14627.34
658.147	14609.04
658.498	14611.07
658.849	14735.36
659.2	14636.83
659.551	14525.2
659.902	14692.42
660.253	14629.6
660.604	14572.43
660.955	14516.61
661.306	14597.29
661.656	14569.04
662.007	14539.43
662.358	14625.53
662.708	14636.15
663.059	14588.02
663.409	14510.51
663.76	14573.56
664.11	14682.03
664.461	14617.17
664.811	14595.03
665.161	14616.95
665.511	14563.16
665.862	14534.91
666.212	14606.55
666.562	14549.38
666.912	14580.34
667.262	14675.48
667.612	14604.07
667.962	14676.83
668.312	14545.08
668.662	14731.52
669.011	14623.73
669.361	14635.93
669.711	14607
670.06	14608.81
670.41	14539.66
670.76	14491.75
671.109	14617.4
671.459	14508.02
671.808	14585.99
672.157	14535.37
672.507	14560.9
672.856	14514.58
673.205	14542.37
673.554	14607.68
673.904	14522.26
674.253	14654.91
674.602	14480.9
674.951	14244.98
675.3	14274.13
675.649	14556.83
675.998	14512.09
676.346	14489.72
676.695	14575.82
677.044	14411.98
677.393	14475.03
677.741	14481.13
678.09	14454.46
678.438	14441.36
678.787	14337.41
679.135	14432.77
679.484	14350.74
679.832	14352.09
680.181	14389.38
680.529	14342.83
680.877	14338.54
681.225	14334.92
681.573	14303.96
681.922	14304.41
682.27	14212.89
682.618	14263.96
682.966	14208.37
683.314	14217.18
683.661	14166.56
684.009	14181.48
684.357	14072.1
684.705	14097.64
685.053	14028.04
685.4	14041.14
685.748	14017.87
686.095	13967.92
686.443	13992.1
686.79	13979
687.138	13963.4
687.485	13965.21
687.832	13893.12
688.18	13908.26
688.527	13884.99
688.874	13886.12
689.221	13877.3
689.568	13840.47
689.915	13848.83
690.262	13725.67
690.609	13683.19
690.956	13671.43
691.303	13723.86
691.65	13610.42
691.997	13605.22
692.344	13507.37
692.69	13490.2
693.037	13466.24
693.383	13506.92
693.73	13446.58
694.077	13468.95
694.423	13375.17
694.769	13314.61
695.116	13342.4
695.462	13345.34
695.808	13372.46
696.155	13280.94
696.501	13219.92
696.847	13215.85
697.193	13125.91
697.539	13156.65
697.885	13111.45
698.231	13080.94
698.577	13051.34
698.923	13034.84
699.269	12963.43
699.614	12922.98
699.96	12907.84
700.306	12876.65
700.651	12923.43
700.997	12812.47
701.342	12789.2
701.688	12693.15
702.033	12668.52
702.379	12764.11
702.724	12571.58
703.069	12683.66
703.415	12553.5
703.76	12534.97
704.105	12564.57
704.45	12548.75
704.795	12511.92
705.14	12465.82
705.485	12388.98
705.83	12420.85
706.175	12386.27
706.52	12322.32
706.865	12265.6
707.209	12320.28
707.554	12123.68
707.899	12266.05
708.243	12195.09
708.588	12152.6
708.932	12085.04
709.277	12108.09
709.621	12091.81
709.966	12001.42
710.31	12074.41
710.654	11941.31
710.998	11969.11
711.342	12009.33
711.687	11926.4
712.031	11939.95
712.375	11875.55
712.719	11948.09
713.063	11849.56
713.407	11939.95
713.75	11801.88
714.094	11825.16
714.438	11759.62
714.782	11867.41
715.125	11720.3
715.469	11744.93
715.812	11684.37
716.156	11599.4
716.499	11643.47
716.843	11676.46
717.186	11682.79
717.53	11689.79
717.873	11675.1
718.216	11654.54
718.559	11590.13
718.902	11498.16
719.246	11623.8
719.589	11517.82
719.932	11521.21
720.275	11505.39
720.617	11457.93
720.96	11492.96
721.303	11393.53
721.646	11513.07
721.989	11387.88
722.331	11420.87
722.674	11473.3
723.016	11452.74
723.359	11351.72
723.701	11399.4
724.044	11308.11
724.386	11323.47
724.729	11362.34
725.071	11363.25
725.413	11295.23
725.755	11323.02
726.097	11239.41
726.439	11245.74
726.782	11240.54
727.124	11318.73
727.465	11211.16
727.807	11239.18
728.149	11226.75
728.491	11165.74
728.833	11319.41
729.175	11163.25
729.516	11177.94
729.858	11195.12
730.199	11139.3
730.541	11124.61
730.882	11132.07
731.224	11141.78
731.565	11069.24
731.906	11070.82
732.248	11051.62
732.589	11083.25
732.93	11007.55
733.271	11049.81
733.612	10997.38
733.953	11001.67
734.294	11053.65
734.635	11061.79
734.976	11157.6
735.317	10952.18
735.658	10998.06
735.999	11032.86
736.339	10949.7
736.68	11077.6
737.021	11009.58
737.361	10967.1
737.702	11033.09
738.042	10987.44
738.383	10993.99
738.723	11012.97
739.063	10972.3
739.404	10922.58
739.744	11000.77
740.084	10872.64
740.424	10883.94
740.764	10877.16
741.104	10908.34
741.444	10888
741.784	10923.03
742.124	10930.26
742.464	10864.5
742.804	10822.7
743.143	10830.61
743.483	10860.43
743.823	10818.63
744.162	10840.55
744.502	10796.93
744.841	10756.26
745.181	10802.81
745.52	10819.31
745.86	10772.08
746.199	10789.25
746.538	10820.89
746.877	10807.55
747.216	10801.23
747.556	10801
747.895	10791.51
748.234	10743.6
748.573	10742.47
748.911	10776.37
749.25	10775.69
749.589	10678.07
749.928	10729.36
750.267	10716.71
750.605	10668.58
750.944	10610.5
751.283	10618.18
751.621	10687.78
751.96	10539.77
752.298	10638.07
752.636	10646.88
752.975	10573.21
753.313	10563.04
753.651	10588.8
753.989	10517.62
754.327	10553.78
754.666	10427.23
755.004	10487.56
755.342	10525.3
755.679	10464.29
756.017	10429.03
756.355	10470.61
756.693	10366.89
757.031	10384.74
757.368	10386.77
757.706	10354.46
758.044	10362.82
758.381	10394.91
758.719	10312.2
759.056	10278.53
