Data from tablewood_brown_FLMS001491_060.txt Node
Date: Tue Feb 07 11:10:43 GMT 2017
User: dcchb
Spectrometer: FLMS00149
Trigger mode: 0
Integration Time (sec): 2.000000E-2
Scans to average: 10
Electric dark correction enabled: true
Nonlinearity correction enabled: false
Boxcar width: 0
XAxis mode: Wavelengths
Number of Pixels in Spectrum: 2048
>>>>>Begin Spectral Data<<<<<
341.393	-16.51
341.776	-16.51
342.16	-16.51
342.543	-76.4
342.927	-59
343.31	-102.16
343.693	-56.51
344.077	-75.49
344.46	-43.18
344.843	-49.96
345.226	-28.26
345.61	-23.29
345.993	-16.51
346.376	1.57
346.759	26.2
347.142	25.52
347.525	41.34
347.908	54.9
348.291	71.85
348.674	81.79
349.057	92.19
349.44	122.92
349.823	139.64
350.206	176.93
350.588	207.89
350.971	212.86
351.354	231.39
351.737	240.66
352.119	273.65
352.502	258.51
352.884	268.91
353.267	293.31
353.65	277.49
354.032	318.85
354.414	309.81
354.797	315.68
355.179	322.24
355.562	318.85
355.944	350.94
356.326	326.76
356.709	338.96
357.091	362.01
357.473	348
357.855	364.04
358.238	362.24
358.62	350.26
359.002	341.45
359.384	364.5
359.766	352.97
360.148	371.5
360.53	350.71
360.912	344.61
361.294	325.85
361.676	341.67
362.057	348.68
362.439	325.4
362.821	331.73
363.203	363.82
363.584	327.21
363.966	335.57
364.348	320.66
364.729	329.69
365.111	357.04
365.493	329.02
365.874	322.01
366.256	326.76
366.637	325.4
367.019	321.11
367.4	335.12
367.781	332.41
368.163	332.41
368.544	330.37
368.925	332.63
369.306	335.8
369.688	326.08
370.069	330.15
370.45	311.62
370.831	348.23
371.212	334.21
371.593	303.71
371.974	330.15
372.355	312.29
372.736	343.48
373.117	357.04
373.498	332.63
373.879	348.45
374.26	334.67
374.641	334.21
375.021	343.71
375.402	347.77
375.783	327.21
376.163	362.01
376.544	358.62
376.925	346.19
377.305	358.39
377.686	375.57
378.066	355.68
378.447	364.27
378.827	376.47
379.208	368.11
379.588	372.18
379.968	351.16
380.349	370.37
380.729	374.67
381.109	377.6
381.489	352.97
381.87	367.21
382.25	387.55
382.63	377.38
383.01	379.18
383.39	386.42
383.77	379.41
384.15	376.93
384.53	394.1
384.91	382.57
385.29	406.53
385.67	400.65
386.049	412.18
386.429	418.73
386.809	407.43
387.189	406.53
387.568	404.5
387.948	409.92
388.328	420.09
388.707	443.59
389.087	422.57
389.466	418.96
389.846	432.97
390.225	449.24
390.605	425.96
390.984	441.78
391.363	443.36
391.743	444.72
392.122	446.98
392.501	444.95
392.881	460.31
393.26	461.22
393.639	466.41
394.018	468.22
394.397	474.1
394.776	500.54
395.155	457.15
395.534	471.39
395.913	497.15
396.292	496.7
396.671	480.65
397.05	494.44
397.429	522.23
397.808	489.01
398.186	509.35
398.565	525.85
398.944	518.84
399.323	515.23
399.701	540.76
400.08	523.81
400.458	513.87
400.837	522.01
401.215	512.51
401.594	545.06
401.972	544.15
402.351	548.22
402.729	545.51
403.107	568.11
403.486	557.26
403.864	552.06
404.242	565.39
404.62	588.44
404.999	555.9
405.377	599.07
405.755	602
406.133	596.58
406.511	583.7
406.889	609.46
407.267	612.63
407.645	617.6
408.023	635.68
408.401	632.06
408.779	627.09
409.156	642.68
409.534	631.16
409.912	655.11
410.29	670.48
410.667	666.41
411.045	698.95
411.422	674.54
411.8	697.59
412.178	701.89
412.555	703.02
412.933	681.32
413.31	713.19
413.687	721.77
414.065	707.09
414.442	750.93
414.819	734.66
415.197	760.64
415.574	751.6
415.951	787.08
416.328	751.83
416.705	764.49
417.082	764.49
417.46	768.78
417.837	773.07
418.214	785.73
418.591	809
418.967	811.04
419.344	805.16
419.721	835.44
420.098	819.17
420.475	842.45
420.852	826.86
421.228	855.78
421.605	846.74
421.982	858.72
422.358	865.73
422.735	852.39
423.111	879.06
423.488	893.97
423.864	896.23
424.241	919.06
424.617	909.79
424.994	916.12
425.37	916.8
425.746	935.55
426.123	942.11
426.499	956.12
426.875	985.04
427.251	957.02
427.627	1006.29
428.003	982.56
428.379	980.07
428.756	1014.65
429.132	1003.12
429.507	1023.91
429.883	1044.03
430.259	1037.25
430.635	1058.26
431.011	1094.65
431.387	1111.14
431.763	1126.28
432.138	1103.91
432.514	1116.34
432.89	1134.19
433.265	1141.42
433.641	1183.01
434.016	1175.32
434.392	1210.8
434.767	1202.44
435.143	1221.2
435.518	1239.05
435.894	1245.83
436.269	1231.14
436.644	1283.79
437.02	1288.99
437.395	1340.52
437.77	1301.87
438.145	1318.6
438.52	1337.8
438.895	1353.85
439.271	1375.09
439.646	1405.15
440.021	1415.09
440.395	1409.67
440.77	1405.6
441.145	1409.21
441.52	1415.32
441.895	1438.14
442.27	1460.96
442.645	1454.86
443.019	1483.56
443.394	1478.37
443.769	1509.55
444.143	1498.48
444.518	1501.19
444.892	1519.27
445.267	1512.71
445.641	1529.21
446.016	1561.75
446.39	1578.25
446.764	1566.72
447.139	1595.2
447.513	1601.98
447.887	1602.88
448.262	1604.92
448.636	1626.16
449.01	1655.31
449.384	1657.57
449.758	1667.29
450.132	1662.54
450.506	1683.11
450.88	1693.5
451.254	1698.47
451.628	1723.78
452.002	1725.36
452.376	1772.37
452.75	1770.33
453.123	1792.48
453.497	1803.33
453.871	1815.31
454.244	1846.04
454.618	1869.99
454.992	1894.85
455.365	1894.85
455.739	1903.66
456.112	1951.8
456.486	1959.26
456.859	1975.53
457.232	1990.67
457.606	2004
457.979	2069.31
458.352	2095.52
458.725	2110.21
459.099	2095.52
459.472	2131
459.845	2183.21
460.218	2212.81
460.591	2242.19
460.964	2215.29
461.337	2286.93
461.71	2309.53
462.083	2351.56
462.456	2326.7
462.829	2358.34
463.201	2448.51
463.574	2464.33
463.947	2453.71
464.32	2494.16
464.692	2559.92
465.065	2585
465.438	2565.57
465.81	2628.39
466.183	2645.34
466.555	2729.63
466.928	2746.81
467.3	2761.72
467.672	2789.07
468.045	2875.84
468.417	2893.47
468.789	2933.47
469.161	2945.22
469.534	2984.99
469.906	3074.03
470.278	3100.02
470.65	3138.66
471.022	3173.46
471.394	3239.22
471.766	3313.8
472.138	3357.41
472.51	3437.41
472.882	3492.78
473.253	3526.67
473.625	3578.87
473.997	3674.47
474.369	3678.08
474.74	3725.76
475.112	3849.15
475.484	3871.97
475.855	3984.97
476.227	3991.75
476.598	4153.1
476.97	4184.28
477.341	4281
477.713	4391.73
478.084	4449.81
478.455	4565.29
478.827	4626.53
479.198	4724.61
479.569	4754.89
479.94	4863.59
480.311	5026.52
480.682	5065.62
481.053	5191.04
481.424	5320.98
481.795	5345.16
482.166	5438.71
482.537	5547.64
482.908	5639.39
483.279	5745.37
483.65	5835.09
484.021	5960.06
484.391	6091.58
484.762	6094.51
485.133	6174.51
485.503	6250.89
485.874	6381.51
486.244	6489.31
486.615	6593.94
486.985	6694.95
487.356	6822.18
487.726	6919.13
488.097	7000.93
488.467	7095.17
488.837	7283.86
489.207	7380.58
489.578	7447.02
489.948	7485.89
490.318	7593.23
490.688	7713.23
491.058	7820.12
491.428	7896.73
491.798	8031.19
492.168	8188.25
492.538	8194.35
492.908	8308.24
493.278	8365.87
493.648	8428.24
494.017	8549.59
494.387	8599.99
494.757	8709.14
495.126	8850.37
495.496	8856.7
495.866	8965.17
496.235	9092.85
496.605	9115
496.974	9191.38
497.344	9299.4
497.713	9379.63
498.082	9407.87
498.452	9551.83
498.821	9556.12
499.19	9582.11
499.559	9773.74
499.928	9865.49
500.298	9814.42
500.667	9946.39
501.036	9988.2
501.405	10092.6
501.774	10092.38
502.143	10216.89
502.512	10401.29
502.88	10389.77
503.249	10361.75
503.618	10569.88
503.987	10585.47
504.356	10609.88
504.724	10742.75
505.093	10747.73
505.462	10797.22
505.83	10864.33
506.199	10967.16
506.567	11132.8
506.936	11114.27
507.304	11360.14
507.672	11344.55
508.041	11446.46
508.409	11524.88
508.777	11668.61
509.145	11772.33
509.514	11811.65
509.882	11901.37
510.25	11902.72
510.618	12101.59
510.986	12141.36
511.354	12254.58
511.722	12321.7
512.09	12503.39
512.458	12478.08
512.826	12626.55
513.193	12652.53
513.561	12833.09
513.929	12953.54
514.297	13089.36
514.664	13136.36
515.032	13260.43
515.4	13421.55
515.767	13457.71
516.135	13517.14
516.502	13485.28
516.869	13737.7
517.237	13730.02
517.604	13800.75
517.972	13958.26
518.339	14089.11
518.706	14180.86
519.073	14237.58
519.44	14347.18
519.808	14611.81
520.175	14529.1
520.542	14840.73
520.909	14813.16
521.276	14911.01
521.643	15110.1
522.009	15189.64
522.376	15300.37
522.743	15481.39
523.11	15579.46
523.477	15667.14
523.843	15834.37
524.21	16008.38
524.577	16216.73
524.943	16327.24
525.31	16451.3
525.676	16483.39
526.043	16612.2
526.409	16725.42
526.776	16937.62
527.142	17009.48
527.508	17047
527.874	17281.34
528.241	17361.56
528.607	17405.86
528.973	17597.72
529.339	17680.65
529.705	17863.7
530.071	17934.66
530.437	18011.72
530.803	18092.62
531.169	18304.59
531.535	18232.73
531.901	18397.02
532.267	18581.87
532.632	18594.53
532.998	18630.91
533.364	18885.14
533.73	18854.86
534.095	19044
534.461	19163.32
534.826	19178.01
535.192	19319.48
535.557	19498.23
535.923	19366.26
536.288	19526.03
536.653	19644.89
537.019	19577.1
537.384	19714.04
537.749	19815.28
538.114	19855.73
538.479	20025.67
538.845	20039.23
539.21	20158.1
539.575	20109.51
539.94	20362.39
540.305	20349.28
540.67	20288.27
541.034	20473.57
541.399	20627.01
541.764	20657.3
542.129	20650.06
542.494	20812.09
542.858	20796.05
543.223	20978.42
543.587	21022.03
543.952	21018.64
544.316	21128.7
544.681	21078.75
545.045	21231.07
545.41	21386.32
545.774	21401.68
546.138	21514
546.503	21548.35
546.867	21625.63
547.231	21808.9
547.595	21793.31
547.959	21918.73
548.324	22002.35
548.688	22007.54
549.052	22172.28
549.416	22175.67
549.779	22323.92
550.143	22402.56
550.507	22569.79
550.871	22520.3
551.235	22543.12
551.599	22741.53
551.962	22809.78
552.326	23115.31
552.689	23248.64
553.053	23132.71
553.417	23331.58
553.78	23534.73
554.143	23553.49
554.507	23668.06
554.87	23860.6
555.234	24059.92
555.597	23961.62
555.96	24087.94
556.323	24359.35
556.686	24432.56
557.05	24528.83
557.413	24678.66
557.776	24755.27
558.139	25136.5
558.502	25216.72
558.865	25201.58
559.228	25444.06
559.59	25604.06
559.953	25731.29
560.316	25972.41
560.679	26135.57
561.041	26325.62
561.404	26439.06
561.767	26684.26
562.129	26658.49
562.492	27051.93
562.854	27045.83
563.217	27139.16
563.579	27370.11
563.941	27602.2
564.304	27761.52
564.666	28076.31
565.028	28003.32
565.39	28240.15
565.753	28354.72
566.115	28661.38
566.477	28786.57
566.839	29039.22
567.201	29229.5
567.563	29260.91
567.925	29652.31
568.287	29692.54
568.648	29830.84
569.01	30031.96
569.372	30376.14
569.734	30312.18
570.095	30659.52
570.457	30895.22
570.819	30934.09
571.18	31178.83
571.542	31364.81
571.903	31584.92
572.265	31794.63
572.626	31877.11
572.987	32116.2
573.349	32139.03
573.71	32475.74
574.071	32605.91
574.432	32813.81
574.794	32989.4
575.155	33197.08
575.516	33180.13
575.877	33374.93
576.238	33620.34
576.599	33825.31
576.96	33809.94
577.32	33922.71
577.681	34251.51
578.042	34319.99
578.403	34335.35
578.763	34476.59
579.124	34564.27
579.485	34861.67
579.845	35016.69
580.206	35207.2
580.566	35075.22
580.927	35229.34
581.287	35319.06
581.648	35418.72
582.008	35642.89
582.368	35649.9
582.728	35798.37
583.089	35781.42
583.449	35837.24
583.809	35947.29
584.169	36090.34
584.529	36054.63
584.889	36318.13
585.249	36115.87
585.609	36104.12
585.969	36365.58
586.329	36475.18
586.688	36561.51
587.048	36593.37
587.408	36466.82
587.768	36509.08
588.127	36496.2
588.487	36534.62
588.846	36804.89
589.206	36530.55
589.565	36742.3
589.925	36898.22
590.284	36821.39
590.643	36851.22
591.003	37029.97
591.362	37068.84
591.721	37003.31
592.08	37119.91
592.44	37207.37
592.799	37247.37
593.158	37245.56
593.517	37210.76
593.876	37300.93
594.235	37251.21
594.593	37101.61
594.952	37327.59
595.311	37159.69
595.67	37459.57
596.029	37493.01
596.387	37623.63
596.746	37605.78
597.104	37522.39
597.463	37514.93
597.822	37737.3
598.18	37577.3
598.538	37521.94
598.897	37789.73
599.255	37466.57
599.613	38072.66
599.972	37763.29
600.33	37933.9
600.688	37817.97
601.046	37950.85
601.404	38034.24
601.762	37937.97
602.12	38203.28
602.478	38164.41
602.836	38357.17
603.194	37979.1
603.552	38172.32
603.91	38121.24
604.268	38249.83
604.625	38281.92
604.983	38295.25
605.341	38140
605.698	38418.64
606.056	38472.19
606.413	38385.42
606.771	38424.51
607.128	38599.87
607.485	38385.42
607.843	38579.31
608.2	38695.69
608.557	38716.26
608.914	38714.67
609.272	38760.77
609.629	38921.45
609.986	38974.78
610.343	38716.93
610.7	38930.94
611.057	39083.93
611.414	38860.43
611.771	39003.03
612.127	39083.93
612.484	39054.78
612.841	39302.68
613.198	39193.31
613.554	39198.05
613.911	39487.76
614.267	39407.54
614.624	39208.22
614.98	39439.85
615.337	39572.5
615.693	39435.33
616.05	39472.17
616.406	39740.64
616.762	39539.74
617.118	39498.83
617.475	39618.15
617.831	39652.73
618.187	39721.65
618.543	39798.49
618.899	39900.86
619.255	39812.72
619.611	39777.92
619.967	39909.22
620.323	40183.56
620.678	40004.13
621.034	39837.36
621.39	39881.65
621.746	39785.61
622.101	40286.16
622.457	39890.91
622.812	40071.02
623.168	40154.18
623.523	40174.3
623.879	40352.37
624.234	39936.34
624.589	40204.35
624.945	40100.85
625.3	40165.03
625.655	40123.45
626.01	40081.87
626.365	40208.87
626.72	40117.58
627.075	40052.27
627.43	40009.78
627.785	39904.47
628.14	39939.27
628.495	39953.29
628.85	39991.48
629.205	40010.46
629.559	40148.08
629.914	39936.79
630.269	39856.11
630.623	39835.32
630.978	39769.11
631.332	39818.37
631.687	39920.29
632.041	39764.14
632.396	39801.43
632.75	39568.66
633.104	39594.65
633.459	39526.86
633.813	39553.52
634.167	39669.23
634.521	39545.39
634.875	39647.76
635.229	39487.31
635.583	39383.36
635.937	39416.12
636.291	39310.36
636.645	39394.66
636.999	39367.99
637.352	39325.73
637.706	39218.62
638.06	39200.76
638.413	39113.31
638.767	39026.08
639.121	39098.62
639.474	38955.57
639.828	38775.69
640.181	38875.8
640.534	38838.51
640.888	38699.31
641.241	38686.88
641.594	38699.08
641.947	38822.24
642.301	38665.86
642.654	38723.49
643.007	38739.76
643.36	38590.61
643.713	38544.06
644.066	38667.44
644.419	38405.53
644.771	38360.11
645.124	37981.59
645.477	38004.41
645.83	37754.7
646.182	37538.21
646.535	37441.49
646.888	37446.91
647.24	37106.13
647.593	37458.66
647.945	37277.42
648.298	37151.78
648.65	37106.13
649.002	37011.67
649.355	37147.48
649.707	37116.98
650.059	37440.81
650.411	37810.29
650.763	37836.28
651.115	38082.6
651.467	37940.91
651.819	37982.94
652.171	37999.44
652.523	37932.77
652.875	37974.13
653.227	37713.8
653.578	38002.15
653.93	37826.11
654.282	37749.95
654.633	37703.63
654.985	37723.51
655.337	37778.65
655.688	37764.64
656.039	37952.21
656.391	37599.68
656.742	37587.47
657.094	37580.47
657.445	37614.14
657.796	37673.57
658.147	37413.69
658.498	37605.78
658.849	37622.27
659.2	37657.07
659.551	37504.54
659.902	37566.68
660.253	37671.09
660.604	37556.96
660.955	37364.65
661.306	37680.35
661.656	37626.57
662.007	37435.61
662.358	37615.27
662.708	37492.11
663.059	37500.02
663.409	37180.25
663.76	37461.83
664.11	37349.29
664.461	37487.14
664.811	37557.42
665.161	37376.4
665.511	37410.98
665.862	37507.47
666.212	37528.04
666.562	37607.13
666.912	37438.55
667.262	37356.07
667.612	37384.99
667.962	37339.34
668.312	37235.39
668.662	37460.92
669.011	37331.43
669.361	37238.1
669.711	37247.59
670.06	37333.92
670.41	37130.31
670.76	37017.77
671.109	37366.69
671.459	37052.34
671.808	37035.85
672.157	37176.64
672.507	36830.66
672.856	36983.19
673.205	37007.83
673.554	36944.1
673.904	36822.97
674.253	37230.87
674.602	36952.69
674.951	36575.75
675.3	36364.23
675.649	36847.38
675.998	36753.14
676.346	36842.18
676.695	36937.77
677.044	36648.74
677.393	36694.84
677.741	36892.58
678.09	36830.66
678.438	36480.38
678.787	36643.09
679.135	36599.7
679.484	36300.27
679.832	36526.03
680.181	36246.72
680.529	36509.76
680.877	36310.9
681.225	36265.02
681.573	36434.28
681.922	36086.72
682.27	36000.62
682.618	36015.99
682.966	35994.52
683.314	35964.46
683.661	35788.42
684.009	35742.77
684.357	35805.82
684.705	35689.67
685.053	35819.83
685.4	35541.88
685.748	35404.7
686.095	35415.55
686.443	35258.49
686.79	35173.52
687.138	35327.42
687.485	35187.99
687.832	34980.08
688.18	35088.33
688.527	35018.05
688.874	34770.15
689.221	34707.55
689.568	34520.43
689.915	34573.31
690.262	34542.35
690.609	34529.47
690.956	34460.32
691.303	34172.19
691.65	34120.44
691.997	33990.73
692.344	33905.54
692.69	33986.89
693.037	33834.8
693.383	33564.75
693.73	33785.76
694.077	33589.39
694.423	33531.76
694.769	33403.18
695.116	33332.22
695.462	33221.03
695.808	33077.31
696.155	33104.88
696.501	32930.65
696.847	32810.87
697.193	32637.55
697.539	32584.89
697.885	32408.63
698.231	32339.7
698.577	32275.52
698.923	32254.28
699.269	32051.8
699.614	31976.77
699.96	31763.44
700.306	31913.72
700.651	31706.5
700.997	31580.4
701.342	31701.07
701.688	31499.95
702.033	31310.12
702.379	31219.5
702.724	31227.41
703.069	31318.94
703.415	30932.73
703.76	30809.35
704.105	30774.32
704.45	30829.46
704.795	30532.29
705.14	30500.65
705.485	30544.04
705.83	30439.19
706.175	30457.04
706.52	30425.4
706.865	30169.81
707.209	30146.31
707.554	29895.47
707.899	30018.18
708.243	29786.55
708.588	29864.29
708.932	29565.31
709.277	29579.55
709.621	29681.24
709.966	29472.66
710.31	29388.82
710.654	29344.3
710.998	29318.54
711.342	29392.89
711.687	29090.07
712.031	29049.62
712.375	28913.8
712.719	28965.55
713.063	28893.24
713.407	28916.97
713.75	28860.7
714.094	28755.39
714.438	28677.42
714.782	28719.23
715.125	28613.92
715.469	28546.13
715.812	28452.8
716.156	28348.39
716.499	28411.67
716.843	28272.46
717.186	28106.59
717.53	28317.21
717.873	28234.5
718.216	28271.78
718.559	28052.81
718.902	27921.74
719.246	28031.79
719.589	27909.53
719.932	27765.81
720.275	27808.97
720.617	27855.75
720.96	27785.7
721.303	27813.72
721.646	27823.21
721.989	27630.22
722.331	27753.15
722.674	27570.56
723.016	27631.35
723.359	27652.59
723.701	27619.6
724.044	27466.38
724.386	27326.95
724.729	27442.2
725.071	27373.5
725.413	27420.96
725.755	27342.09
726.097	27274.07
726.439	27174.64
726.782	27180.97
727.124	27312.04
727.465	27104.58
727.807	27074.75
728.149	27097.8
728.491	27077.01
728.833	27009.9
729.175	27109.1
729.516	26920.18
729.858	27005.15
730.199	27064.81
730.541	26916.34
730.882	26976.9
731.224	27220.06
731.565	26880.41
731.906	26806.51
732.248	26797.02
732.589	26854.87
732.93	26738.49
733.271	26797.02
733.612	26874.99
733.953	26805.38
734.294	26728.77
734.635	26804.93
734.976	26700.53
735.317	26660.3
735.658	26659.85
735.999	26553.64
736.339	26573.75
736.68	26739.4
737.021	26542.34
737.361	26463.02
737.702	26576.24
738.042	26578.27
738.383	26453.98
738.723	26495.56
739.063	26490.59
739.404	26495.33
739.744	26478.16
740.084	26429.12
740.424	26456.69
740.764	26495.33
741.104	26578.72
741.444	26364.72
741.784	26337.6
742.124	26416.24
742.464	26357.48
742.804	26236.58
743.143	26248.11
743.483	26318.62
743.823	26234.78
744.162	26147.32
744.502	26357.94
744.841	26217.83
745.181	26282.01
745.52	26179.64
745.86	26256.24
746.199	26145.74
746.538	26188.45
746.877	26306.64
747.216	26246.98
747.556	26103.48
747.895	26157.04
748.234	26067.32
748.573	26045.18
748.911	26017.38
749.25	26089.47
749.589	25882.24
749.928	25910.49
750.267	26061.22
750.605	25936.71
750.944	25981.9
751.283	25848.57
751.621	25887.44
751.96	25783.94
752.298	25843.83
752.636	25825.97
752.975	25661.68
753.313	25565.64
753.651	25709.59
753.989	25494.46
754.327	25480.9
754.666	25477.06
755.004	25393.89
