Data from tablewood_dark_bookshelf_FLMS001491_00009.txt Node
Date: Wed Feb 08 14:13:20 GMT 2017
User: dcchb
Spectrometer: FLMS00149
Trigger mode: 0
Integration Time (sec): 2.000000E-2
Scans to average: 10
Electric dark correction enabled: true
Nonlinearity correction enabled: false
Boxcar width: 0
XAxis mode: Wavelengths
Number of Pixels in Spectrum: 2048
>>>>>Begin Spectral Data<<<<<
341.393	-19.11
341.776	-19.11
342.16	-19.11
342.543	-59.79
342.927	-69.96
343.31	-74.93
343.693	-72.22
344.077	-65.21
344.46	-56.85
344.843	-71.09
345.226	-47.81
345.61	-39.22
345.993	-22.95
346.376	2.81
346.759	23.38
347.142	31.28
347.525	62.92
347.908	61.11
348.291	66.99
348.674	84.16
349.057	117.61
349.44	123.26
349.823	134.78
350.206	153.99
350.588	179.53
350.971	189.25
351.354	230.38
351.737	218.4
352.119	231.05
352.502	252.3
352.884	255.69
353.267	264.05
353.65	294.78
354.032	304.5
354.414	292.52
354.797	294.1
355.179	321.45
355.562	323.03
355.944	316.25
356.326	306.53
356.709	332.07
357.091	322.12
357.473	314.44
357.855	319.64
358.238	313.08
358.62	340.88
359.002	327.32
359.384	332.75
359.766	319.86
360.148	336.59
360.53	332.75
360.912	336.36
361.294	324.16
361.676	342.46
362.057	330.71
362.439	319.41
362.821	341.11
363.203	321.9
363.584	307.89
363.966	319.19
364.348	324.84
364.729	325.29
365.111	323.93
365.493	293.65
365.874	302.92
366.256	323.71
366.637	314.44
367.019	316.93
367.4	301.33
367.781	321.45
368.163	323.71
368.544	301.11
368.925	332.07
369.306	321.9
369.688	330.94
370.069	297.49
370.45	315.12
370.831	306.98
371.212	332.07
371.593	311.05
371.974	328.23
372.355	324.61
372.736	343.59
373.117	327.77
373.498	293.42
373.879	327.55
374.26	312.86
374.641	307.89
375.021	332.52
375.402	321.22
375.783	327.77
376.163	368
376.544	344.72
376.925	342.24
377.305	353.08
377.686	339.3
378.066	345.17
378.447	340.88
378.827	351.5
379.208	351.95
379.588	351.73
379.968	330.26
380.349	349.24
380.729	347.21
381.109	331.16
381.489	345.17
381.87	356.93
382.25	370.26
382.63	376.81
383.01	356.02
383.39	375
383.77	366.64
384.15	375
384.53	386.53
384.91	368.22
385.29	383.59
385.67	389.47
386.049	364.61
386.429	398.28
386.809	393.08
387.189	374.1
387.568	405.29
387.948	389.02
388.328	408
388.707	393.53
389.087	412.52
389.466	394.44
389.846	411.16
390.225	409.13
390.605	424.04
390.984	411.16
391.363	421.56
391.743	409.58
392.122	407.77
392.501	393.53
392.881	397.83
393.26	436.7
393.639	444.15
394.018	430.82
394.397	456.36
394.776	410.03
395.155	448.22
395.534	435.57
395.913	451.61
396.292	451.84
396.671	460.43
397.05	438.28
397.429	449.58
397.808	452.29
398.186	450.48
398.565	458.84
398.944	447.09
399.323	472.18
399.701	480.99
400.08	483.93
400.458	483.7
400.837	484.38
401.215	481.22
401.594	481.22
401.972	495.68
402.351	498.84
402.729	506.75
403.107	493.19
403.486	485.96
403.864	512.85
404.242	485.28
404.62	512.85
404.999	520.54
405.377	521.67
405.755	535.9
406.133	527.32
406.511	541.78
406.889	537.03
407.267	548.79
407.645	557.6
408.023	555.34
408.401	551.5
408.779	575.9
409.156	588.56
409.534	570.71
409.912	577.71
410.29	586.98
410.667	577.48
411.045	590.37
411.422	601.66
411.8	617.48
412.178	617.48
412.555	622
412.933	624.26
413.31	620.87
413.687	638.27
414.065	632.62
414.442	634.43
414.819	674.88
415.197	642.79
415.574	682.57
415.951	666.97
416.328	689.8
416.705	687.76
417.082	695.67
417.46	695.67
417.837	703.36
418.214	695.45
418.591	705.17
418.967	726.63
419.344	710.81
419.721	720.08
420.098	720.53
420.475	715.33
420.852	714.88
421.228	749.68
421.605	740.87
421.982	762.34
422.358	785.61
422.735	801.21
423.111	765.95
423.488	769.34
423.864	788.33
424.241	794.65
424.617	814.77
424.994	800.08
425.37	800.53
425.746	808.44
426.123	832.62
426.499	830.81
426.875	827.42
427.251	859.74
427.627	883.01
428.003	879.85
428.379	887.31
428.756	883.92
429.132	903.13
429.507	918.49
429.883	911.71
430.259	935.89
430.635	945.16
431.011	930.7
431.387	983.8
431.763	994.2
432.138	986.29
432.514	1005.72
432.89	1013.41
433.265	1008.66
433.641	1028.55
434.016	1016.8
434.392	1039.39
434.767	1066.96
435.143	1081.88
435.518	1077.36
435.894	1077.13
436.269	1081.88
436.644	1105.83
437.02	1127.53
437.395	1125.49
437.77	1130.69
438.145	1164.81
438.52	1156.68
438.895	1172.27
439.271	1174.98
439.646	1201.2
440.021	1206.85
440.395	1212.5
440.77	1214.98
441.145	1227.64
441.52	1254.76
441.895	1267.86
442.27	1240.29
442.645	1260.4
443.019	1271.25
443.394	1266.73
443.769	1290.23
444.143	1270.12
444.518	1307.86
444.892	1296.56
445.267	1303.12
445.641	1333.85
446.016	1322.32
446.39	1317.58
446.764	1346.73
447.139	1357.13
447.513	1369.55
447.887	1378.14
448.262	1371.36
448.636	1386.5
449.01	1390.34
449.384	1403.23
449.758	1454.52
450.132	1447.97
450.506	1470.57
450.88	1439.61
451.254	1441.87
451.628	1483
452.002	1466.95
452.376	1527.74
452.75	1544.69
453.123	1533.84
453.497	1556.44
453.871	1581.98
454.244	1608.42
454.618	1606.16
454.992	1614.52
455.365	1607.51
455.739	1647.29
456.112	1690.45
456.486	1704.01
456.859	1682.77
457.232	1727.29
457.606	1727.06
457.979	1745.14
458.352	1812.48
458.725	1801.86
459.099	1818.13
459.472	1844.12
459.845	1873.04
460.218	1884.34
460.591	1896.32
460.964	1911.46
461.337	1934.74
461.71	1987.39
462.083	1985.13
462.456	1992.59
462.829	2033.72
463.201	2038.69
463.574	2064.9
463.947	2097.9
464.32	2156.65
464.692	2155.52
465.065	2144.22
465.438	2198.01
465.81	2241.62
466.183	2224.45
466.555	2306.48
466.928	2300.6
467.3	2354.39
467.672	2341.51
468.045	2399.13
468.417	2411.33
468.789	2421.73
469.161	2458.11
469.534	2485.91
469.906	2528.39
470.278	2560.71
470.65	2607.26
471.022	2667.15
471.394	2672.12
471.766	2675.96
472.138	2729.29
472.51	2774.49
472.882	2831.66
473.253	2868.72
473.625	2899.46
473.997	2919.8
474.369	2955.05
474.74	2993.24
475.112	3058.1
475.484	3087.02
475.855	3121.82
476.227	3181.71
476.598	3293.35
476.97	3280.46
477.341	3361.82
477.713	3395.04
478.084	3404.53
478.455	3516.62
478.827	3541.25
479.198	3642.71
479.569	3643.39
479.94	3738.53
480.311	3785.31
480.682	3882.48
481.053	3921.8
481.424	3991.86
481.795	4024.85
482.166	4098.3
482.537	4128.58
482.908	4202.47
483.279	4235.69
483.65	4335.13
484.021	4397.72
484.391	4462.35
484.762	4514.33
485.133	4582.8
485.503	4627.77
485.874	4708
486.244	4743.48
486.615	4842.01
486.985	4926.52
487.356	4959.74
487.726	5011.49
488.097	5112.28
488.467	5136.24
488.837	5253.97
489.207	5275.89
489.578	5378.71
489.948	5364.25
490.318	5521.76
490.688	5517.69
491.058	5570.8
491.428	5676.56
491.798	5705.49
492.168	5826.61
492.538	5792.49
492.908	5910.9
493.278	5997.68
493.648	6026.83
494.017	6069.54
494.387	6118.36
494.757	6191.8
495.126	6271.57
495.496	6306.37
495.866	6317.45
496.235	6418.69
496.605	6517.44
496.974	6498.91
497.344	6537.55
497.713	6602.41
498.082	6643.77
498.452	6731
498.821	6757.89
499.19	6775.29
499.559	6856.87
499.928	6909.3
500.298	6908.17
500.667	7019.12
501.036	7016.41
501.405	7102.74
501.774	7127.14
502.143	7191.55
502.512	7187.03
502.88	7257.99
503.249	7309.51
503.618	7286.91
503.987	7398.1
504.356	7504.53
504.724	7517.42
505.093	7566
505.462	7610.07
505.83	7668.82
506.199	7693.46
506.567	7813.45
506.936	7839.67
507.304	7884.86
507.672	7932.09
508.041	8034.92
508.409	8023.62
508.777	8105.87
509.145	8158.75
509.514	8206.89
509.882	8256.83
510.25	8234.46
510.618	8344.74
510.986	8389.48
511.354	8496.82
511.722	8571.4
512.09	8591.74
512.458	8608.23
512.826	8702.92
513.193	8771.85
513.561	8869.47
513.929	8872.86
514.297	8986.3
514.664	9000.31
515.032	9062.23
515.4	9134.32
515.767	9196.69
516.135	9256.13
516.502	9229.46
516.869	9408.21
517.237	9385.39
517.604	9470.58
517.972	9567.98
518.339	9598.49
518.706	9647.98
519.073	9683.46
519.44	9833.96
519.808	9961.42
520.175	9942.44
520.542	10048.2
520.909	10137.46
521.276	10078.03
521.643	10207.06
522.009	10322.77
522.376	10417.9
522.743	10426.04
523.11	10526.15
523.477	10725.24
523.843	10716.2
524.21	10861.96
524.577	10971.56
524.943	10995.29
525.31	11059.02
525.676	11185.79
526.043	11130.65
526.409	11357.54
526.776	11397.31
527.142	11447.03
527.508	11511.43
527.874	11589.4
528.241	11729.73
528.607	11677.76
528.973	11855.61
529.339	11743.29
529.705	11973.12
530.071	12080.91
530.437	12127.92
530.803	12195.48
531.169	12267.57
531.535	12226.44
531.901	12323.62
532.267	12429.83
532.632	12527
532.998	12528.13
533.364	12630.95
533.73	12626.89
534.095	12719.76
534.461	12847.22
534.826	12969.48
535.192	12976.71
535.557	13062.35
535.923	12973.09
536.288	13186.19
536.653	13171.05
537.019	13196.36
537.384	13243.82
537.749	13282.01
538.114	13447.43
538.479	13426.86
538.845	13477.48
539.21	13476.58
539.575	13506.41
539.94	13632.28
540.305	13695.33
540.67	13591.38
541.034	13714.09
541.399	13806.52
541.764	13887.42
542.129	13921.31
542.494	13978.49
542.858	14073.63
543.223	14030.46
543.587	14056
543.952	14096.68
544.316	14097.81
544.681	14127.64
545.045	14211.02
545.41	14348.65
545.774	14340.06
546.138	14470.23
546.503	14484.92
546.867	14527.63
547.231	14581.86
547.595	14566.72
547.959	14741.86
548.324	14669.77
548.688	14798.13
549.052	14863.66
549.416	14832.03
549.779	14837
550.143	14946.6
550.507	15008.07
550.871	15127.16
551.235	15187.5
551.599	15235.86
551.962	15282.63
552.326	15338.68
552.689	15383.65
553.053	15384.33
553.417	15414.16
553.78	15614.83
554.143	15587.03
554.507	15718.56
554.87	15806.46
555.234	15940.24
555.597	15831.77
555.96	16038.32
556.323	16048.94
556.686	16036.06
557.05	16154.25
557.413	16254.36
557.776	16247.58
558.139	16438.54
558.502	16419.1
558.865	16427.46
559.228	16558.99
559.59	16618.19
559.953	16709.04
560.316	16849.37
560.679	16928.24
561.041	16953.1
561.404	17053.44
561.767	17132.76
562.129	17083.04
562.492	17340.21
562.854	17385.18
563.217	17347.44
563.579	17451.84
563.941	17521.67
564.304	17703.14
564.666	17766.64
565.028	17822.46
565.39	17943.13
565.753	18033.3
566.115	18073.52
566.477	18169.11
566.839	18224.93
567.201	18408.2
567.563	18360.75
567.925	18591.47
568.287	18507.63
568.648	18540.85
569.01	18660.63
569.372	18895.42
569.734	18928.41
570.095	18916.66
570.457	19048.19
570.819	19067.62
571.18	19155.08
571.542	19227.84
571.903	19246.82
572.265	19324.11
572.626	19460.83
572.987	19590.09
573.349	19631
573.71	19766.58
574.071	19716.64
574.432	19879.12
574.794	19961.83
575.155	19973.81
575.516	19976.3
575.877	20022.85
576.238	20192.79
576.599	20243.18
576.96	20304.88
577.32	20323.86
577.681	20365.67
578.042	20509.84
578.403	20435.49
578.763	20458.54
579.124	20530.63
579.485	20776.5
579.845	20798.2
580.206	20745.99
580.566	20798.65
580.927	20794.58
581.287	20961.58
581.648	20809.04
582.008	20969.72
582.368	20966.55
582.728	21055.14
583.089	20984.63
583.449	21097.62
583.809	21164.97
584.169	21232.08
584.529	21131.29
584.889	21235.47
585.249	21274.34
585.609	21188.92
585.969	21350.95
586.329	21352.53
586.688	21418.29
587.048	21377.39
587.408	21378.07
587.768	21412.42
588.127	21274.12
588.487	21435.69
588.846	21584.84
589.206	21496.26
589.565	21504.39
589.925	21582.81
590.284	21630.49
590.643	21597.27
591.003	21735.35
591.362	21862.35
591.721	21718.62
592.08	21777.15
592.44	21857.15
592.799	21853.31
593.158	21882.91
593.517	22002.68
593.876	21905.96
594.235	21956.81
594.593	22014.89
594.952	22075.45
595.311	21900.09
595.67	22034.55
596.029	22216.92
596.387	22145.51
596.746	22181.66
597.104	22094.43
597.463	22178.72
597.822	22180.31
598.18	22217.59
598.538	22183.92
598.897	22371.94
599.255	22345.5
599.613	22498.04
599.972	22318.61
600.33	22485.38
600.688	22351.38
601.046	22491.48
601.404	22662.33
601.762	22598.83
602.12	22614.19
602.478	22624.81
602.836	22736.9
603.194	22583.46
603.552	22702.78
603.91	22636.11
604.268	22689.45
604.625	22711.82
604.983	22783.45
605.341	22743
605.698	22891.02
606.056	22961.76
606.413	22928.31
606.771	22947.52
607.128	23037.01
607.485	22899.61
607.843	22874.3
608.2	23100.51
608.557	23169.21
608.914	23057.12
609.272	23147.96
609.629	23406.49
609.986	23310.67
610.343	23290.11
610.7	23481.06
611.057	23420.73
611.414	23426.83
611.771	23514.28
612.127	23541.17
612.484	23407.62
612.841	23517.9
613.198	23474.28
613.554	23536.2
613.911	23804.22
614.267	23714.05
614.624	23629.99
614.98	23637.9
615.337	23783.43
615.693	23776.42
616.05	23697.55
616.406	23972.8
616.762	23770.32
617.118	23856.87
617.475	23872.24
617.831	23873.14
618.187	24053.25
618.543	23982.97
618.899	24098.45
619.255	24078.56
619.611	24026.59
619.967	24186.13
620.323	24124.66
620.678	24016.87
621.034	24037.66
621.39	24006.25
621.746	23945.68
622.101	24384.09
622.457	24092.57
622.812	24126.7
623.168	24247.6
623.523	24248.27
623.879	24249.18
624.234	24219.35
624.589	24322.62
624.945	24264.32
625.3	24332.57
625.655	24321.27
626.01	24302.28
626.365	24227.94
626.72	24211.89
627.075	24291.66
627.43	24237.65
627.785	24109.07
628.14	24250.99
628.495	24229.07
628.85	24109.75
629.205	24069.3
629.559	24280.59
629.914	24167.15
630.269	24175.06
630.623	24022.97
630.978	24093.7
631.332	24080.82
631.687	24278.56
632.041	24063.65
632.396	24109.75
632.75	24040.6
633.104	24070.43
633.459	23952.69
633.813	23962.63
634.167	23928.96
634.521	23971.22
634.875	23956.08
635.229	23916.31
635.583	23810.55
635.937	23825.24
636.291	23723.09
636.645	23723.77
636.999	23796.76
637.352	23897.1
637.706	23641.74
638.06	23735.29
638.413	23655.75
638.767	23602.19
639.121	23645.58
639.474	23420.05
639.828	23531.23
640.181	23506.15
640.534	23544.79
640.888	23440.16
641.241	23312.93
641.594	23442.19
641.947	23601.51
642.301	23476.77
642.654	23443.1
643.007	23478.13
643.36	23364
643.713	23364.91
644.066	23411.91
644.419	23298.7
644.771	23178.47
645.124	22960.63
645.477	23049.44
645.83	22891.02
646.182	22636.11
646.535	22629.11
646.888	22686.96
647.24	22377.82
647.593	22665.49
647.945	22423.92
648.298	22385.27
648.65	22361.09
649.002	22234.99
649.355	22358.61
649.707	22423.69
650.059	22387.76
650.411	22739.16
650.763	22763.57
651.115	23084.24
651.467	22919.5
651.819	22948.2
652.171	22912.49
652.523	22911.13
652.875	22850.57
653.227	22744.36
653.578	22769.9
653.93	22830.01
654.282	22849.44
654.633	22760.18
654.985	22816.22
655.337	22647.64
655.688	22669.11
656.039	22724.47
656.391	22604.25
656.742	22605.83
657.094	22624.36
657.445	22793.17
657.796	22715.66
658.147	22659.62
658.498	22635.66
658.849	22749.56
659.2	22739.16
659.551	22618.71
659.902	22778.48
660.253	22577.58
660.604	22665.04
660.955	22461.66
661.306	22653.97
661.656	22601.99
662.007	22634.08
662.358	22691.48
662.708	22608.32
663.059	22628.2
663.409	22484.03
663.76	22618.04
664.11	22584.14
664.461	22571.93
664.811	22605.15
665.161	22508.21
665.511	22490.13
665.862	22628.88
666.212	22611.48
666.562	22580.52
666.912	22463.01
667.262	22493.52
667.612	22605.83
667.962	22549.11
668.312	22454.65
668.662	22611.26
669.011	22495.1
669.361	22598.83
669.711	22484.03
670.06	22482.9
670.41	22467.53
670.76	22439.06
671.109	22467.08
671.459	22578.49
671.808	22310.92
672.157	22382.34
672.507	22329.46
672.856	22340.98
673.205	22278.61
673.554	22394.54
673.904	22342.56
674.253	22422.33
674.602	22358.61
674.951	21989.8
675.3	21922.01
675.649	22315.9
675.998	22345.05
676.346	22271.83
676.695	22372.84
677.044	22226.18
677.393	22208.78
677.741	22283.13
678.09	22164.94
678.438	22105.73
678.787	22198.61
679.135	22146.41
679.484	22016.24
679.832	22136.92
680.181	22032.29
680.529	22032.51
680.877	22032.51
681.225	22040.88
681.573	22282.45
681.922	22039.52
682.27	22040.65
682.618	22044.72
682.966	21924.72
683.314	21881.11
683.661	21787.32
684.009	21746.19
684.357	21596.14
684.705	21626.87
685.053	21806.98
685.4	21641.56
685.748	21531.74
686.095	21544.62
686.443	21458.29
686.79	21389.59
687.138	21510.72
687.485	21514.11
687.832	21444.05
688.18	21461
688.527	21317.73
688.874	21152.76
689.221	21202.48
689.568	21266.88
689.915	21136.72
690.262	21196.15
690.609	21180.78
690.956	20986.44
691.303	21002.48
691.65	20907.35
691.997	20931.98
692.344	20655.15
692.69	20707.8
693.037	20688.82
693.383	20520.24
693.73	20645.88
694.077	20543.74
694.423	20500.8
694.769	20447.24
695.116	20368.83
695.462	20424.87
695.808	20292.67
696.155	20404.99
696.501	20199.34
696.847	20237.08
697.193	20103.98
697.539	20191.21
697.885	19934.72
698.231	19909.18
698.577	19866.24
698.923	19910.54
699.269	19797.77
699.614	19815.17
699.96	19715.74
700.306	19765.91
700.651	19614.27
700.997	19554.39
701.342	19565.01
701.688	19526.59
702.033	19414.05
702.379	19380.83
702.724	19386.48
703.069	19444.79
703.415	19249.99
703.76	19167.28
704.105	19276.2
704.45	19120.73
704.795	19091.35
705.14	18960.73
705.485	18996.44
705.83	18854.97
706.175	18945.82
706.52	18820.85
706.865	18757.12
707.209	18769.55
707.554	18694.97
707.899	18764.8
708.243	18631.93
708.588	18534.53
708.932	18557.35
709.277	18510.12
709.621	18527.52
709.966	18391.48
710.31	18421.54
710.654	18177.93
710.998	18303.8
711.342	18270.13
711.687	18359.62
712.031	18201.88
712.375	18067.65
712.719	18262.44
713.063	18152.16
713.407	18146.29
713.75	18079.4
714.094	18049.79
714.438	17970.7
714.782	17956.91
715.125	17826.52
715.469	17997.59
715.812	17828.33
716.156	17688.9
716.499	17802.34
716.843	17814.32
717.186	17678.28
717.53	17790.59
717.873	17795.56
718.216	17803.02
718.559	17627.43
718.902	17576.36
719.246	17647.32
719.589	17472.18
719.932	17374.33
720.275	17481.45
720.617	17504.05
720.96	17476.02
721.303	17393.77
721.646	17516.93
721.989	17389.92
722.331	17378.85
722.674	17410.04
723.016	17377.27
723.359	17285.07
723.701	17292.75
724.044	17243.26
724.386	17153.77
724.729	17246.65
725.071	17198.97
725.413	17210.95
725.755	17155.13
726.097	17078.29
726.439	16951.29
726.782	17111.51
727.124	17078.07
727.465	16961.69
727.807	16953.55
728.149	16925.76
728.491	16919.2
728.833	16935.92
729.175	16815.02
729.516	16828.58
729.858	16928.69
730.199	16865.64
730.541	16921.01
730.882	16937.96
731.224	16973.66
731.565	16730.96
731.906	16725.99
732.248	16731.18
732.589	16738.87
732.93	16724.63
733.271	16600.34
733.612	16634.46
733.953	16710.17
734.294	16580.91
734.635	16546.56
734.976	16602.37
735.317	16553.34
735.658	16490.74
735.999	16471.3
736.339	16482.6
736.68	16559.89
737.021	16517.18
737.361	16425.2
737.702	16455.49
738.042	16493.68
738.383	16412.77
738.723	16464.98
739.063	16391.08
739.404	16394.02
739.744	16311.99
740.084	16286.68
740.424	16460.91
740.764	16282.61
741.104	16410.74
741.444	16197.87
741.784	16171.65
742.124	16311.08
742.464	16243.29
742.804	16201.48
743.143	16119.9
743.483	16108.83
743.823	16119
744.162	16163.52
744.502	16130.75
744.841	16075.83
745.181	16144.53
745.52	16108.38
745.86	16145.21
746.199	16002.16
746.538	16079.45
746.877	16129.84
747.216	15913.8
747.556	16043.29
747.895	15899.57
748.234	15912.22
748.573	15878.1
748.911	15918.55
749.25	15902.05
749.589	15816.18
749.928	15784.99
750.267	15867.93
750.605	15798.78
750.944	15779.12
751.283	15773.7
751.621	15818.89
751.96	15702.28
752.298	15563.08
752.636	15699.35
752.975	15632.23
753.313	15639.46
753.651	15640.14
753.989	15624.32
754.327	15548.39
754.666	15432.46
755.004	15459.35
755.342	15463.65
755.679	15403.54
756.017	15275.63
