Data from tablewood_brown_FLMS001491_023.txt Node
Date: Tue Feb 07 11:10:14 GMT 2017
User: dcchb
Spectrometer: FLMS00149
Trigger mode: 0
Integration Time (sec): 2.000000E-2
Scans to average: 10
Electric dark correction enabled: true
Nonlinearity correction enabled: false
Boxcar width: 0
XAxis mode: Wavelengths
Number of Pixels in Spectrum: 2048
>>>>>Begin Spectral Data<<<<<
341.393	-3.01
341.776	-3.01
342.16	-3.01
342.543	-65.15
342.927	-68.77
343.31	-90.24
343.693	-68.77
344.077	-59.28
344.46	-79.84
344.843	-42.56
345.226	-28.32
345.61	-14.76
345.993	-10.24
346.376	-1.2
346.759	18.01
347.142	21.17
347.525	39.7
347.908	44.22
348.291	74.5
348.674	91.45
349.057	106.14
349.44	126.71
349.823	139.81
350.206	174.84
350.588	194.95
350.971	209.19
351.354	245.8
351.737	229.98
352.119	265.01
352.502	260.94
352.884	267.72
353.267	285.35
353.65	288.28
354.032	320.6
354.414	295.06
354.797	316.98
355.179	323.08
355.562	331.22
355.944	340.26
356.326	332.8
356.709	343.2
357.091	350.65
357.473	344.55
357.855	344.78
358.238	355.85
358.62	338.23
359.002	341.84
359.384	341.62
359.766	341.39
360.148	344.78
360.53	348.85
360.912	355.63
361.294	349.75
361.676	342.29
362.057	331.22
362.439	337.77
362.821	321.73
363.203	335.29
363.584	331.22
363.966	345.01
364.348	333.93
364.729	331.22
365.111	335.74
365.493	341.84
365.874	340.49
366.256	314.95
366.637	307.27
367.019	315.63
367.4	311.79
367.781	314.5
368.163	340.94
368.544	325.34
368.925	321.95
369.306	319.02
369.688	297.1
370.069	325.8
370.45	300.26
370.831	312.24
371.212	323.08
371.593	324.21
371.974	306.36
372.355	319.92
372.736	346.81
373.117	335.97
373.498	331.22
373.879	326.7
374.26	347.94
374.641	327.38
375.021	315.4
375.402	324.67
375.783	352.69
376.163	339.58
376.544	349.07
376.925	338.23
377.305	330.32
377.686	325.34
378.066	334.38
378.447	337.55
378.827	351.11
379.208	329.41
379.588	354.04
379.968	330.09
380.349	356.3
380.729	346.81
381.109	348.17
381.489	356.98
381.87	356.3
382.25	370.54
382.63	372.8
383.01	359.69
383.39	367.6
383.77	357.43
384.15	348.62
384.53	360.6
384.91	368.06
385.29	363.54
385.67	373.25
386.049	392.24
386.429	384.1
386.809	388.85
387.189	378.45
387.568	381.61
387.948	388.17
388.328	396.76
388.707	381.84
389.087	407.38
389.466	400.14
389.846	424.78
390.225	396.08
390.605	388.62
390.984	427.71
391.363	400.37
391.743	417.55
392.122	411.9
392.501	415.74
392.881	434.72
393.26	417.55
393.639	403.76
394.018	433.59
394.397	416.64
394.776	449.64
395.155	435.17
395.534	413.93
395.913	447.38
396.292	458.22
396.671	463.19
397.05	482.63
397.429	440.14
397.808	450.99
398.186	448.96
398.565	448.96
398.944	459.13
399.323	458.67
399.701	458.22
400.08	486.92
400.458	471.56
400.837	461.61
401.215	475.62
401.594	485.34
401.972	458.22
402.351	472.23
402.729	491.89
403.107	520.14
403.486	516.53
403.864	499.13
404.242	499.58
404.62	512.68
404.999	506.81
405.377	500.03
405.755	516.3
406.133	552.01
406.511	535.06
406.889	529.18
407.267	533.47
407.645	541.84
408.023	551.78
408.401	539.58
408.779	545.45
409.156	569.86
409.534	544.77
409.912	556.75
410.29	564.43
410.667	589.74
411.045	584.32
411.422	598.56
411.8	587.26
412.178	587.71
412.555	601.04
412.933	606.47
413.31	602.63
413.687	607.6
414.065	625.68
414.442	616.18
414.819	634.04
415.197	633.13
415.574	626.13
415.951	632.91
416.328	652.79
416.705	648.5
417.082	655.96
417.46	648.27
417.837	656.18
418.214	668.16
418.591	672.23
418.967	656.64
419.344	674.49
419.721	662.06
420.098	656.18
420.475	717.65
420.852	696.41
421.228	711.32
421.605	713.81
421.982	720.36
422.358	727.59
422.735	738.22
423.111	738.44
423.488	735.73
423.864	735.05
424.241	746.58
424.617	766.91
424.994	790.87
425.37	754.49
425.746	763.53
426.123	769.85
426.499	799.68
426.875	797.42
427.251	802.85
427.627	815.5
428.003	809.4
428.379	838.55
428.756	830.64
429.132	848.04
429.507	830.42
429.883	838.33
430.259	870.19
430.635	871.54
431.011	899.57
431.387	883.75
431.763	902.73
432.138	901.83
432.514	919.91
432.89	897.76
433.265	956.29
433.641	953.58
434.016	954.93
434.392	959.45
434.767	988.15
435.143	997.19
435.518	993.58
435.894	1012.11
436.269	1040.35
436.644	1034.25
437.02	1038.55
437.395	1016.4
437.77	1051.43
438.145	1062.27
438.52	1069.05
438.895	1066.79
439.271	1074.7
439.646	1079.9
440.021	1097.98
440.395	1122.39
440.77	1110.63
441.145	1107.92
441.52	1162.38
441.895	1148.37
442.27	1163.74
442.645	1151.31
443.019	1169.16
443.394	1165.1
443.769	1158.32
444.143	1197.86
444.518	1180.01
444.892	1201.03
445.267	1205.32
445.641	1245.77
446.016	1219.11
446.39	1232.44
446.764	1247.35
447.139	1254.81
447.513	1266.34
447.887	1282.83
448.262	1285.09
448.636	1257.75
449.01	1283.29
449.384	1280.12
449.758	1287.13
450.132	1307.01
450.506	1316.05
450.88	1341.82
451.254	1307.24
451.628	1352.44
452.002	1372.55
452.376	1380.23
452.75	1401.7
453.123	1385.2
453.497	1386.56
453.871	1410.97
454.244	1448.25
454.618	1454.58
454.992	1505.88
455.365	1439.67
455.739	1484.86
456.112	1499.1
456.486	1543.17
456.859	1498.87
457.232	1580.23
457.606	1538.19
457.979	1569.38
458.352	1594.46
458.725	1633.78
459.099	1635.82
459.472	1678.98
459.845	1676.27
460.218	1696.38
460.591	1705.2
460.964	1741.58
461.337	1759.66
461.71	1767.79
462.083	1801.92
462.456	1819.99
462.829	1843.04
463.201	1856.83
463.574	1851.41
463.947	1877.17
464.32	1925.08
464.692	1952.19
465.065	1947.22
465.438	1981.35
465.81	2021.35
466.183	2033.55
466.555	2080.33
466.928	2066.32
467.3	2122.13
467.672	2135.24
468.045	2166.88
468.417	2212.53
468.789	2239.64
469.161	2231.74
469.534	2292.52
469.906	2342.01
470.278	2369.58
470.65	2397.61
471.022	2445.51
471.394	2479.41
471.766	2509.24
472.138	2558.51
472.51	2627.43
472.882	2649.58
473.253	2659.52
473.625	2746.52
473.997	2804.15
474.369	2840.31
474.74	2893.19
475.112	2912.4
475.484	2997.59
475.855	3050.7
476.227	3073.75
476.598	3161.65
476.97	3173.86
477.341	3298.83
477.713	3344.7
478.084	3385.6
478.455	3457.24
478.827	3509.89
479.198	3638.48
479.569	3674.64
479.94	3727.06
480.311	3742.43
480.682	3876.89
481.053	3964.12
481.424	4026.04
481.795	4083.44
482.166	4160.95
482.537	4200.72
482.908	4312.13
483.279	4382.64
483.65	4474.16
484.021	4551.22
484.391	4621.5
484.762	4701.5
485.133	4749.18
485.503	4843.87
485.874	4945.11
486.244	4940.82
486.615	5075.05
486.985	5132.45
487.356	5218.32
487.726	5303.52
488.097	5404.08
488.467	5450.41
488.837	5546.9
489.207	5600.23
489.578	5696.5
489.948	5798.42
490.318	5814.92
490.688	5862.83
491.058	5959.77
491.428	6076.15
491.798	6111.63
492.168	6257.62
492.538	6278.63
492.908	6334
493.278	6373.77
493.648	6462.81
494.017	6522.02
494.387	6600.66
494.757	6657.83
495.126	6718.4
495.496	6747.55
495.866	6833.65
496.235	6881.78
496.605	6921.33
496.974	7008.11
497.344	7057.14
497.713	7111.61
498.082	7208.78
498.452	7247.42
498.821	7298.95
499.19	7313.86
499.559	7398.83
499.928	7444.71
500.298	7477.47
500.667	7634.76
501.036	7591.37
501.405	7744.13
501.774	7659.84
502.143	7762.21
502.512	7799.27
502.88	7888.99
503.249	7948.65
503.618	8063.67
503.987	8080.85
504.356	8157.46
504.724	8137.57
505.093	8182.54
505.462	8270.67
505.83	8328.52
506.199	8450.1
506.567	8536.43
506.936	8527.61
507.304	8640.61
507.672	8618.69
508.041	8738.68
508.409	8799.47
508.777	8919.69
509.145	8881.96
509.514	8930.09
509.882	9057.32
510.25	9098.67
510.618	9194.04
510.986	9215.28
511.354	9263.87
511.722	9396.52
512.09	9438.78
512.458	9459.79
512.826	9585.21
513.193	9716.06
513.561	9747.02
513.929	9769.62
514.297	9962.38
514.664	10037.86
515.032	10026.78
515.4	10098.65
515.767	10217.29
516.135	10240.34
516.502	10166.44
516.869	10475.36
517.237	10456.83
517.604	10485.3
517.972	10607.11
518.339	10723.72
518.706	10828.35
519.073	10806.88
519.44	10910.38
519.808	11023.14
520.175	11013.43
520.542	11204.15
520.909	11309.01
521.276	11293.64
521.643	11497.93
522.009	11525.73
522.376	11634.65
522.743	11717.14
523.11	11829.9
523.477	12025.83
523.843	12004.36
524.21	12203.9
524.577	12258.82
524.943	12313.5
525.31	12450.45
525.676	12465.14
526.043	12648.18
526.409	12667.62
526.776	12845.02
527.142	12876.2
527.508	12939.48
527.874	13142.86
528.241	13176.76
528.607	13190.32
528.973	13319.35
529.339	13348.05
529.705	13448.39
530.071	13580.14
530.437	13679.12
530.803	13747.14
531.169	13955.49
531.535	13880.24
531.901	13854.03
532.267	14098.54
532.632	14138.77
532.998	14202.27
533.364	14296.95
533.73	14276.16
534.095	14428.02
534.461	14489.49
534.826	14531.07
535.192	14572.2
535.557	14691.52
535.923	14707.57
536.288	14835.92
536.653	14847.22
537.019	14884.96
537.384	14895.58
537.749	15036.6
538.114	14929.93
538.479	15060.78
538.845	15153.2
539.21	15201.79
539.575	15305.06
539.94	15266.87
540.305	15341.45
540.67	15324.5
541.034	15455.34
541.399	15533.76
541.764	15620.54
542.129	15736.46
542.494	15724.94
542.858	15746.63
543.223	15813.07
543.587	15860.98
543.952	15885.16
544.316	15957.02
544.681	15953.86
545.045	16017.14
545.41	16227.53
545.774	16173.74
546.138	16252.61
546.503	16373.28
546.867	16314.3
547.231	16574.41
547.595	16479.04
547.959	16613.73
548.324	16628.87
548.688	16638.36
549.052	16768.53
549.416	16829.32
549.779	16848.53
550.143	16967.84
550.507	17069.99
550.871	17161.29
551.235	17161.51
551.599	17283.32
551.962	17302.98
552.326	17349.53
552.689	17483.76
553.053	17557.66
553.417	17618.45
553.78	17835.39
554.143	17898.89
554.507	18105.67
554.87	18137.98
555.234	18321.03
555.597	18231.54
555.96	18389.95
556.323	18556.73
556.686	18551.31
557.05	18731.64
557.413	18874.91
557.776	18940.22
558.139	19161.69
558.502	19192.19
558.865	19308.12
559.228	19541.11
559.59	19480.77
559.953	19566.87
560.316	19906.52
560.679	19921.21
561.041	20182.9
561.404	20203.92
561.767	20332.28
562.129	20394.65
562.492	20692.04
562.854	20662.44
563.217	20900.85
563.579	20995.99
563.941	21221.97
564.304	21331.8
564.666	21595.75
565.028	21586.03
565.39	21769.98
565.753	22071.67
566.115	22110.08
566.477	22129.29
566.839	22372.45
567.201	22490.64
567.563	22618.09
567.925	22777.64
568.287	22802.49
568.648	23102.6
569.01	23261.92
569.372	23444.51
569.734	23487.22
570.095	23738.97
570.457	23876.59
570.819	24027.32
571.18	24131.05
571.542	24367.65
571.903	24429.8
572.265	24675.44
572.626	24749.34
572.987	24790.24
573.349	24994.53
573.71	25218.48
574.071	25314.52
574.432	25422.31
574.794	25746.15
575.155	25733.72
575.516	25761.96
575.877	26063.42
576.238	26206.02
576.599	26347.94
576.96	26386.13
577.32	26630.64
577.681	26744.31
578.042	26860.24
578.403	26914.7
578.763	26933.68
579.124	27198.31
579.485	27304.97
579.845	27376.84
580.206	27488.92
580.566	27450.06
580.927	27705.87
581.287	27667.68
581.648	27823.15
582.008	27977.72
582.368	27985.63
582.728	28123.03
583.089	28115.8
583.449	28188.11
583.809	28258.4
584.169	28405.74
584.529	28242.8
584.889	28614.09
585.249	28391.95
585.609	28354.66
585.969	28572.06
586.329	28570.93
586.688	28679.18
587.048	28553.53
587.408	28767.53
587.768	28813.64
588.127	28779.96
588.487	28852.73
588.846	28932.73
589.206	28841.66
589.565	28924.37
589.925	29192.38
590.284	28976.79
590.643	29120.97
591.003	29195.55
591.362	29185.83
591.721	29204.59
592.08	29312.15
592.44	29384.24
592.799	29485.93
593.158	29320.29
593.517	29285.04
593.876	29438.93
594.235	29359.84
594.593	29279.84
594.952	29532.94
595.311	29335.88
595.67	29317.12
596.029	29598.93
596.387	29862.2
596.746	29783.55
597.104	29759.6
597.463	29692.26
597.822	29691.8
598.18	29588.98
598.538	29651.81
598.897	29786.04
599.255	29526.38
599.613	30047.73
599.972	29870.1
600.33	29991.68
600.688	29802.54
601.046	29859.26
601.404	29993.72
601.762	29974.06
602.12	30142.87
602.478	30090.44
602.836	30068.07
603.194	30085.24
603.552	30146.93
603.91	29957.33
604.268	30121.62
604.625	30066.26
604.983	30205.24
605.341	30010.21
605.698	30354.61
606.056	30390.09
606.413	30249.08
606.771	30355.29
607.128	30474.61
607.485	30269.64
607.843	30289.53
608.2	30477.77
608.557	30489.52
608.914	30470.31
609.272	30518.9
609.629	30667.15
609.986	30804.54
610.343	30600.03
610.7	30819.23
611.057	30844.77
611.414	30837.31
611.771	30841.83
612.127	30920.25
612.484	30825.79
612.841	30866.91
613.198	30937.42
613.554	30928.16
613.911	31099.45
614.267	31162.95
614.624	31004.31
614.98	31121.14
615.337	31175.61
615.693	31182.84
616.05	31114.37
616.406	31349.16
616.762	31220.13
617.118	31252.67
617.475	31338.54
617.831	31399.33
618.187	31347.35
618.543	31403.85
618.899	31604.3
619.255	31513.45
619.611	31367.01
619.967	31654.46
620.323	31712.09
620.678	31594.58
621.034	31443.85
621.39	31468.03
621.746	31452.21
622.101	31830.73
622.457	31576.05
622.812	31706.89
623.168	31867.79
623.523	31724.52
623.879	31770.17
624.234	31568.14
624.589	31738.76
624.945	31708.25
625.3	31731.98
625.655	31722.49
626.01	31644.3
626.365	31725.65
626.72	31683.16
627.075	31631.19
627.43	31576.5
627.785	31637.29
628.14	31812.43
628.495	31678.64
628.85	31717.29
629.205	31561.36
629.559	31714.58
629.914	31449.72
630.269	31544.64
630.623	31374.92
630.978	31395.04
631.332	31574.24
631.687	31551.87
632.041	31424.41
632.396	31490.17
632.75	31294.7
633.104	31477.07
633.459	31322.72
633.813	31247.02
634.167	31236.85
634.521	31267.13
634.875	31247.7
635.229	31177.19
635.583	31078.89
635.937	31178.54
636.291	31117.53
636.645	31085.89
636.999	30949.17
637.352	30883.19
637.706	30729.74
638.06	31004.54
638.413	30897.65
638.767	30736.97
639.121	30795.96
639.474	30705.11
639.828	30779.46
640.181	30633.02
640.534	30737.43
640.888	30828.95
641.241	30549.18
641.594	30670.31
641.947	30763.41
642.301	30531.78
642.654	30668.95
643.007	30547.6
643.36	30471.44
643.713	30358.68
644.066	30541.73
644.419	30409.07
644.771	30107.61
645.124	29914.17
645.477	29922.08
645.83	29805.7
646.182	29458.36
646.535	29493.17
646.888	29618.59
647.24	29455.65
647.593	29379.72
647.945	29400.74
648.298	29361.42
648.65	29328.42
649.002	29227.18
649.355	29403.9
649.707	29261.76
650.059	29547.18
650.411	29814.51
650.763	29962.98
651.115	30169.98
651.467	29924.11
651.819	30002.98
652.171	29998.01
652.523	29847.73
652.875	29983.32
653.227	29868.07
653.578	30124.56
653.93	29893.38
654.282	29912.14
654.633	29878.24
654.985	29902.65
655.337	29849.31
655.688	29903.1
656.039	30022.19
656.391	29822.42
656.742	29809.99
657.094	29735.42
657.445	29909.65
657.796	29816.77
658.147	29730.22
658.498	29743.33
658.849	29905.81
659.2	29765.47
659.551	29726.61
659.902	29842.31
660.253	29669.43
660.604	29807.06
660.955	29669.66
661.306	29690.9
661.656	29736.77
662.007	29660.17
662.358	29687.06
662.708	29746.94
663.059	29697.45
663.409	29572.71
663.76	29775.42
664.11	29630.79
664.461	29658.13
664.811	29725.7
665.161	29780.62
665.511	29681.18
665.862	29610.45
666.212	29694.29
666.562	29823.55
666.912	29733.61
667.262	29697
667.612	29624.91
667.962	29679.15
668.312	29571.36
668.662	29679.37
669.011	29481.64
669.361	29517.8
669.711	29459.72
670.06	29352.83
670.41	29435.54
670.76	29489.78
671.109	29549.21
671.459	29383.79
671.808	29389.44
672.157	29447.06
672.507	29324.58
672.856	29287.29
673.205	29414.07
673.554	29405.03
673.904	29274.87
674.253	29402.32
674.602	29257.01
674.951	28799.4
675.3	28669.91
675.649	29094.31
675.998	29031.71
676.346	29068.09
676.695	29148.77
677.044	28893.63
677.393	28987.87
677.741	29090.46
678.09	28993.29
678.438	28929.79
678.787	28952.39
679.135	29010.69
679.484	28809.34
679.832	28921.88
680.181	28760.53
680.529	28760.98
680.877	28720.76
681.225	28643.02
681.573	28786.52
681.922	28613.19
682.27	28546.52
682.618	28502.46
682.966	28428.11
683.314	28461.33
683.661	28389.01
684.009	28254.78
684.357	28142.92
684.705	28171.84
685.053	28189.92
685.4	28129.13
685.748	28003.26
686.095	28020.89
686.443	27833.32
686.79	27777.28
687.138	27828.8
687.485	27779.54
687.832	27613.21
688.18	27711.07
688.527	27518.08
688.874	27547
689.221	27394.01
689.568	27311.98
689.915	27229.95
690.262	27260.23
690.609	27168.48
690.956	27064.98
691.303	27035.38
691.65	26926.23
691.997	26912.22
692.344	26672.22
692.69	26659.57
693.037	26757.64
693.383	26419.8
693.73	26604.65
694.077	26371.67
694.423	26406.24
694.769	26246.7
695.116	26221.39
695.462	26138.68
695.808	26084.22
696.155	26051.22
696.501	25861.4
696.847	25837.44
697.193	25575.98
697.539	25775.52
697.885	25536.66
698.231	25444.68
698.577	25522.65
698.923	25366.04
699.269	25305.7
699.614	25260.06
699.96	25155.43
700.306	25165.6
700.651	24957.24
700.997	24920.86
701.342	24758.6
701.688	24810.8
702.033	24638.15
702.379	24763.35
702.724	24552.5
703.069	24564.93
703.415	24248.78
703.76	24335.11
704.105	24321.1
704.45	24224.15
704.795	23988.45
705.14	23914.55
705.485	23996.13
705.83	23827.55
706.175	23840.66
706.52	23788.68
706.865	23663.49
707.209	23618.97
707.554	23602.25
707.899	23657.84
708.243	23468.01
708.588	23374
708.932	23209.71
709.277	23276.83
709.621	23272.09
709.966	23144.18
710.31	23193.9
710.654	22966.33
710.998	23115.71
711.342	22966.33
711.687	22957.07
712.031	22840.01
712.375	22800.91
712.719	22781.7
713.063	22769.05
713.407	22869.16
713.75	22694.02
714.094	22651.31
714.438	22530.64
714.782	22524.08
715.125	22419.23
715.469	22531.31
715.812	22475.04
716.156	22301.49
716.499	22244.32
716.843	22394.59
717.186	22071.21
717.53	22309.17
717.873	22254.71
718.216	22183.75
718.559	22092.68
718.902	22087.48
719.246	22016.53
719.589	21955.28
719.932	21929.52
720.275	21902.4
720.617	21921.39
720.96	21820.15
721.303	21913.25
721.646	21885.46
721.989	21790.77
722.331	21778.11
722.674	21826.25
723.016	21693.82
723.359	21712.8
723.701	21713.71
724.044	21714.84
724.386	21602.75
724.729	21651.79
725.071	21510.32
725.413	21494.51
725.755	21502.41
726.097	21485.24
726.439	21384.45
726.782	21451.79
727.124	21524.56
727.465	21465.13
727.807	21405.92
728.149	21397.56
728.491	21343.77
728.833	21396.2
729.175	21426.71
729.516	21326.15
729.858	21218.13
730.199	21338.35
730.541	21265.36
730.882	21275.3
731.224	21276.43
731.565	21101.75
731.906	21128.41
732.248	21195.08
732.589	21104.46
732.93	21094.52
733.271	21073.27
733.612	21132.93
733.953	21207.06
734.294	21115.08
734.635	21017
734.976	21128.87
735.317	21063.78
735.658	20992.15
735.999	21094.52
736.339	21088.19
736.68	21113.95
737.021	21044.12
737.361	20932.03
737.702	21100.84
738.042	21031.24
738.383	21066.49
738.723	21036.89
739.063	21058.13
739.404	21006.16
739.744	20986.72
740.084	20888.65
740.424	20973.16
740.764	20902.88
741.104	21052.71
741.444	20892.71
741.784	20864.01
742.124	20890.68
742.464	20853.84
742.804	20897.91
743.143	20919.38
743.483	20916.67
743.823	20815.88
744.162	20770
744.502	20908.31
744.841	20790.34
745.181	20785.15
745.52	20867.63
745.86	20791.25
746.199	20748.76
746.538	20810.23
746.877	20885.26
747.216	20795.09
747.556	20739.05
747.895	20832.6
748.234	20667.86
748.573	20699.72
748.911	20667.18
749.25	20663.11
749.589	20555.32
749.928	20677.13
750.267	20769.33
750.605	20548.99
750.944	20697.01
751.283	20588.31
751.621	20607.75
751.96	20441.43
752.298	20484.81
752.636	20516
752.975	20458.83
753.313	20448.43
753.651	20498.37
753.989	20472.39
754.327	20357.59
754.666	20291.37
755.004	20339.73
755.342	20295.89
755.679	20309
