Data from tablewood_brown_FLMS001491_099.txt Node
Date: Tue Feb 07 11:11:18 GMT 2017
User: dcchb
Spectrometer: FLMS00149
Trigger mode: 0
Integration Time (sec): 2.000000E-2
Scans to average: 10
Electric dark correction enabled: true
Nonlinearity correction enabled: false
Boxcar width: 0
XAxis mode: Wavelengths
Number of Pixels in Spectrum: 2048
>>>>>Begin Spectral Data<<<<<
341.393	-18.69
341.776	-18.69
342.16	-18.69
342.543	-51.68
342.927	-76.76
343.31	-56.88
343.693	-78.8
344.077	-54.17
344.46	-90.55
344.843	-59.36
345.226	-33.6
345.61	-36.99
345.993	-9.65
346.376	-5.35
346.759	9.34
347.142	50.01
347.525	40.52
347.908	56.34
348.291	73.97
348.674	93.18
349.057	101.99
349.44	124.36
349.823	144.7
350.206	162.55
350.588	179.73
350.971	213.62
351.354	226.28
351.737	230.57
352.119	246.17
352.502	267.41
352.884	265.37
353.267	296.33
353.65	295.2
354.032	317.8
354.414	319.84
354.797	322.32
355.179	297.46
355.562	338.82
355.944	341.3
356.326	327.52
356.709	338.37
357.091	339.04
357.473	346.5
357.855	350.34
358.238	362.32
358.62	350.57
359.002	330.91
359.384	344.47
359.766	341.98
360.148	363.45
360.53	338.37
360.912	346.05
361.294	340.63
361.676	322.55
362.057	342.66
362.439	339.72
362.821	328.88
363.203	330.68
363.584	345.15
363.966	334.75
364.348	355.99
364.729	318.71
365.111	329.78
365.493	343.34
365.874	330.68
366.256	331.36
366.637	320.06
367.019	314.41
367.4	336.56
367.781	330.46
368.163	332.49
368.544	335.66
368.925	334.53
369.306	338.37
369.688	337.24
370.069	334.3
370.45	318.71
370.831	340.63
371.212	322.1
371.593	338.59
371.974	320.74
372.355	322.1
372.736	357.8
373.117	339.95
373.498	341.53
373.879	339.72
374.26	326.39
374.641	330.91
375.021	333.17
375.402	341.08
375.783	341.3
376.163	355.54
376.544	342.43
376.925	336.56
377.305	347.86
377.686	339.27
378.066	356.22
378.447	351.7
378.827	353.51
379.208	368.87
379.588	333.4
379.968	359.61
380.349	365.48
380.729	346.05
381.109	358.48
381.489	401.42
381.87	375.88
382.25	368.65
382.63	380.85
383.01	393.73
383.39	377.91
383.77	391.47
384.15	373.62
384.53	369.33
384.91	397.57
385.29	377.91
385.67	400.29
386.049	400.29
386.429	395.09
386.809	400.51
387.189	405.03
387.568	399.38
387.948	406.39
388.328	421.3
388.707	422.21
389.087	403.9
389.466	408.65
389.846	402.32
390.225	423.34
390.605	416.33
390.984	427.18
391.363	413.62
391.743	404.13
392.122	433.51
392.501	447.97
392.881	470.79
393.26	445.26
393.639	443.9
394.018	442.54
394.397	439.61
394.776	473.5
395.155	483.22
395.534	457.46
395.913	487.29
396.292	482.54
396.671	478.93
397.05	485.48
397.429	483.22
397.808	482.54
398.186	475.76
398.565	490.23
398.944	508.31
399.323	506.5
399.701	476.89
400.08	480.28
400.458	495.65
400.837	526.38
401.215	532.03
401.594	521.41
401.972	515.99
402.351	524.35
402.729	535.65
403.107	540.62
403.486	537.68
403.864	525.71
404.242	519.83
404.62	508.53
404.999	538.36
405.377	557.12
405.755	555.08
406.133	548.53
406.511	540.62
406.889	564.58
407.267	575.65
407.645	567.97
408.023	585.37
408.401	601.86
408.779	593.73
409.156	593.05
409.534	590.34
409.912	613.61
410.29	615.42
410.667	621.75
411.045	652.26
411.422	640.96
411.8	650.9
412.178	663.33
412.555	648.87
412.933	676.66
413.31	657
413.687	697
414.065	688.19
414.442	685.7
414.819	706.04
415.197	669.66
415.574	697.23
415.951	693.39
416.328	712.59
416.705	726.61
417.082	698.13
417.46	727.96
417.837	737.68
418.214	747.85
418.591	726.83
418.967	748.53
419.344	753.05
419.721	752.59
420.098	752.59
420.475	765.7
420.852	755.3
421.228	789.43
421.605	798.02
421.982	786.49
422.358	815.87
422.735	824.46
423.111	821.52
423.488	815.19
423.864	835.75
424.241	868.07
424.617	863.55
424.994	840.95
425.37	833.5
425.746	846.83
426.123	856.55
426.499	875.75
426.875	856.09
427.251	881.18
427.627	892.25
428.003	907.39
428.379	917.33
428.756	941.29
429.132	938.58
429.507	957.33
429.883	955.98
430.259	947.62
430.635	974.96
431.011	999.82
431.387	1006.15
431.763	1047.73
432.138	1014.96
432.514	1047.05
432.89	1028.97
433.265	1060.38
433.641	1069.87
434.016	1064.22
434.392	1068.07
434.767	1086.6
435.143	1088.86
435.518	1090.66
435.894	1145.35
436.269	1171.57
436.644	1191.23
437.02	1176.99
437.395	1174.05
437.77	1190.55
438.145	1191.9
438.52	1216.54
438.895	1204.78
439.271	1239.59
439.646	1237.1
440.021	1233.26
440.395	1268.29
440.77	1261.05
441.145	1280.94
441.52	1282.75
441.895	1301.73
442.27	1292.47
442.645	1322.75
443.019	1303.77
443.394	1339.24
443.769	1334.95
444.143	1350.77
444.518	1350.32
444.892	1363.65
445.267	1368.85
445.641	1416.08
446.016	1391.22
446.39	1400.49
446.764	1436.19
447.139	1417.89
447.513	1419.24
447.887	1428.28
448.262	1412.69
448.636	1446.81
449.01	1461.5
449.384	1484.78
449.758	1484.55
450.132	1519.8
450.506	1533.59
450.88	1495.17
451.254	1540.82
451.628	1530.88
452.002	1560.48
452.376	1606.58
452.75	1565.68
453.123	1599.58
453.497	1627.37
453.871	1645.23
454.244	1656.3
454.618	1644.1
454.992	1700.82
455.365	1670.31
455.739	1723.87
456.112	1757.31
456.486	1782.62
456.859	1760.7
457.232	1807.48
457.606	1789.85
457.979	1812.9
458.352	1850.64
458.725	1873.69
459.099	1890.19
459.472	1939.91
459.845	1935.61
460.218	1957.08
460.591	1982.39
460.964	2008.83
461.337	2060.13
461.71	2049.96
462.083	2090.64
462.456	2101.26
462.829	2102.84
463.201	2146.68
463.574	2176.96
463.947	2183.06
464.32	2249.73
464.692	2264.87
465.065	2264.42
465.438	2308.03
465.81	2336.96
466.183	2348.48
466.555	2396.39
466.928	2451.98
467.3	2435.03
467.672	2517.07
468.045	2512.77
468.417	2520.91
468.789	2574.69
469.161	2613.56
469.534	2671.41
469.906	2725.42
470.278	2719.32
470.65	2804.29
471.022	2830.96
471.394	2850.39
471.766	2908.02
472.138	2967.68
472.51	3041.12
472.882	3066.2
473.253	3111.18
473.625	3136.03
473.997	3250.15
474.369	3283.37
474.74	3338.74
475.112	3388.91
475.484	3476.59
475.855	3476.82
476.227	3556.14
476.598	3635.46
476.97	3652.4
477.341	3757.94
477.713	3808.11
478.084	3899.18
478.455	3978.95
478.827	4018.72
479.198	4193.41
479.569	4210.81
479.94	4272.05
480.311	4383.23
480.682	4483.79
481.053	4587.75
481.424	4644.47
481.795	4739.16
482.166	4790.23
482.537	4882.43
482.908	4952.26
483.279	5017.57
483.65	5107.73
484.021	5265.02
484.391	5306.37
484.762	5372.58
485.133	5467.05
485.503	5543.43
485.874	5680.6
486.244	5745.68
486.615	5870.88
486.985	5909.75
487.356	6003.75
487.726	6100.93
488.097	6186.12
488.467	6259.12
488.837	6355.84
489.207	6493.46
489.578	6533.91
489.948	6568.26
490.318	6698.88
490.688	6686.9
491.058	6871.3
491.428	6952.88
491.798	7023.61
492.168	7135.93
492.538	7203.72
492.908	7340.67
493.278	7353.32
493.648	7419.99
494.017	7551.51
494.387	7531.62
494.757	7674.9
495.126	7746.99
495.496	7796.7
495.866	7907.43
496.235	7976.36
496.605	8015
496.974	8043.47
497.344	8130.25
497.713	8199.4
498.082	8333.18
498.452	8412.5
498.821	8417.02
499.19	8404.37
499.559	8594.42
499.928	8590.81
500.298	8661.99
500.667	8744.02
501.036	8813.4
501.405	8845.71
501.774	8897.46
502.143	8955.77
502.512	9035.77
502.88	9124.12
503.249	9170.9
503.618	9211.58
503.987	9265.82
504.356	9328.19
504.724	9423.33
505.093	9491.57
505.462	9466.94
505.83	9585.13
506.199	9651.57
506.567	9758.91
506.936	9828.51
507.304	9930.2
507.672	9954.16
508.041	9961.39
508.409	10118.45
508.777	10210.65
509.145	10331.1
509.514	10346.01
509.882	10435.05
510.25	10481.38
510.618	10596.4
510.986	10541.26
511.354	10709.17
511.722	10788.71
512.09	10867.13
512.458	10950.07
512.826	10994.13
513.193	11087.24
513.561	11157.97
513.929	11254.69
514.297	11405.65
514.664	11524.97
515.032	11522.93
515.4	11668.92
515.767	11737.84
516.135	11764.96
516.502	11757.05
516.869	12008.79
517.237	12069.58
517.604	12148
517.972	12189.58
518.339	12297.6
518.706	12411.72
519.073	12505.28
519.44	12600.19
519.808	12759.51
520.175	12761.54
520.542	13044.02
520.909	12982.78
521.276	13019.16
521.643	13203.57
522.009	13243.56
522.376	13502.99
522.743	13492.82
523.11	13602.42
523.477	13730.33
523.843	13860.72
524.21	13974.39
524.577	14109.3
524.943	14262.75
525.31	14271.11
525.676	14464.55
526.043	14603.75
526.409	14578.67
526.776	14763.07
527.142	14861.15
527.508	14915.38
527.874	15131.42
528.241	15148.82
528.607	15246.45
528.973	15441.25
529.339	15397.41
529.705	15506.78
530.071	15708.36
530.437	15752.42
530.803	15908.58
531.169	15931.18
531.535	15925.3
531.901	16001.23
532.267	16130.49
532.632	16213.88
532.998	16412.75
533.364	16453.42
533.73	16445.97
534.095	16664.04
534.461	16734.55
534.826	16822.23
535.192	16875.11
535.557	17031.71
535.923	16999.62
536.288	17140.86
536.653	17222.67
537.019	17226.28
537.384	17226.96
537.749	17396.45
538.114	17461.98
538.479	17428.31
538.845	17564.58
539.21	17597.57
539.575	17606.39
539.94	17720.96
540.305	17782.88
540.67	17841.86
541.034	17927.28
541.399	18002.76
541.764	18137.45
542.129	18072.59
542.494	18179.71
542.858	18275.75
543.223	18356.88
543.587	18366.59
543.952	18398.23
544.316	18579.24
544.681	18471.45
545.045	18659.02
545.41	18775.17
545.774	18800.48
546.138	18847.94
546.503	18938.33
546.867	18952.11
547.231	19118.44
547.595	19097.65
547.959	19242.28
548.324	19297.87
548.688	19334.03
549.052	19334.25
549.416	19518.2
549.779	19514.81
550.143	19609.95
550.507	19806.1
550.871	19809.95
551.235	19887.68
551.599	20072.76
551.962	20136.72
552.326	20268.24
552.689	20374.9
553.053	20385.75
553.417	20412.19
553.78	20712.07
554.143	20653.76
554.507	20789.81
554.87	20989.35
555.234	21237.93
555.597	21220.3
555.96	21286.52
556.323	21358.38
556.686	21517.47
557.05	21656.45
557.413	21790.68
557.776	21886.73
558.139	22035.88
558.502	22069.32
558.865	22228.41
559.228	22482.64
559.59	22589.99
559.953	22647.38
560.316	22854.84
560.679	22994.72
561.041	23153.59
561.404	23347.25
561.767	23555.38
562.129	23631.77
562.492	23928.93
562.854	23939.33
563.217	23955.15
563.579	24235.82
563.941	24390.84
564.304	24550.84
564.666	24782.24
565.028	24869.02
565.39	25038.51
565.753	25136.81
566.115	25434.88
566.477	25600.75
566.839	25716.23
567.201	25880.07
567.563	25949.44
567.925	26209.78
568.287	26359.15
568.648	26431.01
569.01	26876.88
569.372	26959.36
569.734	26915.97
570.095	27245.23
570.457	27355.51
570.819	27570.87
571.18	27597.54
571.542	27884.31
571.903	28097.64
572.265	28243.62
572.626	28365.2
572.987	28618.75
573.349	28802.25
573.71	29014
574.071	29020.1
574.432	29224.84
574.794	29560.65
575.155	29534.44
575.516	29608.33
575.877	29847.65
576.238	30004.93
576.599	30117.24
576.96	30336.22
577.32	30383.23
577.681	30596.1
578.042	30791.35
578.403	30898.24
578.763	30989.76
579.124	31027.96
579.485	31151.12
579.845	31372.35
580.206	31358.34
580.566	31494.61
580.927	31522.18
581.287	31761.27
581.648	31634.04
582.008	31972.34
582.368	31808.73
582.728	32156.97
583.089	32100.24
583.449	32207.59
583.809	32353.34
584.169	32437.86
584.529	32444.64
584.889	32597.41
585.249	32474.02
585.609	32549.27
585.969	32783.16
586.329	32702.94
586.688	32770.96
587.048	32802.82
587.408	32810.06
587.768	32838.53
588.127	32880.79
588.487	32792.2
588.846	33160.78
589.206	32937.51
589.565	33032.87
589.925	33221.12
590.284	33102.7
590.643	33338.18
591.003	33493.2
591.362	33488
591.721	33599.64
592.08	33316.93
592.44	33523.26
592.799	33655
593.158	33485.07
593.517	33518.29
593.876	33508.12
594.235	33624.95
594.593	33685.51
594.952	33742.91
595.311	33570.49
595.67	33716.25
596.029	33893.87
596.387	33871.72
596.746	34050.02
597.104	33902
597.463	33695.91
597.822	34056.58
598.18	33808.45
598.538	33965.73
598.897	34096.12
599.255	33777.71
599.613	34312.39
599.972	34064.49
600.33	34227.19
600.688	33959.4
601.046	34187.42
601.404	34389.9
601.762	34347.42
602.12	34482.33
602.478	34464.02
602.836	34289.34
603.194	34306.97
603.552	34334.76
603.91	34191.04
604.268	34518.03
604.625	34338.15
604.983	34524.59
605.341	34305.84
605.698	34581.76
606.056	34522.33
606.413	34653.4
606.771	34709.21
607.128	34807.52
607.485	34702.21
607.843	34664.24
608.2	34880.51
608.557	34965.7
608.914	34804.35
609.272	35007.74
609.629	35057.23
609.986	35039.15
610.343	35030.34
610.7	35325.24
611.057	35206.6
611.414	35114.85
611.771	35224.46
612.127	35250.9
612.484	35234.85
612.841	35381.51
613.198	35279.59
613.554	35369.31
613.911	35617.44
614.267	35538.35
614.624	35530.66
614.98	35614.28
615.337	35702.41
615.693	35592.81
616.05	35611.79
616.406	35734.95
616.762	35704.67
617.118	35630.77
617.475	35719.36
617.831	35798.45
618.187	35912.12
618.543	35888.62
618.899	36066.01
619.255	35986.7
619.611	35871.9
619.967	36233.02
620.323	36045.22
620.678	36051.55
621.034	35984.21
621.39	36016.3
621.746	35981.72
622.101	36179.91
622.457	35987.15
622.812	36181.94
623.168	36221.72
623.523	36168.61
623.879	36226.46
624.234	35926.13
624.589	36086.35
624.945	36169.29
625.3	36326.35
625.655	36189.4
626.01	36310.98
626.365	36276.63
626.72	36229.85
627.075	36160.7
627.43	36109.18
627.785	36018.56
628.14	36151.44
628.495	36022.63
628.85	36227.37
629.205	35906.7
629.559	36150.53
629.914	36023.3
630.269	36033.93
630.623	35923.42
630.978	35838.22
631.332	36041.16
631.687	36077.77
632.041	35904.89
632.396	36017.43
632.75	35837.77
633.104	35777.21
633.459	35784.67
633.813	35849.98
634.167	35672.58
634.521	35635.29
634.875	35788.06
635.229	35781.28
635.583	35529.53
635.937	35485.69
636.291	35364.56
636.645	35381.97
636.999	35460.83
637.352	35393.26
637.706	35271.46
638.06	35352.81
638.413	35379.48
638.767	35273.27
639.121	35307.39
639.474	35146.72
639.828	35090.67
640.181	35192.82
640.534	35152.37
640.888	35051.35
641.241	35039.83
641.594	35025.36
641.947	35049.54
642.301	34930.23
642.654	35033.95
643.007	35059.04
643.36	34800.29
643.713	34864.92
644.066	34972.48
644.419	34695.2
644.771	34537.24
645.124	34206.63
645.477	34123.02
645.83	33905.85
646.182	33837.37
646.535	33796.47
646.888	33783.14
647.24	33589.02
647.593	33753.53
647.945	33711.73
648.298	33538.17
648.65	33431.73
649.002	33368.23
649.355	33594.44
649.707	33560.09
650.059	33794.44
650.411	34185.16
650.763	34118.27
651.115	34535.21
651.467	34388.54
651.819	34426.74
652.171	34243.24
652.523	34210.47
652.875	34192.62
653.227	34145.84
653.578	34265.16
653.93	34403.46
654.282	34053.86
654.633	33952.62
654.985	33910.59
655.337	34157.14
655.688	34152.17
656.039	34108.55
656.391	33887.32
656.742	34122.79
657.094	34061.55
657.445	33984.49
657.796	34093.41
658.147	33851.61
658.498	33883.25
658.849	33982.68
659.2	33866.98
659.551	33833.31
659.902	34031.49
660.253	33998.5
660.604	34072.17
660.955	33804.38
661.306	34099.74
661.656	33900.2
662.007	33915.11
662.358	33891.61
662.708	34025.39
663.059	33796.7
663.409	33637.6
663.76	33988.56
664.11	33915.79
664.461	33931.16
664.811	33891.38
665.161	33886.86
665.511	33663.14
665.862	33796.24
666.212	33827.2
666.562	33920.76
666.912	33756.7
667.262	33881.21
667.612	33883.7
667.962	33842.12
668.312	33713.08
668.662	33856.36
669.011	33723.25
669.361	33838.28
669.711	33597.61
670.06	33702.69
670.41	33481.9
670.76	33625.18
671.109	33671.28
671.459	33448.68
671.808	33602.8
672.157	33689.58
672.507	33386.09
672.856	33297.05
673.205	33519.87
673.554	33541.79
673.904	33473.31
674.253	33540.66
674.602	33399.87
674.951	32871.07
675.3	32798.53
675.649	33433.54
675.998	33284.39
676.346	33279.2
676.695	33435.35
677.044	33099.99
677.393	33067.68
677.741	33168.01
678.09	33126.43
678.438	33134.34
678.787	33070.39
679.135	33153.55
679.484	32801.92
679.832	32998.52
680.181	32757.63
680.529	33011.63
680.877	32693.45
681.225	32772.09
681.573	32868.13
681.922	32596.05
682.27	32571.19
682.618	32645.99
682.966	32515.6
683.314	32574.58
683.661	32425.43
684.009	32374.81
684.357	32317.64
684.705	32167.59
685.053	32304.08
685.4	32150.19
685.748	31959.46
686.095	31974.82
686.443	31787.03
686.79	31729.18
687.138	31759.24
687.485	31805.11
687.832	31617.09
688.18	31650.54
688.527	31445.8
688.874	31414.61
689.221	31323.09
689.568	31277.44
689.915	31185.24
690.262	31223.2
690.609	31168.74
690.956	30957.45
691.303	30978.01
691.65	30723.78
691.997	30719.26
692.344	30605.37
692.69	30538.48
693.037	30602.2
693.383	30247.86
693.73	30264.59
694.077	30117.24
694.423	30167.86
694.769	30059.17
695.116	30022.11
695.462	29984.59
695.808	29877.25
696.155	29894.65
696.501	29562.01
696.847	29556.36
697.193	29383.7
697.539	29456.02
697.885	29208.12
698.231	29131.96
698.577	29110.04
698.923	29020.32
699.269	28941.23
699.614	28685.64
699.96	28709.82
700.306	28703.27
700.651	28569.04
700.997	28562.71
701.342	28381.47
701.688	28386.89
702.033	28340.79
702.379	28300.34
702.724	28066.68
703.069	28202.27
703.415	27767.48
703.76	27932.67
704.105	27887.47
704.45	27720.7
704.795	27610.64
705.14	27451.1
705.485	27461.04
705.83	27312.57
706.175	27246.81
706.52	27287.04
706.865	27033.71
707.209	27144.44
707.554	26993.49
707.899	26954.84
708.243	26855.64
708.588	26860.83
708.932	26701.52
709.277	26626.49
709.621	26695.19
709.966	26400.73
710.31	26486.15
710.654	26365.03
710.998	26399.15
711.342	26379.94
711.687	26313.5
712.031	26081.19
712.375	26068.99
712.719	26059.5
713.063	25957.35
713.407	26073.51
713.75	25918.26
714.094	25803.46
714.438	25755.1
714.782	25880.52
715.125	25638.27
715.469	25775.66
715.812	25567.53
716.156	25371.61
716.499	25635.55
716.843	25483.02
717.186	25391.95
717.53	25526.63
717.873	25549.23
718.216	25330.03
718.559	25288.45
718.902	25132.74
719.246	25203.7
719.589	25189.01
719.932	25196.47
720.275	25125.96
720.617	24967.78
720.96	25025.63
721.303	24930.49
721.646	24988.34
721.989	24866.31
722.331	24806.65
722.674	24841.9
723.016	24922.35
723.359	24835.12
723.701	24831.28
724.044	24664.51
724.386	24635.58
724.729	24781.11
725.071	24758.06
725.413	24671.51
725.755	24678.52
726.097	24527.56
726.439	24527.34
726.782	24449.6
727.124	24638.74
727.465	24372.54
727.807	24323.27
728.149	24408.02
728.491	24380.67
728.833	24366.89
729.175	24303.16
729.516	24313.1
729.858	24379.77
730.199	24353.55
730.541	24322.82
730.882	24176.84
731.224	24323.95
731.565	24179.32
731.906	24270.17
732.248	24242.82
732.589	24137.52
732.93	24042.83
733.271	24033.56
733.612	24191.75
733.953	24153.79
734.294	23986.78
734.635	24087.8
734.976	24082.6
735.317	23995.37
735.658	24050.06
735.999	24197.63
736.339	23999.44
736.68	24133
737.021	23942.94
737.361	23894.13
737.702	24002.15
738.042	23994.02
738.383	23968.03
738.723	24008.48
739.063	23854.36
739.404	23945.66
739.744	23971.87
740.084	23863.85
740.424	23904.3
740.764	23822.04
741.104	23977.97
741.444	23935.26
741.784	23825.88
742.124	23892.1
742.464	23847.58
742.804	23831.08
743.143	23817.3
743.483	23904.53
743.823	23737.98
744.162	23822.27
744.502	23868.82
744.841	23715.83
745.181	23873.34
745.52	23660.69
745.86	23806.45
746.199	23793.12
746.538	23682.84
746.877	23723.29
747.216	23764.64
747.556	23772.78
747.895	23711.54
748.234	23640.58
748.573	23664.99
748.911	23657.3
749.25	23618.43
749.589	23575.72
749.928	23582.95
750.267	23525.78
750.605	23550.64
750.944	23444.65
751.283	23426.57
751.621	23590.18
751.96	23352.45
752.298	23406.69
752.636	23526.46
752.975	23390.64
753.313	23253.7
753.651	23459.79
753.989	23321.27
754.327	23162.17
754.666	23102.97
755.004	23392.68
755.342	23206.01
