Data from tablewood_brown_FLMS001491_087.txt Node
Date: Tue Feb 07 11:11:08 GMT 2017
User: dcchb
Spectrometer: FLMS00149
Trigger mode: 0
Integration Time (sec): 2.000000E-2
Scans to average: 10
Electric dark correction enabled: true
Nonlinearity correction enabled: false
Boxcar width: 0
XAxis mode: Wavelengths
Number of Pixels in Spectrum: 2048
>>>>>Begin Spectral Data<<<<<
341.393	-20.28
341.776	-20.28
342.16	-20.28
342.543	-79.04
342.927	-73.61
343.31	-66.61
343.693	-66.38
344.077	-58.47
344.46	-64.57
344.843	-54.63
345.226	-57.12
345.61	-25.71
345.993	-15.08
346.376	-8.53
346.759	-9.43
347.142	47.51
347.525	31.69
347.908	71.47
348.291	71.24
348.674	84.35
349.057	120.28
349.44	128.64
349.823	147.62
350.206	172.26
350.588	207.51
350.971	198.7
351.354	221.07
351.737	226.94
352.119	256.09
352.502	255.42
352.884	282.53
353.267	296.32
353.65	284.57
354.032	291.35
354.414	299.26
354.797	306.94
355.179	330.67
355.562	312.36
355.944	331.12
356.326	328.41
356.709	317.79
357.091	343.55
357.473	361.85
357.855	353.27
358.238	318.92
358.62	351.01
359.002	358.01
359.384	356.43
359.766	352.82
360.148	339.26
360.53	350.56
360.912	344.23
361.294	331.57
361.676	341.97
362.057	338.58
362.439	328.18
362.821	329.09
363.203	335.87
363.584	310.33
363.966	344.23
364.348	342.65
364.729	341.06
365.111	323.89
365.493	321.86
365.874	322.53
366.256	329.54
366.637	313.72
367.019	324.79
367.4	308.75
367.781	319.37
368.163	343.78
368.544	328.18
368.925	320.27
369.306	322.53
369.688	328.41
370.069	308.52
370.45	358.01
370.831	340.84
371.212	334.06
371.593	309.43
371.974	323.66
372.355	336.32
372.736	325.7
373.117	325.7
373.498	309.43
373.879	345.58
374.26	329.77
374.641	346.26
375.021	321.63
375.402	341.52
375.783	338.35
376.163	337.67
376.544	337.45
376.925	346.49
377.305	349.65
377.686	337.45
378.066	341.29
378.447	346.94
378.827	343.55
379.208	363.89
379.588	377.9
379.968	361.18
380.349	349.65
380.729	349.65
381.109	374.51
381.489	356.66
381.87	355.3
382.25	377.67
382.63	353.27
383.01	376.09
383.39	365.92
383.77	368.18
384.15	381.97
384.53	384.68
384.91	365.92
385.29	375.87
385.67	362.08
386.049	392.14
386.429	391.91
386.809	399.82
387.189	396.43
387.568	386.26
387.948	383.32
388.328	391.68
388.707	398.69
389.087	398.69
389.466	413.6
389.846	396.88
390.225	424.45
390.605	412.02
390.984	403.66
391.363	418.8
391.743	430.55
392.122	431.46
392.501	422.42
392.881	430.33
393.26	439.14
393.639	444.79
394.018	436.88
394.397	434.62
394.776	447.5
395.155	443.89
395.534	454.28
395.913	463.32
396.292	458.8
396.671	454.73
397.05	472.36
397.429	492.47
397.808	498.12
398.186	451.8
398.565	473.04
398.944	475.07
399.323	477.11
399.701	480.95
400.08	491.12
400.458	508.07
400.837	499.25
401.215	502.19
401.594	501.51
401.972	494.51
402.351	501.29
402.729	506.94
403.107	521.85
403.486	506.26
403.864	526.14
404.242	534.05
404.62	526.82
404.999	522.3
405.377	540.38
405.755	548.29
406.133	554.84
406.511	554.17
406.889	584.67
407.267	547.16
407.645	564.79
408.023	584.45
408.401	591.23
408.779	570.44
409.156	590.32
409.534	610.66
409.912	608.85
410.29	620.61
410.667	616.31
411.045	583.32
411.422	626.93
411.8	626.25
412.178	654.95
412.555	645.24
412.933	656.31
413.31	682.98
413.687	691.79
414.065	655.86
414.442	672.36
414.819	664.9
415.197	680.26
415.574	697.67
415.951	696.99
416.328	680.72
416.705	674.39
417.082	691.56
417.46	701.28
417.837	721.17
418.214	699.47
418.591	735.63
418.967	739.02
419.344	732.69
419.721	754.16
420.098	727.04
420.475	742.64
420.852	749.87
421.228	760.26
421.605	775.4
421.982	784.89
422.358	791.67
422.735	775.63
423.111	778.34
423.488	801.62
423.864	781.73
424.241	822.86
424.617	822.86
424.994	848.4
425.37	826.93
425.746	821.73
426.123	845.68
426.499	851.56
426.875	862.63
427.251	867.83
427.627	881.84
428.003	880.71
428.379	910.77
428.756	919.13
429.132	895.4
429.507	877.77
429.883	913.93
430.259	949.18
430.635	946.92
431.011	955.96
431.387	967.71
431.763	999.13
432.138	969.97
432.514	995.28
432.89	1008.17
433.265	1006.13
433.641	1020.37
434.016	1044.55
434.392	1054.27
434.767	1064.44
435.143	1056.75
435.518	1086.36
435.894	1096.3
436.269	1120.7
436.644	1123.87
437.02	1133.59
437.395	1147.14
437.77	1167.26
438.145	1174.26
438.52	1145.56
438.895	1160.48
439.271	1194.38
439.646	1208.84
440.021	1203.64
440.395	1224.21
440.77	1241.83
441.145	1223.3
441.52	1261.72
441.895	1271.89
442.27	1250.19
442.645	1270.98
443.019	1292.23
443.394	1308.27
443.769	1284.32
444.143	1302.62
444.518	1310.76
444.892	1321.83
445.267	1309.85
445.641	1364.54
446.016	1331.77
446.39	1367.03
446.764	1339.68
447.139	1341.72
447.513	1370.87
447.887	1403.18
448.262	1405.22
448.636	1396.4
449.01	1381.49
449.384	1424.65
449.758	1439.34
450.132	1460.36
450.506	1460.81
450.88	1449.06
451.254	1474.14
451.628	1479.34
452.002	1508.72
452.376	1533.35
452.75	1561.15
453.123	1517.98
453.497	1582.16
453.871	1576.29
454.244	1615.16
454.618	1599.11
454.992	1621.93
455.365	1616.96
455.739	1655.15
456.112	1684.53
456.486	1713.46
456.859	1732.44
457.232	1743.97
457.606	1738.99
457.979	1739.45
458.352	1809.27
458.725	1835.71
459.099	1849.5
459.472	1863.96
459.845	1877.75
460.218	1898.54
460.591	1919.33
460.964	1927.46
461.337	1956.16
461.71	2003.39
462.083	2028.48
462.456	2026.44
462.829	2036.16
463.201	2047.69
463.574	2111.87
463.947	2109.15
464.32	2138.31
464.692	2167.23
465.065	2185.54
465.438	2241.35
465.81	2244.52
466.183	2269.38
466.555	2328.58
466.928	2345.98
467.3	2350.73
467.672	2389.82
468.045	2459.43
468.417	2500.33
468.789	2462.82
469.161	2511.4
469.534	2587.11
469.906	2631.17
470.278	2635.47
470.65	2686.99
471.022	2727.22
471.394	2766.99
471.766	2843.15
472.138	2851.05
472.51	2952.75
472.882	2936.02
473.253	3014.89
473.625	3067.77
473.997	3110.26
474.369	3189.58
474.74	3216.92
475.112	3284.94
475.484	3347.09
475.855	3407.88
476.227	3459.17
476.598	3528.78
476.97	3577.82
477.341	3673.86
477.713	3714.54
478.084	3767.64
478.455	3858.49
478.827	3898.03
479.198	4014.41
479.569	4077.92
479.94	4168.99
480.311	4228.87
480.682	4345.48
481.053	4427.51
481.424	4497.57
481.795	4586.6
482.166	4633.16
482.537	4746.15
482.908	4768.52
483.279	4899.36
483.65	5034.5
484.021	5123.09
484.391	5140.71
484.762	5215.96
485.133	5292.35
485.503	5339.35
485.874	5493.47
486.244	5575.73
486.615	5607.59
486.985	5699.12
487.356	5852.78
487.726	5837.19
488.097	5966.45
488.467	6033.8
488.837	6175.04
489.207	6250.97
489.578	6298.2
489.948	6389.49
490.318	6478.76
490.688	6526.66
491.058	6636.72
491.428	6726.43
491.798	6815.02
492.168	6905.19
492.538	6983.15
492.908	7090.49
493.278	7147.44
493.648	7165.97
494.017	7253.88
494.387	7356.47
494.757	7467.88
495.126	7449.13
495.496	7511.05
495.866	7611.38
496.235	7652.74
496.605	7824.03
496.974	7863.8
497.344	7901.77
497.713	7912.84
498.082	8022.9
498.452	8085.49
498.821	8207.75
499.19	8161.88
499.559	8259.05
499.928	8315.09
500.298	8405.94
500.667	8424.02
501.036	8493.39
501.405	8594.86
501.774	8590.57
502.143	8660.17
502.512	8774.06
502.88	8795.53
503.249	8824.46
503.618	8906.71
503.987	8995.07
504.356	9062.87
504.724	9089.99
505.093	9049.31
505.462	9224.45
505.83	9256.31
506.199	9289.53
506.567	9472.8
506.936	9450.2
507.304	9602.52
507.672	9557.55
508.041	9662.63
508.409	9785.79
508.777	9877.99
509.145	9966.8
509.514	9983.3
509.882	10059.45
510.25	10133.8
510.618	10155.27
510.986	10247.92
511.354	10346.9
511.722	10431.42
512.09	10514.58
512.458	10547.58
512.826	10677.74
513.193	10737.18
513.561	10710.74
513.929	10917.51
514.297	10974.68
514.664	11111.63
515.032	11142.14
515.4	11219.65
515.767	11272.08
516.135	11373.54
516.502	11286.54
516.869	11494.67
517.237	11635.23
517.604	11649.69
517.972	11803.14
518.339	11870.03
518.706	11922.91
519.073	12027.54
519.44	12187.31
519.808	12274.76
520.175	12275.21
520.542	12449.67
520.909	12494.42
521.276	12543.91
521.643	12702.32
522.009	12735.54
522.376	12899.6
522.743	12953.61
523.11	13141.18
523.477	13214.4
523.843	13331.91
524.21	13473.83
524.577	13628.85
524.943	13672.92
525.31	13749.98
525.676	13881.73
526.043	13945.45
526.409	14100.93
526.776	14246.91
527.142	14308.38
527.508	14303.18
527.874	14425.44
528.241	14596.06
528.607	14633.8
528.973	14798.54
529.339	14773.45
529.705	14949.04
530.071	15031.07
530.437	15139.77
530.803	15297.96
531.169	15387.22
531.535	15288.69
531.901	15510.38
532.267	15560.1
532.632	15642.81
532.998	15695.46
533.364	15846.65
533.73	15835.57
534.095	15933.87
534.461	16019.52
534.826	16122.8
535.192	16177.48
535.557	16315.11
535.923	16271.49
536.288	16367.54
536.653	16439.4
537.019	16474.65
537.384	16537.93
537.749	16632.84
538.114	16791.48
538.479	16705.15
538.845	16850.91
539.21	16873.96
539.575	16964.58
539.94	17077.8
540.305	17226.27
540.67	17036.44
541.034	17137.68
541.399	17259.04
541.764	17385.81
542.129	17506.04
542.494	17433.27
542.858	17478.02
543.223	17584.9
543.587	17678.01
543.952	17578.58
544.316	17816.99
544.681	17788.74
545.045	17816.54
545.41	17935.18
545.774	18069.86
546.138	18054.5
546.503	18044.55
546.867	18215.62
547.231	18370.65
547.595	18295.39
547.959	18402.51
548.324	18481.38
548.688	18423.3
549.052	18509.85
549.416	18702.84
549.779	18696.29
550.143	18729.73
550.507	18925.21
550.871	19020.8
551.235	19097.86
551.599	19280
551.962	19291.75
552.326	19329.72
552.689	19544.63
553.053	19479.77
553.417	19601.35
553.78	19873.66
554.143	19856.71
554.507	19903.04
554.87	20126.98
555.234	20284.72
555.597	20190.03
555.96	20316.36
556.323	20465.73
556.686	20609.91
557.05	20763.8
557.413	20874.31
557.776	20905.04
558.139	21139.39
558.502	21203.79
558.865	21334.86
559.228	21509.1
559.59	21606.49
559.953	21713.84
560.316	22026.37
560.679	21978.69
561.041	22202.18
561.404	22415.06
561.767	22496.87
562.129	22550.2
562.492	22814.37
562.854	22832
563.217	22875.16
563.579	23149.96
563.941	23320.8
564.304	23492.32
564.666	23711.75
565.028	23887.11
565.39	23899.77
565.753	24151.06
566.115	24231.06
566.477	24489.13
566.839	24560.09
567.201	24906.29
567.563	24920.31
567.925	25073.3
568.287	25285.27
568.648	25355.32
569.01	25548.31
569.372	25794.41
569.734	25852.48
570.095	25952.59
570.457	26267.84
570.819	26432.81
571.18	26589.41
571.542	26708.05
571.903	26872.57
572.265	27087.71
572.626	27230.75
572.987	27285.44
573.349	27383.29
573.71	27747.35
574.071	27821.47
574.432	28009.04
574.794	28395.92
575.155	28398.63
575.516	28420.78
575.877	28661.45
576.238	28773.99
576.599	28866.19
576.96	29035.45
577.32	29091.27
577.681	29302.56
578.042	29408.55
578.403	29483.12
578.763	29651.48
579.124	29771.25
579.485	29936.22
579.845	30100.28
580.206	30035.42
580.566	30259.6
580.927	30227.96
581.287	30411.69
581.648	30517.9
582.008	30629.99
582.368	30651.45
582.728	30799.02
583.089	30728.51
583.449	30965.34
583.809	30927.6
584.169	31075.85
584.529	30990.43
584.889	31344.32
585.249	31225.68
585.609	31167.6
585.969	31428.38
586.329	31330.98
586.688	31505.89
587.048	31476.74
587.408	31602.84
587.768	31561.49
588.127	31638.55
588.487	31590.19
588.846	31847.35
589.206	31580.7
589.565	31685.55
589.925	31846
590.284	31985.66
590.643	32022.49
591.003	32155.82
591.362	32154.24
591.721	32053.45
592.08	31998.76
592.44	32062.49
592.799	32225.42
593.158	32323.27
593.517	32280.56
593.876	32220
594.235	32102.04
594.593	32221.58
594.952	32341.13
595.311	32225.65
595.67	32361.01
596.029	32559.43
596.387	32622.7
596.746	32609.82
597.104	32508.35
597.463	32542.7
597.822	32523.72
598.18	32475.81
598.538	32610.27
598.897	32777.95
599.255	32508.35
599.613	32803.26
599.972	32759.42
600.33	32833.77
600.688	32769.82
601.046	32897.95
601.404	32885.97
601.762	32850.04
602.12	33086.19
602.478	33161.22
602.836	33240.09
603.194	32890.94
603.552	33096.59
603.91	32933.2
604.268	33074.89
604.625	33017.49
604.983	33083.25
605.341	32899.76
605.698	33140.43
606.056	33241.89
606.413	33192.4
606.771	33259.29
607.128	33458.39
607.485	33196.7
607.843	33324.15
608.2	33482.34
608.557	33556.01
608.914	33386.75
609.272	33651.6
609.629	33643.92
609.986	33737.93
610.343	33643.69
610.7	33767.53
611.057	33740.86
611.414	33723.69
611.771	33767.53
612.127	33966.85
612.484	33894.08
612.841	34074.41
613.198	33892.05
613.554	33938.37
613.911	34155.32
614.267	34091.36
614.624	34113.74
614.98	34141.76
615.337	34315.99
615.693	34203.9
616.05	34263.34
616.406	34419.72
616.762	34199.38
617.118	34208.42
617.475	34430.34
617.831	34554.4
618.187	34569.54
618.543	34564.57
618.899	34714.17
619.255	34590.56
619.611	34569.32
619.967	34773.15
620.323	34754.62
620.678	34634.85
621.034	34570.9
621.39	34601.41
621.746	34513.73
622.101	34934.51
622.457	34662.87
622.812	34848.63
623.168	34889.76
623.523	34690.67
623.879	34986.48
624.234	34746.71
624.589	34919.14
624.945	34814.06
625.3	34912.13
625.655	34699.71
626.01	34752.82
626.365	34884.34
626.72	34756.2
627.075	34841.17
627.43	34824.45
627.785	34725.02
628.14	34879.82
628.495	34779.48
628.85	34752.59
629.205	34635.76
629.559	34884.79
629.914	34639.6
630.269	34579.26
630.623	34565.25
630.978	34543.1
631.332	34684.79
631.687	34746.49
632.041	34545.14
632.396	34568.64
632.75	34473.73
633.104	34486.61
633.459	34380.62
633.813	34402.77
634.167	34328.65
634.521	34362.77
634.875	34259.95
635.229	34281.64
635.583	34149.89
635.937	34218.82
636.291	34204.35
636.645	34211.81
636.999	34139.05
637.352	34186.5
637.706	33970.01
638.06	34065.83
638.413	33984.02
638.767	33843.69
639.121	34026.73
639.474	33687.98
639.828	33757.81
640.181	33758.04
640.534	33783.12
640.888	33668.78
641.241	33531.6
641.594	33605.73
641.947	33727.53
642.301	33596.46
642.654	33683.92
643.007	33683.92
643.36	33593.98
643.713	33414.09
644.066	33770.24
644.419	33413.19
644.771	33206.42
645.124	33062.24
645.477	33012.75
645.83	32743.83
646.182	32671.97
646.535	32615.24
646.888	32479.2
647.24	32353.78
647.593	32552.65
647.945	32416.38
648.298	32316.49
648.65	32358.75
649.002	32169.83
649.355	32282.15
649.707	32215.03
650.059	32500.9
650.411	32858.63
650.763	32803.26
651.115	33285.96
651.467	33116.25
651.819	33039.41
652.171	33055.68
652.523	32939.3
652.875	32966.87
653.227	32935.46
653.578	33045.06
653.93	32941.56
654.282	32814.11
654.633	32807.33
654.985	32818.4
655.337	32963.71
655.688	32875.8
656.039	32946.53
656.391	32794.45
656.742	32714.68
657.094	32937.27
657.445	32920.09
657.796	32832.19
658.147	32815.01
658.498	32784.73
658.849	32827.44
659.2	32903.82
659.551	32683.04
659.902	32883.26
660.253	32810.49
660.604	32882.36
660.955	32733.89
661.306	32758.29
661.656	32678.29
662.007	32735.47
662.358	32617.28
662.708	32731.85
663.059	32645.3
663.409	32427.68
663.76	32659.99
664.11	32669.03
664.461	32630.61
664.811	32825.86
665.161	32794.45
665.511	32543.61
665.862	32800.55
666.212	32754.9
666.562	32763.94
666.912	32540.67
667.262	32643.04
667.612	32701.12
667.962	32694.79
668.312	32562.59
668.662	32673.1
669.011	32621.12
669.361	32589.48
669.711	32511.74
670.06	32530.95
670.41	32454.8
670.76	32470.62
671.109	32542.48
671.459	32455.47
671.808	32347.68
672.157	32472.2
672.507	32256.16
672.856	32379.32
673.205	32296.16
673.554	32420.22
673.904	32339.09
674.253	32485.98
674.602	32417.96
674.951	31850.52
675.3	31666.79
675.649	32383.16
675.998	32234.46
676.346	32280.11
676.695	32347
677.044	32014.13
677.393	32051.42
677.741	32132.54
678.09	32009.38
678.438	31774.81
678.787	31863.17
679.135	31884.87
679.484	31688.94
679.832	31885.32
680.181	31642.39
680.529	31755.83
680.877	31736.17
681.225	31605.33
681.573	31843.06
681.922	31565.1
682.27	31539.34
682.618	31450.75
682.966	31384.54
683.314	31430.42
683.661	31299.12
684.009	31106.36
684.357	30990.2
684.705	31178.45
685.053	31194.04
685.4	31015.74
685.748	30916.76
686.095	30819.36
686.443	30762.86
686.79	30765.35
687.138	30830.66
687.485	30633.15
687.832	30616.65
688.18	30541.4
688.527	30365.59
688.874	30427.51
689.221	30325.81
689.568	30195.87
689.915	30128.3
690.262	30236.32
690.609	30058.02
690.956	30013.96
691.303	29957.69
691.65	29850.57
691.997	29722.44
692.344	29548.88
692.69	29504.14
693.037	29618.26
693.383	29326.97
693.73	29541.2
694.077	29230.02
694.423	29243.81
694.769	29022.8
695.116	29118.16
695.462	28889.47
695.808	28925.17
696.155	28893.53
696.501	28720.66
696.847	28643.15
697.193	28428.24
697.539	28399.99
697.885	28312.76
698.231	28258.97
698.577	28136.04
698.923	28121.8
699.269	27889.27
699.614	27782.6
699.96	27739.44
700.306	27632.32
700.651	27590.74
700.997	27501.03
701.342	27449.96
701.688	27589.61
702.033	27297.64
702.379	27361.37
702.724	27124.77
703.069	27156.63
703.415	26960.03
703.76	26843.42
704.105	26901.04
704.45	26720.03
704.795	26631.67
705.14	26522.75
705.485	26579.02
705.83	26364.56
706.175	26469.19
706.52	26321.62
706.865	26212.47
707.209	26195.3
707.554	26150.1
707.899	26228.97
708.243	26003.89
708.588	26036.89
708.932	25754.41
709.277	25851.13
709.621	25743.33
709.966	25656.56
710.31	25784.24
710.654	25454.08
710.998	25430.57
711.342	25395.09
711.687	25242.33
712.031	25181.99
712.375	25089.11
712.719	25263.8
713.063	25136.8
713.407	25229.9
713.75	25099.51
714.094	24986.07
714.438	25047.99
714.782	24960.08
715.125	24758.73
715.469	24982.9
715.812	24793.98
716.156	24735.23
716.499	24645.96
716.843	24738.62
717.186	24578.85
717.53	24659.75
717.873	24697.94
718.216	24556.02
718.559	24503.59
718.902	24314.67
719.246	24337.04
719.589	24214.79
719.932	24123.49
720.275	24265.18
720.617	24222.47
720.96	24072.19
721.303	24177.05
721.646	24181.12
721.989	24027.9
722.331	24099.76
722.674	24117.61
723.016	24071.51
723.359	23964.17
723.701	24076.03
724.044	23930.27
724.386	23833.1
724.729	23979.31
725.071	23883.72
725.413	23896.6
725.755	23784.29
726.097	23758.98
726.439	23632.66
726.782	23727.79
727.124	23829.26
727.465	23636.72
727.807	23715.37
728.149	23668.36
728.491	23556.95
728.833	23723.05
729.175	23598.98
729.516	23648.93
729.858	23558.99
730.199	23689.38
730.541	23656.38
730.882	23536.84
731.224	23573.9
731.565	23541.13
731.906	23582.94
732.248	23443.28
732.589	23370.06
732.93	23426.79
733.271	23351.76
733.612	23478.54
733.953	23569.83
734.294	23459.1
734.635	23384.75
734.976	23525.09
735.317	23391.98
735.658	23339.78
735.999	23411.42
736.339	23334.36
736.68	23371.65
737.021	23221.59
737.361	23295.04
737.702	23445.54
738.042	23282.61
738.383	23245.32
738.723	23231.99
739.063	23214.59
739.404	23374.58
739.744	23160.8
740.084	23142.05
740.424	23174.14
740.764	23196.73
741.104	23345.66
741.444	23242.38
741.784	23128.04
742.124	23212.55
742.464	23206.45
742.804	23217.98
743.143	23190.41
743.483	23289.84
743.823	23112.22
744.162	23095.49
744.502	23195.15
744.841	23011.65
745.181	23119.45
745.52	23061.82
745.86	23065.89
746.199	23015.95
746.538	23018.21
746.877	23102.05
747.216	23165.1
747.556	23011.43
747.895	23079.68
748.234	23053.01
748.573	22994.25
748.911	22981.83
749.25	22902.73
749.589	22935.05
749.928	22995.16
750.267	23082.61
750.605	22925.78
750.944	22963.52
751.283	22842.62
751.621	22982.73
751.96	22902.05
752.298	22811.21
752.636	22913.13
752.975	22693.47
753.313	22802.39
753.651	22845.78
753.989	22670.19
754.327	22608.5
754.666	22462.97
755.004	22485.11
755.342	22672.45
