Data from tablewood_brown_FLMS001491_051.txt Node
Date: Tue Feb 07 11:10:41 GMT 2017
User: dcchb
Spectrometer: FLMS00149
Trigger mode: 0
Integration Time (sec): 2.000000E-2
Scans to average: 10
Electric dark correction enabled: true
Nonlinearity correction enabled: false
Boxcar width: 0
XAxis mode: Wavelengths
Number of Pixels in Spectrum: 2048
>>>>>Begin Spectral Data<<<<<
341.393	-9.45
341.776	-9.45
342.16	-9.45
342.543	-40.18
342.927	-49.22
343.31	-58.26
343.693	-77.24
344.077	-66.17
344.46	-70.46
344.843	-49.45
345.226	-32.95
345.61	-4.7
345.993	-15.78
346.376	-10.35
346.759	2.08
347.142	33.26
347.525	27.16
347.908	56.31
348.291	84.56
348.674	89.98
349.057	92.02
349.44	132.69
349.823	143.99
350.206	191.22
350.588	200.49
350.971	225.57
351.354	214.27
351.737	240.49
352.119	272.13
352.502	271.45
352.884	253.6
353.267	263.76
353.65	309.41
354.032	280.49
354.414	297.66
354.797	328.62
355.179	326.36
355.562	346.47
355.944	345.8
356.326	325.46
356.709	344.67
357.091	348.51
357.473	343.99
357.855	344.67
358.238	365.46
358.62	369.98
359.002	347.15
359.384	369.52
359.766	340.82
360.148	344.21
360.53	348.51
360.912	335.63
361.294	342.18
361.676	349.19
362.057	348.51
362.439	340.15
362.821	330.88
363.203	325.68
363.584	342.86
363.966	343.54
364.348	335.85
364.729	330.88
365.111	310.99
365.493	320.03
365.874	343.54
366.256	335.85
366.637	330.66
367.019	322.97
367.4	346.47
367.781	340.37
368.163	318
368.544	316.64
368.925	349.64
369.306	335.17
369.688	333.37
370.069	325.23
370.45	333.37
370.831	327.49
371.212	339.24
371.593	348.73
371.974	343.08
372.355	345.8
372.736	322.52
373.117	339.69
373.498	348.51
373.879	347.6
374.26	342.63
374.641	324.1
375.021	334.72
375.402	343.31
375.783	347.83
376.163	351.9
376.544	356.64
376.925	339.92
377.305	345.12
377.686	361.16
378.066	354.84
378.447	361.16
378.827	357.55
379.208	374.27
379.588	373.37
379.968	376.53
380.349	379.47
380.729	364.55
381.109	374.27
381.489	365.91
381.87	381.95
382.25	386.7
382.63	385.79
383.01	382.86
383.39	387.15
383.77	392.12
384.15	403.42
384.53	390.99
384.91	380.82
385.29	395.29
385.67	405.91
386.049	423.08
386.429	404.1
386.809	400.71
387.189	407.26
387.568	420.37
387.948	397.77
388.328	406.81
388.707	408.85
389.087	427.83
389.466	436.19
389.846	458.79
390.225	423.76
390.605	447.26
390.984	439.8
391.363	439.35
391.743	464.66
392.122	469.18
392.501	454.49
392.881	471.22
393.26	485
393.639	460.14
394.018	460.6
394.397	469.41
394.776	489.3
395.155	473.02
395.534	477.77
395.913	481.84
396.292	485.68
396.671	508.5
397.05	498.79
397.429	490.2
397.808	493.59
398.186	504.66
398.565	504.89
398.944	484.32
399.323	516.19
399.701	528.16
400.08	538.11
400.458	527.94
400.837	519.12
401.215	514.61
401.594	536.98
401.972	547.15
402.351	550.76
402.729	576.98
403.107	562.51
403.486	566.58
403.864	556.64
404.242	551.21
404.62	578.56
404.999	584.43
405.377	593.25
405.755	581.72
406.133	597.54
406.511	616.98
406.889	595.96
407.267	613.13
407.645	619.91
408.023	621.27
408.401	634.15
408.779	603.42
409.156	629.18
409.534	645.45
409.912	635.96
410.29	666.69
410.667	668.5
411.045	670.99
411.422	672.12
411.8	691.55
412.178	710.08
412.555	680.7
412.933	713.47
413.31	722.06
413.687	720.93
414.065	743.98
414.442	720.02
414.819	736.97
415.197	731.55
415.574	760.02
415.951	787.59
416.328	773.36
416.705	785.33
417.082	795.28
417.46	788.5
417.837	801.83
418.214	814.48
418.591	819.46
418.967	801.83
419.344	805.67
419.721	823.07
420.098	841.15
420.475	822.39
420.852	878.66
421.228	886.57
421.605	829.17
421.982	857.87
422.358	887.93
422.735	891.09
423.111	892.45
423.488	897.42
423.864	869.85
424.241	919.34
424.617	951.2
424.994	950.53
425.37	935.61
425.746	931.77
426.123	938.55
426.499	923.18
426.875	976.97
427.251	977.64
427.627	973.35
428.003	1008.83
428.379	1033.24
428.756	1025.55
429.132	1019.68
429.507	1037.08
429.883	1078.43
430.259	1050.41
430.635	1062.61
431.011	1070.3
431.387	1091.77
431.763	1109.62
432.138	1112.33
432.514	1119.79
432.89	1128.6
433.265	1160.01
433.641	1134.48
434.016	1189.16
434.392	1174.47
434.767	1222.84
435.143	1234.81
435.518	1225.55
435.894	1223.51
436.269	1234.13
436.644	1293.57
437.02	1271.65
437.395	1279.1
437.77	1328.6
438.145	1282.72
438.52	1346.45
438.895	1366.56
439.271	1348.71
439.646	1404.98
440.021	1391.19
440.395	1412.43
440.77	1403.4
441.145	1410.17
441.52	1434.35
441.895	1428.48
442.27	1435.94
442.645	1449.5
443.019	1460.12
443.394	1466.22
443.769	1479.33
444.143	1519.32
444.518	1533.79
444.892	1500.34
445.267	1517.52
445.641	1560
446.016	1524.75
446.39	1544.18
446.764	1578.76
447.139	1578.31
447.513	1617.17
447.887	1579.44
448.262	1605.65
448.636	1617.63
449.01	1637.29
449.384	1645.65
449.758	1681.58
450.132	1681.13
450.506	1676.83
450.88	1677.06
451.254	1702.14
451.628	1747.34
452.002	1760
452.376	1736.49
452.75	1767.91
453.123	1757.51
453.497	1796.61
453.871	1821.01
454.244	1849.94
454.618	1876.15
454.992	1886.32
455.365	1900.78
455.739	1925.19
456.112	1953.66
456.486	1973.1
456.859	1982.82
457.232	2027.56
457.606	2022.36
457.979	2009.26
458.352	2075.47
458.725	2094.45
459.099	2106.2
459.472	2165.18
459.845	2167.22
460.218	2215.35
460.591	2202.92
460.964	2258.29
461.337	2278.17
461.71	2328.57
462.083	2363.6
462.456	2350.04
462.829	2380.54
463.201	2416.48
463.574	2424.16
463.947	2445.85
464.32	2528.79
464.692	2549.13
465.065	2591.84
465.438	2585.96
465.81	2627.77
466.183	2653.76
466.555	2695.56
466.928	2740.54
467.3	2783.92
467.672	2799.74
468.045	2876.8
468.417	2863.47
468.789	2926.75
469.161	2971.94
469.534	3020.53
469.906	3077.93
470.278	3104.59
470.65	3120.41
471.022	3200.86
471.394	3321.08
471.766	3314.76
472.138	3374.19
472.51	3417.13
472.882	3521.53
473.253	3498.71
473.625	3605.6
473.997	3659.16
474.369	3688.98
474.74	3714.52
475.112	3878.13
475.484	3901.86
475.855	4013.27
476.227	4005.59
476.598	4163.55
476.97	4194.28
477.341	4277.67
477.713	4340.49
478.084	4424.56
478.455	4575.97
478.827	4543.65
479.198	4752.46
479.569	4758.34
479.94	4906.13
480.311	4958.78
480.682	5044.66
481.053	5136.86
481.424	5281.94
481.795	5373.46
482.166	5472.21
482.537	5566
482.908	5680.8
483.279	5722.15
483.65	5827.23
484.021	5948.36
484.391	6043.73
484.762	6117.4
485.133	6147.45
485.503	6198.75
485.874	6358.97
486.244	6462.92
486.615	6661.11
486.985	6701.11
487.356	6803.71
487.726	6924.38
488.097	7085.05
488.467	7070.36
488.837	7212.73
489.207	7310.36
489.578	7435.33
489.948	7504.25
490.318	7594.42
490.688	7662.89
491.058	7814.98
491.428	7909.44
491.798	7972.71
492.168	8220.84
492.538	8217
492.908	8312.14
493.278	8400.05
493.648	8447.73
494.017	8558.24
494.387	8606.37
494.757	8675.07
495.126	8896.53
495.496	8874.84
495.866	8925.68
496.235	9045.45
496.605	9158.22
496.974	9168.16
497.344	9331.55
497.713	9337.88
498.082	9465.1
498.452	9448.61
498.821	9530.41
499.19	9585.55
499.559	9745.77
499.928	9756.4
500.298	9868.26
500.667	10016.28
501.036	9908.48
501.405	10126.1
501.774	10156.39
502.143	10215.59
502.512	10240
502.88	10381.24
503.249	10426.66
503.618	10535.81
503.987	10569.93
504.356	10611.51
504.724	10679.08
505.093	10835.24
505.462	10800.66
505.83	10934.67
506.199	11025.29
506.567	11206.98
506.936	11216.47
507.304	11337.82
507.672	11419.18
508.041	11404.49
508.409	11589.57
508.777	11671.37
509.145	11715.21
509.514	11786.63
509.882	11868.2
510.25	12004.47
510.618	12096.9
510.986	12143.23
511.354	12229.33
511.722	12288.31
512.09	12471.35
512.458	12565.59
512.826	12584.57
513.193	12689.88
513.561	12783.21
513.929	12951.34
514.297	13051.22
514.664	13166.25
515.032	13151.56
515.4	13388.84
515.767	13486.02
516.135	13551.78
516.502	13501.16
516.869	13738.89
517.237	13776.18
517.604	13740.7
517.972	14040.13
518.339	14213.45
518.706	14149.95
519.073	14202.38
519.44	14351.08
519.808	14591.98
520.175	14566.89
520.542	14777.05
520.909	14925.07
521.276	14860.44
521.643	15145.18
522.009	15188.12
522.376	15320.54
522.743	15484.16
523.11	15565.28
523.477	15746.97
523.843	15868.78
524.21	16004.37
524.577	16194.19
524.943	16228.54
525.31	16341.99
525.676	16504.02
526.043	16591.47
526.409	16681.86
526.776	16886.6
527.142	17088.86
527.508	17083.66
527.874	17200.04
528.241	17395.97
528.607	17421.28
528.973	17594.16
529.339	17688.84
529.705	17895.84
530.071	17862.17
530.437	17962.06
530.803	18131.99
531.169	18223.97
531.535	18279.56
531.901	18349.39
532.267	18452.66
532.632	18679.55
532.998	18717.29
533.364	18807.23
533.73	18982.82
534.095	18967.23
534.461	19075.7
534.826	19229.14
535.192	19214.23
535.557	19335.58
535.923	19404.5
536.288	19479.08
536.653	19628.9
537.019	19564.27
537.384	19720.2
537.749	19863.02
538.114	19893.3
538.479	19890.82
538.845	20124.48
539.21	19983.47
539.575	20190.92
539.94	20289.68
540.305	20387.3
540.67	20363.35
541.034	20516.11
541.399	20487.41
541.764	20618.26
542.129	20675.66
542.494	20787.74
542.858	20847.4
543.223	20904.13
543.587	21017.34
543.952	21065.25
544.316	21099.6
544.681	21042.2
545.045	21240.84
545.41	21466.82
545.774	21407.84
546.138	21423.21
546.503	21597.89
546.867	21651.68
547.231	21785.91
547.595	21798.34
547.959	21936.87
548.324	22033.14
548.688	21992.46
549.052	22230.87
549.416	22264.54
549.779	22271.1
550.143	22441.94
550.507	22611.2
550.871	22605.1
551.235	22674.47
551.599	22839.22
551.962	22950.4
552.326	23108.36
552.689	23255.48
553.053	23178.42
553.417	23217.29
553.78	23647.33
554.143	23580.21
554.507	23605.3
554.87	23699.53
555.234	24037.6
555.597	23943.14
555.96	24172.97
556.323	24251.61
556.686	24354.88
557.05	24660.41
557.413	24787.19
557.776	24765.27
558.139	24979.72
558.502	25108.53
558.865	25286.16
559.228	25442.31
559.59	25537.22
559.953	25725.02
560.316	26078
560.679	26161.16
561.041	26245.45
561.404	26557.54
561.767	26635.73
562.129	26494.71
562.492	26922.5
562.854	26996.62
563.217	27100.8
563.579	27303.51
563.941	27625.3
564.304	27765.41
564.666	27942.81
565.028	28059.19
565.39	28227.55
565.753	28422.8
566.115	28662.11
566.477	28825.05
566.839	28955.89
567.201	29175.55
567.563	29391.13
567.925	29658.92
568.287	29604.91
568.648	29777.56
569.01	30074.96
569.372	30263.65
569.734	30368.96
570.095	30729.86
570.457	30744.32
570.819	31111.77
571.18	31099.34
571.542	31552.21
571.903	31452.32
572.265	31622.94
572.626	31820
572.987	32120.78
573.349	32266.09
573.71	32578.17
574.071	32605.29
574.432	32792.85
574.794	33108.1
575.155	33227.19
575.516	33172.28
575.877	33378.37
576.238	33601.87
576.599	33828.76
576.96	33896.33
577.32	34069.88
577.681	34154.4
578.042	34264.9
578.403	34350.1
578.763	34416.99
579.124	34601.39
579.485	34813.36
579.845	35042.51
580.206	35053.81
580.566	35143.75
580.927	35180.13
581.287	35549.39
581.648	35468.71
582.008	35593.23
582.368	35739.44
582.728	35819.44
583.089	35801.13
583.449	35910.74
583.809	35844.52
584.169	36009.94
584.529	36058.08
584.889	36345.3
585.249	36116.38
585.609	36242.48
585.969	36396.6
586.329	36434.79
586.688	36513.88
587.048	36545.75
587.408	36404.06
587.768	36493.09
588.127	36434.34
588.487	36427.56
588.846	36853.99
589.206	36701.68
589.565	36648.57
589.925	36968.11
590.284	36906.42
590.643	36848.79
591.003	36977.15
591.362	37000.65
591.721	37123.81
592.08	37011.5
592.44	37114.55
592.799	37230.7
593.158	37048.33
593.517	37223.92
593.876	37178.95
594.235	37257.14
594.593	37256.69
594.952	37371.26
595.311	37328.78
595.67	37231.15
596.029	37517.02
596.387	37543.46
596.746	37632.73
597.104	37370.13
597.463	37580.52
597.822	37713.63
598.18	37584.14
598.538	37596.79
598.897	37674.53
599.255	37560.86
599.613	38046.73
599.972	37775.32
600.33	37988.65
600.688	37872.72
601.046	37867.3
601.404	38060.96
601.762	37959.5
602.12	38188.42
602.478	38054.86
602.836	38243.33
603.194	38080.17
603.552	38177.8
603.91	38058.93
604.268	38153.62
604.625	38089.21
604.983	38281.97
605.341	38159.04
605.698	38347.51
606.056	38510.89
606.413	38332.14
606.771	38445.81
607.128	38614.39
607.485	38409.2
607.843	38481.29
608.2	38640.16
608.557	38790.43
608.914	38688.06
609.272	38773.26
609.629	38785.92
609.986	39016.19
610.343	38836.76
610.7	38937.32
611.057	38895.52
611.414	38825.24
611.771	38871.34
612.127	39175.74
612.484	39140.26
612.841	39134.15
613.198	39165.11
613.554	39299.57
613.911	39435.62
614.267	39431.32
614.624	39213.25
614.98	39344.09
615.337	39556.74
615.693	39468.61
616.05	39337.31
616.406	39657.98
616.762	39563.97
617.118	39606.46
617.475	39510.87
617.831	39675.38
618.187	39702.73
618.543	39694.37
618.899	39938.88
619.255	39853.23
619.611	39829.05
619.967	39902.72
620.323	39994.92
620.678	39934.59
621.034	39794.93
621.39	39706.79
621.746	39874.7
622.101	40216.84
622.457	40002.61
622.812	40136.16
623.168	40020.91
623.523	40127.8
623.879	40287.34
624.234	39971.42
624.589	40139.55
624.945	40095.49
625.3	40204.86
625.655	40130.29
626.01	40244.41
626.365	40145.88
626.72	40079.89
627.075	39993.57
627.43	40004.41
627.785	39956.05
628.14	40034.02
628.495	40052.1
628.85	40034.02
629.205	39958.99
629.559	40123.96
629.914	39952.66
630.269	39874.47
630.623	39866.34
630.978	39622.28
631.332	39967.81
631.687	40024.98
632.041	39823.85
632.396	39803.29
632.75	39510.19
633.104	39778.21
633.459	39554.03
633.813	39544.54
634.167	39593.35
634.521	39440.14
634.875	39556.06
635.229	39519.46
635.583	39399.68
635.937	39374.15
636.291	39354.26
636.645	39470.42
636.999	39331.44
637.352	39196.75
637.706	39032.24
638.06	39118.11
638.413	39081.95
638.767	39029.98
639.121	39146.81
639.474	38786.37
639.828	38902.07
640.181	38939.13
640.534	38922.41
640.888	38710.89
641.241	38614.39
641.594	38770.55
641.947	38795.41
642.301	38585.24
642.654	38588.63
643.007	38610.33
643.36	38662.75
643.713	38530.78
644.066	38616.65
644.419	38483.78
644.771	38389.32
645.124	38045.37
645.477	38026.84
645.83	37714.76
646.182	37660.52
646.535	37476.57
646.888	37513.41
647.24	37121.33
647.593	37422.34
647.945	37262.57
648.298	37193.64
648.65	37015.57
649.002	37126.98
649.355	37193.64
649.707	37159.29
650.059	37320.42
650.411	37690.12
650.763	37852.38
651.115	38121.3
651.467	38026.61
651.819	38074.52
652.171	38026.16
652.523	37915.88
652.875	37872.04
653.227	37777.13
653.578	37935.09
653.93	37867.3
654.282	37766.96
654.633	37559.51
654.985	37696.68
655.337	37675.44
655.688	37782.1
656.039	37835.43
656.391	37557.47
656.742	37599.51
657.094	37679.05
657.445	37792.49
657.796	37733.29
658.147	37504.82
658.498	37633.18
658.849	37576.46
659.2	37691.93
659.551	37525.16
659.902	37575.78
660.253	37521.32
660.604	37693.97
660.955	37284.03
661.306	37604.25
661.656	37436.57
662.007	37566.74
662.358	37559.73
662.708	37473.18
663.059	37509.79
663.409	37197.03
663.76	37412.39
664.11	37374.88
664.461	37492.39
664.811	37450.81
665.161	37421.43
665.511	37269.57
665.862	37352.05
666.212	37498.94
666.562	37398.38
666.912	37414.65
667.262	37379.85
667.612	37235
667.962	37252.62
668.312	37338.5
668.662	37494.88
669.011	37345.73
669.361	37302.79
669.711	37301.43
670.06	37232.74
670.41	37178.27
670.76	36969.47
671.109	37175.79
671.459	37145.05
671.808	37022.57
672.157	37167.65
672.507	37021.44
672.856	36890.37
673.205	37024.61
673.554	37070.03
673.904	37013.53
674.253	37069.8
674.602	36951.61
674.951	36504.17
675.3	36295.81
675.649	36893.76
675.998	36830.03
676.346	36797.27
676.695	36926.98
677.044	36609.25
677.393	36827.1
677.741	36704.61
678.09	36581
678.438	36542.13
678.787	36572.19
679.135	36558.86
679.484	36374.45
679.832	36430.27
680.181	36294
680.529	36326.54
680.877	36284.96
681.225	36251.52
681.573	36458.07
681.922	36273.89
682.27	36000
682.618	36065.08
682.966	35782.38
683.314	36003.62
683.661	35834.13
684.009	35762.04
684.357	35748.48
684.705	35611.99
685.053	35692.21
685.4	35576.06
685.748	35480.47
686.095	35466.91
686.443	35308.04
686.79	35120.47
687.138	35219.91
687.485	35286.35
687.832	34986.24
688.18	35059.46
688.527	34849.97
688.874	34897.66
689.221	34779.69
689.568	34639.36
689.915	34599.13
690.262	34428.74
690.609	34330.21
690.956	34356.65
691.303	34252.7
691.65	34213.38
691.997	34143.1
692.344	34019.71
692.69	33890.45
693.037	33873.28
693.383	33665.6
693.73	33849.77
694.077	33516
694.423	33640.51
694.769	33389.67
695.116	33370.92
695.462	33263.35
695.808	33054.99
696.155	33116.69
696.501	32745.85
696.847	32912.17
697.193	32587.66
697.539	32667.88
697.885	32565.29
698.231	32298.85
698.577	32323.94
698.923	32190.61
699.269	32078.97
699.614	31798.3
699.96	31902.25
700.306	31841.24
700.651	31683.73
700.997	31565.09
701.342	31551.76
701.688	31489.61
702.033	31401.48
702.379	31290.97
702.724	31178.88
703.069	31242.84
703.415	30935.05
703.76	30908.38
704.105	30948.38
704.45	30796.07
704.795	30691.44
705.14	30548.62
705.485	30469.52
705.83	30378.45
706.175	30381.62
706.52	30212.13
706.865	30149.53
707.209	30142.98
707.554	30065.69
707.899	30085.58
708.243	29900.95
708.588	29802.65
708.932	29594.52
709.277	29711.58
709.621	29701.41
709.966	29365.6
710.31	29472.94
710.654	29239.05
710.998	29342.77
711.342	29272.27
711.687	29139.84
712.031	28893.52
712.375	28996.34
712.719	29005.61
713.063	28855.55
713.407	29015.1
713.75	28746.18
714.094	28782.34
714.438	28569.46
714.782	28651.94
715.125	28477.94
715.469	28707.31
715.812	28506.64
716.156	28255.12
716.499	28259.41
716.843	28361.78
717.186	28082.92
717.53	28318.62
717.873	28312.52
718.216	28218.06
718.559	28080.43
718.902	27969.93
719.246	28002.24
719.589	28091.96
719.932	27884.73
720.275	27818.07
720.617	28004.73
720.96	27749.6
721.303	27834.34
721.646	27787.33
721.989	27614.68
722.331	27717.51
722.674	27602.25
723.016	27690.61
723.359	27616.72
723.701	27546.89
724.044	27497.62
724.386	27388.47
724.729	27552.76
725.071	27358.42
725.413	27348.93
725.755	27401.36
726.097	27289.72
726.439	27224.64
726.782	27269.61
727.124	27307.57
727.465	27129.5
727.807	27134.92
728.149	27077.75
728.491	26978.32
728.833	27118.43
729.175	27063.29
729.516	26872.78
729.858	26969.5
730.199	27071.65
730.541	26971.99
730.882	26866.68
731.224	26961.37
731.565	26908.26
731.906	26876.17
732.248	26931.31
732.589	26736.06
732.93	26755.72
733.271	26903.29
733.612	26788.94
733.953	26805.67
734.294	26639.12
734.635	26748.49
734.976	26821.71
735.317	26664.2
735.658	26663.07
735.999	26690.64
736.339	26635.5
736.68	26660.58
737.021	26610.64
737.361	26475.5
737.702	26628.72
738.042	26605.67
738.383	26607.03
738.723	26604.09
739.063	26487.48
739.404	26545.33
739.744	26635.05
740.084	26449.52
740.424	26494.04
740.764	26401.61
741.104	26524.99
741.444	26390.99
741.784	26333.59
742.124	26425.79
742.464	26279.8
742.804	26334.49
743.143	26288.16
743.483	26311.21
743.823	26243.19
744.162	26273.48
744.502	26308.05
744.841	26110.54
745.181	26364.32
745.52	26229.86
745.86	26229.86
746.199	26334.49
746.538	26254.04
746.877	26353.93
747.216	26200.71
747.556	26249.75
747.895	26118.45
748.234	26030.77
748.573	25996.19
748.911	26082.52
749.25	25986.03
749.589	25894.28
749.928	25974.95
750.267	26031.45
750.605	26061.05
750.944	25972.47
751.283	25870.1
751.621	25962.07
751.96	25738.12
752.298	25765.92
752.636	25798.69
752.975	25646.37
753.313	25614.74
753.651	25712.36
753.989	25578.8
754.327	25552.59
754.666	25403.22
755.004	25518.69
