Data from tablewood_brown_FLMS001491_006.txt Node
Date: Tue Feb 07 11:09:56 GMT 2017
User: dcchb
Spectrometer: FLMS00149
Trigger mode: 0
Integration Time (sec): 2.000000E-2
Scans to average: 10
Electric dark correction enabled: true
Nonlinearity correction enabled: false
Boxcar width: 0
XAxis mode: Wavelengths
Number of Pixels in Spectrum: 2048
>>>>>Begin Spectral Data<<<<<
341.393	-7.32
341.776	-7.32
342.16	-7.32
342.543	-52.06
342.927	-69.01
343.31	-86.18
343.693	-82.12
344.077	-67.43
344.46	-51.61
344.843	-36.24
345.226	-42.57
345.61	-28.33
345.993	-25.17
346.376	-1.89
346.759	12.57
347.142	22.97
347.525	36.98
347.908	52.34
348.291	83.75
348.674	100.48
349.057	112.45
349.44	109.52
349.823	144.77
350.206	173.47
350.588	189.29
350.971	210.31
351.354	224.32
351.737	246.69
352.119	261.6
352.502	275.16
352.884	284.65
353.267	282.85
353.65	287.59
354.032	301.38
354.414	317.2
354.797	301.6
355.179	328.04
355.562	345.67
355.944	324.65
356.326	346.8
356.709	348.38
357.091	326.23
357.473	332.34
357.855	355.39
358.238	335.05
358.62	330.08
359.002	348.83
359.384	347.7
359.766	350.19
360.148	335.5
360.53	354.71
360.912	349.74
361.294	341.38
361.676	352.22
362.057	344.31
362.439	333.24
362.821	340.47
363.203	334.6
363.584	332.34
363.966	326.91
364.348	329.62
364.729	349.74
365.111	349.06
365.493	316.74
365.874	316.52
366.256	327.59
366.637	311.32
367.019	333.24
367.4	337.08
367.781	349.96
368.163	317.65
368.544	318.55
368.925	326.23
369.306	335.5
369.688	344.09
370.069	338.89
370.45	343.64
370.831	346.35
371.212	311.55
371.593	337.99
371.974	354.03
372.355	336.4
372.736	358.55
373.117	337.08
373.498	329.17
373.879	348.83
374.26	317.65
374.641	347.48
375.021	335.95
375.402	326.01
375.783	354.48
376.163	350.64
376.544	351.54
376.925	340.02
377.305	368.72
377.686	337.53
378.066	350.19
378.447	359.45
378.827	368.95
379.208	364.88
379.588	383.63
379.968	373.24
380.349	379.34
380.729	369.4
381.109	372.79
381.489	374.59
381.87	371.66
382.25	364.65
382.63	364.88
383.01	381.83
383.39	373.24
383.77	373.24
384.15	390.41
384.53	395.84
384.91	382.73
385.29	393.8
385.67	392.45
386.049	401.03
386.429	405.33
386.809	378.66
387.189	383.63
387.568	418.89
387.948	413.46
388.328	424.31
388.707	382.05
389.087	408.49
389.466	438.55
389.846	419.34
390.225	441.71
390.605	442.16
390.984	429.28
391.363	456.4
391.743	428.15
392.122	448.27
392.501	440.36
392.881	442.16
393.26	449.39
393.639	453.69
394.018	449.17
394.397	450.52
394.776	464.08
395.155	449.62
395.534	467.25
395.913	484.65
396.292	474.25
396.671	486.91
397.05	508.83
397.429	483.29
397.808	498.43
398.186	467.25
398.565	483.52
398.944	493.24
399.323	507.25
399.701	512.44
400.08	519.45
400.458	532.1
400.837	504.31
401.215	529.84
401.594	521.03
401.972	534.59
402.351	529.62
402.729	540.92
403.107	537.08
403.486	536.17
403.864	557.87
404.242	518.77
404.62	542.27
404.999	553.12
405.377	587.47
405.755	566.45
406.133	575.27
406.511	576.85
406.889	579.79
407.267	601.93
407.645	585.21
408.023	597.19
408.401	622.05
408.779	610.29
409.156	624.76
409.534	622.5
409.912	599.67
410.29	650.52
410.667	628.6
411.045	663.17
411.422	647.58
411.8	652.1
412.178	682.84
412.555	663.85
412.933	653.01
413.31	681.03
413.687	707.92
414.065	717.64
414.442	679.45
414.819	694.59
415.197	714.92
415.574	702.95
415.951	709.05
416.328	734.36
416.705	729.39
417.082	703.17
417.46	740.46
417.837	762.16
418.214	763.74
418.591	749.5
418.967	749.27
419.344	746.11
419.721	761.48
420.098	764.87
420.475	778.65
420.852	805.09
421.228	802.83
421.605	808.26
421.982	798.54
422.358	802.38
422.735	808.48
423.111	831.98
423.488	855.26
423.864	842.15
424.241	864.3
424.617	831.31
424.994	869.5
425.37	872.43
425.746	870.4
426.123	866.79
426.499	874.69
426.875	885.09
427.251	898.42
427.627	933.9
428.003	909.72
428.379	930.96
428.756	954.69
429.132	977.06
429.507	956.05
429.883	982.04
430.259	985.2
430.635	960.57
431.011	986.56
431.387	1005.31
431.763	1023.84
432.138	1003.28
432.514	1030.4
432.89	1030.17
433.265	1091.86
433.641	1082.15
434.016	1100.45
434.392	1104.74
434.767	1123.28
435.143	1128.02
435.518	1127.34
435.894	1140
436.269	1164.18
436.644	1196.49
437.02	1194.69
437.395	1190.17
437.77	1198.53
438.145	1228.81
438.52	1219.54
438.895	1219.09
439.271	1237.17
439.646	1266.32
440.021	1275.59
440.395	1246.21
440.77	1279.88
441.145	1283.27
441.52	1296.83
441.895	1292.08
442.27	1328.24
442.645	1307.9
443.019	1318.52
443.394	1351.07
443.769	1345.19
444.143	1343.38
444.518	1365.98
444.892	1349.71
445.267	1389.94
445.641	1397.84
446.016	1398.75
446.39	1426.77
446.764	1412.08
447.139	1417.73
447.513	1438.52
447.887	1416.83
448.262	1449.14
448.636	1458.18
449.01	1467.67
449.384	1471.74
449.758	1488.01
450.132	1498.86
450.506	1511.29
450.88	1507.67
451.254	1518.52
451.628	1553.77
452.002	1528.91
452.376	1580.21
452.75	1606.43
453.123	1574.34
453.497	1604.17
453.871	1619.76
454.244	1644.17
454.618	1661.34
454.992	1666.31
455.365	1712.64
455.739	1729.36
456.112	1770.72
456.486	1765.29
456.859	1796.93
457.232	1788.34
457.606	1822.01
457.979	1820.21
458.352	1832.41
458.725	1873.76
459.099	1881
459.472	1925.74
459.845	1941.79
460.218	1957.6
460.591	1956.47
460.964	1980.88
461.337	2007.55
461.71	2013.65
462.083	2064.04
462.456	2081.22
462.829	2101.1
463.201	2132.06
463.574	2142.68
463.947	2173.42
464.32	2205.73
464.692	2234.43
465.065	2253.42
465.438	2271.72
465.81	2316.24
466.183	2343.36
466.555	2391.26
466.928	2392.17
467.3	2413.41
467.672	2418.83
468.045	2526.85
468.417	2534.99
468.789	2544.26
469.161	2554.88
469.534	2636.68
469.906	2680.97
470.278	2680.3
470.65	2727.75
471.022	2826.51
471.394	2831.93
471.766	2849.33
472.138	2909.9
472.51	2972.72
472.882	2997.58
473.253	3054.52
473.625	3109.21
473.997	3207.74
474.369	3191.92
474.74	3243.22
475.112	3304.01
475.484	3439.15
475.855	3431.01
476.227	3475.3
476.598	3575.19
476.97	3626.03
477.341	3685.02
477.713	3803.88
478.084	3778.35
478.455	3921.17
478.827	3944.22
479.198	4062.86
479.569	4091.56
479.94	4233.25
480.311	4294.04
480.682	4358.67
481.053	4491.77
481.424	4533.36
481.795	4607.03
482.166	4700.13
482.537	4739.9
482.908	4859.9
483.279	4896.74
483.65	5058.99
484.021	5113.45
484.391	5212.21
484.762	5261.02
485.133	5309.61
485.503	5393.9
485.874	5486.1
486.244	5509.15
486.615	5636.38
486.985	5724.96
487.356	5929.7
487.726	5844.51
488.097	6038.17
488.467	6021
488.837	6129.7
489.207	6254.44
489.578	6353.65
489.948	6349.13
490.318	6512.06
490.688	6549.57
491.058	6612.17
491.428	6675.67
491.798	6813.97
492.168	6980.3
492.538	6939.62
492.908	6983.91
493.278	7042.67
493.648	7150.69
494.017	7231.59
494.387	7363.79
494.757	7434.75
495.126	7509.32
495.496	7578.47
495.866	7594.29
496.235	7654.18
496.605	7717.9
496.974	7800.16
497.344	7889.88
497.713	7934.4
498.082	7925.58
498.452	7997.67
498.821	8066.14
499.19	8077.67
499.559	8263.88
499.928	8305.91
500.298	8342.75
500.667	8385.01
501.036	8388.62
501.405	8546.36
501.774	8557.2
502.143	8660.7
502.512	8667.71
502.88	8760.81
503.249	8788.84
503.618	8858.21
503.987	8894.37
504.356	9010.3
504.724	8958.78
505.093	9035.16
505.462	9074.48
505.83	9235.15
506.199	9257.98
506.567	9358.77
506.936	9309.05
507.304	9454.13
507.672	9595.82
508.041	9620
508.409	9718.08
508.777	9745.87
509.145	9864.29
509.514	9846.89
509.882	9934.34
510.25	10086.2
510.618	10108.12
510.986	10169.14
511.354	10279.87
511.722	10320.1
512.09	10409.59
512.458	10426.08
512.826	10569.13
513.193	10577.72
513.561	10698.17
513.929	10810.48
514.297	10898.84
514.664	10972.06
515.032	11001.66
515.4	11057.48
515.767	11210.02
516.135	11322.78
516.502	11207.98
516.869	11483.23
517.237	11519.61
517.604	11458.82
517.972	11681.19
518.339	11817.23
518.706	11782.43
519.073	11838.25
519.44	12036.66
519.808	12090.67
520.175	12120.5
520.542	12306.48
520.909	12370.89
521.276	12437.33
521.643	12606.82
522.009	12711.22
522.376	12825.34
522.743	12860.37
523.11	13020.36
523.477	13142.85
523.843	13256.97
524.21	13316.63
524.577	13520.24
524.943	13547.13
525.31	13689.05
525.676	13815.82
526.043	13851.98
526.409	13905.09
526.776	14179.66
527.142	14126.55
527.508	14273.89
527.874	14382.59
528.241	14504.84
528.607	14537.61
528.973	14757.72
529.339	14691.73
529.705	14911.16
530.071	14903.7
530.437	15007.88
530.803	15060.99
531.169	15199.29
531.535	15250.59
531.901	15287.2
532.267	15384.37
532.632	15470.92
532.998	15480.41
533.364	15648.54
533.73	15716.34
534.095	15907.29
534.461	15914.3
534.826	16046.72
535.192	16042.88
535.557	16247.85
535.923	16181.41
536.288	16248.75
536.653	16328.53
537.019	16326.04
537.384	16381.41
537.749	16534.17
538.114	16535.75
538.479	16626.37
538.845	16746.59
539.21	16757.67
539.575	16702.07
539.94	16814.84
540.305	16999.69
540.67	17030.88
541.034	17033.59
541.399	17084.66
541.764	17184.32
542.129	17296.18
542.494	17314.94
542.858	17304.54
543.223	17477.65
543.587	17592.45
543.952	17581.15
544.316	17630.64
544.681	17611.2
545.045	17788.15
545.41	17773.46
545.774	17888.03
546.138	17892.55
546.503	18005.54
546.867	18058.42
547.231	18146.56
547.595	18125.54
547.959	18301.13
548.324	18348.36
548.688	18358.3
549.052	18511.29
549.416	18599.88
549.779	18552.65
550.143	18727.78
550.507	18894.33
550.871	18915.8
551.235	18981.11
551.599	19186.53
551.962	19263.82
552.326	19278.05
552.689	19427.2
553.053	19280.54
553.417	19500.65
553.78	19741.77
554.143	19699.51
554.507	19848.43
554.87	19930.01
555.234	20203.9
555.597	20116
555.96	20241.87
556.323	20383.11
556.686	20513.05
557.05	20658.58
557.413	20778.13
557.776	20870.55
558.139	21065.8
558.502	21094.95
558.865	21161.39
559.228	21441.16
559.59	21548.28
559.953	21564.77
560.316	21849.06
560.679	21980.81
561.041	22178.54
561.404	22289.05
561.767	22406.78
562.129	22415.37
562.492	22783.5
562.854	22791.18
563.217	22890.84
563.579	22929.26
563.941	23313.88
564.304	23360.2
564.666	23506.19
565.028	23615.79
565.39	23838.16
565.753	24009.91
566.115	24206.06
566.477	24328.09
566.839	24407.41
567.201	24693.05
567.563	24841.52
567.925	24992.25
568.287	25120.16
568.648	25269.53
569.01	25538.45
569.372	25617.77
569.734	25785.45
570.095	26001.72
570.457	26151.77
570.819	26331.43
571.18	26412.55
571.542	26744.52
571.903	26815.48
572.265	27022.48
572.626	27134.57
572.987	27378.86
573.349	27309.48
573.71	27619.53
574.071	27830.37
574.432	27871.05
574.794	28330.92
575.155	28265.39
575.516	28292.28
575.877	28542.67
576.238	28696.34
576.599	28737.46
576.96	29049.09
577.32	29136.55
577.681	29212.25
578.042	29481.85
578.403	29585.13
578.763	29673.94
579.124	29740.83
579.485	30002.29
579.845	30082.06
580.206	30097.65
580.566	30204.54
580.927	30360.25
581.287	30459.45
581.648	30353.24
582.008	30714.81
582.368	30681.59
582.728	30971.08
583.089	30738.09
583.449	30927.24
583.809	31007.46
584.169	31166.1
584.529	31089.95
584.889	31413.33
585.249	31254.91
585.609	31245.2
585.969	31468.92
586.329	31400.22
586.688	31540.78
587.048	31489.93
587.408	31527.45
587.768	31649.48
588.127	31506.43
588.487	31635.24
588.846	31936.25
589.206	31816.93
589.565	31818.97
589.925	32012.18
590.284	31873.88
590.643	31973.54
591.003	32082.24
591.362	32176.24
591.721	32128.79
592.08	32136.25
592.44	32342.34
592.799	32362.23
593.158	32329.01
593.517	32300.53
593.876	32396.13
594.235	32411.27
594.593	32450.81
594.952	32507.99
595.311	32253.08
595.67	32479.06
596.029	32652.62
596.387	32741.2
596.746	32674.76
597.104	32554.31
597.463	32602
597.822	32716.57
598.18	32644.71
598.538	32565.61
598.897	32825.94
599.255	32499.17
599.613	32979.84
599.972	32901.2
600.33	32930.57
600.688	32798.6
601.046	32894.87
601.404	33126.28
601.762	32989.1
602.12	33140.06
602.478	33102.77
602.836	33206.73
603.194	33076.79
603.552	33190
603.91	32967.86
604.268	33238.59
604.625	33176.22
604.983	33236.1
605.341	33150
605.698	33319.72
606.056	33402.2
606.413	33347.74
606.771	33387.29
607.128	33423.9
607.485	33279.04
607.843	33420.96
608.2	33590.9
608.557	33432.93
608.914	33492.59
609.272	33526.04
609.629	33773.49
609.986	33745.92
610.343	33591.12
610.7	33796.09
611.057	33714.51
611.414	33850.55
611.771	33797.9
612.127	34053.48
612.484	33913.15
612.841	34112.46
613.198	33959.02
613.554	34033.82
613.911	34219.13
614.267	34116.98
614.624	34164.89
614.98	34316.08
615.337	34338.67
615.693	34192.01
616.05	34392.68
616.406	34653.92
616.762	34370.08
617.118	34381.84
617.475	34450.99
617.831	34634.94
618.187	34537.09
618.543	34602.17
618.899	34811.66
619.255	34713.8
619.611	34676.74
619.967	34966.45
620.323	34826.12
620.678	34669.96
621.034	34616.18
621.39	34720.58
621.746	34689.4
622.101	35052.55
622.457	34752.67
622.812	34876.29
623.168	34849.17
623.523	34788.83
623.879	34883.07
624.234	34763.29
624.589	34863.86
624.945	34843.07
625.3	35008.03
625.655	34886.46
626.01	34964.42
626.365	34799
626.72	34974.14
627.075	34897.3
627.43	34815.05
627.785	34796.74
628.14	34798.1
628.495	34801.49
628.85	34788.38
629.205	34721.71
629.559	34970.52
629.914	34658.44
630.269	34797.87
630.623	34632.22
630.978	34489.63
631.332	34829.06
631.687	34933.01
632.041	34530.31
632.396	34738.21
632.75	34554.49
633.104	34582.96
633.459	34390.65
633.813	34474.49
634.167	34367.37
634.521	34298.9
634.875	34459.12
635.229	34391.33
635.583	34262.97
635.937	34218.22
636.291	34058.91
636.645	34138.68
636.999	34117.21
637.352	34178.68
637.706	34046.03
638.06	34107.94
638.413	34114.72
638.767	34098.45
639.121	34072.01
639.474	33821.4
639.828	33889.42
640.181	33889.87
640.534	33939.81
640.888	33739.59
641.241	33534.63
641.594	33734.4
641.947	33754.73
642.301	33668.86
642.654	33756.99
643.007	33704.11
643.36	33635.19
643.713	33596.09
644.066	33732.36
644.419	33540.05
644.771	33209.89
645.124	32947.52
645.477	32972.83
645.83	32805.83
646.182	32528.78
646.535	32529.46
646.888	32663.46
647.24	32396.58
647.593	32664.82
647.945	32534.88
648.298	32432.28
648.65	32329.46
649.002	32277.26
649.355	32393.19
649.707	32384.6
650.059	32406.07
650.411	32835.44
650.763	32921.31
651.115	33202.66
651.467	33078.14
651.819	33142.09
652.171	32954.53
652.523	33025.49
652.875	32956.34
653.227	32879.28
653.578	33192.94
653.93	33039.05
654.282	32864.36
654.633	32928.54
654.985	33027.75
655.337	33063.9
655.688	32933.29
656.039	33146.84
656.391	32820.97
656.742	32916.79
657.094	32928.31
657.445	32997.24
657.796	32929.9
658.147	32920.18
658.498	32787.75
658.849	32864.59
659.2	32928.09
659.551	32738.94
659.902	32985.49
660.253	32578.95
660.604	32848.09
660.955	32813.52
661.306	32891.71
661.656	32710.69
662.007	32832.72
662.358	32880.63
662.708	32760.41
663.059	32848.77
663.409	32605.61
663.76	32823.46
664.11	32690.58
664.461	32851.03
664.811	32764.25
665.161	32853.06
665.511	32733.29
665.862	32689.45
666.212	32834.76
666.562	32809.9
666.912	32713.18
667.262	32733.29
667.612	32724.93
667.962	32756.12
668.312	32642.22
668.662	32834.31
669.011	32748.66
669.361	32603.13
669.711	32646.74
670.06	32577.59
670.41	32484.71
670.76	32530.59
671.109	32784.14
671.459	32480.42
671.808	32546.18
672.157	32503.24
672.507	32357.26
672.856	32313.19
673.205	32438.84
673.554	32614.2
673.904	32368.33
674.253	32472.73
674.602	32309.57
674.951	31934.89
675.3	31735.35
675.649	32406.07
675.998	32341.21
676.346	32317.03
676.695	32296.47
677.044	32052.86
677.393	32169.24
677.741	32251.27
678.09	32068
678.438	32047.21
678.787	32025.06
679.135	32130.6
679.484	31810.6
679.832	31930.38
680.181	31732.41
680.529	31831.85
680.877	31918.62
681.225	31565.19
681.573	32018.73
681.922	31617.39
682.27	31640.44
682.618	31494.45
682.966	31474.34
683.314	31494.23
683.661	31404.97
684.009	31230.51
684.357	31231.64
684.705	31068.25
685.053	31155.03
685.4	31164.52
685.748	30947.8
686.095	30916.39
686.443	30883.17
686.79	30745.77
687.138	30848.37
687.485	30747.58
687.832	30583.74
688.18	30686.79
688.527	30550.3
688.874	30444.09
689.221	30360.25
689.568	30395.05
689.915	30196.64
690.262	30171.55
690.609	30076.41
690.956	29979.69
691.303	30115.06
691.65	29818.34
691.997	29809.98
692.344	29646.37
692.69	29673.03
693.037	29641.62
693.383	29271.46
693.73	29540.16
694.077	29312.59
694.423	29244.12
694.769	29141.3
695.116	29155.98
695.462	28896.78
695.808	28874.18
696.155	28867.86
696.501	28670.57
696.847	28664.92
697.193	28356.23
697.539	28506.74
697.885	28336.35
698.231	28227.65
698.577	28178.38
698.923	28161.21
699.269	28048.67
699.614	27787.66
699.96	27758.51
700.306	27733.42
700.651	27601
700.997	27488.01
701.342	27518.51
701.688	27422.25
702.033	27375.47
702.379	27335.69
702.724	27248.01
703.069	27162.14
703.415	26808.93
703.76	26893.22
704.105	26946.55
704.45	26857.29
704.795	26662.94
705.14	26576.84
705.485	26624.07
705.83	26450.75
706.175	26491.42
706.52	26377.07
706.865	26119.23
707.209	26127.14
707.554	26042.85
707.899	26173.69
708.243	25839.46
708.588	25941.38
708.932	25589.3
709.277	25762.85
709.621	25564.67
709.966	25560.37
710.31	25564.44
710.654	25312.02
710.998	25403.99
711.342	25408.29
711.687	25349.98
712.031	25150.67
712.375	25084
712.719	25213.49
713.063	25126.26
713.407	25137.79
713.75	25107.28
714.094	25076.32
714.438	24887.85
714.782	25028.18
715.125	24754.52
715.469	24848.98
715.812	24700.28
716.156	24669.55
716.499	24770.11
716.843	24673.62
717.186	24467.52
717.53	24560.4
717.873	24610.57
718.216	24506.62
718.559	24351.59
718.902	24213.97
719.246	24390.01
719.589	24181.43
719.932	24185.95
720.275	24261.2
720.617	24170.35
720.96	24165.38
721.303	24122.44
721.646	24117.25
721.989	23904.15
722.331	24011.71
722.674	24072.73
723.016	24004.93
723.359	23977.59
723.701	24021.2
724.044	23874.09
724.386	23842.68
724.729	23926.74
725.071	23816.92
725.413	23804.04
725.755	23831.15
726.097	23808.78
726.439	23602.46
726.782	23724.72
727.124	23817.14
727.465	23708.9
727.807	23748.67
728.149	23708.22
728.491	23615.57
728.833	23733.3
729.175	23563.59
729.516	23607.2
729.858	23580.99
730.199	23644.94
730.541	23456.7
730.882	23421.22
731.224	23600.88
731.565	23516.59
731.906	23610.14
732.248	23590.03
732.589	23447.89
732.93	23397.27
733.271	23526.08
733.612	23453.08
733.953	23498.28
734.294	23397.72
734.635	23402.69
734.976	23417.6
735.317	23209.47
735.658	23351.84
735.999	23328.12
736.339	23339.64
736.68	23365.85
737.021	23405.85
737.361	23360.43
737.702	23411.96
738.042	23389.81
738.383	23309.58
738.723	23443.37
739.063	23344.39
739.404	23466.64
739.744	23300.77
740.084	23335.57
740.424	23346.42
740.764	23283.82
741.104	23358.4
741.444	23295.12
741.784	23195.92
742.124	23265.74
742.464	23322.69
742.804	23312.3
743.143	23249.02
743.483	23176.93
743.823	23099.19
744.162	23183.26
744.502	23210.83
744.841	23160.66
745.181	23260.09
745.52	23186.65
745.86	23133.32
746.199	23233.2
746.538	23186.65
746.877	23098.52
747.216	23299.64
747.556	23179.42
747.895	23295.8
748.234	23169.48
748.573	23127.44
748.911	23179.87
749.25	23157.27
749.589	23120.44
749.928	23171.51
750.267	23159.98
750.605	23166.99
750.944	23120.66
751.283	23088.57
751.621	23200.66
751.96	22995.24
752.298	22989.37
752.636	23096.03
752.975	23096.71
753.313	23045.64
753.651	23058.29
753.989	22921.12
754.327	22964.06
754.666	22807.23
755.004	22903.04
755.342	22857.17
755.679	22808.58
