Data from tablewood_dark_bookshelf_FLMS001491_00052.txt Node
Date: Wed Feb 08 14:15:03 GMT 2017
User: dcchb
Spectrometer: FLMS00149
Trigger mode: 0
Integration Time (sec): 2.000000E-2
Scans to average: 10
Electric dark correction enabled: true
Nonlinearity correction enabled: false
Boxcar width: 0
XAxis mode: Wavelengths
Number of Pixels in Spectrum: 2048
>>>>>Begin Spectral Data<<<<<
341.393	4.72
341.776	4.72
342.16	4.72
342.543	-57.88
342.927	-69.18
343.31	-60.14
343.693	-79.12
344.077	-64.66
344.46	-62.17
344.843	-31.89
345.226	-46.13
345.61	-37.32
345.993	-14.04
346.376	-9.97
346.759	6.98
347.142	16.47
347.525	36.35
347.908	54.89
348.291	88.56
348.674	95.11
349.057	107.09
349.44	105.51
349.823	144.15
350.206	149.8
350.588	171.27
350.971	194.32
351.354	215.56
351.737	217.59
352.119	244.71
352.502	231.6
352.884	280.64
353.267	271.6
353.65	276.8
354.032	274.09
354.414	293.75
354.797	303.01
355.179	301.21
355.562	287.87
355.944	290.59
356.326	329.68
356.709	315.9
357.091	332.39
357.473	346.18
357.855	335.33
358.238	325.39
358.62	330.36
359.002	341.21
359.384	330.58
359.766	337.14
360.148	340.75
360.53	323.13
360.912	347.08
361.294	330.81
361.676	343.01
362.057	321.09
362.439	324.93
362.821	310.25
363.203	318.38
363.584	348.66
363.966	327.87
364.348	314.54
364.729	318.83
365.111	316.12
365.493	328.1
365.874	305.95
366.256	307.99
366.637	311.38
367.019	326.52
367.4	307.08
367.781	314.54
368.163	338.72
368.544	306.18
368.925	332.17
369.306	312.05
369.688	321.55
370.069	312.51
370.45	313.64
370.831	293.98
371.212	314.99
371.593	311.15
371.974	326.74
372.355	300.75
372.736	329.45
373.117	326.97
373.498	323.35
373.879	307.08
374.26	307.76
374.641	305.27
375.021	302.11
375.402	324.48
375.783	328.78
376.163	327.42
376.544	332.39
376.925	345.95
377.305	326.06
377.686	335.56
378.066	336.91
378.447	359.28
378.827	314.54
379.208	346.86
379.588	341.21
379.968	374.65
380.349	357.93
380.729	357.48
381.109	348.89
381.489	342.56
381.87	345.95
382.25	343.47
382.63	339.85
383.01	341.43
383.39	367.65
383.77	359.96
384.15	364.48
384.53	357.7
384.91	367.87
385.29	344.14
385.67	380.3
386.049	385.27
386.429	357.7
386.809	383.24
387.189	383.69
387.568	385.72
387.948	370.81
388.328	373.52
388.707	400.41
389.087	373.07
389.466	379.85
389.846	389.34
390.225	385.5
390.605	396.12
390.984	386.18
391.363	406.51
391.743	397.7
392.122	389.57
392.501	405.16
392.881	383.92
393.26	404.48
393.639	404.25
394.018	399.74
394.397	403.58
394.776	415.1
395.155	415.78
395.534	421.66
395.913	413.29
396.292	438.83
396.671	415.33
397.05	420.75
397.429	428.66
397.808	440.86
398.186	443.35
398.565	439.28
398.944	435.89
399.323	447.19
399.701	464.59
400.08	437.47
400.458	434.31
400.837	454.42
401.215	453.75
401.594	468.89
401.972	453.52
402.351	444.93
402.729	470.69
403.107	477.02
403.486	459.62
403.864	460.3
404.242	475.21
404.62	467.08
404.999	484.25
405.377	487.19
405.755	491.71
406.133	493.52
406.511	494.65
406.889	504.37
407.267	511.37
407.645	494.42
408.023	515.89
408.401	530.58
408.779	505.72
409.156	509.34
409.534	524.03
409.912	530.58
410.29	537.58
410.667	535.55
411.045	541.2
411.422	548.88
411.8	548.66
412.178	557.02
412.555	563.35
412.933	564.48
413.31	571.48
413.687	582.1
414.065	572.61
414.442	563.57
414.819	581.2
415.197	569.22
415.574	600.18
415.951	612.84
416.328	613.74
416.705	616.9
417.082	612.16
417.46	633.18
417.837	655.32
418.214	618.49
418.591	644.47
418.967	633.18
419.344	659.84
419.721	632.5
420.098	662.33
420.475	658.71
420.852	676.79
421.228	654.64
421.605	682.67
421.982	666.62
422.358	659.62
422.735	690.12
423.111	690.35
423.488	670.69
423.864	709.33
424.241	688.99
424.617	711.82
424.994	704.81
425.37	716.79
425.746	743.68
426.123	735.55
426.499	729.67
426.875	746.39
427.251	760.4
427.627	763.79
428.003	737.13
428.379	776
428.756	768.31
429.132	787.07
429.507	801.08
429.883	816.45
430.259	808.54
430.635	801.53
431.011	831.59
431.387	837.92
431.763	826.16
432.138	850.57
432.514	839.05
432.89	866.62
433.265	874.3
433.641	870.01
434.016	894.41
434.392	906.39
434.767	920.63
435.143	921.3
435.518	894.19
435.894	942.32
436.269	928.31
436.644	945.03
437.02	962.43
437.395	980.28
437.77	991.13
438.145	989.78
438.52	999.72
438.895	1020.74
439.271	1015.09
439.646	1025.26
440.021	1039.04
440.395	1050.11
440.77	1041.3
441.145	1046.27
441.52	1046.72
441.895	1062.09
442.27	1083.33
442.645	1071.81
443.019	1080.85
443.394	1091.92
443.769	1090.79
444.143	1086.27
444.518	1146.61
444.892	1094.18
445.267	1119.94
445.641	1145.48
446.016	1135.08
446.39	1178.25
446.764	1138.7
447.139	1139.83
447.513	1133.28
447.887	1155.2
448.262	1163.33
448.636	1174.18
449.01	1196.32
449.384	1178.92
449.758	1203.56
450.132	1198.81
450.506	1200.17
450.88	1189.54
451.254	1231.58
451.628	1253.5
452.002	1282.88
452.376	1260.73
452.75	1266.61
453.123	1269.09
453.497	1308.86
453.871	1305.25
454.244	1336.89
454.618	1349.77
454.992	1348.41
455.365	1341.41
455.739	1375.75
456.112	1383.89
456.486	1416.66
456.859	1443.1
457.232	1422.53
457.606	1438.13
457.979	1446.94
458.352	1486.49
458.725	1516.99
459.099	1509.31
459.472	1528.52
459.845	1553.6
460.218	1576.43
460.591	1611.23
460.964	1596.99
461.337	1611.68
461.71	1627.5
462.083	1679.02
462.456	1648.52
462.829	1692.58
463.201	1745.01
463.574	1706.37
463.947	1753.6
464.32	1759.47
464.692	1791.11
465.065	1782.75
465.438	1811.45
465.81	1821.39
466.183	1841.73
466.555	1914.95
466.928	1877.44
467.3	1896.19
467.672	1945.46
468.045	1964.89
468.417	1954.27
468.789	1992.46
469.161	2024.1
469.534	2033.14
469.906	2076.98
470.278	2104.32
470.65	2126.02
471.022	2156.53
471.394	2181.38
471.766	2205.34
472.138	2239.23
472.51	2264.09
472.882	2306.35
473.253	2336.18
473.625	2365.79
473.997	2406.46
474.369	2426.12
474.74	2415.05
475.112	2519
475.484	2526.01
475.855	2579.79
476.227	2580.24
476.598	2643.07
476.97	2675.83
477.341	2742.27
477.713	2783.18
478.084	2796.06
478.455	2833.34
478.827	2893.91
479.198	2946.56
479.569	2948.59
479.94	3040.34
480.311	3071.76
480.682	3157.18
481.053	3211.19
481.424	3224.75
481.795	3279.66
482.166	3320.11
482.537	3336.61
482.908	3396.72
483.279	3433.78
483.65	3481.24
484.021	3567.79
484.391	3603.49
484.762	3637.16
485.133	3659.54
485.503	3734.11
485.874	3802.58
486.244	3817.95
486.615	3926.2
486.985	3940.43
487.356	3996.02
487.726	4035.35
488.097	4142.01
488.467	4126.19
488.837	4194.21
489.207	4287.54
489.578	4326.64
489.948	4366.64
490.318	4443.92
490.688	4411.61
491.058	4506.29
491.428	4569.34
491.798	4579.96
492.168	4697.25
492.538	4732.5
492.908	4762.56
493.278	4777.47
493.648	4848.88
494.017	4919.39
494.387	4930.46
494.757	5002.1
495.126	5030.57
495.496	5087.97
495.866	5108.54
496.235	5112.38
496.605	5173.4
496.974	5231.02
497.344	5292.71
497.713	5268.08
498.082	5345.82
498.452	5396.67
498.821	5415.65
499.19	5422.43
499.559	5492.26
499.928	5537
500.298	5528.41
500.667	5593.72
501.036	5647.96
501.405	5685.7
501.774	5686.6
502.143	5771.35
502.512	5776.09
502.88	5859.03
503.249	5879.82
503.618	5905.35
503.987	5935.18
504.356	5981.96
504.724	6039.81
505.093	6033.49
505.462	6087.27
505.83	6059.02
506.199	6154.61
506.567	6193.03
506.936	6231.22
507.304	6309.86
507.672	6350.54
508.041	6407.03
508.409	6406.58
508.777	6457.2
509.145	6567.48
509.514	6560.93
509.882	6573.81
510.25	6668.5
510.618	6630.53
510.986	6737.42
511.354	6743.07
511.722	6859.68
512.09	6887.47
512.458	6901.71
512.826	6969.28
513.193	7020.8
513.561	7027.36
513.929	7052.89
514.297	7146.22
514.664	7215.83
515.032	7269.16
515.4	7316.84
515.767	7275.26
516.135	7430.51
516.502	7319.33
516.869	7451.75
517.237	7520.9
517.604	7524.75
517.972	7596.38
518.339	7683.84
518.706	7703.05
519.073	7712.09
519.44	7806.09
519.808	7851.29
520.175	7888.35
520.542	8028.01
520.909	8075.69
521.276	8047.44
521.643	8174.9
522.009	8209.7
522.376	8313.43
522.743	8289.25
523.11	8459.41
523.477	8462.57
523.843	8521.33
524.21	8625.51
524.577	8677.71
524.943	8716.13
525.31	8725.39
525.676	8825.05
526.043	8918.38
526.409	8960.64
526.776	9064.59
527.142	9062.11
527.508	9141.88
527.874	9242.89
528.241	9274.53
528.607	9303.91
528.973	9390.91
529.339	9423.68
529.705	9496.9
530.071	9542.77
530.437	9592.04
530.803	9704.35
531.169	9696.89
531.535	9756.78
531.901	9761.07
532.267	9827.96
532.632	9906.83
532.998	9895.08
533.364	9998.58
533.73	10125.58
534.095	10157.9
534.461	10157.44
534.826	10272.47
535.192	10292.36
535.557	10422.97
535.923	10329.64
536.288	10351.56
536.653	10448.96
537.019	10460.71
537.384	10479.47
537.749	10542.29
538.114	10531.45
538.479	10570.54
538.845	10655.28
539.21	10698.22
539.575	10683.98
539.94	10754.49
540.305	10831.1
540.67	10822.06
541.034	10908.16
541.399	10921.27
541.764	10938.67
542.129	11009.4
542.494	11014.37
542.858	11126.23
543.223	11166.23
543.587	11148.61
543.952	11096.18
544.316	11166.46
544.681	11187.47
545.045	11294.82
545.41	11397.41
545.774	11348.83
546.138	11354.25
546.503	11402.61
546.867	11438.54
547.231	11556.05
547.595	11566.9
547.959	11635.37
548.324	11674.92
548.688	11612.32
549.052	11748.14
549.416	11765.54
549.779	11735.93
550.143	11785.65
550.507	11945.19
550.871	11891.86
551.235	11879.21
551.599	11994.46
551.962	12057.51
552.326	12157.84
552.689	12161.23
553.053	12158.75
553.417	12199.2
553.78	12379.08
554.143	12282.59
554.507	12357.16
554.87	12453.88
555.234	12605.74
555.597	12567.78
555.96	12575.46
556.323	12708.11
556.686	12692.97
557.05	12748.11
557.413	12843.93
557.776	12885.96
558.139	13004.15
558.502	12992.17
558.865	13028.56
559.228	13095.9
559.59	13179.51
559.953	13165.73
560.316	13343.8
560.679	13351.71
561.041	13455.21
561.404	13450.92
561.767	13591.7
562.129	13610.69
562.492	13797.12
562.854	13785.82
563.217	13741.31
563.579	13801.87
563.941	13945.59
564.304	13993.73
564.666	14083.9
565.028	14058.59
565.39	14163.22
565.753	14240.73
566.115	14307.84
566.477	14405.24
566.839	14518.46
567.201	14593.71
567.563	14565.92
567.925	14679.36
568.287	14769.3
568.648	14717.55
569.01	14780.15
569.372	14940.37
569.734	14882.07
570.095	15111.66
570.457	15083.64
570.819	15178.33
571.18	15242.28
571.542	15307.14
571.903	15437.31
572.265	15485.67
572.626	15416.29
572.987	15520.24
573.349	15569.05
573.71	15723.17
574.071	15736.06
574.432	15776.73
574.794	15974.24
575.155	15985.54
575.516	15963.39
575.877	16029.61
576.238	16160.45
576.599	16106.67
576.96	16235.7
577.32	16286.55
577.681	16350.95
578.042	16404.96
578.403	16430.05
578.763	16525.64
579.124	16575.58
579.485	16687.44
579.845	16658.29
580.206	16735.8
580.566	16652.19
580.927	16752.07
581.287	16903.48
581.648	16766.31
582.008	16875.01
582.368	16903.03
582.728	17028.68
583.089	16995.91
583.449	17028.9
583.809	17113.65
584.169	17103.02
584.529	17244.49
584.889	17256.24
585.249	17227.32
585.609	17183.7
585.969	17365.84
586.329	17344.15
586.688	17398.84
587.048	17394.32
587.408	17376.24
587.768	17380.76
588.127	17430.47
588.487	17407.65
588.846	17573.75
589.206	17470.47
589.565	17491.49
589.925	17592.96
590.284	17611.03
590.643	17705.72
591.003	17666.85
591.362	17792.95
591.721	17731.71
592.08	17831.14
592.44	17841.08
592.799	17841.31
593.158	17877.69
593.517	17921.76
593.876	18070.01
594.235	17892.83
594.593	18057.58
594.952	18025.03
595.311	18028.2
595.67	18161.53
596.029	18229.32
596.387	18137.8
596.746	18326.95
597.104	18262.99
597.463	18221.41
597.822	18326.72
598.18	18310.22
598.538	18321.98
598.897	18422.09
599.255	18297.34
599.613	18557.22
599.972	18462.31
600.33	18649.42
600.688	18504.34
601.046	18655.07
601.404	18600.16
601.762	18725.58
602.12	18694.62
602.478	18760.16
602.836	18789.99
603.194	18683.32
603.552	18764
603.91	18758.12
604.268	18874.05
604.625	18794.28
604.983	18886.71
605.341	18823.21
605.698	18951.34
606.056	18963.99
606.413	19053.03
606.771	19088.51
607.128	19139.81
607.485	19040.83
607.843	19093.48
608.2	19146.36
608.557	19215.96
608.914	19069.75
609.272	19286.47
609.629	19343.19
609.986	19310.65
610.343	19305
610.7	19362.17
611.057	19398.56
611.414	19404.66
611.771	19476.97
612.127	19575.28
612.484	19526.01
612.841	19575.05
613.198	19521.27
613.554	19604.88
613.911	19700.02
614.267	19641.49
614.624	19695.73
614.98	19721.26
615.337	19765.1
615.693	19798.1
616.05	19809.17
616.406	19929.84
616.762	19836.29
617.118	19833.35
617.475	19880.58
617.831	19944.53
618.187	20053
618.543	19904.31
618.899	20068.14
619.255	20101.14
619.611	19974.81
619.967	20089.61
620.323	20218.65
620.678	20076.51
621.034	20027.92
621.39	20003.97
621.746	19983.18
622.101	20317.86
622.457	20052.55
622.812	20194.47
623.168	20212.32
623.523	20189.27
623.879	20278.31
624.234	20118.31
624.589	20211.87
624.945	20160.8
625.3	20315.14
625.655	20271.53
626.01	20261.36
626.365	20145.43
626.72	20140.01
627.075	20140.91
627.43	20208.93
627.785	20131.42
628.14	20133.91
628.495	20209.38
628.85	20138.65
629.205	20102.27
629.559	20306.78
629.914	20071.76
630.269	20161.25
630.623	20080.8
630.978	20095.26
631.332	20195.6
631.687	20193.79
632.041	20125.32
632.396	20121.25
632.75	20034.93
633.104	20051.87
633.459	20008.71
633.813	19980.92
634.167	20013.91
634.521	19875.38
634.875	19954.7
635.229	19877.42
635.583	19872.67
635.937	19927.13
636.291	19961.71
636.645	19867.25
636.999	19831.09
637.352	19890.52
637.706	19625.9
638.06	19839.45
638.413	19838.32
638.767	19690.53
639.121	19780.47
639.474	19634.03
639.828	19590.42
640.181	19662.28
640.534	19693.01
640.888	19682.62
641.241	19608.72
641.594	19675.84
641.947	19694.6
642.301	19554.03
642.654	19657.99
643.007	19653.92
643.36	19466.35
643.713	19519.68
644.066	19651.88
644.419	19474.94
644.771	19382.06
645.124	19271.33
645.477	19145.01
645.83	19099.13
646.182	18965.8
646.535	18922.64
646.888	18898.46
647.24	18728.74
647.593	18902.53
647.945	18805.35
648.298	18748.86
648.65	18766.26
649.002	18757.9
649.355	18758.57
649.707	18876.76
650.059	18792.47
650.411	19083.31
650.763	19137.77
651.115	19351.55
651.467	19205.12
651.819	19247.83
652.171	19186.59
652.523	19191.33
652.875	19220.03
653.227	19163.99
653.578	19133.71
653.93	19114.27
654.282	19084.89
654.633	19043.76
654.985	19097.77
655.337	19139.36
655.688	19169.41
656.039	19105.01
656.391	19080.15
656.742	19074.5
657.094	19097.77
657.445	19175.96
657.796	19139.81
658.147	18900.72
658.498	19075.63
658.849	19037.89
659.2	19020.04
659.551	19020.04
659.902	19060.49
660.253	19033.6
660.604	18996.53
660.955	18965.12
661.306	19155.63
661.656	19071.33
662.007	19023.43
662.358	19040.15
662.708	19056.65
663.059	18941.85
663.409	18934.39
663.76	18979.59
664.11	18973.71
664.461	19033.82
664.811	19075.4
665.161	19034.27
665.511	18942.3
665.862	18972.81
666.212	19073.59
666.562	19138.45
666.912	19092.58
667.262	19019.36
667.612	19039.7
667.962	19050.54
668.312	19043.31
668.662	19138.23
669.011	19084.44
669.361	19004.67
669.711	18945.69
670.06	18984.78
670.41	18930.55
670.76	18958.57
671.109	19027.04
671.459	19015.97
671.808	18864.56
672.157	19029.75
672.507	18834.5
672.856	18956.54
673.205	18832.47
673.554	18959.7
673.904	18842.64
674.253	18966.93
674.602	18870.21
674.951	18570.56
675.3	18577.56
675.649	18996.76
675.998	18862.53
676.346	18857.1
676.695	18956.08
677.044	18741.17
677.393	18952.47
677.741	18849.19
678.09	18776.65
678.438	18766.48
678.787	18838.35
679.135	18758.12
679.484	18670.44
679.832	18857.56
680.181	18665.24
680.529	18680.16
680.877	18663.44
681.225	18653.27
681.573	18730.55
681.922	18516.1
682.27	18511.35
682.618	18590.44
682.966	18449.2
683.314	18612.59
683.661	18522.2
684.009	18405.82
684.357	18441.75
684.705	18373.73
685.053	18403.78
685.4	18373.27
685.748	18354.74
686.095	18299.15
686.443	18239.27
686.79	18216.22
687.138	18210.57
687.485	18263.9
687.832	18035.66
688.18	18146.39
688.527	18031.14
688.874	18077.24
689.221	17999.5
689.568	18024.13
689.915	17937.81
690.262	17804.02
690.609	17829.33
690.956	17809.45
691.303	17831.14
691.65	17752.05
691.997	17696.46
692.344	17580.53
692.69	17576.46
693.037	17609
693.383	17573.07
693.73	17504.14
694.077	17519.06
694.423	17398.38
694.769	17360.65
695.116	17340.98
695.462	17341.89
695.808	17309.57
696.155	17250.37
696.501	17136.02
696.847	17207.43
697.193	17073.42
697.539	17161.1
697.885	16983.03
698.231	16958.4
698.577	16964.72
698.923	16902.8
699.269	16846.76
699.614	16824.16
699.96	16784.62
700.306	16738.06
700.651	16703.71
700.997	16642.7
701.342	16526.77
701.688	16603.6
702.033	16547.33
702.379	16515.7
702.724	16522.25
703.069	16429.6
703.415	16323.38
703.76	16298.75
704.105	16309.15
704.45	16196.38
704.795	16096.27
705.14	16123.84
705.485	16130.62
705.83	16012.66
706.175	16134.69
706.52	16028.93
706.865	15972.66
707.209	15902.15
707.554	15901.47
707.899	15953.9
708.243	15781.7
708.588	15793.68
708.932	15768.14
709.277	15753.23
709.621	15852.89
709.966	15724.76
710.31	15765.21
710.654	15519.11
710.998	15601.37
711.342	15609.96
711.687	15546.68
712.031	15483.18
712.375	15536.06
712.719	15461.49
713.063	15313.02
713.407	15463.75
713.75	15453.35
714.094	15346.23
714.438	15190.53
714.782	15275.5
715.125	15225.56
715.469	15244.32
715.812	15205
716.156	15006.58
716.499	15157.31
716.843	15045.68
717.186	15045.23
717.53	15108.95
717.873	15112.34
718.216	15103.76
718.559	15049.29
718.902	14976.3
719.246	14965.23
719.589	14932.01
719.932	14873.7
720.275	14897.66
720.617	14872.8
720.96	14887.49
721.303	14817.89
721.646	14805.91
721.989	14788.74
722.331	14842.07
722.674	14793.93
723.016	14842.29
723.359	14828.73
723.701	14817.21
724.044	14736.31
724.386	14708.29
724.729	14785.12
725.071	14665.12
725.413	14666.25
725.755	14677.1
726.097	14623.54
726.439	14539.48
726.782	14472.81
727.124	14695.18
727.465	14527.27
727.807	14506.26
728.149	14496.09
728.491	14504.9
728.833	14515.3
729.175	14501.96
729.516	14447.95
729.858	14473.72
730.199	14463.32
730.541	14414.96
730.882	14374.28
731.224	14426.71
731.565	14392.81
731.906	14362.08
732.248	14406.15
732.589	14330.89
732.93	14320.27
733.271	14221.74
733.612	14302.19
733.953	14377.9
734.294	14213.16
734.635	14287.51
734.976	14335.64
735.317	14202.76
735.658	14250.9
735.999	14253.16
736.339	14281.86
736.68	14231.69
737.021	14188.3
737.361	14272.36
737.702	14264
738.042	14241.63
738.383	14162.54
738.723	14210.45
739.063	14121.41
739.404	14222.65
739.744	14166.38
740.084	14088.41
740.424	14231.46
740.764	14090.67
741.104	14143.33
741.444	14191.69
741.784	14083.9
742.124	14105.36
742.464	14066.49
742.804	14093.39
743.143	14021.98
743.483	14073.73
743.823	13957.8
744.162	14008.64
744.502	13972.03
744.841	13891.36
745.181	14021.75
745.52	14028.3
745.86	14065.36
746.199	14058.81
746.538	13965.93
746.877	13971.36
747.216	14028.08
747.556	13979.49
747.895	13919.15
748.234	13950.79
748.573	13930
748.911	13925.71
749.25	13865.14
749.589	13805.94
749.928	13854.3
750.267	13998.02
750.605	13874.86
750.944	13873.28
751.283	13773.39
751.621	13828.76
751.96	13720.97
752.298	13831.7
752.636	13740.85
752.975	13660.63
753.313	13629.67
753.651	13734.98
753.989	13652.27
754.327	13556.9
754.666	13568.2
755.004	13578.15
755.342	13600.97
755.679	13498.15
756.017	13547.64
756.355	13567.98
756.693	13496.11
757.031	13562.55
