Data from tablewood_brown_FLMS001491_084.txt Node
Date: Tue Feb 07 11:11:07 GMT 2017
User: dcchb
Spectrometer: FLMS00149
Trigger mode: 0
Integration Time (sec): 2.000000E-2
Scans to average: 10
Electric dark correction enabled: true
Nonlinearity correction enabled: false
Boxcar width: 0
XAxis mode: Wavelengths
Number of Pixels in Spectrum: 2048
>>>>>Begin Spectral Data<<<<<
341.393	-10.54
341.776	-10.54
342.16	-10.54
342.543	-48.28
342.927	-68.39
343.31	-54.15
343.693	-55.96
344.077	-58.44
344.46	-61.38
344.843	-68.61
345.226	-42.85
345.61	-36.3
345.993	-13.25
346.376	-2.85
346.759	17.71
347.142	25.62
347.525	34.21
347.908	45.28
348.291	68.33
348.674	92.96
349.057	109.69
349.44	103.13
349.823	140.65
350.206	143.36
350.588	191.94
350.971	205.73
351.354	228.33
351.737	227.65
352.119	246.18
352.502	266.52
352.884	286.4
353.267	289.12
353.65	303.35
354.032	294.77
354.414	301.55
354.797	318.27
355.179	329.57
355.562	314.88
355.944	330.7
356.326	342.9
356.709	329.57
357.091	334.77
357.473	346.29
357.855	335.22
358.238	340.87
358.62	363.01
359.002	364.37
359.384	351.49
359.766	345.61
360.148	328.89
360.53	326.4
360.912	322.79
361.294	327.99
361.676	356.46
362.057	337.7
362.439	344.48
362.821	327.31
363.203	338.38
363.584	332.96
363.966	336.8
364.348	332.28
364.729	339.51
365.111	325.05
365.493	321.21
365.874	318.72
366.256	320.98
366.637	336.35
367.019	332.05
367.4	314.65
367.781	331.38
368.163	321.43
368.544	326.4
368.925	317.36
369.306	341.32
369.688	325.27
370.069	320.08
370.45	309.46
370.831	345.84
371.212	341.32
371.593	334.09
371.974	330.02
372.355	321.66
372.736	337.7
373.117	319.62
373.498	325.27
373.879	320.08
374.26	335.67
374.641	327.99
375.021	342.67
375.402	340.87
375.783	359.17
376.163	358.72
376.544	364.37
376.925	332.51
377.305	329.34
377.686	344.71
378.066	371.15
378.447	335.67
378.827	350.36
379.208	360.75
379.588	343.35
379.968	361.66
380.349	345.16
380.729	363.92
381.109	337.48
381.489	343.35
381.87	365.95
382.25	370.92
382.63	352.17
383.01	388.55
383.39	369.11
383.77	389.68
384.15	380.87
384.53	376.57
384.91	376.35
385.29	397.59
385.67	397.59
386.049	405.05
386.429	381.09
386.809	391.71
387.189	383.8
387.568	393.97
387.948	386.29
388.328	391.71
388.707	388.32
389.087	402.79
389.466	392.39
389.846	412.5
390.225	412.28
390.605	411.6
390.984	405.95
391.363	415.22
391.743	403.92
392.122	422.45
392.501	439.17
392.881	440.3
393.26	449.79
393.639	442.33
394.018	449.34
394.397	439.4
394.776	437.14
395.155	456.34
395.534	432.39
395.913	438.49
396.292	451.37
396.671	460.64
397.05	469.22
397.429	474.65
397.808	472.84
398.186	430.81
398.565	486.63
398.944	476
399.323	476
399.701	488.66
400.08	507.87
400.458	514.87
400.837	475.33
401.215	490.92
401.594	501.31
401.972	529.56
402.351	518.26
402.729	503.8
403.107	517.13
403.486	505.83
403.864	515.33
404.242	530.01
404.62	513.74
404.999	529.79
405.377	543.57
405.755	541.09
406.133	565.72
406.511	535.44
406.889	573.18
407.267	594.19
407.645	562.1
408.023	579.5
408.401	584.48
408.779	577.92
409.156	574.98
409.534	600.29
409.912	593.74
410.29	599.62
410.667	621.99
411.045	616.11
411.422	619.73
411.8	650.92
412.178	627.41
412.555	638.71
412.933	630.58
413.31	650.24
413.687	661.99
414.065	670.35
414.442	659.95
414.819	677.36
415.197	664.25
415.574	691.37
415.951	712.16
416.328	730.24
416.705	682.1
417.082	672.84
417.46	707.64
417.837	711.7
418.214	739.73
418.591	733.62
418.967	749.67
419.344	713.29
419.721	748.09
420.098	720.29
420.475	776.34
420.852	767.3
421.228	760.52
421.605	773.85
421.982	773.4
422.358	774.53
422.735	760.29
423.111	801.65
423.488	775.66
423.864	798.26
424.241	813.4
424.617	815.66
424.994	804.58
425.37	840.06
425.746	840.06
426.123	836.22
426.499	853.17
426.875	867.86
427.251	873.06
427.627	886.84
428.003	881.64
428.379	887.07
428.756	903.11
429.132	909.44
429.507	933.62
429.883	921.64
430.259	925.26
430.635	944.01
431.011	945.37
431.387	975.43
431.763	992.15
432.138	986.05
432.514	1002.32
432.89	992.15
433.265	1035.31
433.641	1007.29
434.016	1047.06
434.392	1065.59
434.767	1075.99
435.143	1078.93
435.518	1084.35
435.894	1081.19
436.269	1097.91
436.644	1116.67
437.02	1125.7
437.395	1120.51
437.77	1146.04
438.145	1179.04
438.52	1176.33
438.895	1183.56
439.271	1194.63
439.646	1216.1
440.021	1206.83
440.395	1222.43
440.77	1230.33
441.145	1268.53
441.52	1245.93
441.895	1272.14
442.27	1280.5
442.645	1261.29
443.019	1271.69
443.394	1268.3
443.769	1304.01
444.143	1294.51
444.518	1309.2
444.892	1329.77
445.267	1350.56
445.641	1335.87
446.016	1348.07
446.39	1346.26
446.764	1374.51
447.139	1368.41
447.513	1377.68
447.887	1406.83
448.262	1395.3
448.636	1377.68
449.01	1445.02
449.384	1443.21
449.758	1434.4
450.132	1464.9
450.506	1494.28
450.88	1459.26
451.254	1481.85
451.628	1486.83
452.002	1485.7
452.376	1520.5
452.75	1540.38
453.123	1552.36
453.497	1579.48
453.871	1589.87
454.244	1628.97
454.618	1620.83
454.992	1622.64
455.365	1611.12
455.739	1674.17
456.112	1683.2
456.486	1729.76
456.859	1727.27
457.232	1699.93
457.606	1738.57
457.979	1750.1
458.352	1788.29
458.725	1812.69
459.099	1817.66
459.472	1838.23
459.845	1863.09
460.218	1890.66
460.591	1890.2
460.964	1890.66
461.337	1938.11
461.71	1962.97
462.083	1990.54
462.456	2017.66
462.829	2029.41
463.201	2059.24
463.574	2095.85
463.947	2114.15
464.32	2170.65
464.692	2166.36
465.065	2207.03
465.438	2196.41
465.81	2262.62
466.183	2284.77
466.555	2339.46
466.928	2374.03
467.3	2378.33
467.672	2424.88
468.045	2440.7
468.417	2494.03
468.789	2503.75
469.161	2533.13
469.534	2588.72
469.906	2657.42
470.278	2639.79
470.65	2669.17
471.022	2731.99
471.394	2756.4
471.766	2827.36
472.138	2842.5
472.51	2922.95
472.882	2990.06
473.253	2988.48
473.625	3061.47
473.997	3143.73
474.369	3139.66
474.74	3212.2
475.112	3265.08
475.484	3317.74
475.855	3386.89
476.227	3448.58
476.598	3527
476.97	3610.39
477.341	3674.11
477.713	3728.8
478.084	3777.84
478.455	3876.37
478.827	3908.46
479.198	4047.66
479.569	4055.35
479.94	4162.46
480.311	4230.93
480.682	4339.86
481.053	4431.83
481.424	4517.71
481.795	4587.08
482.166	4657.82
482.537	4750.24
482.908	4844.7
483.279	4911.59
483.65	4952.04
484.021	5094.19
484.391	5224.58
484.762	5225.48
485.133	5305.71
485.503	5366.05
485.874	5456.21
486.244	5520.84
486.615	5622.54
486.985	5759.48
487.356	5824.34
487.726	5878.12
488.097	5968.97
488.467	6028.4
488.837	6192.01
489.207	6280.82
489.578	6342.06
489.948	6404.66
490.318	6523.08
490.688	6520.59
491.058	6638.78
491.428	6780.92
491.798	6830.64
492.168	6955.61
492.538	6985.66
492.908	7079.9
493.278	7154.47
493.648	7150.41
494.017	7317.86
494.387	7370.06
494.757	7414.13
495.126	7439.66
495.496	7547.91
495.866	7585.42
496.235	7692.99
496.605	7766.66
496.974	7800.56
497.344	7936.83
497.713	7992.42
498.082	7990.84
498.452	8076.48
498.821	8155.12
499.19	8163.71
499.559	8268.34
499.928	8338.62
500.298	8407.32
500.667	8437.6
501.036	8478.51
501.405	8602.57
501.774	8617.26
502.143	8721.21
502.512	8745.39
502.88	8874.43
503.249	8842.34
503.618	8895.67
503.987	8966.4
504.356	9037.59
504.724	9103.8
505.093	9180.63
505.462	9199.39
505.83	9268.99
506.199	9355.09
506.567	9397.58
506.936	9494.75
507.304	9607.52
507.672	9609.32
508.041	9685.03
508.409	9760.05
508.777	9784.69
509.145	9950.11
509.514	10011.35
509.882	10085.7
510.25	10078.69
510.618	10181.29
510.986	10241.4
511.354	10326.82
511.722	10447.72
512.09	10533.59
512.458	10562.29
512.826	10635.74
513.193	10753.93
513.561	10820.37
513.929	10973.36
514.297	11049.96
514.664	11106.69
515.032	11124.31
515.4	11268.94
515.767	11240.47
516.135	11360.46
516.502	11413.57
516.869	11540.8
517.237	11569.5
517.604	11690.4
517.972	11805.2
518.339	11828.93
518.706	11937.17
519.073	12001.13
519.44	12126.55
519.808	12240.67
520.175	12279.08
520.542	12499.87
520.909	12515.69
521.276	12613.09
521.643	12740.77
522.009	12841.1
522.376	12926.98
522.743	13100.31
523.11	13154.32
523.477	13274.76
523.843	13349.56
524.21	13606.51
524.577	13648.31
524.943	13640.86
525.31	13807.18
525.676	13964.01
526.043	13933.96
526.409	14068.64
526.776	14347.96
527.142	14276.77
527.508	14377.56
527.874	14580.94
528.241	14614.62
528.607	14649.42
528.973	14833.59
529.339	14823.88
529.705	14994.27
530.071	15078.78
530.437	15203.3
530.803	15206.92
531.169	15373.92
531.535	15390.41
531.901	15507.47
532.267	15483.97
532.632	15617.3
532.998	15643.06
533.364	15820.01
533.73	15787.24
534.095	16053.9
534.461	16136.16
534.826	16164.63
535.192	16270.84
535.557	16434
535.923	16354.01
536.288	16370.73
536.653	16516.26
537.019	16530.5
537.384	16630.38
537.749	16668.8
538.114	16776.59
538.479	16758.51
538.845	16835.35
539.21	16923.71
539.575	17094.1
539.94	17074.66
540.305	17185.62
540.67	17151.95
541.034	17245.06
541.399	17337.48
541.764	17308.78
542.129	17388.78
542.494	17397.14
542.858	17497.25
543.223	17593.52
543.587	17721.88
543.952	17705.16
544.316	17772.5
544.681	17820.86
545.045	17933.17
545.41	17967.97
545.774	18111.7
546.138	18128.42
546.503	18188.99
546.867	18161.87
547.231	18277.12
547.595	18367.51
547.959	18504.91
548.324	18481.41
548.688	18530.9
549.052	18605.02
549.416	18687.28
549.779	18718.01
550.143	18817.9
550.507	18926.37
550.871	18966.14
551.235	19027.61
551.599	19330.65
551.962	19336.75
552.326	19386.92
552.689	19475.5
553.053	19569.29
553.417	19631.66
553.78	19829.17
554.143	19839.34
554.507	19934.25
554.87	20042.72
555.234	20259.67
555.597	20210.85
555.96	20368.14
556.323	20494.24
556.686	20548.7
557.05	20729.94
557.413	20771.52
557.776	20916.37
558.139	21196.14
558.502	21212.86
558.865	21335.34
559.228	21567.65
559.59	21677.71
559.953	21731.72
560.316	22010.58
560.679	21959.73
561.041	22210.12
561.404	22442.88
561.767	22545.48
562.129	22510.23
562.492	22774.18
562.854	22888.97
563.217	23122.41
563.579	23258.46
563.941	23357.44
564.304	23475.4
564.666	23801.94
565.028	23900.02
565.39	23970.08
565.753	24148.6
566.115	24254.36
566.477	24494.81
566.839	24645.99
567.201	24925.76
567.563	24924.18
567.925	25179.76
568.287	25248.91
568.648	25365.97
569.01	25626.98
569.372	25800.08
569.734	25859.52
570.095	26166.85
570.457	26385.61
570.819	26412.72
571.18	26634.86
571.542	26735.65
571.903	26832.83
572.265	26962.77
572.626	27268.07
572.987	27325.92
573.349	27515.29
573.71	27722.07
574.071	27786.25
574.432	28083.64
574.794	28363.18
575.155	28419.22
575.516	28485.44
575.877	28671.65
576.238	28846.11
576.599	28941.24
576.96	28979.21
577.32	29111.64
577.681	29232.99
578.042	29453.32
578.403	29603.37
578.763	29545.75
579.124	29779.64
579.485	30070.25
579.845	30160.2
580.206	30101.89
580.566	30250.36
580.927	30371.49
581.287	30634.31
581.648	30596.79
582.008	30844.47
582.368	30754.08
582.728	30779.84
583.089	30883.34
583.449	30990.68
583.809	30985.03
584.169	31136.89
584.529	31140.51
584.889	31466.83
585.249	31179.38
585.609	31289.66
585.969	31646.03
586.329	31477.45
586.688	31528.97
587.048	31540.27
587.408	31483.78
587.768	31676.99
588.127	31596.32
588.487	31583.44
588.846	31819.36
589.206	31710.21
589.565	31796.31
589.925	31909.3
590.284	31866.14
590.643	32020.71
591.003	31985.91
591.362	32140.71
591.721	32069.07
592.08	32319.01
592.44	32274.94
592.799	32229.07
593.158	32288.28
593.517	32231.33
593.876	32273.13
594.235	32304.32
594.593	32369.4
594.952	32407.59
595.311	32302.74
595.67	32437.2
596.029	32671.09
596.387	32628.83
596.746	32727.59
597.104	32548.61
597.463	32472.68
597.822	32702.73
598.18	32565.78
598.538	32583.63
598.897	32792.44
599.255	32645.55
599.613	33013.68
599.972	32742.95
600.33	32877.19
600.688	32700.47
601.046	32956.73
601.404	33069.5
601.762	32950.18
602.12	33143.62
602.478	33186.56
602.836	33148.59
603.194	32996.73
603.552	33172.32
603.91	32882.16
604.268	33114.24
604.625	33008.48
604.983	33150.17
605.341	33041.48
605.698	33252.77
606.056	33176.39
606.413	33246.22
606.771	33331.64
607.128	33426.55
607.485	33248.48
607.843	33444.63
608.2	33443.73
608.557	33682.14
608.914	33450.28
609.272	33747.45
609.629	33677.84
609.986	33849.59
610.343	33588.58
610.7	33918.97
611.057	33734.56
611.414	33785.41
611.771	33831.06
612.127	33869.25
612.484	33949.02
612.841	34006.65
613.198	34022.02
613.554	34037.16
613.911	34125.06
614.267	34154.89
614.624	34081
614.98	34180.43
615.337	34360.09
615.693	34277.83
616.05	34311.72
616.406	34392.4
616.762	34316.02
617.118	34420.2
617.475	34636.46
617.831	34575.9
618.187	34568.67
618.543	34615.22
618.899	34725.5
619.255	34689.34
619.611	34627.42
619.967	34723.01
620.323	34728.44
620.678	34754.88
621.034	34718.49
621.39	34619.51
621.746	34667.87
622.101	34979.73
622.457	34774.54
622.812	34782
623.168	34903.35
623.523	34908.55
623.879	35001.65
624.234	34765.27
624.589	34840.75
624.945	34871.71
625.3	34890.24
625.655	35009.11
626.01	34860.64
626.365	34872.61
626.72	34889.79
627.075	34794.42
627.43	34821.99
627.785	34735.44
628.14	34711.04
628.495	34815.67
628.85	34746.06
629.205	34776.35
629.559	34903.57
629.914	34627.65
630.269	34650.7
630.623	34626.07
630.978	34483.47
631.332	34706.06
631.687	34725.27
632.041	34570.48
632.396	34677.82
632.75	34523.02
633.104	34512.62
633.459	34439.86
633.813	34468.33
634.167	34358.73
634.521	34371.84
634.875	34468.33
635.229	34382.68
635.583	34264.04
635.937	34354.44
636.291	34241.67
636.645	34193.99
636.999	34018.17
637.352	34205.74
637.706	34021.56
638.06	34097.04
638.413	34108.34
638.767	34010.72
639.121	33969.81
639.474	33747.45
639.828	33807.56
640.181	33932.75
640.534	33822.47
640.888	33661.35
641.241	33580.22
641.594	33608.47
641.947	33760.55
642.301	33665.19
642.654	33615.7
643.007	33602.59
643.36	33568.92
643.713	33492.31
644.066	33642.36
644.419	33517.62
644.771	33287.12
645.124	33052.77
645.477	33023.4
645.83	32795.15
646.182	32574.14
646.535	32467.71
646.888	32554.71
647.24	32430.87
647.593	32484.2
647.945	32452.79
648.298	32370.99
648.65	32274.94
649.002	32194.27
649.355	32356.75
649.707	32311.1
650.059	32538.66
650.411	32850.52
650.763	33039.67
651.115	33275.37
651.467	32970.29
651.819	33244.63
652.171	33047.8
652.523	33047.13
652.875	32992.66
653.227	32902.27
653.578	33083.51
653.93	32944.98
654.282	32888.26
654.633	32795.83
654.985	32896.17
655.337	32941.59
655.688	32950.63
656.039	33081.7
656.391	32733.46
656.742	32800.8
657.094	32772.56
657.445	32981.14
657.796	32870.86
658.147	32916.73
658.498	32819.79
658.849	32889.39
659.2	32847.81
659.551	32742.27
659.902	32848.49
660.253	32716.74
660.604	32704.31
660.955	32649.85
661.306	32904.08
661.656	32777.08
662.007	32845.55
662.358	32661.37
662.708	32728.04
663.059	32799.45
663.409	32552.45
663.76	32814.14
664.11	32656.4
664.461	32754.48
664.811	32568.04
665.161	32693.24
665.511	32632.22
665.862	32702.73
666.212	32671.09
666.562	32864.98
666.912	32802.39
667.262	32556.52
667.612	32719.22
667.962	32772.33
668.312	32787.7
668.662	32857.53
669.011	32678.1
669.361	32606.46
669.711	32502.06
670.06	32587.93
670.41	32524.88
670.76	32504.77
671.109	32620.02
671.459	32509.06
671.808	32440.81
672.157	32536.86
672.507	32373.92
672.856	32371.66
673.205	32302.51
673.554	32394.04
673.904	32298.67
674.253	32467.71
674.602	32359.01
674.951	31919.25
675.3	31742.07
675.649	32243.76
675.998	32326.92
676.346	32178.9
676.695	32396.52
677.044	32040.6
677.393	32219.8
677.741	32086.02
678.09	32023.2
678.438	31899.13
678.787	31923.99
679.135	32007.15
679.484	31797.67
679.832	31836.31
680.181	31841.28
680.529	31821.39
680.877	31677.9
681.225	31738.91
681.573	31909.75
681.922	31437
682.27	31452.82
682.618	31559.48
682.966	31359.26
683.314	31543.44
683.661	31358.13
684.009	31127.85
684.357	31169.21
684.705	31126.05
685.053	31143.67
685.4	31128.53
685.748	30933.06
686.095	30848.54
686.443	30741.42
686.79	30691.71
687.138	30813.29
687.485	30775.55
687.832	30606.51
688.18	30710.24
688.527	30514.54
688.874	30321.55
689.221	30284.94
689.568	30326.74
689.915	30176.24
690.262	30087.2
690.609	30178.5
690.956	29997.04
691.303	30016.92
691.65	29867.1
691.997	29825.06
692.344	29643.15
692.69	29532.64
693.037	29536.26
693.383	29308.47
693.73	29388.92
694.077	29173.1
694.423	29303.95
694.769	29172.43
695.116	29098.53
695.462	29020.79
695.808	28996.16
696.155	28954.8
696.501	28714.36
696.847	28715.04
697.193	28449.96
697.539	28489.73
697.885	28335.16
698.231	28257.19
698.577	28101.94
698.923	28104.66
699.269	27949.86
699.614	27800.48
699.96	27776.3
700.306	27772.69
700.651	27735.17
700.997	27628.28
701.342	27595.97
701.688	27412.25
702.033	27393.94
702.379	27400.27
702.724	27113.72
703.069	27270.78
703.415	26900.85
703.76	27004.35
704.105	26935.2
704.45	26862.88
704.795	26711.02
705.14	26562.32
705.485	26438.26
705.83	26412.95
706.175	26508.09
706.52	26381.54
706.865	26271.71
707.209	26280.3
707.554	26135.89
707.899	26302.44
708.243	25884.6
708.588	25913.08
708.932	25813.87
709.277	25789.24
709.621	25846.64
709.966	25702.69
710.31	25702.01
710.654	25516.7
710.998	25529.13
711.342	25472.18
711.687	25400.55
712.031	25194.22
712.375	25159.88
712.719	25340.21
713.063	25188.57
713.407	25194
713.75	25049.14
714.094	24992.87
714.438	25012.31
714.782	25019.31
715.125	24973.89
715.469	24975.02
715.812	24824.29
716.156	24702.03
716.499	24849.37
716.843	24737.74
717.186	24624.3
717.53	24687.57
717.873	24673.11
718.216	24632.43
718.559	24464.3
718.902	24361.03
719.246	24433.11
719.589	24294.36
719.932	24214.36
720.275	24292.78
720.617	24239.9
720.96	24271.08
721.303	24260.92
721.646	24117.19
721.989	24038.1
722.331	24209.39
722.674	24090.52
723.016	24091.65
723.359	24046.46
723.701	24180.24
724.044	23934.14
724.386	23887.82
724.729	24012.33
725.071	23868.16
725.413	23864.09
725.755	23912
726.097	23808.95
726.439	23767.14
726.782	23836.07
727.124	23770.99
727.465	23730.99
727.807	23667.71
728.149	23650.54
728.491	23646.02
728.833	23698.44
729.175	23641.5
729.516	23510.43
729.858	23606.02
730.199	23702.74
730.541	23623.42
730.882	23605.34
731.224	23646.92
731.565	23441.73
731.906	23512.91
732.248	23636.98
732.589	23484.89
732.93	23424.55
733.271	23492.12
733.612	23369.19
733.953	23524.89
734.294	23438.34
734.635	23435.63
734.976	23470.88
735.317	23382.52
735.658	23349.98
735.999	23418
736.339	23364.22
736.68	23490.31
737.021	23354.72
737.361	23354.95
737.702	23371.67
738.042	23313.14
738.383	23350.43
738.723	23326.48
739.063	23315.4
739.404	23347.27
739.744	23352.47
740.084	23167.39
740.424	23327.38
740.764	23235.18
741.104	23355.63
741.444	23217.78
741.784	23288.29
742.124	23198.34
742.464	23302.52
742.804	23096.43
743.143	23171.45
743.483	23162.64
743.823	23089.2
744.162	23089.65
744.502	23245.35
744.841	23124.9
745.181	23162.41
745.52	23078.12
745.86	23091.68
746.199	23145.01
746.538	23144.11
746.877	23147.27
747.216	23164.22
747.556	23130.32
747.895	23059.14
748.234	23062.53
748.573	22992.02
748.911	22997.45
749.25	23023.21
749.589	23001.29
749.928	23082.42
750.267	23076.09
750.605	23021.85
750.944	22967.16
751.283	22837.68
751.621	22961.97
751.96	22846.26
752.298	22816.43
752.636	22861.18
752.975	22715.19
753.313	22803.55
753.651	22902.99
753.989	22634.29
754.327	22698.92
754.666	22657.12
755.004	22658.47
755.342	22628.87
755.679	22538.02
