Data from tablewood_brown_FLMS001491_019.txt Node
Date: Tue Feb 07 11:10:06 GMT 2017
User: dcchb
Spectrometer: FLMS00149
Trigger mode: 0
Integration Time (sec): 2.000000E-2
Scans to average: 10
Electric dark correction enabled: true
Nonlinearity correction enabled: false
Boxcar width: 0
XAxis mode: Wavelengths
Number of Pixels in Spectrum: 2048
>>>>>Begin Spectral Data<<<<<
341.393	9.17
341.776	9.17
342.16	9.17
342.543	-56.14
342.927	-63.83
343.31	-57.95
343.693	-67.67
344.077	-54.33
344.46	-61.79
344.843	-52.53
345.226	-34.22
345.61	-41.68
345.993	-10.95
346.376	-0.78
346.759	20.92
347.142	28.37
347.525	22.05
347.908	31.31
348.291	78.77
348.674	96.85
349.057	103.63
349.44	126.45
349.823	154.02
350.206	168.26
350.588	196.51
350.971	198.31
351.354	236.96
351.737	234.47
352.119	241.7
352.502	282.15
352.884	292.32
353.267	304.98
353.65	312.21
354.032	290.51
354.414	305.2
354.797	311.53
355.179	330.29
355.562	340.01
355.944	329.84
356.326	341.36
356.709	351.08
357.091	347.01
357.473	330.51
357.855	347.46
358.238	357.41
358.62	349.04
359.002	366.67
359.384	333.23
359.766	363.51
360.148	343.62
360.53	357.18
360.912	325.99
361.294	362.6
361.676	340.91
362.057	351.98
362.439	359.44
362.821	333.45
363.203	346.11
363.584	330.97
363.966	317.41
364.348	335.26
364.729	341.14
365.111	342.94
365.493	349.04
365.874	323.28
366.256	315.6
366.637	330.51
367.019	322.38
367.4	318.08
367.781	323.96
368.163	324.19
368.544	301.14
368.925	330.06
369.306	349.5
369.688	357.18
370.069	353.11
370.45	341.59
370.831	344.98
371.212	314.02
371.593	347.24
371.974	323.73
372.355	326.22
372.736	315.15
373.117	345.2
373.498	350.17
373.879	345.2
374.26	348.37
374.641	349.27
375.021	321.47
375.402	328.25
375.783	341.14
376.163	342.04
376.544	344.52
376.925	343.85
377.305	350.17
377.686	338.65
378.066	366.22
378.447	355.82
378.827	360.12
379.208	347.69
379.588	375.94
379.968	360.57
380.349	369.38
380.729	369.38
381.109	352.21
381.489	397.18
381.87	357.63
382.25	372.32
382.63	369.83
383.01	385.2
383.39	379.1
383.77	395.37
384.15	387.46
384.53	378.2
384.91	374.81
385.29	382.49
385.67	374.81
386.049	404.18
386.429	393.56
386.809	383.62
387.189	391.3
387.568	401.02
387.948	391.76
388.328	420.91
388.707	425.88
389.087	417.97
389.466	416.16
389.846	412.55
390.225	429.49
390.605	413.9
390.984	389.95
391.363	437.63
391.743	431.3
392.122	403.51
392.501	432.21
392.881	441.25
393.26	454.58
393.639	433.56
394.018	468.14
394.397	458.87
394.776	469.95
395.155	456.39
395.534	462.71
395.913	456.39
396.292	467.46
396.671	466.78
397.05	479.66
397.429	486.44
397.808	477.18
398.186	484.41
398.565	494.35
398.944	483.28
399.323	497.29
399.701	493.67
400.08	512.43
400.458	506.33
400.837	510.4
401.215	510.85
401.594	505.42
401.972	523.05
402.351	509.72
402.729	530.96
403.107	522.83
403.486	535.71
403.864	529.15
404.242	537.97
404.62	533.22
404.999	565.99
405.377	572.54
405.755	546.1
406.133	544.75
406.511	546.33
406.889	567.12
407.267	558.98
407.645	572.54
408.023	596.95
408.401	595.59
408.779	594.91
409.156	599.43
409.534	605.99
409.912	606.66
410.29	606.66
410.667	598.3
411.045	659.32
411.422	639.43
411.8	649.83
412.178	652.31
412.555	646.66
412.933	649.38
413.31	651.64
413.687	673.33
414.065	671.97
414.442	683.95
414.819	657.28
415.197	686.44
415.574	694.57
415.951	702.93
416.328	722.82
416.705	715.14
417.082	683.27
417.46	709.94
417.837	740.45
418.214	709.26
418.591	749.94
418.967	744.06
419.344	746.55
419.721	743.84
420.098	731.41
420.475	756.94
420.852	743.16
421.228	760.33
421.605	787.68
421.982	789.26
422.358	761.24
422.735	789.03
423.111	779.09
423.488	801.46
423.864	801.69
424.241	821.8
424.617	825.19
424.994	825.19
425.37	848.24
425.746	830.16
426.123	834
426.499	878.52
426.875	848.24
427.251	857.05
427.627	864.06
428.003	881.69
428.379	884.17
428.756	892.76
429.132	881.69
429.507	904.96
429.883	932.98
430.259	947.45
430.635	968.24
431.011	947.9
431.387	955.81
431.763	975.02
432.138	991.74
432.514	977.5
432.89	982.47
433.265	1034.68
433.641	1020.44
434.016	1030.16
434.392	1062.47
434.767	1064.05
435.143	1055.47
435.518	1063.6
435.894	1092.08
436.269	1112.87
436.644	1102.02
437.02	1102.25
437.395	1118.29
437.77	1146.76
438.145	1147.67
438.52	1142.92
438.895	1161.68
439.271	1176.59
439.646	1217.95
440.021	1220.89
440.395	1216.82
440.77	1207.78
441.145	1218.4
441.52	1229.93
441.895	1223.6
442.27	1260.43
442.645	1239.64
443.019	1251.85
443.394	1249.81
443.769	1291.62
444.143	1293.65
444.518	1291.84
444.892	1285.07
445.267	1297.95
445.641	1342.92
446.016	1328
446.39	1343.59
446.764	1339.53
447.139	1344.27
447.513	1349.24
447.887	1365.51
448.262	1362.8
448.636	1353.31
449.01	1382.46
449.384	1362.58
449.758	1390.83
450.132	1410.71
450.506	1413.88
450.88	1419.98
451.254	1455.23
451.628	1470.14
452.002	1457.26
452.376	1480.54
452.75	1507.43
453.123	1495
453.497	1517.6
453.871	1516.47
454.244	1544.49
454.618	1563.02
454.992	1598.05
455.365	1584.72
455.739	1610.71
456.112	1615.68
456.486	1647.99
456.859	1645.28
457.232	1708.33
457.606	1705.62
457.979	1717.14
458.352	1725.96
458.725	1764.37
459.099	1762.11
459.472	1775.22
459.845	1818.61
460.218	1838.95
460.591	1822
460.964	1829.01
461.337	1862.45
461.71	1921.43
462.083	1939.51
462.456	1938.38
462.829	1979.51
463.201	1976.35
463.574	2013.63
463.947	2024.25
464.32	2085.95
464.692	2106.74
465.065	2097.47
465.438	2108.55
465.81	2179.28
466.183	2231.03
466.555	2208.43
466.928	2243.68
467.3	2211.82
467.672	2252.72
468.045	2308.77
468.417	2341.76
468.789	2370.01
469.161	2380.63
469.534	2448.88
469.906	2504.92
470.278	2492.94
470.65	2546.05
471.022	2606.39
471.394	2677.34
471.766	2678.25
472.138	2703.33
472.51	2721.64
472.882	2796.44
473.253	2824.01
473.625	2881.86
473.997	2931.8
474.369	3015.87
474.74	3032.36
475.112	3064.23
475.484	3158.69
475.855	3219.48
476.227	3198.69
476.598	3306.48
476.97	3338.12
477.341	3459.47
477.713	3490.66
478.084	3525.23
478.455	3663.99
478.827	3715.74
479.198	3814.94
479.569	3789.41
479.94	3941.94
480.311	4013.35
480.682	4080.02
481.053	4141.26
481.424	4207.02
481.795	4263.74
482.166	4331.54
482.537	4413.34
482.908	4508.94
483.279	4551.87
483.65	4647.69
484.021	4747.12
484.391	4781.7
484.762	4873.22
485.133	4886.1
485.503	4972.65
485.874	5125.64
486.244	5180.1
486.615	5258.07
486.985	5331.96
487.356	5428.23
487.726	5518.85
488.097	5615.12
488.467	5628
488.837	5791.61
489.207	5865.74
489.578	5869.13
489.948	5949.12
490.318	5999.97
490.688	6126.29
491.058	6164.71
491.428	6232.05
491.798	6310.7
492.168	6439.28
492.538	6467.98
492.908	6555.89
493.278	6636.56
493.648	6643.79
494.017	6721.98
494.387	6803.79
494.757	6826.84
495.126	6928.53
495.496	6993.39
495.866	7043.56
496.235	7122.43
496.605	7142.99
496.974	7154.52
497.344	7293.27
497.713	7304.12
498.082	7398.58
498.452	7498.69
498.821	7470.21
499.19	7593.6
499.559	7632.24
499.928	7681.73
500.298	7749.75
500.667	7818.23
501.036	7827.49
501.405	7935.06
501.774	7966.02
502.143	8025.9
502.512	8032.91
502.88	8175.28
503.249	8154.04
503.618	8205.79
503.987	8261.83
504.356	8353.35
504.724	8389.06
505.093	8418.66
505.462	8457.76
505.83	8519
506.199	8540.02
506.567	8728.26
506.936	8661.82
507.304	8782.95
507.672	8863.4
508.041	8986.56
508.409	9035.14
508.777	9063.62
509.145	9134.58
509.514	9098.19
509.882	9328.24
510.25	9279.43
510.618	9391.29
510.986	9350.39
511.354	9480.78
511.722	9577.05
512.09	9733.88
512.458	9653.21
512.826	9755.12
513.193	9828.57
513.561	9922.58
513.929	9970.71
514.297	10129.35
514.664	10178.62
515.032	10267.88
515.4	10306.52
515.767	10292.29
516.135	10431.27
516.502	10450.02
516.869	10660.64
517.237	10598.49
517.604	10714.2
517.972	10811.37
518.339	10933.85
518.706	10981.76
519.073	10964.81
519.44	11136.33
519.808	11182.66
520.175	11267.85
520.542	11376.78
520.909	11478.7
521.276	11487.96
521.643	11604.34
522.009	11738.58
522.376	11869.42
522.743	11908.29
523.11	12062.41
523.477	12160.26
523.843	12212.91
524.21	12443.87
524.577	12486.35
524.943	12597.31
525.31	12644.31
525.676	12845.67
526.043	12878.21
526.409	12919.11
526.776	13051.08
527.142	13094.7
527.508	13199.33
527.874	13230.74
528.241	13447.23
528.607	13461.47
528.973	13488.13
529.339	13544.63
529.705	13692.65
530.071	13909.82
530.437	13963.15
530.803	14009.48
531.169	14145.52
531.535	14056.48
531.901	14192.75
532.267	14357.72
532.632	14322.69
532.998	14405.85
533.364	14467.77
533.73	14569.24
534.095	14631.83
534.461	14792.96
534.826	14785.05
535.192	14797.03
535.557	14989.11
535.923	15033.63
536.288	15085.38
536.653	15093.97
537.019	15079.73
537.384	15085.61
537.749	15264.13
538.114	15352.94
538.479	15393.17
538.845	15406.28
539.21	15504.58
539.575	15548.87
539.94	15525.37
540.305	15739.15
540.67	15652.6
541.034	15776.66
541.399	15867.05
541.764	15767.17
542.129	15975.3
542.494	15978.69
542.858	16029.31
543.223	15984.57
543.587	16141.62
543.952	16192.24
544.316	16229.76
544.681	16209.42
545.045	16385.23
545.41	16464.55
545.774	16507.94
546.138	16641.72
546.503	16637.66
546.867	16678.33
547.231	16899.8
547.595	16820.7
547.959	16891.21
548.324	16968.27
548.688	17021.83
549.052	17079.9
549.416	17093.46
549.779	17254.59
550.143	17254.14
550.507	17451.42
550.871	17454.13
551.235	17570.51
551.599	17655.93
551.962	17658.19
552.326	17758.53
552.689	18051.18
553.053	17887.11
553.417	17940.67
553.78	18274.67
554.143	18129.14
554.507	18350.38
554.87	18400.55
555.234	18582.24
555.597	18498.62
555.96	18723.7
556.323	18756.92
556.686	18895
557.05	19082.79
557.413	19132.73
557.776	19232.16
558.139	19377.47
558.502	19446.85
558.865	19697.91
559.228	19821.53
559.59	19978.58
559.953	19953.27
560.316	20264.91
560.679	20353.26
561.041	20458.12
561.404	20708.28
561.767	20831.9
562.129	20753.25
562.492	21047.48
562.854	21095.84
563.217	21195.73
563.579	21298.1
563.941	21436.85
564.304	21780.12
564.666	21784.87
565.028	22007.01
565.39	22077.51
565.753	22325.87
566.115	22353.89
566.477	22596.14
566.839	22606.76
567.201	22939.41
567.563	22947.55
567.925	23126.3
568.287	23320.19
568.648	23458.49
569.01	23658.26
569.372	23885.6
569.734	23933.51
570.095	24102.09
570.457	24278.58
570.819	24493.04
571.18	24557.22
571.542	24792.92
571.903	24884.67
572.265	25122.18
572.626	25338.67
572.987	25380.02
573.349	25466.12
573.71	25787.47
574.071	25870.86
574.432	25976.62
574.794	26265.43
575.155	26296.61
575.516	26413.22
575.877	26496.83
576.238	26718.29
576.599	26809.59
576.96	27015.46
577.32	27079.64
577.681	27245.51
578.042	27370.71
578.403	27410.71
578.763	27549.23
579.124	27699.29
579.485	27894.08
579.845	28090.01
580.206	28136.79
580.566	28059.28
580.927	28195.54
581.287	28444.12
581.648	28385.37
582.008	28546.27
582.368	28498.13
582.728	28715.08
583.089	28763.21
583.449	28810.22
583.809	28871.23
584.169	28998.69
584.529	29018.12
584.889	29254.27
585.249	29205.46
585.609	29126.82
585.969	29396.87
586.329	29341.05
586.688	29447.94
587.048	29436.64
587.408	29464.44
587.768	29449.52
588.127	29553.25
588.487	29589.18
588.846	29787.14
589.206	29683.41
589.565	29712.57
589.925	29883.64
590.284	29697.65
590.643	29913.24
591.003	30021.48
591.362	30060.13
591.721	29915.5
592.08	30063.52
592.44	30028.72
592.799	30105.32
593.158	30036.63
593.517	30200.24
593.876	30218.32
594.235	30057.19
594.593	30140.58
594.952	30358.65
595.311	30130.41
595.67	30207.47
596.029	30354.58
596.387	30409.72
596.746	30392.1
597.104	30293.57
597.463	30367.69
597.822	30620.11
598.18	30393.23
598.538	30456.73
598.897	30618.08
599.255	30429.16
599.613	30840.9
599.972	30703.95
600.33	30604.29
600.688	30514.13
601.046	30721.81
601.404	30757.51
601.762	30772.2
602.12	30851.97
602.478	30906.43
602.836	31053.55
603.194	30751.86
603.552	31028.92
603.91	30858.98
604.268	30915.47
604.625	30871.86
604.983	30969.71
605.341	30819.66
605.698	30970.84
606.056	31071.17
606.413	31086.77
606.771	31203.15
607.128	31126.77
607.485	31141
607.843	31068.24
608.2	31222.58
608.557	31432.97
608.914	31159.76
609.272	31413.54
609.629	31417.61
609.986	31531.05
610.343	31458.51
610.7	31588.22
611.057	31552.97
611.414	31635.91
611.771	31524.5
612.127	31699.18
612.484	31660.54
612.841	31689.24
613.198	31702.8
613.554	31682.91
613.911	31886.07
614.267	31969.46
614.624	31835.22
614.98	31907.99
615.337	32006.07
615.693	32026.18
616.05	32020.53
616.406	32100.98
616.762	32153.18
617.118	32057.82
617.475	32072.5
617.831	32136.91
618.187	32237.25
618.543	32302.33
618.899	32280.18
619.255	32196.57
619.611	32327.86
619.967	32438.82
620.323	32421.2
620.678	32357.47
621.034	32430.91
621.39	32253.52
621.746	32168.09
622.101	32659.61
622.457	32439.95
622.812	32480.4
623.168	32601.76
623.523	32498.03
623.879	32599.95
624.234	32386.17
624.589	32570.57
624.945	32527.86
625.3	32597.24
625.655	32643.34
626.01	32629.78
626.365	32630.46
626.72	32495.54
627.075	32433.17
627.43	32446.05
627.785	32413.74
628.14	32578.71
628.495	32390.91
628.85	32474.53
629.205	32275.89
629.559	32428.65
629.914	32321.99
630.269	32212.84
630.623	32109.11
630.978	32140.3
631.332	32217.36
631.687	32403.57
632.041	32105.5
632.396	32321.31
632.75	32137.36
633.104	32219.39
633.459	32114.08
633.813	32082.22
634.167	32088.55
634.521	32100.98
634.875	32070.24
635.229	31917.93
635.583	31817.14
635.937	31743.47
636.291	31955.9
636.645	31754.55
636.999	31759.29
637.352	31702.57
637.706	31485.17
638.06	31765.39
638.413	31585.29
638.767	31656.24
639.121	31676.58
639.474	31430.49
639.828	31565.85
640.181	31634.55
640.534	31510.26
640.888	31459.19
641.241	31201.79
641.594	31460.09
641.947	31421.9
642.301	31314.11
642.654	31341.9
643.007	31284.05
643.36	31247.67
643.713	31220.1
644.066	31294.67
644.419	31089.71
644.771	30929.94
645.124	30785.08
645.477	30614.46
645.83	30421.7
646.182	30198.43
646.535	30236.39
646.888	30406.33
647.24	30144.19
647.593	30314.81
647.945	30202.72
648.298	30033.46
648.65	30040.47
649.002	30077.75
649.355	30144.42
649.707	30084.08
650.059	30287.92
650.411	30540.57
650.763	30642.49
651.115	30973.32
651.467	30910.27
651.819	30888.58
652.171	30743.95
652.523	30702.14
652.875	30651.75
653.227	30589.83
653.578	30794.12
653.93	30676.38
654.282	30721.81
654.633	30688.59
654.985	30693.11
655.337	30639.1
655.688	30703.73
656.039	30754.57
656.391	30411.53
656.742	30477.29
657.094	30444.75
657.445	30722.71
657.796	30635.25
658.147	30549.61
658.498	30604.29
658.849	30590.28
659.2	30573.79
659.551	30404.98
659.902	30607.01
660.253	30510.74
660.604	30483.85
660.955	30391.19
661.306	30596.61
661.656	30377.86
662.007	30443.62
662.358	30515.26
662.708	30445.88
663.059	30428.25
663.409	30190.29
663.76	30412.89
664.11	30382.38
664.461	30537.18
664.811	30524.3
665.161	30439.33
665.511	30415.82
665.862	30427.35
666.212	30428.25
666.562	30531.08
666.912	30307.8
667.262	30303.51
667.612	30322.49
667.962	30496.73
668.312	30269.39
668.662	30422.15
669.011	30437.29
669.361	30299.67
669.711	30170.18
670.06	30247.47
670.41	30314.58
670.76	30309.84
671.109	30357.75
671.459	30199.56
671.808	30193.01
672.157	30270.74
672.507	30071.43
672.856	30007.47
673.205	30171.31
673.554	30238.65
673.904	30108.49
674.253	30283.62
674.602	30006.34
674.951	29616.07
675.3	29563.87
675.649	29956.85
675.998	29973.8
676.346	29981.03
676.695	30133.35
677.044	29777.88
677.393	29901.04
677.741	30010.64
678.09	29865.56
678.438	29625.56
678.787	29663.53
679.135	29602.29
679.484	29561.16
679.832	29674.6
680.181	29476.19
680.529	29557.09
680.877	29357.55
681.225	29333.14
681.573	29549.41
681.922	29362.29
682.27	29279.36
682.618	29307.15
682.966	29197.33
683.314	29234.84
683.661	29152.58
684.009	28870.78
684.357	28861.06
684.705	28839.37
685.053	28882.08
685.4	28848.41
685.748	28690.9
686.095	28643.22
686.443	28583.78
686.79	28488.19
687.138	28682.99
687.485	28624.69
687.832	28449.1
688.18	28546.72
688.527	28185.83
688.874	28132.95
689.221	28021.09
689.568	28066.06
689.915	28083.46
690.262	27951.93
690.609	27988.54
690.956	27801.66
691.303	27845.27
691.65	27628.1
691.997	27638.27
692.344	27466.98
692.69	27349.92
693.037	27391.05
693.383	27097.04
693.73	27188.34
694.077	26957.38
694.423	27029.7
694.769	26945.41
695.116	26913.09
695.462	26776.15
695.808	26731.85
696.155	26736.6
696.501	26584.51
696.847	26468.13
697.193	26265.65
697.539	26512.2
697.885	26306.78
698.231	26083.28
698.577	26032.21
698.923	26103.85
699.269	25955.38
699.614	25818.88
699.96	25692.56
700.306	25713.58
700.651	25539.34
700.997	25533.69
701.342	25442.85
701.688	25377.76
702.033	25310.65
702.379	25171.22
702.724	25029.98
703.069	25179.58
703.415	24733.71
703.76	24783.43
704.105	24816.65
704.45	24792.02
704.795	24579.82
705.14	24609.2
705.485	24539.59
705.83	24397.9
706.175	24376.89
706.52	24307.28
706.865	24239.04
707.209	24115.2
707.554	24199.72
707.899	24193.39
708.243	24017.8
708.588	23898.93
708.932	23849.9
709.277	23864.13
709.621	23786.39
709.966	23662.78
710.31	23688.32
710.654	23521.32
710.998	23520.86
711.342	23574.87
711.687	23472.5
712.031	23322
712.375	23210.14
712.719	23288.1
713.063	23223.25
713.407	23353.41
713.75	23147.09
714.094	23191.38
714.438	22960.2
714.782	23113.19
715.125	22909.36
715.469	22930.6
715.812	22844.5
716.156	22755.01
716.499	22822.13
716.843	22768.34
717.186	22661.68
717.53	22748
717.873	22864.61
718.216	22693.99
718.559	22639.53
718.902	22400.44
719.246	22485.86
719.589	22338.97
719.932	22353.89
720.275	22346.66
720.617	22307.56
720.96	22269.37
721.303	22304.17
721.646	22332.42
721.989	22139.66
722.331	22281.58
722.674	22219.66
723.016	22217.17
723.359	22235.25
723.701	22343.27
724.044	22120.22
724.386	22116.83
724.729	22195.93
725.071	22108.92
725.413	22164.52
725.755	22077.96
726.097	22081.35
726.439	21963.84
726.782	21903.96
727.124	22062.37
727.465	21827.35
727.807	21967.46
728.149	21838.42
728.491	21838.65
728.833	21899.66
729.175	21783.96
729.516	21762.72
729.858	21758.65
730.199	21779.67
730.541	21744.87
730.882	21856.95
731.224	21898.99
731.565	21738.54
731.906	21829.16
732.248	21710.29
732.589	21698.09
732.93	21806.79
733.271	21670.97
733.612	21702.16
733.953	21782.61
734.294	21833.23
734.635	21628.94
734.976	21592.78
735.317	21624.64
735.658	21729.95
735.999	21663.29
736.339	21550.29
736.68	21741.7
737.021	21675.94
737.361	21501.93
737.702	21670.74
738.042	21673
738.383	21511.65
738.723	21718.88
739.063	21470.3
739.404	21578.09
739.744	21553.23
740.084	21521.6
740.424	21615.6
740.764	21505.1
741.104	21523.63
741.444	21499
741.784	21496.51
742.124	21598.2
742.464	21485.21
742.804	21512.56
743.143	21619.22
743.483	21569.28
743.823	21479.11
744.162	21539
744.502	21578.32
744.841	21444.99
745.181	21696.28
745.52	21469.62
745.86	21515.27
746.199	21463.29
746.538	21576.73
746.877	21580.12
747.216	21627.81
747.556	21480.01
747.895	21515.95
748.234	21479.56
748.573	21466.91
748.911	21387.59
749.25	21501.48
749.589	21395.72
749.928	21439.79
750.267	21445.21
750.605	21399.11
750.944	21411.09
751.283	21436.4
751.621	21378.77
751.96	21277.31
752.298	21354.37
752.636	21294.03
752.975	21160.47
753.313	21204.77
753.651	21249.96
753.989	21136.75
754.327	21203.86
754.666	21037.31
755.004	21194.15
755.342	21167.93
755.679	21162.06
