Data from tablewood_brown_FLMS001491_014.txt Node
Date: Tue Feb 07 11:10:05 GMT 2017
User: dcchb
Spectrometer: FLMS00149
Trigger mode: 0
Integration Time (sec): 2.000000E-2
Scans to average: 10
Electric dark correction enabled: true
Nonlinearity correction enabled: false
Boxcar width: 0
XAxis mode: Wavelengths
Number of Pixels in Spectrum: 2048
>>>>>Begin Spectral Data<<<<<
341.393	-18.32
341.776	-18.32
342.16	-18.32
342.543	-60.35
342.927	-60.35
343.31	-60.13
343.693	-77.07
344.077	-27.36
344.46	-65.55
344.843	-83.63
345.226	-69.62
345.61	-28.26
345.993	-8.6
346.376	-1.37
346.759	15.8
347.142	30.27
347.525	41.79
347.908	44.5
348.291	82.24
348.674	96.03
349.057	110.94
349.44	123.82
349.823	155.46
350.206	155.46
350.588	190.04
350.971	204.95
351.354	213.09
351.737	259.64
352.119	237.49
352.502	265.52
352.884	279.98
353.267	278.85
353.65	295.57
354.032	297.83
354.414	308
354.797	298.06
355.179	315.01
355.562	336.47
355.944	338.96
356.326	320.88
356.709	347.32
357.091	332.86
357.473	327.43
357.855	339.64
358.238	317.27
358.62	352.52
359.002	330.37
359.384	373.31
359.766	342.58
360.148	370.82
360.53	360.43
360.912	334.67
361.294	346.42
361.676	342.58
362.057	346.19
362.439	348.45
362.821	338.51
363.203	329.02
363.584	335.57
363.966	348.68
364.348	314.55
364.729	350.03
365.111	317.04
365.493	311.39
365.874	342.12
366.256	328.34
366.637	313.65
367.019	331.28
367.4	345.29
367.781	333.31
368.163	330.15
368.544	310.94
368.925	326.76
369.306	335.34
369.688	331.05
370.069	326.3
370.45	312.29
370.831	314.1
371.212	314.33
371.593	340.99
371.974	319.07
372.355	320.43
372.736	325.63
373.117	350.49
373.498	332.86
373.879	349.58
374.26	335.8
374.641	338.28
375.021	349.13
375.402	342.35
375.783	341.67
376.163	371.95
376.544	353.42
376.925	348.68
377.305	351.62
377.686	346.19
378.066	355.23
378.447	344.16
378.827	350.94
379.208	360.65
379.588	363.82
379.968	357.94
380.349	351.84
380.729	370.15
381.109	371.73
381.489	368.34
381.87	366.08
382.25	382.12
382.63	353.42
383.01	363.59
383.39	377.15
383.77	382.8
384.15	370.6
384.53	368.79
384.91	369.69
385.29	389.13
385.67	385.74
386.049	400.2
386.429	389.13
386.809	386.87
387.189	382.35
387.568	406.98
387.948	395.46
388.328	413.53
388.707	406.3
389.087	406.53
389.466	405.4
389.846	423.48
390.225	416.47
390.605	431.39
390.984	421.9
391.363	420.77
391.743	449.47
392.122	440.43
392.501	446.08
392.881	435.68
393.26	465.28
393.639	435.45
394.018	446.53
394.397	464.61
394.776	450.37
395.155	461.44
395.534	443.82
395.913	454.66
396.292	458.96
396.671	459.86
397.05	460.99
397.429	492.18
397.808	459.86
398.186	480.2
398.565	475.68
398.944	460.09
399.323	493.53
399.701	463.25
400.08	485.17
400.458	495.11
400.837	507.77
401.215	499.86
401.594	494.66
401.972	519.75
402.351	507.77
402.729	538.73
403.107	529.01
403.486	531.72
403.864	506.87
404.242	552.29
404.62	541.44
404.999	529.24
405.377	559.75
405.755	572.17
406.133	524.49
406.511	549.58
406.889	560.88
407.267	563.13
407.645	578.5
408.023	572.63
408.401	602
408.779	594.77
409.156	576.69
409.534	601.1
409.912	595.9
410.29	620.08
410.667	592.96
411.045	623.7
411.422	627.77
411.8	632.96
412.178	615.56
412.555	617.82
412.933	628.67
413.31	635.45
413.687	634.09
414.065	671.83
414.442	667.99
414.819	672.96
415.197	678.61
415.574	691.49
415.951	668.22
416.328	689.46
416.705	706.63
417.082	679.52
417.46	707.09
417.837	709.8
418.214	725.84
418.591	729.68
418.967	737.37
419.344	743.02
419.721	722.9
420.098	732.17
420.475	743.7
420.852	758.61
421.228	754.32
421.605	790.7
421.982	785.28
422.358	772.85
422.735	780.3
423.111	791.15
423.488	835.9
423.864	796.12
424.241	816.69
424.617	801.09
424.994	816.69
425.37	839.96
425.746	839.96
426.123	803.35
426.499	827.99
426.875	845.39
427.251	874.31
427.627	882.9
428.003	868.89
428.379	901.66
428.756	900.75
429.132	890.58
429.507	906.4
429.883	924.93
430.259	948.89
430.635	937.59
431.011	954.31
431.387	982.33
431.763	968.1
432.138	985.5
432.514	990.24
432.89	1010.81
433.265	1026.4
433.641	1016
434.016	1029.34
434.392	1043.57
434.767	1044.48
435.143	1070.47
435.518	1073.18
435.894	1049.9
436.269	1078.15
436.644	1116.79
437.02	1107.75
437.395	1122.89
437.77	1133.97
438.145	1176
438.52	1154.08
438.895	1157.7
439.271	1171.25
439.646	1196.11
440.021	1193.63
440.395	1184.36
440.77	1175.1
441.145	1232.5
441.52	1236.11
441.895	1245.38
442.27	1239.05
442.645	1244.02
443.019	1267.98
443.394	1250.35
443.769	1295.77
444.143	1265.26
444.518	1302.78
444.892	1293.06
445.267	1274.75
445.641	1325.37
446.016	1314.08
446.39	1352.04
446.764	1344.36
447.139	1333.28
447.513	1343.23
447.887	1341.19
448.262	1384.81
448.636	1366.96
449.01	1379.84
449.384	1366.96
449.758	1367.63
450.132	1410.57
450.506	1400.63
450.88	1430.46
451.254	1433.85
451.628	1440.17
452.002	1439.95
452.376	1454.64
452.75	1484.47
453.123	1493.96
453.497	1496.22
453.871	1532.83
454.244	1524.47
454.618	1535.09
454.992	1565.37
455.365	1582.77
455.739	1585.03
456.112	1626.38
456.486	1627.29
456.859	1639.26
457.232	1672.26
457.606	1674.52
457.979	1667.29
458.352	1708.64
458.725	1770.33
459.099	1784.57
459.472	1843.55
459.845	1795.64
460.218	1836.55
460.591	1818.02
460.964	1841.52
461.337	1890.56
461.71	1896.21
462.083	1942.76
462.456	1920.39
462.829	1935.53
463.201	1990.67
463.574	1984.34
463.947	2034.28
464.32	2052.59
464.692	2063.21
465.065	2059.82
465.438	2131
465.81	2134.17
466.183	2180.04
466.555	2238.12
466.928	2232.47
467.3	2235.86
467.672	2274.28
468.045	2332.35
468.417	2338.23
468.789	2340.72
469.161	2398.57
469.534	2441.05
469.906	2490.54
470.278	2505.46
470.65	2537.55
471.022	2594.49
471.394	2644.66
471.766	2672.91
472.138	2646.7
472.51	2753.13
472.882	2803.53
473.253	2817.99
473.625	2893.02
473.997	2983.64
474.369	2962.85
474.74	3034.71
475.112	3056.18
475.484	3139.34
475.855	3200.58
476.227	3219.11
476.598	3330.97
476.97	3383.63
477.341	3500.91
477.713	3529.84
478.084	3499.1
478.455	3641.47
478.827	3622.49
479.198	3789.04
479.569	3782.26
479.94	3895.93
480.311	3965.53
480.682	4039.43
481.053	4159.2
481.424	4208.46
481.795	4234
482.166	4361.45
482.537	4417.95
482.908	4503.37
483.279	4597.83
483.65	4693.2
484.021	4779.75
484.391	4792.63
484.762	4847.54
485.133	4915.79
485.503	5020.42
485.874	5088.89
486.244	5132.05
486.615	5276.91
486.985	5309
487.356	5425.38
487.726	5442.55
488.097	5605.49
488.467	5620.18
488.837	5699.95
489.207	5737.69
489.578	5856.1
489.948	5950.56
490.318	6075.31
490.688	6033.73
491.058	6195.76
491.428	6240.5
491.798	6285.7
492.168	6418.8
492.538	6470.55
492.908	6553.03
493.278	6611.56
493.648	6631.45
494.017	6732.69
494.387	6786.25
494.757	6839.13
495.126	6902.18
495.496	6921.16
495.866	7005
496.235	7076.64
496.605	7148.05
496.974	7255.84
497.344	7308.72
497.713	7349.62
498.082	7409.06
498.452	7447.25
498.821	7537.64
499.19	7541.93
499.559	7615.6
499.928	7655.38
500.298	7706.45
500.667	7863.96
501.036	7802.27
501.405	7888.14
501.774	7914.58
502.143	8005.2
502.512	8032.77
502.88	8125.87
503.249	8111.19
503.618	8209.94
503.987	8291.52
504.356	8324.06
504.724	8367.9
505.093	8423.04
505.462	8481.57
505.83	8508.91
506.199	8619.65
506.567	8703.49
506.936	8749.36
507.304	8807.66
507.672	8831.84
508.041	8847.21
508.409	8979.86
508.777	9035.68
509.145	9180.08
509.514	9187.31
509.882	9316.13
510.25	9323.81
510.618	9414.2
510.986	9378.72
511.354	9536.01
511.722	9583.69
512.09	9697.81
512.458	9727.87
512.826	9733.97
513.193	9819.16
513.561	9936.9
513.929	10016.67
514.297	10123.34
514.664	10150.91
515.032	10241.3
515.4	10374.63
515.767	10446.49
516.135	10545.7
516.502	10465.47
516.869	10623.66
517.237	10595.41
517.604	10645.81
517.972	10842.19
518.339	10941.39
518.706	10976.19
519.073	11012.58
519.44	11233.14
519.808	11271.33
520.175	11252.35
520.542	11418.89
520.909	11535.5
521.276	11523.75
521.643	11594.71
522.009	11730.3
522.376	11821.37
522.743	11845.1
523.11	11994.92
523.477	12194.69
523.843	12280.11
524.21	12398.76
524.577	12549.49
524.943	12503.84
525.31	12634.91
525.676	12782.25
526.043	12761.23
526.409	12980.89
526.776	13062.02
527.142	13102.24
527.508	13122.35
527.874	13269.47
528.241	13435.11
528.607	13433.53
528.973	13542.68
529.339	13598.27
529.705	13761.66
530.071	13884.59
530.437	13959.84
530.803	13982.22
531.169	14145.6
531.535	14081.65
531.901	14119.39
532.267	14198.93
532.632	14299.04
532.998	14455.88
533.364	14516.21
533.73	14511.02
534.095	14653.61
534.461	14693.84
534.826	14835.08
535.192	14855.19
535.557	14892.02
535.923	14844.12
536.288	14938.8
536.653	15125.01
537.019	15164.33
537.384	15128.85
537.749	15218.79
538.114	15236.65
538.479	15352.12
538.845	15473.25
539.21	15429.18
539.575	15556.64
539.94	15534.94
540.305	15653.59
540.67	15780.59
541.034	15749.63
541.399	15808.61
541.764	15868.72
542.129	15912.79
542.494	15955.05
542.858	16013.8
543.223	15968.15
543.587	16135.61
543.952	16161.14
544.316	16222.16
544.681	16272.1
545.045	16336.73
545.41	16404.98
545.774	16452.89
546.138	16556.61
546.503	16640.23
546.867	16613.56
547.231	16842.25
547.595	16833.89
547.959	16908.47
548.324	16852.88
548.688	17034.11
549.052	17038.41
549.416	17144.62
549.779	17221.91
550.143	17205.64
550.507	17446.08
550.871	17451.96
551.235	17533.08
551.599	17621.22
551.962	17705.51
552.326	17745.73
552.689	17884.04
553.053	17847.2
553.417	17947.08
553.78	18241.99
554.143	18248.09
554.507	18399.05
554.87	18416.68
555.234	18598.14
555.597	18511.59
555.96	18746.61
556.323	18837.91
556.686	18767.63
557.05	19002.42
557.413	19100.95
557.776	19234.73
558.139	19399.93
558.502	19389.98
558.865	19618.23
559.228	19799.24
559.59	19929.86
559.953	20026.35
560.316	20200.58
560.679	20314.03
561.041	20428.83
561.404	20562.61
561.767	20725.99
562.129	20818.65
562.492	21102.93
562.854	21124.4
563.217	21194.46
563.579	21267.45
563.941	21516.03
564.304	21616.14
564.666	21879.64
565.028	21845.97
565.39	22010.03
565.753	22221.77
566.115	22403.01
566.477	22554.42
566.839	22742.89
567.201	22821.98
567.563	22924.58
567.925	23214.52
568.287	23252.93
568.648	23412.03
569.01	23626.48
569.372	23878
569.734	23882.75
570.095	24162.06
570.457	24224.89
570.819	24505.56
571.18	24562.05
571.542	24825.77
571.903	24893.79
572.265	25047.69
572.626	25220.57
572.987	25405.19
573.349	25592.53
573.71	25807.89
574.071	25900.77
574.432	25979.87
574.794	26256.24
575.155	26319.07
575.516	26381.44
575.877	26513.64
576.238	26680.41
576.599	26867.08
576.96	26933.51
577.32	27048.99
577.681	27222.32
578.042	27299.83
578.403	27462.77
578.763	27554.74
579.124	27646.94
579.485	27939.14
579.845	28066.82
580.206	28054.39
580.566	28220.71
580.927	28194.95
581.287	28228.85
581.648	28259.13
582.008	28532.57
582.368	28549.52
582.728	28646.24
583.089	28685.33
583.449	28867.48
583.809	28909.51
584.169	28911.77
584.529	29073.12
584.889	29321.02
585.249	29158.54
585.609	29178.65
585.969	29460.91
586.329	29302.72
586.688	29370.97
587.048	29438.53
587.408	29431.75
587.768	29405.99
588.127	29553.56
588.487	29588.59
588.846	29769.15
589.206	29524.86
589.565	29668.58
589.925	29877.39
590.284	29775.93
590.643	29818.41
591.003	29980.44
591.362	30072.42
591.721	29933.66
592.08	30070.83
592.44	30055.47
592.799	30135.69
593.158	30081.23
593.517	30119.42
593.876	30159.64
594.235	30166.65
594.593	30190.38
594.952	30250.49
595.311	30137.5
595.67	30195.35
596.029	30434.44
596.387	30455.46
596.746	30435.34
597.104	30398.28
597.463	30408.45
597.822	30519.86
598.18	30325.06
598.538	30437.6
598.897	30651.16
599.255	30465.85
599.613	30784.49
599.972	30580.65
600.33	30753.08
600.688	30587.88
601.046	30681.44
601.404	30809.57
601.762	30806.18
602.12	30990.13
602.478	30926.4
602.836	30942.68
603.194	30927.53
603.552	30944.93
603.91	30874.43
604.268	31018.83
604.625	30926.86
604.983	30982.45
605.341	30945.39
605.698	31009.11
606.056	30999.62
606.413	30977.25
606.771	31113.29
607.128	31143.12
607.485	31071.71
607.843	31047.98
608.2	31318.94
608.557	31442.1
608.914	31139.28
609.272	31433.96
609.629	31576.33
609.986	31474.64
610.343	31348.31
610.7	31576.78
611.057	31400.74
611.414	31588.99
611.771	31492.27
612.127	31658.59
612.484	31644.58
612.841	31668.08
613.198	31578.36
613.554	31641.41
613.911	31867.85
614.267	31841.86
614.624	31953.04
614.98	31893.84
615.337	32064.45
615.693	31882.54
616.05	32040.05
616.406	32218.35
616.762	32222.64
617.118	32032.14
617.475	32101.97
617.831	32219.48
618.187	32212.47
618.543	32284.56
618.899	32354.84
619.255	32288.4
619.611	32213.15
619.967	32271.23
620.323	32376.31
620.678	32361.39
621.034	32166.82
621.39	32309.42
621.746	32459.47
622.101	32629.86
622.457	32300.15
622.812	32412.69
623.168	32405.46
623.523	32552.58
623.879	32600.26
624.234	32419.92
624.589	32612.46
624.945	32489.98
625.3	32580.82
625.655	32639.35
626.01	32546.25
626.365	32566.59
626.72	32541.5
627.075	32429.64
627.43	32366.37
627.785	32460.83
628.14	32377.44
628.495	32459.92
628.85	32314.39
629.205	32194.62
629.559	32425.12
629.914	32287.05
630.269	32282.07
630.623	32218.35
630.978	32061.97
631.332	32265.8
631.687	32352.36
632.041	32210.44
632.396	32315.97
632.75	32156.65
633.104	32143.55
633.459	32099.03
633.813	32022.65
634.167	32099.48
634.521	32009.99
634.875	32041.4
635.229	31872.82
635.583	31900.62
635.937	31741.52
636.291	31763.44
636.645	31817.23
636.999	31670.57
637.352	31736.33
637.706	31583.34
638.06	31838.7
638.413	31720.73
638.767	31740.85
639.121	31794.18
639.474	31311.7
639.828	31501.98
640.181	31482.32
640.534	31471.47
640.888	31395.09
641.241	31268.99
641.594	31293.17
641.947	31436.45
642.301	31339.05
642.654	31317.58
643.007	31296.34
643.36	31287.07
643.713	31253.85
644.066	31354.87
644.419	31166.17
644.771	31013.63
645.124	30656.58
645.477	30701.1
645.83	30384.95
646.182	30271.73
646.535	30209.81
646.888	30353.09
647.24	30154.45
647.593	30363.93
647.945	30168.46
648.298	30173.2
648.65	30117.61
649.002	29994.45
649.355	30184.5
649.707	30132.07
650.059	30110.15
650.411	30508.34
650.763	30651.16
651.115	30867.65
651.467	30737.03
651.819	30784.71
652.171	30824.03
652.523	30702.46
652.875	30720.31
653.227	30610.93
653.578	30763.24
653.93	30746.3
654.282	30558.96
654.633	30443.03
654.985	30638.73
655.337	30679.63
655.688	30619.29
656.039	30648.67
656.391	30447.32
656.742	30755.56
657.094	30474.89
657.445	30633.98
657.796	30549.47
658.147	30640.99
658.498	30542.01
658.849	30581.55
659.2	30576.58
659.551	30447.55
659.902	30626.98
660.253	30524.38
660.604	30584.49
660.955	30437.15
661.306	30499.07
661.656	30481.44
662.007	30456.81
662.358	30485.06
662.708	30489.35
663.059	30446.87
663.409	30251.62
663.76	30520.99
664.11	30502.01
664.461	30561.44
664.811	30551.05
665.161	30488.45
665.511	30305.86
665.862	30392.86
666.212	30438.96
666.562	30538.17
666.912	30376.59
667.262	30357.38
667.612	30363.03
667.962	30330.49
668.312	30434.21
668.662	30516.92
669.011	30349.24
669.361	30303.6
669.711	30129.36
670.06	30250.26
670.41	30189.93
670.76	30215.46
671.109	30361.22
671.459	30290.04
671.808	30141.79
672.157	30158.29
672.507	30009.14
672.856	30124.17
673.205	30096.37
673.554	30196.03
673.904	30109.48
674.253	30258.4
674.602	30085.3
674.951	29614.12
675.3	29582.94
675.649	30004.85
675.998	29999.42
676.346	29892.53
676.695	29950.84
677.044	29801.01
677.393	29829.26
677.741	29875.13
678.09	29845.53
678.438	29854.57
678.787	29720.79
679.135	29689.15
679.484	29527.12
679.832	29591.3
680.181	29393.11
680.529	29510.85
680.877	29337.29
681.225	29280.57
681.573	29441.02
681.922	29272.89
682.27	29317.86
682.618	29395.15
682.966	29113.34
683.314	29201.25
683.661	29059.11
684.009	28946.8
684.357	28870.64
684.705	28936.4
685.053	28905.67
685.4	28898.21
685.748	28726.46
686.095	28687.82
686.443	28571.44
686.79	28625.45
687.138	28700.25
687.485	28556.07
687.832	28382.29
688.18	28440.59
688.527	28248.51
688.874	28194.72
689.221	28212.58
689.568	27983.88
689.915	27853.72
690.262	27917.9
690.609	27994.05
690.956	27832.7
691.303	27867.28
691.65	27608.75
691.997	27525.59
692.344	27492.14
692.69	27388.42
693.037	27464.35
693.383	27164.92
693.73	27162.44
694.077	27034.08
694.423	26979.16
694.769	26982.33
695.116	26786.4
695.462	26713.18
695.808	26642.9
696.155	26711.6
696.501	26427.99
696.847	26500.98
697.193	26322.91
697.539	26373.08
697.885	26184.83
698.231	26084.27
698.577	26038.17
698.923	26038.85
699.269	25922.92
699.614	25762.02
699.96	25730.16
700.306	25758.86
700.651	25659.88
700.997	25468.92
701.342	25408.81
701.688	25314.8
702.033	25162.04
702.379	25191.64
702.724	25007.01
703.069	25056.95
703.415	24924.3
703.76	24813.8
704.105	24729.05
704.45	24712.78
704.795	24692.9
705.14	24539
705.485	24500.58
705.83	24367.48
706.175	24415.39
706.52	24349.4
706.865	24215.62
707.209	24196.19
707.554	24126.13
707.899	24136.53
708.243	24068.73
708.588	23981.95
708.932	23853.82
709.277	23768.85
709.621	23747.38
709.966	23639.59
710.31	23695.41
710.654	23464.68
710.998	23542.42
711.342	23460.61
711.687	23448.41
712.031	23415.64
712.375	23277.57
712.719	23279.83
713.063	23269.88
713.407	23236.21
713.75	23198.47
714.094	23143.33
714.438	23079.38
714.782	22997.12
715.125	22935.2
715.469	22942.43
715.812	22814.53
716.156	22688.43
716.499	22837.8
716.843	22786.28
717.186	22626.51
717.53	22739.95
717.873	22758.26
718.216	22671.03
718.559	22605.72
718.902	22457.25
719.246	22537.02
719.589	22431.94
719.932	22316.46
720.275	22375.67
720.617	22386.29
720.96	22342.9
721.303	22279.4
721.646	22358.95
721.989	22151.95
722.331	22299.51
722.674	22213.64
723.016	22189.91
723.359	22305.16
723.701	22156.01
724.044	22084.83
724.386	21994.44
724.729	22126.64
725.071	22120.53
725.413	22139.29
725.755	21983.14
726.097	21988.79
726.439	21963.02
726.782	21972.74
727.124	22075.34
727.465	21907.66
727.807	21895.68
728.149	21863.14
728.491	21842.12
728.833	21856.36
729.175	21849.35
729.516	21778.4
729.858	21787.44
730.199	21922.57
730.541	21824.27
730.882	21825.85
731.224	21870.15
731.565	21758.51
731.906	21818.17
732.248	21798.51
732.589	21774.55
732.93	21781.56
733.271	21676.7
733.612	21723.26
733.953	21784.05
734.294	21610.49
734.635	21642.81
734.976	21676.7
735.317	21644.61
735.658	21551.06
735.999	21566.65
736.339	21610.49
736.68	21637.38
737.021	21599.19
737.361	21465.64
737.702	21680.55
738.042	21619.76
738.383	21544.5
738.723	21773.2
739.063	21553.32
739.404	21550.83
739.744	21547.89
740.084	21477.84
740.424	21555.35
740.764	21543.83
741.104	21645.97
741.444	21422.7
741.784	21479.2
742.124	21526.88
742.464	21530.72
742.804	21509.02
743.143	21506.99
743.483	21584.05
743.823	21461.12
744.162	21405.3
744.502	21546.76
744.841	21478.74
745.181	21606.65
745.52	21519.42
745.86	21532.53
746.199	21544.96
746.538	21590.15
746.877	21480.78
747.216	21452.98
747.556	21517.84
747.895	21568.01
748.234	21441.46
748.573	21494.34
748.911	21466.54
749.25	21460.44
749.589	21370.72
749.928	21449.59
750.267	21518.74
750.605	21398.07
750.944	21372.76
751.283	21333.89
751.621	21449.59
751.96	21229.26
752.298	21342.02
752.636	21377.5
752.975	21253.21
753.313	21126.44
753.651	21198.98
753.989	21085.99
754.327	21158.3
754.666	21081.47
755.004	21189.71
755.342	21198.75
755.679	21167.79
