Data from tablewood_dark_bookshelf_FLMS001491_00064.txt Node
Date: Wed Feb 08 14:15:23 GMT 2017
User: dcchb
Spectrometer: FLMS00149
Trigger mode: 0
Integration Time (sec): 2.000000E-2
Scans to average: 10
Electric dark correction enabled: true
Nonlinearity correction enabled: false
Boxcar width: 0
XAxis mode: Wavelengths
Number of Pixels in Spectrum: 2048
>>>>>Begin Spectral Data<<<<<
341.393	-25.1
341.776	-25.1
342.16	-25.1
342.543	-80.01
342.927	-55.15
343.31	-60.13
343.693	-69.39
344.077	-69.16
344.46	-39.34
344.843	-49.73
345.226	-63.52
345.61	-27.58
345.993	-10.86
346.376	-7.02
346.759	11.51
347.142	28.01
347.525	56.48
347.908	41.11
348.291	83.15
348.674	75.01
349.057	101.45
349.44	117.5
349.823	137.61
350.206	179.19
350.588	175.57
350.971	200.66
351.354	204.95
351.737	208.57
352.119	251.28
352.502	276.81
352.884	269.13
353.267	270.71
353.65	277.04
354.032	278.62
354.414	303.93
354.797	279.07
355.179	276.59
355.562	303.48
355.944	318.17
356.326	325.85
356.709	337.38
357.091	331.5
357.473	331.73
357.855	341.45
358.238	311.39
358.62	340.54
359.002	314.55
359.384	335.8
359.766	344.61
360.148	335.12
360.53	331.05
360.912	320.2
361.294	317.04
361.676	340.54
362.057	322.24
362.439	337.38
362.821	335.8
363.203	315.46
363.584	305.97
363.966	325.63
364.348	309.58
364.729	298.51
365.111	301.22
365.493	292.86
365.874	315.68
366.256	299.86
366.637	325.85
367.019	301.45
367.4	327.21
367.781	294.89
368.163	319.3
368.544	312.29
368.925	289.7
369.306	296.7
369.688	303.03
370.069	329.24
370.45	326.3
370.831	323.37
371.212	322.24
371.593	299.41
371.974	312.29
372.355	310.03
372.736	315.23
373.117	319.98
373.498	302.12
373.879	326.08
374.26	301.67
374.641	311.16
375.021	299.41
375.402	305.97
375.783	332.63
376.163	317.27
376.544	318.17
376.925	326.53
377.305	343.03
377.686	330.6
378.066	338.96
378.447	322.24
378.827	314.1
379.208	331.05
379.588	338.51
379.968	323.14
380.349	341.22
380.729	323.82
381.109	336.93
381.489	333.76
381.87	352.52
382.25	332.86
382.63	350.26
383.01	355.91
383.39	337.83
383.77	350.26
384.15	355.68
384.53	366.08
384.91	357.72
385.29	357.49
385.67	355.46
386.049	373.76
386.429	348
386.809	375.34
387.189	368.34
387.568	371.05
387.948	378.96
388.328	373.54
388.707	374.67
389.087	390.03
389.466	368.79
389.846	386.87
390.225	388.22
390.605	373.99
390.984	377.38
391.363	371.05
391.743	391.61
392.122	381.22
392.501	406.75
392.881	399.52
393.26	391.39
393.639	396.13
394.018	414.44
394.397	399.07
394.776	399.75
395.155	412.4
395.534	401.56
395.913	394.78
396.292	402.01
396.671	411.27
397.05	427.77
397.429	428.45
397.808	407.66
398.186	417.38
398.565	426.42
398.944	424.38
399.323	427.32
399.701	411.05
400.08	412.4
400.458	431.61
400.837	430.93
401.215	428.9
401.594	435.68
401.972	441.1
402.351	445.4
402.729	459.86
403.107	468
403.486	445.62
403.864	441.56
404.242	458.5
404.62	456.25
404.999	460.99
405.377	445.85
405.755	474.55
406.133	474.78
406.511	451.73
406.889	493.08
407.267	473.87
407.645	476.13
408.023	509.58
408.401	496.7
408.779	489.46
409.156	480.65
409.534	519.75
409.912	511.38
410.29	508
410.667	498.05
411.045	546.86
411.422	504.83
411.8	533.76
412.178	519.29
412.555	549.8
412.933	538.73
413.31	521.33
413.687	562.46
414.065	533.76
414.442	540.08
414.819	576.47
415.197	574.21
415.574	591.38
415.951	590.93
416.328	572.17
416.705	592.06
417.082	603.36
417.46	586.86
417.837	619.86
418.214	617.37
418.591	599.74
418.967	612.63
419.344	632.29
419.721	614.88
420.098	613.53
420.475	622.57
420.852	634.55
421.228	633.87
421.605	622.34
421.982	646.97
422.358	647.43
422.735	644.04
423.111	644.26
423.488	675.22
423.864	679.74
424.241	685.39
424.617	675.67
424.994	698.27
425.37	696.01
425.746	676.13
426.123	695.56
426.499	717.93
426.875	716.8
427.251	720.64
427.627	740.08
428.003	747.08
428.379	727.42
428.756	742.57
429.132	766.07
429.507	743.24
429.883	753.41
430.259	729.91
430.635	784.37
431.011	762.68
431.387	802
431.763	800.42
432.138	827.31
432.514	811.04
432.89	831.38
433.265	828.21
433.641	847.87
434.016	852.62
434.392	843.58
434.767	876.35
435.143	876.12
435.518	895.33
435.894	903.69
436.269	903.24
436.644	900.98
437.02	914.31
437.395	925.84
437.77	940.3
438.145	927.65
438.52	943.92
438.895	962.45
439.271	964.48
439.646	950.47
440.021	975.33
440.395	978.72
440.77	981.88
441.145	1005.16
441.52	994.08
441.895	996.57
442.27	1028.43
442.645	1008.55
443.019	1012.61
443.394	1023.01
443.769	1075.21
444.143	1023.24
444.518	1047.42
444.892	1061.2
445.267	1081.54
445.641	1055.1
446.016	1085.38
446.39	1058.04
446.764	1088.54
447.139	1084.48
447.513	1088.77
447.887	1101.88
448.262	1098.26
448.636	1104.59
449.01	1119.5
449.384	1125.15
449.758	1102.56
450.132	1124.93
450.506	1136.23
450.88	1154.53
451.254	1159.28
451.628	1174.87
452.002	1177.36
452.376	1189.11
452.75	1213.74
453.123	1212.84
453.497	1235.89
453.871	1228.2
454.244	1254.64
454.618	1255.77
454.992	1290.57
455.365	1294.19
455.739	1338.93
456.112	1330.57
456.486	1352.72
456.859	1366.5
457.232	1376.45
457.606	1362.66
457.979	1380.74
458.352	1426.16
458.725	1429.55
459.099	1443.34
459.472	1438.82
459.845	1471.13
460.218	1499.61
460.591	1504.35
460.964	1476.78
461.337	1524.92
461.71	1531.7
462.083	1587.06
462.456	1567.85
462.829	1587.51
463.201	1627.74
463.574	1633.84
463.947	1639.94
464.32	1665.03
464.692	1680.39
465.065	1673.84
465.438	1696.21
465.81	1766.49
466.183	1757.68
466.555	1776.44
466.928	1782.31
467.3	1774.85
467.672	1826.6
468.045	1873.61
468.417	1879.26
468.789	1894.4
469.161	1886.94
469.534	1947.73
469.906	1951.57
470.278	1976.66
470.65	2011.91
471.022	2054.17
471.394	2071.12
471.766	2102.76
472.138	2118.57
472.51	2149.08
472.882	2187.72
473.253	2179.59
473.625	2271.34
473.997	2268.4
474.369	2289.19
474.74	2332.13
475.112	2373.48
475.484	2404.67
475.855	2401.96
476.227	2476.08
476.598	2520.82
476.97	2556.53
477.341	2560.37
477.713	2616.87
478.084	2645.79
478.455	2691.89
478.827	2723.76
479.198	2808.73
479.569	2755.85
479.94	2844.43
480.311	2891.66
480.682	2980.7
481.053	3001.71
481.424	3048.27
481.795	3070.19
482.166	3153.35
482.537	3170.07
482.908	3249.17
483.279	3213.46
483.65	3314.25
484.021	3353.57
484.391	3444.19
484.762	3457.75
485.133	3488.03
485.503	3547.01
485.874	3611.19
486.244	3649.16
486.615	3713.56
486.985	3725.99
487.356	3794.24
487.726	3801.02
488.097	3897.51
488.467	3914.91
488.837	4012.99
489.207	4001.01
489.578	4064.51
489.948	4096.83
490.318	4192.87
490.688	4214.11
491.058	4291.62
491.428	4315.58
491.798	4374.79
492.168	4475.12
492.538	4449.13
492.908	4529.13
493.278	4546.76
493.648	4545.86
494.017	4597.83
494.387	4676.02
494.757	4667.89
495.126	4777.04
495.496	4758.05
495.866	4840.08
496.235	4877.6
496.605	4930.7
496.974	4921.66
497.344	4989.46
497.713	4997.59
498.082	5053.41
498.452	5111.72
498.821	5139.06
499.19	5121.89
499.559	5203.92
499.928	5252.73
500.298	5255.21
500.667	5334.53
501.036	5301.54
501.405	5352.16
501.774	5434.65
502.143	5447.75
502.512	5468.99
502.88	5488.88
503.249	5529.78
503.618	5565.04
503.987	5610.46
504.356	5660.85
504.724	5692.72
505.093	5697.46
505.462	5736.78
505.83	5822.88
506.199	5876.89
506.567	5936.1
506.936	5992.82
507.304	5976.33
507.672	5985.59
508.041	6059.04
508.409	6064.23
508.777	6086.83
509.145	6202.99
509.514	6185.13
509.882	6236.66
510.25	6296.32
510.618	6362.3
510.986	6329.99
511.354	6447.73
511.722	6439.59
512.09	6526.14
512.458	6519.81
512.826	6567.04
513.193	6612.69
513.561	6691.11
513.929	6706.48
514.297	6766.59
514.664	6828.96
515.032	6875.96
515.4	6932.01
515.767	6948.5
516.135	7009.97
516.502	7005
516.869	7078.9
517.237	7146.01
517.604	7107.14
517.972	7207.48
518.339	7308.27
518.706	7294.94
519.073	7339.45
519.44	7464.87
519.808	7429.62
520.175	7474.37
520.542	7603.4
520.909	7699.9
521.276	7662.61
521.643	7762.72
522.009	7781.02
522.376	7936.95
522.743	7880.23
523.11	8061.92
523.477	8100.79
523.843	8087
524.21	8152.99
524.577	8193.67
524.943	8316.15
525.31	8359.31
525.676	8429.82
526.043	8548.01
526.409	8531.51
526.776	8623.49
527.142	8660.78
527.508	8733.77
527.874	8789.13
528.241	8800.66
528.607	8857.15
528.973	8936.47
529.339	8962.01
529.705	9084.04
530.071	9074.55
530.437	9133.98
530.803	9177.37
531.169	9255.34
531.535	9243.13
531.901	9366.07
532.267	9320.87
532.632	9466.4
532.998	9482.45
533.364	9567.19
533.73	9654.42
534.095	9637.47
534.461	9640.64
534.826	9717.24
535.192	9729
535.557	9833.85
535.923	9847.41
536.288	9882.66
536.653	9955.2
537.019	9953.85
537.384	10087.18
537.749	10060.06
538.114	10068.42
538.479	10168.76
538.845	10198.14
539.21	10101.19
539.575	10152.04
539.94	10317
540.305	10371.46
540.67	10329.43
541.034	10378.47
541.399	10329.43
541.764	10452.82
542.129	10544.12
542.494	10520.84
542.858	10550.44
543.223	10548.41
543.587	10661.4
543.952	10693.26
544.316	10696.88
544.681	10778.91
545.045	10829.53
545.41	10914.05
545.774	10869.53
546.138	10888.29
546.503	10912.69
546.867	10923.99
547.231	11044.67
547.595	11033.59
547.959	11110.43
548.324	11057.1
548.688	11184.78
549.052	11117.66
549.416	11167.83
549.779	11237.88
550.143	11340.25
550.507	11366.47
550.871	11458.44
551.235	11432
551.599	11511.77
551.962	11537.54
552.326	11672.45
552.689	11686.68
553.053	11639
553.417	11682.39
553.78	11853.23
554.143	11766.23
554.507	11854.36
554.87	11825.66
555.234	11994.92
555.597	11976.62
555.96	12007.35
556.323	12095.94
556.686	12041.25
557.05	12245.77
557.413	12275.14
557.776	12311.07
558.139	12410.96
558.502	12402.82
558.865	12418.87
559.228	12537.28
559.59	12626.09
559.953	12570.28
560.316	12821.12
560.679	12723.95
561.041	12901.79
561.404	12900.21
561.767	13035.58
562.129	12922.58
562.492	13177.04
562.854	13146.53
563.217	13111.73
563.579	13242.58
563.941	13342.23
564.304	13370.48
564.666	13404.61
565.028	13499.74
565.39	13522.34
565.753	13590.36
566.115	13648.44
566.477	13741.09
566.839	13834.65
567.201	13904.25
567.563	13913.52
567.925	14083.91
568.287	14145.38
568.648	14064.7
569.01	14176.79
569.372	14296.79
569.734	14289.78
570.095	14372.26
570.457	14456.55
570.819	14482.77
571.18	14560.96
571.542	14618.13
571.903	14615.42
572.265	14662.2
572.626	14811.35
572.987	14829.43
573.349	14880.27
573.71	14930.44
574.071	15032.58
574.432	15076.43
574.794	15177.89
575.155	15203.43
575.516	15144.9
575.877	15200.94
576.238	15276.87
576.599	15401.61
576.96	15404.78
577.32	15436.19
577.681	15512.12
578.042	15600.03
578.403	15506.02
578.763	15654.49
579.124	15724.32
579.485	15832.79
579.845	15871.21
580.206	15823.52
580.566	15844.09
580.927	15869.85
581.287	15907.82
581.648	15875.27
582.008	16052.9
582.368	15997.98
582.728	16076.85
583.089	16120.47
583.449	16205.21
583.809	16204.98
584.169	16243.17
584.529	16161.59
584.889	16407.92
585.249	16285.21
585.609	16240.91
585.969	16354.58
586.329	16299.22
586.688	16425.99
587.048	16481.59
587.408	16357.75
587.768	16403.62
588.127	16423.96
588.487	16444.07
588.846	16660.56
589.206	16419.89
589.565	16610.85
589.925	16574.69
590.284	16599.78
590.643	16670.06
591.003	16695.14
591.362	16754.35
591.721	16716.38
592.08	16765.19
592.44	16772.88
592.799	16843.16
593.158	16883.38
593.517	16862.82
593.876	16952.53
594.235	16912.76
594.593	16951.86
594.952	17028.01
595.311	16946.43
595.67	17007
596.029	17091.51
596.387	17192.08
596.746	17054.45
597.104	17058.75
597.463	17041.57
597.822	17137.39
598.18	17189.82
598.538	17131.96
598.897	17299.42
599.255	17187.1
599.613	17449.02
599.972	17342.58
600.33	17453.76
600.688	17267.33
601.046	17408.79
601.404	17521.56
601.762	17523.82
602.12	17600.2
602.478	17625.06
602.836	17542.35
603.194	17517.27
603.552	17541.9
603.91	17460.77
604.268	17622.12
604.625	17649.92
604.983	17690.37
605.341	17594.33
605.698	17781.67
606.056	17777.82
606.413	17744.83
606.771	17867.09
607.128	17921.55
607.485	17796.58
607.843	17804.72
608.2	17998.83
608.557	18058.04
608.914	17915.45
609.272	18040.42
609.629	18050.13
609.986	18126.06
610.343	17977.59
610.7	18186.4
611.057	18111.15
611.414	18110.47
611.771	18265.27
612.127	18275.89
612.484	18279.96
612.841	18295.78
613.198	18251.71
613.554	18347.07
613.911	18419.39
614.267	18381.2
614.624	18385.72
614.98	18474.75
615.337	18482.66
615.693	18421.42
616.05	18503.68
616.406	18644.02
616.762	18505.04
617.118	18533.96
617.475	18620.97
617.831	18609.44
618.187	18604.47
618.543	18539.16
618.899	18761.3
619.255	18717.46
619.611	18623.68
619.967	18773.73
620.323	18794.75
620.678	18782.32
621.034	18728.08
621.39	18709.1
621.746	18720.85
622.101	18886.27
622.457	18666.16
622.812	18743.45
623.168	18914.29
623.523	18805.14
623.879	19005.36
624.234	18700.74
624.589	18842.65
624.945	18825.93
625.3	18813.73
625.655	18816.89
626.01	18832.71
626.365	18873.39
626.72	18894.18
627.075	18854.41
627.43	18830
627.785	18817.12
628.14	18968.75
628.495	18858.93
628.85	18841.3
629.205	18757.46
629.559	18896.44
629.914	18806.05
630.269	18873.39
630.623	18761.75
630.978	18777.12
631.332	18828.87
631.687	18853.73
632.041	18645.82
632.396	18873.84
632.75	18704.35
633.104	18712.94
633.459	18696.22
633.813	18555.66
634.167	18696.67
634.521	18643.79
634.875	18726.5
635.229	18714.3
635.583	18514.75
635.937	18620.74
636.291	18574.19
636.645	18556.33
636.999	18471.36
637.352	18577.35
637.706	18414.19
638.06	18527.86
638.413	18513.17
638.767	18349.56
639.121	18455.09
639.474	18358.83
639.828	18355.66
640.181	18409.45
640.534	18427.52
640.888	18238.15
641.241	18251.03
641.594	18301.2
641.947	18379.39
642.301	18261.43
642.654	18232.95
643.007	18375.32
643.36	18282.44
643.713	18111.83
644.066	18226.63
644.419	18205.83
644.771	18099.85
645.124	17974.88
645.477	17900.08
645.83	17813.53
646.182	17697.83
646.535	17665.28
646.888	17575.34
647.24	17584.16
647.593	17576.47
647.945	17642.69
648.298	17519.75
648.65	17389.59
649.002	17494.67
649.355	17541.22
649.707	17543.93
650.059	17560.43
650.411	17752.97
650.763	17787.77
651.115	18008.55
651.467	17959.97
651.819	17982.56
652.171	17862.57
652.523	17826.86
652.875	17851.95
653.227	17654.21
653.578	17914.09
653.93	17828.9
654.282	17858.95
654.633	17781.89
654.985	17769.46
655.337	17791.61
655.688	17818.5
656.039	17846.3
656.391	17739.18
656.742	17706.64
657.094	17706.19
657.445	17816.47
657.796	17796.13
658.147	17763.59
658.498	17633.87
658.849	17754.55
659.2	17763.36
659.551	17622.8
659.902	17826.18
660.253	17820.53
660.604	17842
660.955	17738.95
661.306	17771.95
661.656	17718.62
662.007	17626.87
662.358	17712.97
662.708	17703.93
663.059	17780.08
663.409	17614.21
663.76	17778.73
664.11	17701.44
664.461	17773.53
664.811	17752.06
665.161	17729.46
665.511	17675.23
665.862	17665.28
666.212	17731.72
666.562	17674.78
666.912	17675.45
667.262	17734.66
667.612	17661.89
667.962	17695.79
668.312	17641.78
668.662	17686.53
669.011	17675.45
669.361	17615.57
669.711	17708.22
670.06	17590.48
670.41	17544.84
670.76	17598.39
671.109	17654.66
671.459	17565.17
671.808	17608.79
672.157	17695.34
672.507	17507.1
672.856	17638.62
673.205	17549.35
673.554	17631.84
673.904	17561.33
674.253	17589.35
674.602	17550.71
674.951	17386.65
675.3	17247.89
675.649	17546.87
675.998	17506.42
676.346	17532.18
676.695	17651.73
677.044	17475.91
677.393	17514.78
677.741	17534.21
678.09	17460.32
678.438	17488.11
678.787	17453.31
679.135	17508.9
679.484	17370.6
679.832	17470.94
680.181	17416.48
680.529	17424.84
680.877	17359.3
681.225	17339.87
681.573	17431.62
681.922	17339.19
682.27	17195.01
682.618	17233.43
682.966	17153.89
683.314	17167.9
683.661	17169.03
684.009	17111.63
684.357	17128.35
684.705	17057.16
685.053	17037.28
685.4	17091.29
685.748	16933.33
686.095	16967.45
686.443	16886.1
686.79	16857.4
687.138	16885.19
687.485	16952.53
687.832	16803.61
688.18	16778.53
688.527	16836.38
688.874	16728.59
689.221	16722.48
689.568	16583.5
689.915	16656.72
690.262	16533.79
690.609	16633.45
690.956	16576.95
691.303	16456.5
691.65	16515.71
691.997	16396.84
692.344	16277.98
692.69	16301.03
693.037	16292.21
693.383	16258.32
693.73	16206.11
694.077	16216.73
694.423	16226.68
694.769	16224.87
695.116	16084.76
695.462	16028.72
695.808	15984.42
696.155	15983.52
696.501	15879.57
696.847	15917.53
697.193	15781.72
697.539	15865.11
697.885	15715.73
698.231	15705.34
698.577	15735.62
698.923	15652.68
699.269	15582.4
699.614	15511.44
699.96	15487.71
700.306	15481.84
700.651	15368.62
700.997	15456.75
701.342	15361.62
701.688	15348.96
702.033	15217.44
702.379	15291.79
702.724	15147.84
703.069	15304.22
703.415	15091.34
703.76	15152.36
704.105	15130.21
704.45	15051.57
704.795	14987.61
705.14	14962.08
705.485	14961.85
705.83	14845.02
706.175	14964.56
706.52	14810.44
706.865	14829.65
707.209	14824.68
707.554	14736.1
707.899	14745.81
708.243	14710.79
708.588	14593.05
708.932	14650.67
709.277	14556.44
709.621	14530.68
709.966	14470.11
710.31	14555.31
710.654	14393.96
710.998	14465.14
711.342	14364.13
711.687	14405.71
712.031	14300.4
712.375	14235.09
712.719	14329.78
713.063	14266.28
713.407	14336.78
713.75	14223.79
714.094	14289.55
714.438	14077.13
714.782	14288.42
715.125	14059.73
715.469	14144.25
715.812	14021.09
716.156	14036.68
716.499	14047.98
716.843	14053.4
717.186	13939.28
717.53	13967.08
717.873	14017.7
718.216	13971.6
718.559	13903.12
718.902	13822.67
719.246	13909
719.589	13791.26
719.932	13751.04
720.275	13780.64
720.617	13727.53
720.96	13776.12
721.303	13697.7
721.646	13726.63
721.989	13764.14
722.331	13768.89
722.674	13720.76
723.016	13713.98
723.359	13640.76
723.701	13686.18
724.044	13646.86
724.386	13553.98
724.729	13615.45
725.071	13529.35
725.413	13502.68
725.755	13524.6
726.097	13564.83
726.439	13357.37
726.782	13479.86
727.124	13478.5
727.465	13527.31
727.807	13489.57
728.149	13376.58
728.491	13351.95
728.833	13426.98
729.175	13287.55
729.516	13447.77
729.858	13393.98
730.199	13347.66
730.541	13291.61
730.882	13271.05
731.224	13241.22
731.565	13227.21
731.906	13273.08
732.248	13290.03
732.589	13183.14
732.93	13246.64
733.271	13258.62
733.612	13164.39
733.953	13224.95
734.294	13197.15
734.635	13177.27
734.976	13146.08
735.317	13124.16
735.658	13124.16
735.999	13124.39
736.339	13117.83
736.68	13141.56
737.021	13102.69
737.361	13101.79
737.702	13135.23
738.042	13016.14
738.383	13095.91
738.723	13118.74
739.063	13114.67
739.404	13050.94
739.744	13066.99
740.084	13006.65
740.424	12960.55
740.764	12987.67
741.104	13018.4
741.444	12938.63
741.784	12975.69
742.124	12976.37
742.464	12940.21
742.804	12894.56
743.143	12870.61
743.483	12902.47
743.823	12825.19
744.162	12774.34
744.502	12934.11
744.841	12838.52
745.181	12880.78
745.52	12858.86
745.86	12859.53
746.199	12865.64
746.538	12777.28
746.877	12819.54
747.216	12801.01
747.556	12666.09
747.895	12713.1
748.234	12665.42
748.573	12659.77
748.911	12710.61
749.25	12710.61
749.589	12695.02
749.928	12650.05
750.267	12779.76
750.605	12640.33
750.944	12662.25
751.283	12645.08
751.621	12673.78
751.96	12587
752.298	12603.04
752.636	12529.37
752.975	12545.64
753.313	12500.9
753.651	12585.87
753.989	12445.76
754.327	12458.42
754.666	12408.02
755.004	12422.48
755.342	12457.51
755.679	12332.99
756.017	12349.72
756.355	12345.88
756.693	12221.81
757.031	12313.56
