Data from White_reflection_standard_FLMS001491_072.txt Node
Date: Tue Feb 07 10:32:09 GMT 2017
User: dcchb
Spectrometer: FLMS00149
Trigger mode: 0
Integration Time (sec): 2.000000E-2
Scans to average: 10
Electric dark correction enabled: true
Nonlinearity correction enabled: false
Boxcar width: 0
XAxis mode: Wavelengths
Number of Pixels in Spectrum: 2048
>>>>>Begin Spectral Data<<<<<
341.393	-23.38
341.776	-23.38
342.16	-23.38
342.543	-67.67
342.927	-76.03
343.31	-52.53
343.693	-65.41
344.077	-67.89
344.46	-69.93
344.843	-50.72
345.226	-45.07
345.61	-26.99
345.993	-5.07
346.376	-22.47
346.759	29.28
347.142	42.16
347.525	29.5
347.908	40.13
348.291	55.94
348.674	107.24
349.057	101.82
349.44	118.32
349.823	129.84
350.206	165.09
350.588	223.62
350.971	233.57
351.354	272.66
351.737	264.98
352.119	278.31
352.502	308.14
352.884	305.66
353.267	330.97
353.65	330.51
354.032	322.6
354.414	361.47
354.797	361.47
355.179	363.51
355.562	360.8
355.944	375.94
356.326	372.32
356.709	389.72
357.091	394.92
357.473	381.13
357.855	397.18
358.238	417.07
358.62	414.81
359.002	413.45
359.384	385.2
359.766	392.66
360.148	392.43
360.53	411.19
360.912	387.91
361.294	409.83
361.676	392.43
362.057	390.17
362.439	397.86
362.821	406.44
363.203	401.92
363.584	402.83
363.966	410.96
364.348	435.14
364.729	390.17
365.111	407.12
365.493	388.14
365.874	386.56
366.256	417.29
366.637	420.23
367.019	397.4
367.4	412.09
367.781	414.13
368.163	417.52
368.544	419.1
368.925	427.69
369.306	420.91
369.688	446.67
370.069	434.47
370.45	421.58
370.831	442.6
371.212	442.38
371.593	431.08
371.974	445.54
372.355	437.4
372.736	433.11
373.117	436.95
373.498	447.57
373.879	437.4
374.26	440.12
374.641	437.18
375.021	426.56
375.402	453.67
375.783	495.03
376.163	494.58
376.544	514.46
376.925	485.99
377.305	493
377.686	504.07
378.066	501.58
378.447	493.45
378.827	505.88
379.208	493
379.588	526.67
379.968	510.62
380.349	523.05
380.729	518.76
381.109	536.61
381.489	528.7
381.87	544.29
382.25	536.16
382.63	542.26
383.01	555.82
383.39	579.32
383.77	550.4
384.15	576.61
384.53	569.6
384.91	587.23
385.29	599.21
385.67	611.18
386.049	608.25
386.429	603.95
386.809	640.34
387.189	640.34
387.568	620
387.948	642.82
388.328	637.85
388.707	684.85
389.087	651.86
389.466	641.92
389.846	658.19
390.225	683.95
390.605	675.14
390.984	688.7
391.363	683.05
391.743	713.78
392.122	729.83
392.501	736.6
392.881	735.93
393.26	749.03
393.639	743.84
394.018	755.59
394.397	757.17
394.776	767.56
395.155	784.29
395.534	793.55
395.913	794.23
396.292	799.65
396.671	844.85
397.05	840.78
397.429	817.96
397.808	836.94
398.186	877.62
398.565	863.16
398.944	862.03
399.323	894.11
399.701	869.48
400.08	900.89
400.458	897.05
400.837	924.85
401.215	895.24
401.594	922.59
401.972	928.24
402.351	949.25
402.729	970.27
403.107	961.01
403.486	965.53
403.864	1013.89
404.242	1001.91
404.62	982.02
404.999	1040.55
405.377	1070.16
405.755	1034.22
406.133	1064.96
406.511	1086.65
406.889	1074.22
407.267	1110.15
407.645	1110.61
408.023	1150.61
408.401	1153.32
408.779	1181.11
409.156	1176.14
409.534	1220.89
409.912	1216.82
410.29	1245.29
410.667	1237.16
411.045	1255.69
411.422	1290.49
411.8	1300.66
412.178	1313.09
412.555	1337.95
412.933	1362.8
413.31	1387.89
413.687	1410.94
414.065	1426.98
414.442	1398.73
414.819	1461.78
415.197	1464.95
415.574	1504.95
415.951	1477.38
416.328	1520.31
416.705	1518.73
417.082	1567.32
417.46	1566.64
417.837	1591.95
418.214	1604.83
418.591	1618.39
418.967	1590.37
419.344	1614.32
419.721	1651.84
420.098	1655.22
420.475	1701.55
420.852	1713.75
421.228	1719.4
421.605	1740.19
421.982	1748.78
422.358	1792.85
422.735	1783.81
423.111	1781.32
423.488	1838.04
423.864	1863.35
424.241	1898.38
424.617	1880.76
424.994	1891.6
425.37	1935.22
425.746	1949.91
426.123	1998.04
426.499	1984.03
426.875	2033.52
427.251	2077.36
427.627	2068.1
428.003	2124.14
428.379	2152.84
428.756	2158.94
429.132	2213.63
429.507	2255.21
429.883	2245.94
430.259	2320.07
430.635	2307.41
431.011	2330.01
431.387	2420.18
431.763	2418.37
432.138	2471.7
432.514	2486.16
432.89	2506.73
433.265	2556.9
433.641	2630.11
434.016	2639.38
434.392	2671.24
434.767	2703.56
435.143	2729.77
435.518	2770.68
435.894	2808.87
436.269	2840.28
436.644	2877.57
437.02	2897
437.395	2930.45
437.77	2935.19
438.145	2989.43
438.52	3009.31
438.895	3060.39
439.271	3075.07
439.646	3112.81
440.021	3118.24
440.395	3162.08
440.77	3164.11
441.145	3194.17
441.52	3279.59
441.895	3259.7
442.27	3287.72
442.645	3310.55
443.019	3367.72
443.394	3382.41
443.769	3446.59
444.143	3372.47
444.518	3463.54
444.892	3457.21
445.267	3504.89
445.641	3500.15
446.016	3527.72
446.39	3605.91
446.764	3618.11
447.139	3612.01
447.513	3653.36
447.887	3642.29
448.262	3687.49
448.636	3720.26
449.01	3734.72
449.384	3780.59
449.758	3808.16
450.132	3885.67
450.506	3913.92
450.88	3952.11
451.254	3941.94
451.628	4027.14
452.002	4077.99
452.376	4083.18
452.75	4093.13
453.123	4200.69
453.497	4223.07
453.871	4247.93
454.244	4404.31
454.618	4415.38
454.992	4451.76
455.365	4492.21
455.739	4609.05
456.112	4666.67
456.486	4603.17
456.859	4740.12
457.232	4776.05
457.606	4779.44
457.979	4840.23
458.352	5004.06
458.725	5071.41
459.099	5056.27
459.472	5147.11
459.845	5194.57
460.218	5257.84
460.591	5281.8
460.964	5366.54
461.337	5500.55
461.71	5514.11
462.083	5611.28
462.456	5673.65
462.829	5726.08
463.201	5783.7
463.574	5840.88
463.947	5920.88
464.32	6043.36
464.692	6095.79
465.065	6041.78
465.438	6208.55
465.81	6285.39
466.183	6379.62
466.555	6501.2
466.928	6534.87
467.3	6548.43
467.672	6663.45
468.045	6834.75
468.417	6843.11
468.789	6994.52
469.161	7113.16
469.534	7186.6
469.906	7390.89
470.278	7305.25
470.65	7485.35
471.022	7640.83
471.394	7749.08
471.766	7841.95
472.138	7881.28
472.51	8055.51
472.882	8189.06
473.253	8300.02
473.625	8461.37
473.997	8621.82
474.369	8695.04
474.74	8825.66
475.112	8941.59
475.484	9095.93
475.855	9201.47
476.227	9352.2
476.598	9609.14
476.97	9656.82
477.341	9911.5
477.713	10035.34
478.084	10113.53
478.455	10366.63
478.827	10452.06
479.198	10787.87
479.569	10814.98
479.94	11160.74
480.311	11189.21
480.682	11519.6
481.053	11812.47
481.424	11943.77
481.795	11978.34
482.166	12247.49
482.537	12342.18
482.908	12701.04
483.279	12821.94
483.65	13016.06
484.021	13271.64
484.391	13468.25
484.762	13611.07
485.133	13725.42
485.503	13975.8
485.874	14259.87
486.244	14293.08
486.615	14622.34
486.985	14776.46
487.356	15089.67
487.726	15186.85
488.097	15589.1
488.467	15587.74
488.837	15893.72
489.207	16043.32
489.578	16287.16
489.948	16478.56
490.318	16693.47
490.688	16759.91
491.058	17051.66
491.428	17219.79
491.798	17447.58
492.168	17735.71
492.538	17862.48
492.908	18021.35
493.278	18367.78
493.648	18335.69
494.017	18744.49
494.387	18827.43
494.757	18997.14
495.126	19142.9
495.496	19169.79
495.866	19363.46
496.235	19572.27
496.605	19717.35
496.974	19873.73
497.344	20064.91
497.713	20187.17
498.082	20361.4
498.452	20622.41
498.821	20725.68
499.19	20722.97
499.559	20983.53
499.928	21223.07
500.298	21276.86
500.667	21492.67
501.036	21522.27
501.405	21734.24
501.774	21759.78
502.143	22061.24
502.512	22108.7
502.88	22337.62
503.249	22371.52
503.618	22476.37
503.987	22565.41
504.356	22940.77
504.724	22893.08
505.093	23155.9
505.462	23071.38
505.83	23401.55
506.199	23613.29
506.567	23864.81
506.936	23898.26
507.304	24187.74
507.672	24204.46
508.041	24425.7
508.409	24620.95
508.777	24753.83
509.145	25049.64
509.514	24998.11
509.882	25248.5
510.25	25346.35
510.618	25537.99
510.986	25602.62
511.354	25922.16
511.722	26059.1
512.09	26375.25
512.458	26349.72
512.826	26686.21
513.193	26741.12
513.561	26903.6
513.929	27138.17
514.297	27412.51
514.664	27658.61
515.032	27753.3
515.4	27936.34
515.767	28105.6
516.135	28292.49
516.502	28097.02
516.869	28669.2
517.237	28784
517.604	28825.58
517.972	29121.17
518.339	29359.36
518.706	29428.51
519.073	29738.55
519.44	29884.77
519.808	30191.2
520.175	30287.69
520.542	30854.68
520.909	30869.37
521.276	30889.26
521.643	31319.08
522.009	31444.95
522.376	31626.87
522.743	31872.74
523.11	32176.68
523.477	32476.34
523.843	32756.55
524.21	33068.41
524.577	33211.46
524.943	33371.68
525.31	33629.98
525.676	33932.12
526.043	34146.8
526.409	34237.64
526.776	34669.27
527.142	34929.15
527.508	35038.3
527.874	35268.8
528.241	35539.76
528.607	35647.78
528.973	35952.63
529.339	35947.43
529.705	36352.17
530.071	36489.11
530.437	36872.6
530.803	37101.3
531.169	37217
531.535	37217.23
531.901	37451.8
532.267	37622.41
532.632	37871.67
532.998	38052.69
533.364	38208.84
533.73	38252.68
534.095	38683.63
534.461	38639.56
534.826	39049.72
535.192	39017.18
535.557	39416.49
535.923	39376.27
536.288	39632.31
536.653	39847.21
537.019	39755.69
537.384	39787.78
537.749	40033.88
538.114	40312.51
538.479	40291.27
538.845	40499.4
539.21	40462.34
539.575	40763.35
539.94	40884.02
540.305	41138.25
540.67	41198.82
541.034	41151.59
541.399	41399.26
541.764	41603.78
542.129	41695.53
542.494	41930.1
542.858	41963.32
543.223	42069.3
543.587	42387.49
543.952	42352.91
544.316	42406.92
544.681	42511.78
545.045	42628.61
545.41	42951.99
545.774	43074.02
546.138	43034.7
546.503	43250.29
546.867	43285.54
547.231	43824.51
547.595	43782.48
547.959	43996.03
548.324	43990.38
548.688	44131.4
549.052	44254.56
549.416	44346.08
549.779	44386.53
550.143	44513.31
550.507	44867.2
550.871	44933.18
551.235	44912.17
551.599	45393.96
551.962	45298.15
552.326	45537.23
552.689	45721.18
553.053	45636.22
553.417	45708.98
553.78	46415.4
554.143	46156.65
554.507	46389.19
554.87	46456.98
555.234	46865.79
555.597	46689.52
555.96	46885
556.323	47080.25
556.686	47114.59
557.05	47454.02
557.413	47578.31
557.776	47690.17
558.139	47918.87
558.502	48084.96
558.865	48193.21
559.228	48405.18
559.59	48432.3
559.953	48565.18
560.316	48992.51
560.679	49054.43
561.041	49271.37
561.404	49332.39
561.767	49607.18
562.129	49583.91
562.492	49915.88
562.854	49950.23
563.217	49946.61
563.579	50134.85
563.941	50366.03
564.304	50572.36
564.666	50745.01
565.028	50771
565.39	50928.73
565.753	51099.35
566.115	51276.97
566.477	51415.5
566.839	51432.22
567.201	51652.33
567.563	51674.7
567.925	51822.72
568.287	51943.62
568.648	52034.47
569.01	52231.07
569.372	52463.61
569.734	52357.85
570.095	52560.55
570.457	52739.76
570.819	52807.55
571.18	52793.32
571.542	52945.18
571.903	53099.97
572.265	53193.76
572.626	53244.6
572.987	53248.67
573.349	53390.36
573.71	53480.53
574.071	53501.09
574.432	53606.63
574.794	53810.24
575.155	53798.03
575.516	53756
575.877	53878.26
576.238	53979.27
576.599	54058.59
576.96	54087.29
577.32	54146.5
577.681	54241.86
578.042	54272.82
578.403	54261.07
578.763	54318.02
579.124	54407.51
579.485	54555.98
579.845	54589.2
580.206	54513.72
580.566	54368.87
580.927	54586.04
581.287	54720.72
581.648	54556.66
582.008	54752.13
582.368	54642.76
582.728	54790.1
583.089	54637.11
583.449	54706.03
583.809	54781.96
584.169	54813.83
584.529	54776.09
584.889	54956.87
585.249	54704
585.609	54673.94
585.969	54834.39
586.329	54825.35
586.688	54758.91
587.048	54814.28
587.408	54769.76
587.768	54741.96
588.127	54728.41
588.487	54798.01
588.846	55000.49
589.206	54803.88
589.565	54780.16
589.925	54892.7
590.284	54826.26
590.643	54838.91
591.003	54907.16
591.362	55033.48
591.721	54890.66
592.08	54964.33
592.44	55047.49
592.799	54976.08
593.158	54968.85
593.517	54902.41
593.876	55042.52
594.235	54936.99
594.593	55034.39
594.952	55061.28
595.311	54971.56
595.67	55043.65
596.029	55192.12
596.387	55256.98
596.746	55241.39
597.104	55140.6
597.463	55012.01
597.822	55280.03
598.18	55185.57
598.538	55091.33
598.897	55286.58
599.255	55018.79
599.613	55414.72
599.972	55204.55
600.33	55320.03
600.688	55137.43
601.046	55380.14
601.404	55396.86
601.762	55404.09
602.12	55470.76
602.478	55490.87
602.836	55509.63
603.194	55399.35
603.552	55459.91
603.91	55337.43
604.268	55502.4
604.625	55459.01
604.983	55597.54
605.341	55418.56
605.698	55617.2
606.056	55628.04
606.413	55630.75
606.771	55653.81
607.128	55728.61
607.485	55634.37
607.843	55651.09
608.2	55797.53
608.557	55882.05
608.914	55768.6
609.272	55950.97
609.629	55929.28
609.986	56061.03
610.343	55931.54
610.7	56084.98
611.057	55965.89
611.414	56107.58
611.771	56079.78
612.127	56185.09
612.484	56122.72
612.841	56186.22
613.198	56149.61
613.554	56132.21
613.911	56233.22
614.267	56257.63
614.624	56233
614.98	56292.43
615.337	56364.07
615.693	56355.48
616.05	56278.87
616.406	56484.29
616.762	56383.05
617.118	56390.51
617.475	56334.01
617.831	56463.95
618.187	56467.57
618.543	56512.99
618.899	56643.16
619.255	56599.32
619.611	56485.42
619.967	56582.37
620.323	56682.48
620.678	56545.08
621.034	56502.6
621.39	56568.36
621.746	56484.29
622.101	56755.92
622.457	56530.39
622.812	56528.58
623.168	56606.1
623.523	56626.21
623.879	56673.21
624.234	56526.32
624.589	56665.53
624.945	56646.1
625.3	56718.18
625.655	56571.52
626.01	56618.75
626.365	56634.8
626.72	56662.14
627.075	56668.02
627.43	56591.86
627.785	56523.39
628.14	56630.28
628.495	56569.26
628.85	56569.04
629.205	56469.15
629.559	56656.26
629.914	56472.31
630.269	56476.16
630.623	56354.58
630.978	56276.16
631.332	56458.98
631.687	56501.47
632.041	56340.79
632.396	56404.29
632.75	56325.65
633.104	56376.5
633.459	56218.54
633.813	56155.03
634.167	56248.59
634.521	56202.49
634.875	56153
635.229	56117.75
635.583	55942.38
635.937	56040.24
636.291	55960.92
636.645	55940.13
636.999	55911.88
637.352	55950.29
637.706	55806.8
638.06	55881.6
638.413	55826
638.767	55718.21
639.121	55756.63
639.474	55652.22
639.828	55652.68
640.181	55635.95
640.534	55675.73
640.888	55551.89
641.241	55437.99
641.594	55504.66
641.947	55590.76
642.301	55449.52
642.654	55442.74
643.007	55462.62
643.36	55375.39
643.713	55305.34
644.066	55353.47
644.419	55183.99
644.771	54936.76
645.124	54798.23
645.477	54653.83
645.83	54546.72
646.182	54466.72
646.535	54307.63
646.888	54308.76
647.24	54216.1
647.593	54323.44
647.945	54284.12
648.298	54158.03
648.65	54017.46
649.002	53961.42
649.355	54033.51
649.707	54013.85
650.059	54138.82
650.411	54490.22
650.763	54451.58
651.115	54800.27
651.467	54741.96
651.819	54573.16
652.171	54607.96
652.523	54476.43
652.875	54503.55
653.227	54355.99
653.578	54560.73
653.93	54420.39
654.282	54360.96
654.633	54202.09
654.985	54265.82
655.337	54261.07
655.688	54217.46
656.039	54309.66
656.391	54101.53
656.742	54095.65
657.094	54138.36
657.445	54214.97
657.796	54131.59
658.147	54094.52
658.498	54078.71
658.849	54075.09
659.2	54038.71
659.551	53921.2
659.902	54120.74
660.253	54036.22
660.604	53945.6
660.955	53854.08
661.306	53995.54
661.656	53945.15
662.007	53904.47
662.358	53881.65
662.708	53843.91
663.059	53799.16
663.409	53579.96
663.76	53856.56
664.11	53842.55
664.461	53877.58
664.811	53818.15
665.161	53744.48
665.511	53754.19
665.862	53693.4
666.212	53744.25
666.562	53724.59
666.912	53658.38
667.262	53641.2
667.612	53670.35
667.962	53659.73
668.312	53569.57
668.662	53793.74
669.011	53616.12
669.361	53507.19
669.711	53470.81
670.06	53492.28
670.41	53295.67
670.76	53371.61
671.109	53516.91
671.459	53405.05
671.808	53300.19
672.157	53397.59
672.507	53162.35
672.856	53210.71
673.205	53287.54
673.554	53339.06
673.904	53178.84
674.253	53374.99
674.602	53245.73
674.951	52740.21
675.3	52610.95
675.649	53057.94
675.998	53080.77
676.346	53137.49
676.695	53182.91
677.044	52897.04
677.393	52937.49
677.741	53066.08
678.09	52911.5
678.438	52807.33
678.787	52926.65
679.135	52915.12
679.484	52572.53
679.832	52798.06
680.181	52650.72
680.529	52685.97
680.877	52484.17
681.225	52429.26
681.573	52623.83
681.922	52475.13
682.27	52353.1
682.618	52279.43
682.966	52270.39
683.314	52354.46
683.661	52228.36
684.009	52126.89
684.357	52048.02
684.705	51912.43
685.053	51987.46
685.4	51967.12
685.748	51735.49
686.095	51787.47
686.443	51654.81
686.79	51554.7
687.138	51615.95
687.485	51618.2
687.832	51456.63
688.18	51339.57
688.527	51192.45
688.874	51208.05
689.221	51218.22
689.568	50931.9
689.915	50945.23
690.262	50893.03
690.609	50839.69
690.956	50758.79
691.303	50711.34
691.65	50628.4
691.997	50610.55
692.344	50327.17
692.69	50221.63
693.037	50310.89
693.383	50043.56
693.73	50048.98
694.077	49865.26
694.423	49965.59
694.769	49826.61
695.116	49591.37
695.462	49669.56
695.808	49415.32
696.155	49548.88
696.501	49207.65
696.847	49244.48
697.193	48935.79
697.539	49002.68
697.885	48901.44
698.231	48759.3
698.577	48766.75
698.923	48661.22
699.269	48303.94
699.614	48220.1
699.96	48217.84
700.306	48241.34
700.651	48134.23
700.997	47896.72
701.342	47877.06
701.688	47816.5
702.033	47614.24
702.379	47650.17
702.724	47534.92
703.069	47639.78
703.415	47074.37
703.76	47130.87
704.105	47157.53
704.45	47005.22
704.795	46735.62
705.14	46614.49
705.485	46638.67
705.83	46542.18
706.175	46456.98
706.52	46253.37
706.865	46304.9
707.209	46086.6
707.554	45963.89
707.899	46106.94
708.243	45948.98
708.588	45878.24
708.932	45530.91
709.277	45557.57
709.621	45597.8
709.966	45255.21
710.31	45317.13
710.654	44964.37
710.998	45009.79
711.342	45169.79
711.687	44862.9
712.031	44730.48
712.375	44580.2
712.719	44667.43
713.063	44535.68
713.407	44679.86
713.75	44408
714.094	44318.96
714.438	44171.4
714.782	44182.92
715.125	44035.13
715.469	43974.34
715.812	43909.93
716.156	43661.35
716.499	43738.19
716.843	43629.94
717.186	43498.64
717.53	43667.91
717.873	43531.86
718.216	43422.71
718.559	43315.37
718.902	42965.55
719.246	43114.93
719.589	43013.91
719.932	42869.51
720.275	42757.42
720.617	42759.45
720.96	42583.87
721.303	42626.58
721.646	42673.81
721.989	42395.17
722.331	42507.26
722.674	42425.45
723.016	42401.5
723.359	42206.7
723.701	42237.43
724.044	41905.47
724.386	41828.18
724.729	41879.03
725.071	41782.53
725.413	41875.86
725.755	41704.12
726.097	41575.31
726.439	41293.28
726.782	41471.81
727.124	41456.89
727.465	41248.76
727.807	41354.29
728.149	41221.42
728.491	41096.67
728.833	41199.95
729.175	41036.34
729.516	40921.99
729.858	40839.96
730.199	40784.59
730.541	40745.5
730.882	40587.76
731.224	40777.59
731.565	40516.58
731.906	40466.86
732.248	40411.49
732.589	40335.56
732.93	40173.99
733.271	40212.63
733.612	40322.23
733.953	40359.97
734.294	40022.35
734.635	39936.03
734.976	39976.03
735.317	39735.35
735.658	39894.9
735.999	39653.77
736.339	39580.56
736.68	39757.73
737.021	39527.22
737.361	39455.81
737.702	39532.87
738.042	39310.73
738.383	39314.12
738.723	39266.89
739.063	39141.24
739.404	39308.02
739.744	38985.54
740.084	39011.08
740.424	38913.68
740.764	39036.61
741.104	38851.99
741.444	38733.12
741.784	38605.89
742.124	38802.27
742.464	38636.4
742.804	38457.65
743.143	38412.45
743.483	38330.64
743.823	38263.08
744.162	38249.06
744.502	38190.08
744.841	38136.3
745.181	38270.76
745.52	37974.5
745.86	38061.5
746.199	37956.19
746.538	37932.46
746.877	37904.67
747.216	37936.76
747.556	37719.14
747.895	37642.98
748.234	37559.59
748.573	37475.07
748.911	37454.96
749.25	37471.91
749.589	37189.43
749.928	37264.91
750.267	37282.54
750.605	37082.99
750.944	37049.55
751.283	36913.51
751.621	37034.63
751.96	36676.9
752.298	36675.32
752.636	36633.06
