Data from White_paper_FLMS001491_006.txt Node
Date: Tue Feb 07 10:34:35 GMT 2017
User: dcchb
Spectrometer: FLMS00149
Trigger mode: 0
Integration Time (sec): 2.000000E-2
Scans to average: 10
Electric dark correction enabled: true
Nonlinearity correction enabled: false
Boxcar width: 0
XAxis mode: Wavelengths
Number of Pixels in Spectrum: 2048
>>>>>Begin Spectral Data<<<<<
341.393	-20.31
341.776	-20.31
342.16	-20.31
342.543	-45.62
342.927	-43.36
343.31	-64.15
343.693	-67.09
344.077	-65.73
344.46	-74.32
344.843	-51.72
345.226	-36.81
345.61	-39.07
345.993	0.71
346.376	-2.23
346.759	5.23
347.142	6.81
347.525	59.46
347.908	48.84
348.291	78.22
348.674	97.43
349.057	104.43
349.44	126.8
349.823	139.01
350.206	158.44
350.588	204.99
350.971	239.8
351.354	247.25
351.737	266.01
352.119	298.33
352.502	306.01
352.884	275.28
353.267	288.61
353.65	303.98
354.032	321.6
354.414	338.32
354.797	347.59
355.179	357.31
355.562	348.49
355.944	382.84
356.326	356.63
356.709	362.73
357.091	362.28
357.473	355.95
357.855	364.76
358.238	391.2
358.62	356.18
359.002	369.96
359.384	361.37
359.766	376.97
360.148	369.96
360.53	385.1
360.912	373.13
361.294	380.58
361.676	380.58
362.057	381.49
362.439	367.93
362.821	371.32
363.203	357.98
363.584	367.7
363.966	392.33
364.348	367.7
364.729	373.8
365.111	361.15
365.493	377.87
365.874	393.24
366.256	373.35
366.637	363.63
367.019	356.18
367.4	354.82
367.781	354.6
368.163	374.03
368.544	365.44
368.925	362.96
369.306	365.22
369.688	367.02
370.069	380.36
370.45	364.76
370.831	390.75
371.212	366.12
371.593	378.55
371.974	367.48
372.355	361.15
372.736	377.42
373.117	400.02
373.498	373.58
373.879	365.67
374.26	369.96
374.641	354.6
375.021	390.07
375.402	393.92
375.783	379
376.163	393.01
376.544	379.68
376.925	381.49
377.305	385.1
377.686	418.1
378.066	389.62
378.447	404.09
378.827	383.07
379.208	392.79
379.588	418.55
379.968	402.73
380.349	399.57
380.729	414.25
381.109	413.12
381.489	401.15
381.87	404.54
382.25	422.39
382.63	400.47
383.01	435.5
383.39	409.28
383.77	422.84
384.15	440.47
384.53	474.14
384.91	424.42
385.29	451.54
385.67	459.68
386.049	445.44
386.429	453.12
386.809	454.03
387.189	472.33
387.568	490.18
387.948	447.25
388.328	489.05
388.707	473.91
389.087	476.4
389.466	494.25
389.846	496.29
390.225	484.08
390.605	510.3
390.984	499.45
391.363	522.05
391.743	522.27
392.122	510.3
392.501	522.73
392.881	508.49
393.26	527.47
393.639	544.19
394.018	549.84
394.397	550.07
394.776	522.95
395.155	576.28
395.534	537.87
395.913	578.32
396.292	580.13
396.671	577.87
397.05	575.15
397.429	602.05
397.808	585.78
398.186	586.68
398.565	624.42
398.944	598.43
399.323	637.53
399.701	611.31
400.08	621.93
400.458	644.76
400.837	632.33
401.215	654.02
401.594	675.04
401.972	665.77
402.351	685.66
402.729	689.05
403.107	722.5
403.486	688.37
403.864	702.16
404.242	735.83
404.62	776.05
404.999	770.18
405.377	788.93
405.755	770.18
406.133	791.87
406.511	810.4
406.889	828.48
407.267	851.76
407.645	870.06
408.023	907.8
408.401	925.43
408.779	946.22
409.156	938.31
409.534	968.82
409.912	959.33
410.29	995.03
410.667	1037.06
411.045	1053.79
411.422	1105.54
411.8	1118.87
412.178	1125.2
412.555	1155.25
412.933	1200.67
413.31	1225.31
413.687	1237.06
414.065	1280.67
414.442	1288.81
414.819	1333.78
415.197	1339.88
415.574	1374.91
415.951	1421.69
416.328	1439.09
416.705	1459.65
417.082	1505.98
417.46	1508.24
417.837	1542.36
418.214	1584.39
418.591	1609.93
418.967	1631.85
419.344	1658.97
419.721	1657.84
420.098	1683.37
420.475	1705.07
420.852	1756.59
421.228	1793.65
421.605	1816.03
421.982	1823.48
422.358	1851.96
422.735	1885.63
423.111	1905.74
423.488	1913.42
423.864	1943.03
424.241	2003.59
424.617	2004.5
424.994	2029.81
425.37	2056.47
425.746	2068.9
426.123	2086.08
426.499	2138.28
426.875	2181.44
427.251	2226.64
427.627	2224.38
428.003	2256.01
428.379	2292.62
428.756	2326.07
429.132	2337.59
429.507	2394.32
429.883	2405.39
430.259	2501.88
430.635	2492.39
431.011	2479.29
431.387	2590.47
431.763	2611.71
432.138	2618.49
432.514	2710.92
432.89	2686.06
433.265	2803.8
433.641	2825.49
434.016	2841.99
434.392	2925.6
434.767	2902.78
435.143	2943.91
435.518	2998.59
435.894	3040.85
436.269	3079.04
436.644	3125.6
437.02	3170.79
437.395	3162.43
437.77	3232.26
438.145	3291.69
438.52	3279.94
438.895	3352.03
439.271	3340.96
439.646	3466.38
440.021	3475.87
440.395	3475.42
440.77	3462.54
441.145	3507.28
441.52	3608.29
441.895	3527.62
442.27	3583.89
442.645	3583.21
443.019	3667.95
443.394	3665.02
443.769	3745.47
444.143	3680.84
444.518	3749.76
444.892	3744.79
445.267	3770.78
445.641	3792.47
446.016	3837.44
446.39	3875.63
446.764	3880.83
447.139	3901.62
447.513	3928.74
447.887	3935.29
448.262	3968.06
448.636	3980.94
449.01	4040.6
449.384	4123.76
449.758	4102.29
450.132	4172.8
450.506	4188.39
450.88	4241.27
451.254	4187.04
451.628	4266.58
452.002	4330.54
452.376	4321.27
452.75	4385.9
453.123	4396.75
453.497	4500.93
453.871	4499.34
454.244	4647.36
454.618	4614.82
454.992	4670.19
455.365	4736.85
455.739	4839.22
456.112	4853.23
456.486	4914.48
456.859	4950.86
457.232	5083.96
457.606	5033.57
457.979	5075.6
458.352	5205.77
458.725	5267.01
459.099	5307.01
459.472	5334.13
459.845	5508.81
460.218	5531.18
460.591	5594.68
460.964	5574.34
461.337	5736.83
461.71	5817.73
462.083	5841.46
462.456	5910.38
462.829	5910.61
463.201	6014.11
463.574	6045.74
463.947	6095.69
464.32	6311.95
464.692	6287.55
465.065	6395.57
465.438	6458.62
465.81	6566.18
466.183	6587.65
466.555	6748.78
466.928	6832.84
467.3	6838.94
467.672	6927.08
468.045	7118.26
468.417	7124.59
468.789	7190.8
469.161	7314.41
469.534	7431.92
469.906	7548.3
470.278	7553.05
470.65	7686.38
471.022	7856.09
471.394	8006.82
471.766	8073.94
472.138	8211.79
472.51	8310.09
472.882	8472.35
473.253	8596.86
473.625	8662.85
473.997	8878.89
474.369	8880.92
474.74	9014.71
475.112	9196.4
475.484	9359.1
475.855	9545.09
476.227	9588.93
476.598	9805.19
476.97	10012.42
477.341	10189.82
477.713	10300.55
478.084	10393.65
478.455	10680.2
478.827	10732.18
479.198	11047.65
479.569	10975.33
479.94	11341.65
480.311	11460.74
480.682	11682.66
481.053	11980.28
481.424	12140.95
481.795	12291.68
482.166	12451.68
482.537	12653.71
482.908	12888.28
483.279	13008.05
483.65	13319.23
484.021	13453.69
484.391	13572.55
484.762	13714.24
485.133	13908.59
485.503	14090.05
485.874	14302.7
486.244	14445.75
486.615	14740.21
486.985	14897.94
487.356	15237.37
487.726	15363.47
488.097	15670.58
488.467	15645.04
488.837	15999.83
489.207	16219.04
489.578	16358.24
489.948	16522.53
490.318	16751.45
490.688	16825.35
491.058	17015.85
491.428	17344.88
491.798	17482.51
492.168	17802.27
492.538	17851.54
492.908	17999.33
493.278	18325.87
493.648	18357.29
494.017	18655.58
494.387	18741.68
494.757	18832.53
495.126	19073.65
495.496	19079.3
495.866	19197.94
496.235	19452.17
496.605	19685.61
496.974	19769.23
497.344	19958.83
497.713	20140.29
498.082	20145.04
498.452	20471.58
498.821	20513.84
499.19	20514.29
499.559	20815.53
499.928	20829.54
500.298	20995.41
500.667	21237.21
501.036	21198.11
501.405	21476.53
501.774	21427.94
502.143	21664.77
502.512	21703.19
502.88	21955.16
503.249	22055.27
503.618	22080.13
503.987	22247.58
504.356	22373.23
504.724	22625.42
505.093	22623.84
505.462	22819.54
505.83	22902.7
506.199	23190.38
506.567	23448.9
506.936	23374.33
507.304	23707.2
507.672	23827.88
508.041	23840.76
508.409	24008.89
508.777	24299.28
509.145	24375.43
509.514	24366.85
509.882	24667.18
510.25	24724.35
510.618	24845.48
510.986	24977
511.354	25240.27
511.722	25438.68
512.09	25639.35
512.458	25611.11
512.826	25888.61
513.193	25975.84
513.561	26118.66
513.929	26381.26
514.297	26485.66
514.664	26662.38
515.032	26810.62
515.4	26999.54
515.767	27078.64
516.135	27291.29
516.502	27164.96
516.869	27723.82
517.237	27889.24
517.604	27695.35
517.972	28026.18
518.339	28340.75
518.706	28224.14
519.073	28519.5
519.44	28785.71
519.808	29029.32
520.175	28961.53
520.542	29232.71
520.909	29591.11
521.276	29436.09
521.643	29805.12
522.009	29999.92
522.376	30218.22
522.743	30348.83
523.11	30579.79
523.477	30987.46
523.843	31182.71
524.21	31370.5
524.577	31702.02
524.943	31736.59
525.31	31955.57
525.676	32233.76
526.043	32486.63
526.409	32532.73
526.776	32798.49
527.142	32926.17
527.508	33098.37
527.874	33377.68
528.241	33545.13
528.607	33669.88
528.973	33994.84
529.339	34106.48
529.705	34374.27
530.071	34641.83
530.437	34744.43
530.803	35058.77
531.169	35218.76
531.535	35079.56
531.901	35254.02
532.267	35551.18
532.632	35747.11
532.998	35774
533.364	36055.13
533.73	36140.09
534.095	36576.69
534.461	36668.67
534.826	36717.71
535.192	36806.74
535.557	37178.71
535.923	37220.29
536.288	37401.98
536.653	37524.47
537.019	37425.94
537.384	37608.76
537.749	37780.73
538.114	37932.59
538.479	38091.68
538.845	38191.57
539.21	38334.39
539.575	38467.27
539.94	38459.81
540.305	38838.78
540.67	38857.54
541.034	38930.08
541.399	39092.56
541.764	39194.93
542.129	39360.58
542.494	39576.39
542.858	39657.52
543.223	39770.96
543.587	40055.92
543.952	40067.45
544.316	40102.25
544.681	40220.21
545.045	40448
545.41	40662.46
545.774	40650.48
546.138	40741.33
546.503	40957.6
546.867	40940.65
547.231	41265.16
547.595	41335.21
547.959	41501.76
548.324	41500.63
548.688	41584.47
549.052	41802.32
549.416	41787.4
549.779	42122.76
550.143	42037.79
550.507	42337.9
550.871	42418.35
551.235	42505.8
551.599	42728.62
551.962	42859.24
552.326	43002.97
552.689	43337.19
553.053	43125.9
553.417	43170.87
553.78	43760.01
554.143	43525.44
554.507	43640.69
554.87	43840.01
555.234	44196.61
555.597	44038.64
555.96	44236.15
556.323	44393.66
556.686	44527.67
557.05	44736.71
557.413	44985.96
557.776	45090.14
558.139	45111.84
558.502	45246.07
558.865	45437.7
559.228	45727.19
559.59	45850.12
559.953	45768.32
560.316	46308.64
560.679	46190
561.041	46404.91
561.404	46575.07
561.767	46900.94
562.129	46649.88
562.492	47188.84
562.854	47133.03
563.217	47353.59
563.579	47586.57
563.941	47608.27
564.304	47872.44
564.666	48069.5
565.028	48106.33
565.39	48236.95
565.753	48485.53
566.115	48568.47
566.477	48685.75
566.839	48866.31
567.201	49068.57
567.563	49126.42
567.925	49373.65
568.287	49434.21
568.648	49490.03
569.01	49694.99
569.372	49974.76
569.734	49880.52
570.095	50013.85
570.457	50271.93
570.819	50414.97
571.18	50359.16
571.542	50569.77
571.903	50663.55
572.265	50844.57
572.626	50913.94
572.987	50909.2
573.349	51104.67
573.71	51175.18
574.071	51296.31
574.432	51477.77
574.794	51644.32
575.155	51569.75
575.516	51521.16
575.877	51761.38
576.238	51755.73
576.599	52000.47
576.96	51915.27
577.32	51998.89
577.681	52175.61
578.042	52169.5
578.403	52186.23
578.763	52299.22
579.124	52417.41
579.485	52504.18
579.845	52578.31
580.206	52527.69
580.566	52549.61
580.927	52595.71
581.287	52827.11
581.648	52662.82
582.008	52788.24
582.368	52777.85
582.728	52868.02
583.089	52839.09
583.449	52829.15
583.809	52875.25
584.169	53048.12
584.529	52990.27
584.889	53251.51
585.249	53012.65
585.609	53077.95
585.969	53166.09
586.329	53084.28
586.688	53106.88
587.048	53147.11
587.408	53127.22
587.768	53127.22
588.127	53244.96
588.487	53157.95
588.846	53389.36
589.206	53086.54
589.565	53285.86
589.925	53348
590.284	53381.45
590.643	53358.4
591.003	53517.72
591.362	53469.36
591.721	53438.85
592.08	53453.99
592.44	53517.72
592.799	53520.88
593.158	53528.56
593.517	53510.26
593.876	53597.04
594.235	53463.93
594.593	53553.2
594.952	53673.42
595.311	53603.82
595.67	53620.99
596.029	53803.81
596.387	53833.87
596.746	53886.75
597.104	53846.3
597.463	53742.57
597.822	53934.43
598.18	53750.03
598.538	53768.56
598.897	53880.65
599.255	53761.78
599.613	54136.68
599.972	54032.28
600.33	54051.26
600.688	53896.01
601.046	54058.95
601.404	54169.45
601.762	54068.21
602.12	54177.36
602.478	54156.12
602.836	54236.57
603.194	54082.67
603.552	54144.82
603.91	54107.08
604.268	54311.59
604.625	54231.14
604.983	54383.91
605.341	54238.38
605.698	54253.07
606.056	54355.89
606.413	54406.28
606.771	54484.25
607.128	54518.14
607.485	54360.63
607.843	54380.97
608.2	54585.26
608.557	54716.78
608.914	54494.64
609.272	54676.1
609.629	54686.73
609.986	54778.02
610.343	54626.39
610.7	54886.27
611.057	54846.04
611.414	54777.57
611.771	54771.02
612.127	54900.73
612.484	54898.7
612.841	55011.01
613.198	54816.44
613.554	54931.47
613.911	55058.24
614.267	54986.61
614.624	55004.23
614.98	55065.02
615.337	55171.23
615.693	55161.06
616.05	55080.61
616.406	55256.65
616.762	55106.83
617.118	55148.18
617.475	55170.1
617.831	55252.59
618.187	55267.5
618.543	55295.75
618.899	55469.3
619.255	55434.05
619.611	55261.63
619.967	55432.47
620.323	55539.13
620.678	55329.42
621.034	55315.18
621.39	55357.22
621.746	55221.63
622.101	55612.13
622.457	55372.36
622.812	55427.05
623.168	55485.57
623.523	55512.92
623.879	55528.96
624.234	55392.7
624.589	55461.85
624.945	55513.14
625.3	55534.84
625.655	55474.73
626.01	55518.34
626.365	55557.66
626.72	55519.92
627.075	55489.19
627.43	55583.65
627.785	55366.71
628.14	55459.36
628.495	55502.98
628.85	55454.39
629.205	55472.92
629.559	55568.74
629.914	55380.04
630.269	55458.91
630.623	55383.43
630.978	55324.45
631.332	55516.99
631.687	55524.44
632.041	55378.46
632.396	55485.8
632.75	55348.86
633.104	55388.4
633.459	55251.46
633.813	55301.63
634.167	55336.88
634.521	55271.12
634.875	55330.1
635.229	55313.83
635.583	55134.62
635.937	55168.07
636.291	55127.62
636.645	55149.99
636.999	55124.68
637.352	55231.12
637.706	55059.82
638.06	55202.42
638.413	55067.73
638.767	55108.41
639.121	55089.65
639.474	54971.01
639.828	54990.22
640.181	55084.91
640.534	55002.42
640.888	55009.43
641.241	54814.41
641.594	54941.41
641.947	54938.92
642.301	54879.04
642.654	54967.85
643.007	54916.32
643.36	54907.29
643.713	54863.22
644.066	54961.97
644.419	54735.09
644.771	54608.08
645.124	54385.26
645.477	54343.46
645.83	54196.8
646.182	54013.07
646.535	53935.79
646.888	54010.81
647.24	53926.52
647.593	54037.93
647.945	53960.19
648.298	53769.46
648.65	53771.27
649.002	53665.96
649.355	53905.28
649.707	53799.07
650.059	53962.68
650.411	54366.96
650.763	54352.72
651.115	54593.85
651.467	54490.35
651.819	54562.44
652.171	54426.39
652.523	54465.94
652.875	54434.53
653.227	54291.03
653.578	54491.02
653.93	54366.96
654.282	54278.15
654.633	54224.59
654.985	54313.18
655.337	54239.28
655.688	54358.6
656.039	54383.68
656.391	54134.42
656.742	54180.98
657.094	54202.44
657.445	54246.29
657.796	54192.05
658.147	54147.76
658.498	54218.04
658.849	54329
659.2	54111.37
659.551	54087.87
659.902	54218.72
660.253	54103.24
660.604	54149.34
660.955	54065.95
661.306	54208.32
661.656	54027.08
662.007	54064.6
662.358	54042
662.708	54032.28
663.059	54013.3
663.409	53859.86
663.76	54120.41
664.11	54009.68
664.461	54029.12
664.811	54103.24
665.161	53907.76
665.511	53927.65
665.862	53922.45
666.212	54034.77
666.562	54044.03
666.912	53897.82
667.262	53929.23
667.612	53843.36
667.962	53893.98
668.312	53863.7
668.662	53986.63
669.011	53878.84
669.361	53790.7
669.711	53757.03
670.06	53707.32
670.41	53751.84
670.76	53624.83
671.109	53768.78
671.459	53769.24
671.808	53619.18
672.157	53720.65
672.507	53535.12
672.856	53543.03
673.205	53599.07
673.554	53617.38
673.904	53567.21
674.253	53645.17
674.602	53537.15
674.951	53131.29
675.3	52987.34
675.649	53495.12
675.998	53366.08
676.346	53427.1
676.695	53464.84
677.044	53199.08
677.393	53333.54
677.741	53341.45
678.09	53270.72
678.438	53121.8
678.787	53250.83
679.135	53136.26
679.484	52914.34
679.832	53029.14
680.181	52861.69
680.529	53008.8
680.877	52919.09
681.225	52847.68
681.573	52861.46
681.922	52754.57
682.27	52702.82
682.618	52672.99
682.966	52526.56
683.314	52616.27
683.661	52573.56
684.009	52319.33
684.357	52260.12
684.705	52307.81
685.053	52280.46
685.4	52256.06
685.748	51966.57
686.095	52020.36
686.443	51804.32
686.79	51844.09
687.138	51856.52
687.485	51942.62
687.832	51706.24
688.18	51806.35
688.527	51550.31
688.874	51544.66
689.221	51496.3
689.568	51379.24
689.915	51171.56
690.262	51250.88
690.609	51111
690.956	50990.78
691.303	50969.76
691.65	50843.89
691.997	50733.84
692.344	50569.32
692.69	50548.98
693.037	50548.98
693.383	50233.51
693.73	50416.33
694.077	50226.96
694.423	50116
694.769	50026.28
695.116	50013.85
695.462	49922.11
695.808	49872.84
696.155	49895.44
696.501	49574.77
696.847	49650.93
697.193	49333.42
697.539	49499.29
697.885	49262.24
698.231	49050.04
698.577	49053.88
698.923	48973.88
699.269	48798.97
699.614	48572.31
699.96	48566.21
700.306	48528.92
700.651	48465.42
700.997	48293.22
701.342	48292.09
701.688	48190.4
702.033	48021.14
702.379	48136.84
702.724	47917.86
703.069	47961.93
703.415	47471.32
703.76	47479.68
704.105	47557.65
704.45	47462.06
704.795	47315.39
705.14	47127.15
705.485	47142.97
705.83	46968.06
706.175	47085.34
706.52	46942.75
706.865	46692.13
707.209	46615.3
707.554	46542.31
707.899	46513.61
708.243	46320.17
708.588	46341.63
708.932	46062.32
709.277	46102.77
709.621	46069.1
709.966	45818.03
710.31	45819.61
710.654	45655.1
710.998	45635.89
711.342	45678.83
711.687	45547.76
712.031	45378.27
712.375	45180.31
712.719	45349.34
713.063	45216.69
713.407	45234.55
713.75	45121.55
714.094	45020.99
714.438	44710.27
714.782	44801.79
715.125	44655.35
715.469	44761.11
715.812	44461.01
716.156	44426.2
716.499	44267.79
716.843	44349.37
717.186	44068.7
717.53	44353.21
717.873	44257.85
718.216	44230.5
718.559	43938.53
718.902	43800.01
719.246	43772.44
719.589	43649.28
719.932	43576.51
720.275	43571.09
720.617	43625.55
720.96	43480.24
721.303	43441.82
721.646	43486.12
721.989	43103.75
722.331	43276.63
722.674	43050.87
723.016	43124.77
723.359	43009.29
723.701	43057.2
724.044	42881.16
724.386	42588.51
724.729	42962.29
725.071	42688.85
725.413	42555.75
725.755	42699.24
726.097	42628.51
726.439	42306.49
726.782	42344.68
727.124	42504.45
727.465	42285.47
727.807	42289.09
728.149	42064.01
728.491	41988.3
728.833	41862.66
729.175	41953.28
729.516	41754.18
729.858	41774.75
730.199	41882.99
730.541	41727.74
730.882	41607.97
731.224	41706.73
731.565	41561.65
731.906	41626.28
732.248	41558.94
732.589	41313.29
732.93	41254.99
733.271	41229.9
733.612	41242.33
733.953	41349
734.294	41013.19
734.635	41129.79
734.976	41066.07
735.317	40829.01
735.658	40849.58
735.999	40888.44
736.339	40715.34
736.68	40825.85
737.021	40711.5
737.361	40501.11
737.702	40828.79
738.042	40592.86
738.383	40474.22
738.723	40473.31
739.063	40408.01
739.404	40327.56
739.744	40414.56
740.084	40227.67
740.424	40322.13
740.764	40016.38
741.104	40194.45
741.444	39924.18
741.784	39940.67
742.124	40055.25
742.464	39863.61
742.804	39838.98
743.143	39728.48
743.483	39749.72
743.823	39498.65
744.162	39557.41
744.502	39670.85
744.841	39495.71
745.181	39622.49
745.52	39417.75
745.86	39408.26
746.199	39387.02
746.538	39303.63
746.877	39371.65
747.216	39157.64
747.556	39107.02
747.895	39014.82
748.234	38874.26
748.573	38810.76
748.911	38775.96
749.25	38796.3
749.589	38695.28
749.928	38735.05
750.267	38711.55
750.605	38603.98
750.944	38483.31
751.283	38398.34
751.621	38400.37
751.96	38172.13
752.298	38208.74
752.636	38293.94
