Data from whiteboard_FLMS001491_00050.txt Node
Date: Wed Feb 08 11:26:40 GMT 2017
User: dcchb
Spectrometer: FLMS00149
Trigger mode: 0
Integration Time (sec): 2.000000E-2
Scans to average: 10
Electric dark correction enabled: true
Nonlinearity correction enabled: false
Boxcar width: 0
XAxis mode: Wavelengths
Number of Pixels in Spectrum: 2048
>>>>>Begin Spectral Data<<<<<
341.393	-5.62
341.776	-5.62
342.16	-5.62
342.543	-35.68
342.927	-85.39
343.31	-62.79
343.693	-59.63
344.077	-57.82
344.46	-80.65
344.843	-60.08
345.226	-32.51
345.61	-34.77
345.993	-34.1
346.376	4.1
346.759	20.82
347.142	23.53
347.525	37.77
347.908	52
348.291	87.94
348.674	87.94
349.057	108.27
349.44	146.69
349.823	136.75
350.206	176.52
350.588	229.17
350.971	242.96
351.354	278.44
351.737	275.28
352.119	260.81
352.502	295.16
352.884	297.65
353.267	303.3
353.65	320.02
354.032	332.9
354.414	350.98
354.797	339
355.179	358.44
355.562	355.5
355.944	360.47
356.326	367.48
356.709	380.81
357.091	365.67
357.473	386.23
357.855	389.62
358.238	394.14
358.62	387.36
359.002	376.74
359.384	363.41
359.766	370.41
360.148	374.26
360.53	374.93
360.912	374.26
361.294	369.06
361.676	389.62
362.057	373.35
362.439	393.24
362.821	369.51
363.203	355.73
363.584	367.7
363.966	375.61
364.348	345.1
364.729	373.35
365.111	362.05
365.493	350.08
365.874	376.29
366.256	386.68
366.637	386.46
367.019	387.14
367.4	373.13
367.781	402.28
368.163	390.75
368.544	390.3
368.925	380.81
369.306	412.9
369.688	350.08
370.069	372.67
370.45	367.02
370.831	382.17
371.212	391.2
371.593	376.06
371.974	366.8
372.355	390.3
372.736	358.66
373.117	399.34
373.498	387.36
373.879	381.49
374.26	380.36
374.641	357.31
375.021	383.97
375.402	369.74
375.783	409.51
376.163	407.25
376.544	414.48
376.925	415.38
377.305	414.25
377.686	403.18
378.066	415.84
378.447	422.16
378.827	429.62
379.208	426.23
379.588	429.85
379.968	414.93
380.349	441.6
380.729	435.27
381.109	444.08
381.489	433.92
381.87	455.38
382.25	446.8
382.63	455.61
383.01	449.06
383.39	451.77
383.77	460.81
384.15	449.06
384.53	468.94
384.91	483.63
385.29	490.41
385.67	490.64
386.049	495.38
386.429	471.43
386.809	499.22
387.189	512.33
387.568	503.52
387.948	491.77
388.328	505.55
388.707	494.48
389.087	515.27
389.466	529.51
389.846	540.58
390.225	539
390.605	565.89
390.984	560.47
391.363	552.78
391.743	579.9
392.122	579.22
392.501	588.94
392.881	619.22
393.26	613.57
393.639	593.23
394.018	599.79
394.397	607.47
394.776	631.42
395.155	635.94
395.534	640.69
395.913	651.76
396.292	656.96
396.671	673
397.05	679.78
397.429	701.93
397.808	681.59
398.186	698.31
398.565	717.98
398.944	725.21
399.323	738.09
399.701	750.52
400.08	770.18
400.458	776.28
400.837	785.54
401.215	796.39
401.594	795.49
401.972	806.56
402.351	839.78
402.729	851.31
403.107	872.1
403.486	852.44
403.864	886.11
404.242	904.41
404.62	935.37
404.999	944.41
405.377	955.94
405.755	955.26
406.133	988.48
406.511	1011.53
406.889	1004.97
407.267	1058.76
407.645	1070.28
408.023	1097.4
408.401	1073.22
408.779	1097.63
409.156	1160.45
409.534	1133.56
409.912	1174.91
410.29	1206.55
410.667	1254.23
411.045	1265.76
411.422	1275.47
411.8	1291.29
412.178	1347.79
412.555	1383.27
412.933	1396.38
413.31	1406.09
413.687	1444.96
414.065	1466.2
414.442	1472.31
414.819	1485.64
415.197	1520.89
415.574	1549.59
415.951	1556.6
416.328	1589.82
416.705	1602.25
417.082	1636.82
417.46	1653.09
417.837	1684.73
418.214	1693.54
418.591	1693.54
418.967	1717.5
419.344	1728.34
419.721	1783.71
420.098	1762.24
420.475	1805.4
420.852	1853.76
421.228	1864.16
421.605	1872.97
421.982	1921.56
422.358	1910.26
422.735	1960.88
423.111	2000.88
423.488	2022.12
423.864	2026.19
424.241	2049.69
424.617	2065.28
424.994	2082.91
425.37	2133.98
425.746	2158.62
426.123	2211.72
426.499	2223.47
426.875	2209.01
427.251	2252.85
427.627	2328.1
428.003	2344.6
428.379	2354.32
428.756	2383.02
429.132	2445.16
429.507	2476.57
429.883	2528.55
430.259	2530.58
430.635	2590.24
431.011	2604.93
431.387	2685.38
431.763	2747.3
432.138	2769.45
432.514	2801.76
432.89	2774.42
433.265	2868.43
433.641	2885.6
434.016	2922.66
434.392	2950.01
434.767	3005.6
435.143	3033.85
435.518	3095.99
435.894	3100.74
436.269	3200.85
436.644	3234.07
437.02	3286.95
437.395	3278.36
437.77	3313.61
438.145	3338.7
438.52	3430.9
438.895	3482.2
439.271	3494.63
439.646	3556.77
440.021	3614.17
440.395	3594.06
440.77	3603.78
441.145	3712.92
441.52	3753.6
441.895	3741.17
442.27	3751.79
442.645	3784.56
443.019	3804.45
443.394	3862.98
443.769	3883.32
444.143	3863.66
444.518	3949.53
444.892	3903.88
445.267	3977.32
445.641	3983.43
446.016	4002.63
446.39	4064.33
446.764	4092.8
447.139	4099.81
447.513	4141.39
447.887	4146.13
448.262	4168.51
448.636	4185.68
449.01	4276.53
449.384	4356.3
449.758	4365.56
450.132	4419.8
450.506	4479.91
450.88	4493.24
451.254	4493.92
451.628	4572.11
452.002	4632.9
452.376	4662.5
452.75	4739.11
453.123	4797.42
453.497	4889.17
453.871	4954.93
454.244	5030.18
454.618	5028.82
454.992	5137.07
455.365	5204.41
455.739	5368.7
456.112	5375.25
456.486	5402.37
456.859	5467
457.232	5542.71
457.606	5569.83
457.979	5677.62
458.352	5764.85
458.725	5840.55
459.099	5892.53
459.472	6003.94
459.845	6072.18
460.218	6135.46
460.591	6144.05
460.964	6225.63
461.337	6384.49
461.71	6460.2
462.083	6522.12
462.456	6543.13
462.829	6591.04
463.201	6730.25
463.574	6743.58
463.947	6857.25
464.32	6994.19
464.692	7024.02
465.065	7126.39
465.438	7259.27
465.81	7315.77
466.183	7392.38
466.555	7583.78
466.928	7578.59
467.3	7632.6
467.672	7816.77
468.045	8029.87
468.417	8070.1
468.789	8164.79
469.161	8247.72
469.534	8380.82
469.906	8599.35
470.278	8675.96
470.65	8751.89
471.022	8964.09
471.394	9124.99
471.766	9249.28
472.138	9319.56
472.51	9524.75
472.882	9699.89
473.253	9887
473.625	9953.89
473.997	10174.45
474.369	10254.9
474.74	10310.27
475.112	10545.06
475.484	10796.35
475.855	10918.84
476.227	11067.99
476.598	11371.93
476.97	11418.03
477.341	11681.53
477.713	11873.84
478.084	11858.93
478.455	12247.16
478.827	12332.81
479.198	12677.66
479.569	12738.9
479.94	13076.07
480.311	13241.49
480.682	13484.65
481.053	13724.87
481.424	13978.19
481.795	14203.72
482.166	14358.52
482.537	14559.65
482.908	14832.86
483.279	14997.6
483.65	15258.84
484.021	15509
484.391	15756.45
484.762	15891.81
485.133	16072.15
485.503	16345.59
485.874	16715.75
486.244	16849.53
486.615	17306.01
486.985	17428.5
487.356	17876.39
487.726	17983.74
488.097	18412.88
488.467	18465.31
488.837	18985.74
489.207	19103.03
489.578	19463.02
489.948	19699.85
490.318	19896.91
490.688	20065.26
491.058	20366.05
491.428	20686.04
491.798	20844.68
492.168	21271.33
492.538	21390.2
492.908	21692.34
493.278	21783.86
493.648	21851.43
494.017	22290.52
494.387	22475.82
494.757	22553.56
495.126	22871.29
495.496	22839.2
495.866	22970.5
496.235	23271.73
496.605	23477.38
496.974	23631.95
497.344	23827.65
497.713	23981.54
498.082	24133.18
498.452	24347.64
498.821	24410.91
499.19	24494.3
499.559	24770
499.928	24868.75
500.298	25090.89
500.667	25144.68
501.036	25210.89
501.405	25561.39
501.774	25591.9
502.143	25837.77
502.512	25960.48
502.88	26197.53
503.249	26236.63
503.618	26459.9
503.987	26671.64
504.356	26924.97
504.724	27019.43
505.093	27251.97
505.462	27363.38
505.83	27746.87
506.199	27956.81
506.567	28395.89
506.936	28295.33
507.304	28843.11
507.672	28893.05
508.041	29085.82
508.409	29405.36
508.777	29605.13
509.145	29955.4
509.514	29966.25
509.882	30314.49
510.25	30441.71
510.618	30596.74
510.986	30642.84
511.354	31003.28
511.722	31388.13
512.09	31624.06
512.458	31628.58
512.826	31767.78
513.193	32161.89
513.561	32128.45
513.929	32497.03
514.297	32824.7
514.664	32887.53
515.032	32996.9
515.4	33225.82
515.767	33330.68
516.135	33555.76
516.502	33394.86
516.869	34040.04
517.237	34202.07
517.604	34127.04
517.972	34535.39
518.339	34633.69
518.706	34767.02
519.073	34861.71
519.44	35137.41
519.808	35454.92
520.175	35387.57
520.542	35771.97
520.909	36054.67
521.276	36037.05
521.643	36488.11
522.009	36707.99
522.376	37089
522.743	37284.7
523.11	37660.96
523.477	38067.5
523.843	38221.17
524.21	38724.21
524.577	38951.32
524.943	39042.84
525.31	39435.83
525.676	39765.31
526.043	40015.25
526.409	40187.45
526.776	40735.68
527.142	40906.07
527.508	41100.19
527.874	41483.68
528.241	41709.89
528.607	41815.88
528.973	42300.38
529.339	42330.67
529.705	42642.3
530.071	43077.99
530.437	43203.64
530.803	43359.11
531.169	43716.62
531.535	43775.15
531.901	44004.75
532.267	44327.22
532.632	44499.88
532.998	44677.27
533.364	45016.47
533.73	45119.29
534.095	45442.22
534.461	45470.02
534.826	45620.98
535.192	45853.74
535.557	46225.48
535.923	46151.13
536.288	46461.41
536.653	46500.27
537.019	46480.61
537.384	46658.91
537.749	46742.98
538.114	46848.29
538.479	46981.62
538.845	46999.47
539.21	46973.26
539.575	47001.96
539.94	47237.88
540.305	47315.39
540.67	47277.66
541.034	47621.83
541.399	47663.86
541.764	47738.21
542.129	47812.78
542.494	47989.05
542.858	48023.17
543.223	48143.62
543.587	48372.32
543.952	48460.22
544.316	48484.86
544.681	48476.95
545.045	48799.65
545.41	49037.83
545.774	49099.3
546.138	49095.01
546.503	49223.59
546.867	49221.56
547.231	49574.09
547.595	49729.34
547.959	49846.63
548.324	49963.46
548.688	50086.85
549.052	50300.85
549.416	50351.25
549.779	50432.15
550.143	50542.65
550.507	50836.88
550.871	50939.03
551.235	50873.72
551.599	51229.87
551.962	51373.59
552.326	51535.4
552.689	51708.27
553.053	51697.65
553.417	51835.28
553.78	52179.9
554.143	52083.4
554.507	52318.65
554.87	52436.84
555.234	52730.39
555.597	52592.09
555.96	52800
556.323	52795.7
556.686	52982.59
557.05	53162.47
557.413	53265.52
557.776	53236.59
558.139	53529.47
558.502	53518.85
558.865	53593.87
559.228	53821.66
559.59	53871.83
559.953	53891.27
560.316	54203.35
560.679	54204.03
561.041	54292.84
561.404	54373.97
561.767	54488.31
562.129	54440.86
562.492	54755.88
562.854	54695.31
563.217	54691.25
563.579	54855.54
563.941	55066.83
564.304	55058.69
564.666	55170.1
565.028	55211.68
565.39	55262.98
565.753	55348.18
566.115	55472.02
566.477	55519.7
566.839	55609.64
567.201	55788.62
567.563	55799.69
567.925	55980.93
568.287	55987.03
568.648	56013.02
569.01	56149.74
569.372	56320.58
569.734	56364.2
570.095	56509.95
570.457	56576.62
570.819	56576.62
571.18	56650.29
571.542	56769.38
571.903	56895.71
572.265	56907.46
572.626	57039.88
572.987	57163.95
573.349	57184.97
573.71	57336.37
574.071	57429.03
574.432	57474.22
574.794	57659.3
575.155	57706.31
575.516	57613.65
575.877	57774.55
576.238	57764.84
576.599	57981.78
576.96	57953.53
577.32	58045.06
577.681	58180.19
578.042	58233.98
578.403	58294.31
578.763	58272.85
579.124	58359.4
579.485	58445.27
579.845	58562.56
580.206	58511.03
580.566	58609.79
580.927	58604.36
581.287	58706.73
581.648	58536.79
582.008	58748.99
582.368	58669.67
582.728	58809.1
583.089	58706.96
583.449	58720.07
583.809	58754.64
584.169	58794.64
584.529	58707.86
584.889	58903.79
585.249	58785.38
585.609	58725.72
585.969	58836.67
586.329	58753.51
586.688	58727.07
587.048	58737.69
587.408	58672.84
587.768	58661.08
588.127	58631.93
588.487	58503.8
588.846	58707.41
589.206	58572.5
589.565	58542.9
589.925	58626.28
590.284	58511.94
590.643	58589
591.003	58586.96
591.362	58606.62
591.721	58509
592.08	58506.96
592.44	58580.63
592.799	58571.14
593.158	58490.47
593.517	58497.7
593.876	58516.23
594.235	58460.19
594.593	58473.52
594.952	58596.45
595.311	58483.69
595.67	58495.21
596.029	58658.82
596.387	58619.05
596.746	58614.76
597.104	58546.06
597.463	58541.54
597.822	58697.02
598.18	58562.56
598.538	58554.87
598.897	58736.11
599.255	58532.05
599.613	58938.14
599.972	58787.18
600.33	58900.85
600.688	58763.91
601.046	58891.81
601.404	58960.51
601.762	58886.39
602.12	59099.49
602.478	59099.72
602.836	59126.38
603.194	59064.24
603.552	59108.98
603.91	59053.39
604.268	59233.05
604.625	59172.48
604.983	59247.96
605.341	59180.17
605.698	59314.63
606.056	59418.35
606.413	59371.8
606.771	59400.73
607.128	59510.1
607.485	59416.77
607.843	59455.64
608.2	59583.55
608.557	59687.72
608.914	59636.65
609.272	59722.75
609.629	59837.55
609.986	59843.65
610.343	59732.24
610.7	59865.57
611.057	59843.88
611.414	59806.14
611.771	59858.12
612.127	59910.54
612.484	59880.26
612.841	60021.27
613.198	59915.74
613.554	59929.07
613.911	60108.73
614.267	60012.46
614.624	59938.57
614.98	59993.48
615.337	60080.03
615.693	60017.66
616.05	59929.53
616.406	60114.38
616.762	59954.84
617.118	59916.19
617.475	59898.34
617.831	59932.92
618.187	59943.76
618.543	59949.64
618.899	60128.39
619.255	60059.69
619.611	59957.55
619.967	60020.82
620.323	60033.25
620.678	59925.68
621.034	59908.74
621.39	59831.22
621.746	59749.64
622.101	60050.43
622.457	59814.05
622.812	59803.65
623.168	59802.07
623.523	59818.12
623.879	59951.67
624.234	59730.89
624.589	59784.67
624.945	59848.17
625.3	59794.16
625.655	59779.47
626.01	59809.98
626.365	59793.03
626.72	59784.44
627.075	59782.19
627.43	59772.69
627.785	59715.07
628.14	59710.32
628.495	59754.16
628.85	59731.79
629.205	59610.66
629.559	59696.31
629.914	59635.3
630.269	59696.09
630.623	59620.83
630.978	59623.55
631.332	59746.71
631.687	59801.17
632.041	59624
632.396	59692.47
632.75	59583.09
633.104	59666.26
633.459	59576.09
633.813	59591.91
634.167	59574.28
634.521	59618.8
634.875	59645.24
635.229	59669.42
635.583	59535.41
635.937	59632.36
636.291	59573.6
636.645	59589.87
636.999	59605.47
637.352	59701.06
637.706	59574.28
638.06	59610.66
638.413	59569.99
638.767	59494.51
639.121	59585.81
639.474	59410.44
639.828	59498.58
640.181	59443.89
640.534	59425.58
640.888	59409.31
641.241	59337
641.594	59409.77
641.947	59438.24
642.301	59331.58
642.654	59362.99
643.007	59341.97
643.36	59239.83
643.713	59155.31
644.066	59313.72
644.419	59083.45
644.771	58923
645.124	58797.13
645.477	58710.57
645.83	58508.55
646.182	58391.71
646.535	58203.02
646.888	58223.58
647.24	58075.34
647.593	58161.21
647.945	58103.36
648.298	57919.64
648.65	57902.46
649.002	57724.39
649.355	57887.77
649.707	57841.22
650.059	57946.08
650.411	58201.21
650.763	58189.68
651.115	58351.94
651.467	58276.69
651.819	58212.51
652.171	58113.3
652.523	58049.58
652.875	58024.72
653.227	57867.89
653.578	58067.65
653.93	57993.53
654.282	57882.35
654.633	57780.43
654.985	57827.66
655.337	57787.66
655.688	57833.99
656.039	57806.64
656.391	57582.47
656.742	57616.37
657.094	57615.01
657.445	57684.16
657.796	57568.46
658.147	57502.47
658.498	57504.5
658.849	57572.75
659.2	57462.47
659.551	57472.64
659.902	57511.28
660.253	57532.75
660.604	57530.49
660.955	57385.19
661.306	57427.67
661.656	57416.82
662.007	57437.16
662.358	57475.35
662.708	57424.51
663.059	57424.73
663.409	57254.79
663.76	57501.12
664.11	57480.1
664.461	57439.2
664.811	57446.65
665.161	57471.96
665.511	57370.72
665.862	57462.92
666.212	57499.76
666.562	57503.83
666.912	57484.84
667.262	57446.43
667.612	57454.79
667.962	57430.61
668.312	57371.63
668.662	57492.75
669.011	57435.13
669.361	57442.36
669.711	57487.33
670.06	57441.46
670.41	57350.38
670.76	57339.76
671.109	57455.69
671.459	57330.27
671.808	57298.18
672.157	57369.37
672.507	57122.37
672.856	57186.77
673.205	57243.95
673.554	57266.77
673.904	57184.29
674.253	57402.59
674.602	57238.52
674.951	56921.02
675.3	56781.13
675.649	57178.64
675.998	57081.69
676.346	57158.3
676.695	57225.19
677.044	57079.88
677.393	57112.2
677.741	57206.21
678.09	57148.13
678.438	57018.42
678.787	57018.42
679.135	57026.1
679.484	56790.4
679.832	56886.67
680.181	56753.79
680.529	56835.37
680.877	56832.66
681.225	56679.44
681.573	56813.22
681.922	56576.62
682.27	56518.54
682.618	56565.55
682.966	56366.46
683.314	56470.18
683.661	56388.38
684.009	56186.35
684.357	56119.68
684.705	56047.37
685.053	56094.37
685.4	55966.92
685.748	55823.19
686.095	55794.04
686.443	55630.88
686.79	55690.32
687.138	55690.99
687.485	55672.46
687.832	55472.69
688.18	55456.42
688.527	55318.57
688.874	55259.37
689.221	55178.24
689.568	55132.82
689.915	55032.71
690.262	54999.71
690.609	54882.2
690.956	54801.3
691.303	54696.44
691.65	54519.05
691.997	54627.07
692.344	54364.47
692.69	54334.64
693.037	54290.58
693.383	54015.78
693.73	54064.37
694.077	53948.67
694.423	53935.33
694.769	53760.87
695.116	53785.73
695.462	53646.3
695.808	53568.34
696.155	53562.46
696.501	53325.18
696.847	53296.93
697.193	53045.41
697.539	53228.23
697.885	53006.54
698.231	52861.69
698.577	52925.19
698.923	52901.69
699.269	52677.29
699.614	52583.73
699.96	52488.37
700.306	52552.77
700.651	52402.04
700.997	52268.26
701.342	52284.76
701.688	52247.02
702.033	52087.25
702.379	52126.34
702.724	52025.55
703.069	52124.53
703.415	51761.83
703.76	51753.24
704.105	51805.45
704.45	51651.33
704.795	51550.31
705.14	51498.11
705.485	51392.8
705.83	51255.86
706.175	51336.31
706.52	51350.54
706.865	51220.83
707.209	51270.77
707.554	51138.8
707.899	51169.08
708.243	50913.49
708.588	50978.57
708.932	50780.16
709.277	50817.68
709.621	50902.87
709.966	50608.19
710.31	50701.07
710.654	50438.7
710.998	50440.06
711.342	50432.37
711.687	50363
712.031	50282.77
712.375	50208.43
712.719	50198.93
713.063	50078.71
713.407	50192.83
713.75	50138.82
714.094	49924.37
714.438	49868.32
714.782	49772.73
715.125	49626.97
715.469	49649.57
715.812	49481.44
716.156	49415.9
716.499	49413.64
716.843	49375.91
717.186	49183.59
717.53	49255.91
717.873	49230.82
718.216	49189.7
718.559	49022.02
718.902	48737.5
719.246	48726.66
719.589	48629.71
719.932	48431.07
720.275	48409.6
720.617	48408.92
720.96	48228.59
721.303	48299.78
721.646	48289.15
721.989	47907.02
722.331	47995.15
722.674	47857.75
723.016	47669.28
723.359	47744.99
723.701	47649.85
724.044	47376.41
724.386	47285.79
724.729	47267.49
725.071	47168.05
725.413	47124.66
725.755	47073.37
726.097	46944.1
726.439	46585.24
726.782	46651.23
727.124	46628.41
727.465	46446.72
727.807	46348.87
728.149	46341.63
728.491	46081.53
728.833	46055.77
729.175	45833.85
729.516	45686.74
729.858	45710.01
730.199	45756.34
730.541	45520.64
730.882	45653.29
731.224	45625.95
731.565	45184.38
731.906	45214.21
732.248	45256.69
732.589	45001.78
732.93	44868.68
733.271	44846.08
733.612	44847.44
733.953	44849.7
734.294	44662.81
734.635	44489.93
734.976	44571.29
735.317	44382.59
735.658	44306.89
735.999	44344.17
736.339	44183.05
736.68	44213.78
737.021	43937.18
737.361	43926.1
737.702	44048.36
738.042	43910.96
738.383	43873.45
738.723	43837.29
739.063	43705.55
739.404	43678.65
739.744	43510.3
740.084	43425.33
740.424	43445.44
740.764	43383.07
741.104	43475.27
741.444	43263.07
741.784	43011.55
742.124	43279.79
742.464	43211.55
742.804	43264.43
743.143	42993.7
743.483	42968.16
743.823	42778.34
744.162	42741.05
744.502	42717.32
744.841	42675.29
745.181	42849.07
745.52	42585.12
745.86	42809.07
746.199	42627.61
746.538	42570.43
746.877	42501.96
747.216	42457.44
747.556	42460.83
747.895	42464.9
748.234	42326.82
748.573	42264.91
748.911	42301.06
749.25	42284.57
749.589	42098.58
749.928	42213.61
750.267	41987.85
750.605	41948.3
750.944	41942.2
751.283	41713.51
751.621	41892.71
751.96	41688.42
752.298	41724.13
752.636	41715.54
752.975	41498.82
