Data from white_wall_FLMS001491_058.txt Node
Date: Tue Feb 07 11:04:58 GMT 2017
User: dcchb
Spectrometer: FLMS00149
Trigger mode: 0
Integration Time (sec): 2.000000E-2
Scans to average: 10
Electric dark correction enabled: true
Nonlinearity correction enabled: false
Boxcar width: 0
XAxis mode: Wavelengths
Number of Pixels in Spectrum: 2048
>>>>>Begin Spectral Data<<<<<
341.393	-8.4
341.776	-8.4
342.16	-8.4
342.543	-60.83
342.927	-58.57
343.31	-73.94
343.693	-71.9
344.077	-60.38
344.46	-48.4
344.843	-61.06
345.226	-34.39
345.61	-36.88
345.993	-19.25
346.376	0.18
346.759	16.45
347.142	32.73
347.525	31.14
347.908	64.59
348.291	77.02
348.674	85.38
349.057	98.71
349.44	122.67
349.823	145.04
350.206	169.22
350.588	216.9
350.971	221.19
351.354	251.93
351.737	246.96
352.119	262.55
352.502	268.2
352.884	282.89
353.267	305.26
353.65	289.67
354.032	305.03
354.414	322.66
354.797	326.28
355.179	324.69
355.562	320.63
355.944	332.15
356.326	338.48
356.709	330.12
357.091	355.88
357.473	353.39
357.855	327.86
358.238	333.28
358.62	327.41
359.002	347.07
359.384	343.9
359.766	344.58
360.148	343.9
360.53	351.59
360.912	332.83
361.294	323.56
361.676	338.93
362.057	341.64
362.439	340.06
362.821	338.03
363.203	352.26
363.584	338.93
363.966	325.37
364.348	334.19
364.729	317.69
365.111	342.77
365.493	326.28
365.874	325.15
366.256	318.37
366.637	348.2
367.019	315.88
367.4	329.44
367.781	332.6
368.163	320.18
368.544	310.23
368.925	325.15
369.306	332.38
369.688	318.82
370.069	309.78
370.45	332.15
370.831	332.6
371.212	308.88
371.593	315.88
371.974	329.44
372.355	320.18
372.736	344.13
373.117	330.57
373.498	323.56
373.879	318.59
374.26	341.19
374.641	319.27
375.021	328.99
375.402	347.52
375.783	352.94
376.163	330.8
376.544	321.31
376.925	341.19
377.305	330.34
377.686	340.51
378.066	324.69
378.447	333.73
378.827	335.32
379.208	355.2
379.588	354.98
379.968	352.26
380.349	335.09
380.729	340.97
381.109	342.55
381.489	324.92
381.87	360.17
382.25	342.1
382.63	350.23
383.01	357.91
383.39	338.71
383.77	339.61
384.15	356.11
384.53	383
384.91	368.54
385.29	358.59
385.67	340.06
386.049	369.21
386.429	388.65
386.809	364.69
387.189	386.39
387.568	401.3
387.948	379.83
388.328	385.94
388.707	395.88
389.087	385.71
389.466	395.88
389.846	381.42
390.225	411.7
390.605	385.26
390.984	419.16
391.363	427.29
391.743	404.92
392.122	405.37
392.501	420.51
392.881	427.74
393.26	421.42
393.639	452.83
394.018	437.69
394.397	446.5
394.776	439.27
395.155	428.87
395.534	477.91
395.913	448.08
396.292	486.27
396.671	471.58
397.05	486.05
397.429	485.14
397.808	500.51
398.186	502.32
398.565	527.85
398.944	503
399.323	542.32
399.701	498.93
400.08	516.1
400.458	538.7
400.837	534.41
401.215	549.55
401.594	559.94
401.972	587.06
402.351	547.06
402.729	569.43
403.107	589.09
403.486	584.8
403.864	607.4
404.242	614.18
404.62	629.77
404.999	646.04
405.377	639.71
405.755	650.79
406.133	658.7
406.511	671.8
406.889	701.86
407.267	697.79
407.645	693.72
408.023	729.66
408.401	733.27
408.779	727.4
409.156	752.03
409.534	740.5
409.912	773.5
410.29	767.85
410.667	767.4
411.045	784.8
411.422	812.14
411.8	820.28
412.178	841.29
412.555	838.81
412.933	875.87
413.31	858.69
413.687	852.36
414.065	917.9
414.442	910.89
414.819	904.57
415.197	905.02
415.574	955.41
415.951	920.16
416.328	952.25
416.705	954.06
417.082	950.89
417.46	984.79
417.837	1003.1
418.214	999.48
418.591	1016.2
418.967	1022.76
419.344	1008.52
419.721	1025.24
420.098	1068.18
420.475	1040.61
420.852	1077.22
421.228	1069.08
421.605	1096.43
421.982	1114.28
422.358	1107.95
422.735	1116.76
423.111	1132.58
423.488	1151.57
423.864	1132.13
424.241	1156.09
424.617	1171.45
424.994	1197.89
425.37	1208.74
425.746	1194.73
426.123	1212.13
426.499	1240.6
426.875	1251
427.251	1245.57
427.627	1291.9
428.003	1291.9
428.379	1316.53
428.756	1339.81
429.132	1343.88
429.507	1379.13
429.883	1401.05
430.259	1402.63
430.635	1397.66
431.011	1378.23
431.387	1441.28
431.763	1473.82
432.138	1460.94
432.514	1494.38
432.89	1520.14
433.265	1546.13
433.641	1554.27
434.016	1556.53
434.392	1574.61
434.767	1622.51
435.143	1612.57
435.518	1640.82
435.894	1665
436.269	1696.64
436.644	1718.56
437.02	1729.4
437.395	1737.99
437.77	1776.63
438.145	1785.22
438.52	1827.03
438.895	1820.25
439.271	1822.28
439.646	1871.09
440.021	1883.75
440.395	1917.42
440.77	1861.6
441.145	1899.57
441.52	1942.96
441.895	1939.34
442.27	1970.53
442.645	1951.77
443.019	2006.01
443.394	1992.45
443.769	2011.2
444.143	1999.23
444.518	2051.66
444.892	2060.69
445.267	2085.33
445.641	2083.97
446.016	2086.68
446.39	2127.36
446.764	2141.14
447.139	2112.9
447.513	2141.14
447.887	2157.64
448.262	2178.43
448.636	2236.73
449.01	2244.19
449.384	2244.64
449.758	2243.51
450.132	2275.38
450.506	2287.13
450.88	2333
451.254	2328.94
451.628	2358.31
452.002	2363.29
452.376	2402.38
452.75	2476.95
453.123	2455.03
453.497	2498.87
453.871	2499.78
454.244	2536.39
454.618	2616.61
454.992	2599.21
455.365	2584.07
455.739	2678.31
456.112	2736.61
456.486	2724.18
456.859	2725.76
457.232	2789.04
457.606	2836.49
457.979	2822.71
458.352	2879.66
458.725	2911.29
459.099	2971.86
459.472	3020.9
459.845	3071.06
460.218	3069.93
460.591	3099.99
460.964	3104.06
461.337	3176.15
461.71	3223.83
462.083	3259.53
462.456	3279.65
462.829	3327.78
463.201	3383.6
463.574	3385.18
463.947	3404.16
464.32	3488
464.692	3532.29
465.065	3589.69
465.438	3619.98
465.81	3636.47
466.183	3670.82
466.555	3781.1
466.928	3801.89
467.3	3845.51
467.672	3886.41
468.045	4009.8
468.417	4026.29
468.789	4014.54
469.161	4050.25
469.534	4133.86
469.906	4242.78
470.278	4217.02
470.65	4292.95
471.022	4406.85
471.394	4455.43
471.766	4483
472.138	4577.69
472.51	4661.3
472.882	4716.22
473.253	4774.07
473.625	4836.21
473.997	4965.25
474.369	4986.04
474.74	5073.72
475.112	5166.15
475.484	5263.1
475.855	5319.37
476.227	5374.51
476.598	5569.75
476.97	5590.32
477.341	5678.9
477.713	5732.01
478.084	5812.01
478.455	5972.91
478.827	6015.39
479.198	6195.27
479.569	6217.2
479.94	6383.07
480.311	6469.62
480.682	6650.18
481.053	6757.97
481.424	6878.87
481.795	6960.45
482.166	7062.14
482.537	7126.32
482.908	7261.24
483.279	7311.4
483.65	7544.39
484.021	7593.43
484.391	7723.37
484.762	7810.83
485.133	7889.92
485.503	8040.88
485.874	8148.22
486.244	8288.1
486.615	8466.18
486.985	8479.51
487.356	8690.58
487.726	8774.87
488.097	8958.37
488.467	8917.92
488.837	9249.66
489.207	9279.71
489.578	9359.71
489.948	9499.37
490.318	9637.44
490.688	9714.05
491.058	9843.31
491.428	9971.22
491.798	10118.79
492.168	10330.76
492.538	10356.75
492.908	10511.32
493.278	10598.32
493.648	10613.01
494.017	10810.97
494.387	10868.15
494.757	10942.27
495.126	11113.56
495.496	11079.89
495.866	11202.6
496.235	11446.89
496.605	11494.57
496.974	11627.22
497.344	11660.89
497.713	11752.42
498.082	11820.21
498.452	11978.4
498.821	12121.45
499.19	12109.7
499.559	12210.26
499.928	12320.09
500.298	12422.23
500.667	12532.74
501.036	12564.15
501.405	12718.95
501.774	12686.4
502.143	12878.04
502.512	12912.39
502.88	13081.65
503.249	13018.37
503.618	13213.62
503.987	13319.16
504.356	13360.51
504.724	13440.96
505.093	13553.05
505.462	13630.79
505.83	13736.09
506.199	13913.04
506.567	13995.97
506.936	14063.77
507.304	14198
507.672	14298.11
508.041	14434.38
508.409	14507.15
508.777	14611.55
509.145	14743.75
509.514	14736.75
509.882	14900.13
510.25	15002.5
510.618	15120.24
510.986	15148.49
511.354	15379.89
511.722	15428.25
512.09	15651.52
512.458	15630.96
512.826	15711.86
513.193	15885.19
513.561	15886.32
513.929	16044.51
514.297	16193.88
514.664	16312.52
515.032	16448.56
515.4	16517.49
515.767	16706.41
516.135	16699.86
516.502	16730.14
516.869	17119.51
517.237	17108.21
517.604	17175.78
517.972	17350.91
518.339	17509.55
518.706	17477.92
519.073	17553.85
519.44	17783.22
519.808	17932.14
520.175	17863.22
520.542	18148.63
520.909	18249.87
521.276	18317.89
521.643	18510.88
522.009	18606.25
522.376	18645.57
522.743	18899.57
523.11	19051.43
523.477	19270.19
523.843	19297.98
524.21	19616.84
524.577	19757.18
524.943	19940.45
525.31	19844.86
525.676	20112.65
526.043	20155.59
526.409	20298.86
526.776	20549.02
527.142	20591.73
527.508	20848.22
527.874	20971.38
528.241	21007.77
528.607	21104.94
528.973	21423.8
529.339	21327.98
529.705	21500.86
530.071	21724.13
530.437	21759.16
530.803	21941.3
531.169	22085.03
531.535	22099.49
531.901	22233.5
532.267	22386.94
532.632	22498.35
532.998	22572.02
533.364	22799.36
533.73	22780.83
534.095	23075.28
534.461	23072.8
534.826	23224.66
535.192	23277.76
535.557	23424.88
535.923	23457.87
536.288	23511.66
536.653	23679.11
537.019	23609.05
537.384	23807.24
537.749	23812.89
538.114	23918.88
538.479	23944.41
538.845	24136.72
539.21	24118.65
539.575	24288.36
539.94	24389.82
540.305	24613.32
540.67	24584.17
541.034	24706.43
541.399	24806.09
541.764	24912.07
542.129	25045.63
542.494	24977.61
542.858	25110.48
543.223	25083.37
543.587	25325.62
543.952	25426.41
544.316	25478.61
544.681	25488.55
545.045	25644.93
545.41	25822.78
545.774	25896.9
546.138	25965.83
546.503	26115.88
546.867	26106.84
547.231	26400.85
547.595	26404.91
547.959	26534.18
548.324	26502.76
548.688	26679.48
549.052	26771.68
549.416	26916.31
549.779	27077.66
550.143	26993.15
550.507	27309.97
550.871	27311.56
551.235	27355.62
551.599	27694.37
551.962	27660.47
552.326	27783.18
552.689	27954.93
553.053	27926.91
553.417	28120.8
553.78	28464.75
554.143	28396.27
554.507	28499.1
554.87	28569.15
555.234	28866.54
555.597	28801.91
555.96	28800.1
556.323	29056.82
556.686	29239.87
557.05	29318.96
557.413	29389.69
557.776	29474.21
558.139	29731.38
558.502	29876.46
558.865	29863.58
559.228	30107.41
559.59	30288.88
559.953	30275.09
560.316	30675.08
560.679	30567.74
561.041	30796.44
561.404	30983.78
561.767	31245.46
562.129	31176.99
562.492	31471.9
562.854	31428.96
563.217	31357.78
563.579	31681.16
563.941	31808.16
564.304	31993.92
564.666	32192.78
565.028	32239.34
565.39	32474.58
565.753	32663.96
566.115	32586.22
566.477	32789.83
566.839	32892.65
567.201	33247.22
567.563	33090.16
567.925	33306.65
568.287	33466.42
568.648	33515.23
569.01	33788
569.372	34042.23
569.734	33869.35
570.095	34045.39
570.457	34296.68
570.819	34308.43
571.18	34412.84
571.542	34448.09
571.903	34552.95
572.265	34716.78
572.626	34746.39
572.987	35018.92
573.349	34918.36
573.71	35066.61
574.071	35269.54
574.432	35322.87
574.794	35479.02
575.155	35535.29
575.516	35289.43
575.877	35529.19
576.238	35668.4
576.599	35769.86
576.96	35804.44
577.32	35788.17
577.681	36017.54
578.042	36097.99
578.403	36026.81
578.763	36035.62
579.124	36208.5
579.485	36207.59
579.845	36325.56
580.206	36266.57
580.566	36196.75
580.927	36487.81
581.287	36499.11
581.648	36220.47
582.008	36434.25
582.368	36519.9
582.728	36482.16
583.089	36536.62
583.449	36595.38
583.809	36640.12
584.169	36747.47
584.529	36575.04
584.889	36894.13
585.249	36590.86
585.609	36499.56
585.969	36722.61
586.329	36617.98
586.688	36835.37
587.048	36640.35
587.408	36681.7
587.768	36604.19
588.127	36677.41
588.487	36611.65
588.846	36980
589.206	36620.46
589.565	36794.02
589.925	36933.22
590.284	36708.82
590.643	36917.18
591.003	36941.36
591.362	37041.92
591.721	37010.96
592.08	36901.13
592.44	37036.95
592.799	36999.89
593.158	36865.43
593.517	36870.17
593.876	36989.27
594.235	37018.87
594.593	37051.41
594.952	36988.59
595.311	36917.63
595.67	36987.91
596.029	37231.75
596.387	37193.33
596.746	37199.43
597.104	37039.66
597.463	37109.94
597.822	37133.9
598.18	37231.52
598.538	37123.95
598.897	37353.33
599.255	37130.96
599.613	37654.56
599.972	37230.84
600.33	37397.17
600.688	37200.79
601.046	37493.89
601.404	37499.76
601.762	37397.84
602.12	37744.05
602.478	37564.85
602.836	37641.91
603.194	37503.38
603.552	37537.5
603.91	37470.84
604.268	37752.41
604.625	37656.14
604.983	37801.68
605.341	37637.84
605.698	37934.1
606.056	37835.35
606.413	37757.38
606.771	37929.81
607.128	38066.75
607.485	37873.54
607.843	37859.98
608.2	38086.41
608.557	38037.6
608.914	38002.8
609.272	38257.26
609.629	38219.74
609.986	38417.03
610.343	38305.62
610.7	38424.94
611.057	38523.24
611.414	38367.31
611.771	38502.45
612.127	38611.15
612.484	38674.65
612.841	38493.63
613.198	38591.03
613.554	38604.37
613.911	38821.54
614.267	38703.12
614.624	38669.68
614.98	38846.17
615.337	38822.21
615.693	38943.57
616.05	38741.54
616.406	38964.13
616.762	38994.86
617.118	38910.35
617.475	38995.32
617.831	39098.59
618.187	39098.36
618.543	39197.8
618.899	39286.38
619.255	39169.55
619.611	39148.76
619.967	39258.59
620.323	39370.9
620.678	39146.05
621.034	39145.6
621.39	39201.19
621.746	39164.13
622.101	39599.14
622.457	39254.52
622.812	39372.93
623.168	39461.97
623.523	39436.89
623.879	39573.61
624.234	39313.5
624.589	39562.76
624.945	39465.13
625.3	39506.04
625.655	39395.98
626.01	39523.21
626.365	39534.51
626.72	39391.92
627.075	39377
627.43	39481.86
627.785	39355.31
628.14	39385.59
628.495	39468.07
628.85	39476.21
629.205	39286.61
629.559	39656.09
629.914	39435.3
630.269	39480.73
630.623	39255.2
630.978	39271.69
631.332	39419.49
631.687	39284.12
632.041	39148.76
632.396	39212.94
632.75	39177.01
633.104	39146.27
633.459	39024.24
633.813	38991.93
634.167	38991.7
634.521	39054.07
634.875	39054.75
635.229	38900.18
635.583	38789.22
635.937	38804.59
636.291	38777.7
636.645	38817.47
636.999	38746.74
637.352	38745.38
637.706	38426.52
638.06	38635.33
638.413	38534.76
638.767	38438.04
639.121	38565.72
639.474	38194.89
639.828	38274.43
640.181	38438.04
640.534	38311.04
640.888	38205.05
641.241	38126.86
641.594	38097.04
641.947	38146.07
642.301	38109.92
642.654	38292.06
643.007	38274.66
643.36	38081.44
643.713	37983.59
644.066	38066.08
644.419	37815.01
644.771	37593.77
645.124	37480.55
645.477	37271.07
645.83	37074.69
646.182	36932.55
646.535	36827.01
646.888	36884.64
647.24	36630.18
647.593	36688.94
647.945	36844.19
648.298	36606.68
648.65	36518.32
649.002	36370.07
649.355	36581.14
649.707	36486.23
650.059	36685.09
650.411	37083.73
650.763	36992.88
651.115	37431.97
651.467	37245.53
651.819	37226.55
652.171	37120.34
652.523	37168.25
652.875	37002.37
653.227	36882.15
653.578	37119.89
653.93	37031.75
654.282	36910.63
654.633	36867.24
654.985	36961.47
655.337	36845.54
655.688	36982.49
656.039	37036.95
656.391	36663.85
656.742	36733.68
657.094	36726.22
657.445	36869.72
657.796	36750.4
658.147	36749.5
658.498	36730.97
658.849	36790.4
659.2	36628.37
659.551	36567.36
659.902	36720.8
660.253	36534.82
660.604	36589.96
660.955	36375.72
661.306	36494.59
661.656	36504.53
662.007	36525.32
662.358	36516.29
662.708	36433.8
663.059	36407.81
663.409	36273.58
663.76	36368.49
664.11	36407.36
664.461	36237.2
664.811	36375.95
665.161	36318.1
665.511	36133.47
665.862	36342.5
666.212	36301.6
666.562	36537.75
666.912	36211.66
667.262	36206.24
667.612	36210.76
667.962	36284.88
668.312	36093.7
668.662	36300.02
669.011	36280.81
669.361	36089.63
669.711	36133.02
670.06	35971.22
670.41	35945.68
670.76	35882.63
671.109	35932.8
671.459	35961.95
671.808	35905.68
672.157	35934.83
672.507	35783.88
672.856	35776.64
673.205	35693.93
673.554	35812.58
673.904	35801.5
674.253	35904.55
674.602	35769.86
674.951	35201.52
675.3	35051.69
675.649	35671.11
675.998	35585.24
676.346	35558.8
676.695	35714.5
677.044	35373.72
677.393	35515.86
677.741	35363.77
678.09	35502.75
678.438	35361.97
678.787	35315.41
679.135	35341.63
679.484	35134.18
679.832	35173.72
680.181	34912.26
680.529	34968.98
680.877	34786.61
681.225	34823
681.573	35157.68
681.922	34849.44
682.27	34774.18
682.618	34716.78
682.966	34751.36
683.314	34791.36
683.661	34685.37
684.009	34313.86
684.357	34458.94
684.705	34417.81
685.053	34422.78
685.4	34154.31
685.748	34066.86
686.095	34137.37
686.443	33960.87
686.79	33964.71
687.138	34016.01
687.485	34076.35
687.832	33766.98
688.18	33745.96
688.527	33712.52
688.874	33621.22
689.221	33620.77
689.568	33482.24
689.915	33370.61
690.262	33331.96
690.609	33257.16
690.956	33184.85
691.303	33213.1
691.65	32954.35
691.997	33043.61
692.344	32846.33
692.69	32760.45
693.037	32772.2
693.383	32582.15
693.73	32587.58
694.077	32355.94
694.423	32507.35
694.769	32284.76
695.116	32269.84
695.462	32191.65
695.808	32013.13
696.155	32114.59
696.501	31799.35
696.847	31722.74
697.193	31459.92
697.539	31704.89
697.885	31563.2
698.231	31443.88
698.577	31434.84
698.923	31370.21
699.269	31267.16
699.614	31096.54
699.96	30920.73
700.306	30958.01
700.651	30880.5
700.997	30773.39
701.342	30709.66
701.688	30710.34
702.033	30668.98
702.379	30542.66
702.724	30404.58
703.069	30487.29
703.415	30141.31
703.76	30158.26
704.105	30254.76
704.45	30115.78
704.795	29822.45
705.14	29917.59
705.485	29806.41
705.83	29727.09
706.175	29759.63
706.52	29550.59
706.865	29550.59
707.209	29529.12
707.554	29333.42
707.899	29452.52
708.243	29257.72
708.588	29282.58
708.932	29024.73
709.277	29190.15
709.621	28935.92
709.966	28781.12
710.31	28872.42
710.654	28600.11
710.998	28690.05
711.342	28694.12
711.687	28592.2
712.031	28490.96
712.375	28473.11
712.719	28476.72
713.063	28344.52
713.407	28427.46
713.75	28387.91
714.094	28292.32
714.438	28143.85
714.782	28177.97
715.125	28109.95
715.469	28104.3
715.812	27883.97
716.156	27781.37
716.499	27777.31
716.843	27933.23
717.186	27608.05
717.53	27799.23
717.873	27737.31
718.216	27637.87
718.559	27572.57
718.902	27364.21
719.246	27412.57
719.589	27324.89
719.932	27184.1
720.275	27303.19
720.617	27295.29
720.96	27223.42
721.303	27218.23
721.646	27225.46
721.989	26999.02
722.331	27083.99
722.674	27018.46
723.016	26893.71
723.359	26886.48
723.701	26941.4
724.044	26779.37
724.386	26658.92
724.729	26796.09
725.071	26627.51
725.413	26699.82
725.755	26584.34
726.097	26382.09
726.439	26213.05
726.782	26382.09
727.124	26548.64
727.465	26327.4
727.807	26206.95
728.149	26342.77
728.491	26138.71
728.833	26209.21
729.175	26053.96
729.516	26011.93
729.858	25956.11
730.199	26005.38
730.541	25990.91
730.882	25929.45
731.224	25917.02
731.565	25750.02
731.906	25852.84
732.248	25790.47
732.589	25618.49
732.93	25525.61
733.271	25548.66
733.612	25648.32
733.953	25623.92
734.294	25525.16
734.635	25363.81
734.976	25499.17
735.317	25367.43
735.658	25365.62
735.999	25286.52
736.339	25278.16
736.68	25296.69
737.021	25225.06
737.361	25066.19
737.702	25227.77
738.042	25123.36
738.383	25120.88
738.723	24996.36
739.063	25024.61
739.404	25048.34
739.744	25017.38
740.084	24930.15
740.424	24937.38
740.764	24823.94
741.104	24902.13
741.444	24679.08
741.784	24705.52
742.124	24780.32
742.464	24732.19
742.804	24630.5
743.143	24635.02
743.483	24632.08
743.823	24486.55
744.162	24373.55
744.502	24508.92
744.841	24368.81
745.181	24527.22
745.52	24339.43
745.86	24380.56
746.199	24348.47
746.538	24267.34
746.877	24216.72
747.216	24327.91
747.556	24164.07
747.895	24096.5
748.234	24070.51
748.573	23990.51
748.911	23959.1
749.25	23953
749.589	23788.71
749.928	23730.86
750.267	23874.36
750.605	23678.43
750.944	23630.97
751.283	23595.72
751.621	23632.78
751.96	23502.16
752.298	23545.55
752.636	23574.7
752.975	23389.4
753.313	23277.76
753.651	23401.38
753.989	23176.3
754.327	23272.57
