Data from whiteboard_FLMS001491_00018.txt Node
Date: Wed Feb 08 11:25:29 GMT 2017
User: dcchb
Spectrometer: FLMS00149
Trigger mode: 0
Integration Time (sec): 2.000000E-2
Scans to average: 10
Electric dark correction enabled: true
Nonlinearity correction enabled: false
Boxcar width: 0
XAxis mode: Wavelengths
Number of Pixels in Spectrum: 2048
>>>>>Begin Spectral Data<<<<<
341.393	-20.64
341.776	-20.64
342.16	-20.64
342.543	-71.48
342.927	-62.89
343.31	-82.33
343.693	-93.4
344.077	-60.41
344.46	-76.23
344.843	-69.9
345.226	-31.03
345.61	-33.97
345.993	-5.72
346.376	-2.1
346.759	13.71
347.142	22.53
347.525	53.71
347.908	79.25
348.291	94.16
348.674	88.74
349.057	102.98
349.44	131.9
349.823	151.11
350.206	163.99
350.588	223.65
350.971	232.69
351.354	272.24
351.737	253.71
352.119	298.23
352.502	283.76
352.884	300.03
353.267	321.5
353.65	319.69
354.032	353.37
354.414	341.39
354.797	342.29
355.179	336.64
355.562	361.95
355.944	363.31
356.326	361.28
356.709	387.26
357.091	381.39
357.473	396.76
357.855	372.35
358.238	362.18
358.62	399.24
359.002	391.56
359.384	354.72
359.766	391.33
360.148	354.72
360.53	386.59
360.912	370.09
361.294	390.88
361.676	370.54
362.057	385.91
362.439	391.56
362.821	357.66
363.203	370.32
363.584	376.19
363.966	380.03
364.348	379.58
364.729	366.02
365.111	364.44
365.493	368.96
365.874	384.55
366.256	363.08
366.637	365.57
367.019	369.64
367.4	383.2
367.781	356.08
368.163	378.68
368.544	375.96
368.925	370.99
369.306	368.51
369.688	361.73
370.069	382.29
370.45	365.8
370.831	364.67
371.212	377.32
371.593	355.17
371.974	387.04
372.355	388.62
372.736	380.94
373.117	396.3
373.498	388.17
373.879	374.61
374.26	401.5
374.641	392.91
375.021	375.96
375.402	411.44
375.783	395.4
376.163	413.25
376.544	430.43
376.925	412.35
377.305	422.29
377.686	425.23
378.066	419.81
378.447	412.8
378.827	412.8
379.208	419.35
379.588	433.59
379.968	421.16
380.349	444.21
380.729	429.07
381.109	436.75
381.489	451.89
381.87	448.05
382.25	451.22
382.63	469.07
383.01	462.29
383.39	454.83
383.77	460.26
384.15	463.19
384.53	465.91
384.91	482.4
385.29	498
385.67	488.73
386.049	512.46
386.429	494.38
386.809	489.18
387.189	489.86
387.568	525.79
387.948	503.19
388.328	509.75
388.707	514.94
389.087	516.3
389.466	512.91
389.846	539.35
390.225	543.87
390.605	546.13
390.984	574.6
391.363	561.72
391.743	561.5
392.122	563.53
392.501	571.89
392.881	582.96
393.26	593.13
393.639	598.11
394.018	587.94
394.397	606.92
394.776	617.09
395.155	631.1
395.534	637.43
395.913	666.13
396.292	659.12
396.671	651.89
397.05	678.1
397.429	685.34
397.808	684.43
398.186	697.54
398.565	706.13
398.944	725.33
399.323	705.22
399.701	733.92
400.08	721.49
400.458	757.88
400.837	767.82
401.215	768.27
401.594	760.14
401.972	793.35
402.351	776.18
402.729	803.52
403.107	823.18
403.486	817.99
403.864	838.33
404.242	848.27
404.62	863.41
404.999	894.6
405.377	903.86
405.755	944.76
406.133	944.31
406.511	919
406.889	961.94
407.267	975.72
407.645	978.21
408.023	1008.26
408.401	1032.67
408.779	1069.28
409.156	1121.48
409.534	1111.31
409.912	1093.46
410.29	1150.63
410.667	1182.72
411.045	1192.89
411.422	1181.59
411.8	1190.86
412.178	1223.63
412.555	1259.11
412.933	1279.9
413.31	1307.01
413.687	1297.3
414.065	1346.56
414.442	1334.81
414.819	1380.23
415.197	1413.9
415.574	1410.51
415.951	1454.58
416.328	1455.26
416.705	1470.85
417.082	1483.28
417.46	1509.95
417.837	1510.62
418.214	1571.87
418.591	1556.95
418.967	1559.44
419.344	1595.59
419.721	1603.5
420.098	1613.67
420.475	1688.25
420.852	1688.02
421.228	1686.44
421.605	1708.81
421.982	1728.7
422.358	1766.21
422.735	1783.84
423.111	1803.72
423.488	1822.48
423.864	1839.43
424.241	1871.52
424.617	1878.3
424.994	1905.87
425.37	1891.41
425.746	1946.32
426.123	1982.93
426.499	2010.05
426.875	2000.1
427.251	2042.14
427.627	2109.7
428.003	2140.21
428.379	2113.55
428.756	2123.94
429.132	2192.19
429.507	2236.93
429.883	2295.01
430.259	2306.99
430.635	2295.91
431.011	2332.3
431.387	2413.65
431.763	2421.56
432.138	2438.51
432.514	2501.78
432.89	2523.7
433.265	2588.56
433.641	2633.76
434.016	2609.13
434.392	2681.44
434.767	2768.67
435.143	2725.96
435.518	2763.02
435.894	2792.62
436.269	2803.7
436.644	2894.54
437.02	2903.81
437.395	2924.82
437.77	2958.72
438.145	3041.21
438.52	3045.95
438.895	3116.23
439.271	3062.45
439.646	3162.56
440.021	3169.34
440.395	3203.69
440.77	3177.92
441.145	3204.59
441.52	3328.88
441.895	3332.05
442.27	3305.38
442.645	3345.83
443.019	3404.59
443.394	3400.07
443.769	3443.45
444.143	3440.52
444.518	3479.39
444.892	3472.15
445.267	3527.75
445.641	3580.17
446.016	3577.46
446.39	3634.41
446.764	3662.88
447.139	3642.32
447.513	3695.88
447.887	3682.32
448.262	3778.36
448.636	3769.32
449.01	3829.66
449.384	3850.9
449.758	3909.21
450.132	3986.94
450.506	3932.71
450.88	3978.13
451.254	3959.6
451.628	4092.93
452.002	4118.47
452.376	4145.36
452.75	4182.42
453.123	4221.29
453.497	4310.1
453.871	4333.15
454.244	4416.76
454.618	4454.28
454.992	4508.51
455.365	4530.43
455.739	4656.3
456.112	4691.56
456.486	4752.57
456.859	4778.11
457.232	4873.7
457.606	4869.86
457.979	4976.07
458.352	5040.02
458.725	5173.8
459.099	5129.74
459.472	5273.46
459.845	5311.88
460.218	5340.35
460.591	5448.15
460.964	5441.37
461.337	5598.43
461.71	5672.55
462.083	5722.26
462.456	5790.51
462.829	5815.14
463.201	5881.13
463.574	5928.36
463.947	6033.9
464.32	6150.95
464.692	6241.12
465.065	6255.13
465.438	6337.16
465.81	6500.55
466.183	6555.92
466.555	6685.63
466.928	6695.8
467.3	6704.61
467.672	6868.9
468.045	7054.66
468.417	7067.54
468.789	7105.73
469.161	7218.72
469.534	7336.91
469.906	7486.74
470.278	7556.34
470.65	7640.18
471.022	7772.38
471.394	7953.62
471.766	8036.55
472.138	8098.02
472.51	8240.84
472.882	8447.39
473.253	8531.68
473.625	8717.21
473.997	8836.08
474.369	8888.28
474.74	9033.14
475.112	9189.07
475.484	9293.02
475.855	9474.48
476.227	9619.34
476.598	9834.93
476.97	9874.7
477.341	10171.64
477.713	10335.7
478.084	10412.08
478.455	10656.15
478.827	10731.17
479.198	11130.26
479.569	11123.03
479.94	11372.51
480.311	11561.21
480.682	11798.94
481.053	12066.73
481.424	12259.04
481.795	12346.95
482.166	12517.34
482.537	12772.25
482.908	12984.22
483.279	13220.6
483.65	13367.26
484.021	13615.84
484.391	13831.66
484.762	13958.66
485.133	14073.23
485.503	14297.63
485.874	14628.02
486.244	14761.8
486.615	15047.9
486.985	15213.31
487.356	15454.21
487.726	15593.42
488.097	16007.87
488.467	16055.55
488.837	16417.12
489.207	16600.4
489.578	16865.25
489.948	16952.25
490.318	17249.42
490.688	17355.41
491.058	17545.91
491.428	17839.69
491.798	17995.39
492.168	18332.55
492.538	18330.52
492.908	18602.38
493.278	18854.35
493.648	18894.57
494.017	19191.97
494.387	19334.11
494.757	19617.27
495.126	19760.54
495.496	19869.01
495.866	20077.37
496.235	20252.73
496.605	20383.12
496.974	20597.35
497.344	20924.35
497.713	20894.75
498.082	21093.84
498.452	21344.68
498.821	21436.65
499.19	21480.95
499.559	21733.82
499.928	21874.83
500.298	21937.43
500.667	22263.52
501.036	22159.57
501.405	22453.12
501.774	22531.09
502.143	22720.69
502.512	22824.19
502.88	23056.27
503.249	23028.7
503.618	23288.36
503.987	23406.09
504.356	23485.64
504.724	23610.16
505.093	23784.16
505.462	23860.32
505.83	24001.33
506.199	24376.24
506.567	24665.72
506.936	24674.31
507.304	24966.96
507.672	25005.15
508.041	25206.95
508.409	25318.36
508.777	25608.52
509.145	25792.02
509.514	25805.13
509.882	26112.01
510.25	26247.83
510.618	26382.29
510.986	26579.8
511.354	26963.29
511.722	27119.89
512.09	27331.41
512.458	27384.29
512.826	27634.68
513.193	27763.27
513.561	27810.95
513.929	28060.21
514.297	28446.41
514.664	28635.79
515.032	28663.81
515.4	28941.32
515.767	28992.84
516.135	29268.31
516.502	29152.61
516.869	29597.57
517.237	29722.09
517.604	29685.7
517.972	30129.08
518.339	30172.24
518.706	30374.5
519.073	30533.59
519.44	30737.43
519.808	31047.02
520.175	31099.9
520.542	31427.35
520.909	31698.76
521.276	31722.03
521.643	32095.13
522.009	32222.81
522.376	32451.96
522.743	32683.59
523.11	33004.26
523.477	33410.8
523.843	33526.96
524.21	33925.82
524.577	34215.53
524.943	34191.8
525.31	34422.3
525.676	34964.43
526.043	35201.04
526.409	35251.66
526.776	35854.13
527.142	35676.51
527.508	36092.99
527.874	36450.27
528.241	36621.11
528.607	36596.48
528.973	36971.84
529.339	37047.54
529.705	37427.19
530.071	37635.1
530.437	37864.92
530.803	37995.99
531.169	38246.83
531.535	38276.89
531.901	38401.86
532.267	38678.91
532.632	38772.24
532.998	38848.4
533.364	39130.2
533.73	39341.95
534.095	39612.22
534.461	39797.98
534.826	40055.83
535.192	40175.37
535.557	40413.33
535.923	40461.01
536.288	40494.46
536.653	40851.06
537.019	40606.09
537.384	40984.16
537.749	41185.51
538.114	41244.95
538.479	41348.45
538.845	41586.18
539.21	41514.32
539.575	41705.95
539.94	42004.47
540.305	42054.64
540.67	42042.44
541.034	42340.29
541.399	42528.08
541.764	42602.65
542.129	42713.16
542.494	42792.02
542.858	43098.01
543.223	43039.48
543.587	43352.01
543.952	43324.44
544.316	43459.8
544.681	43430.2
545.045	43774.82
545.41	43939.57
545.774	44156.28
546.138	44178.2
546.503	44301.36
546.867	44278.99
547.231	44737.96
547.595	44753.33
547.959	44966.88
548.324	44913.55
548.688	45072.64
549.052	45256.37
549.416	45246.65
549.779	45383.59
550.143	45593.08
550.507	45778.84
550.871	45899.51
551.235	45976.35
551.599	46205.04
551.962	46369.56
552.326	46429.67
552.689	46768.64
553.053	46740.85
553.417	46829.43
553.78	47281.4
554.143	47065.81
554.507	47281.4
554.87	47445.91
555.234	47915.51
555.597	47616.98
555.96	47782.85
556.323	48127.03
556.686	48070.08
557.05	48371.09
557.413	48467.13
557.776	48553
558.139	48754.13
558.502	48937.4
558.865	48921.13
559.228	49201.57
559.59	49381
559.953	49451.96
560.316	49626.42
560.679	49673.43
561.041	49951.61
561.404	50246.74
561.767	50322.67
562.129	50218.95
562.492	50628.88
562.854	50660.97
563.217	50723.79
563.579	50822.1
563.941	51084.24
564.304	51265.25
564.666	51393.38
565.028	51377.56
565.39	51645.13
565.753	51725.57
566.115	51788.85
566.477	51929.41
566.839	52021.61
567.201	52208.5
567.563	52222.74
567.925	52451.88
568.287	52591.77
568.648	52651.88
569.01	52815.26
569.372	52972.1
569.734	52975.71
570.095	53165.09
570.457	53319.66
570.819	53323.73
571.18	53469.48
571.542	53594.45
571.903	53643.26
572.265	53794.45
572.626	53949.92
572.987	53922.35
573.349	54050.03
573.71	54128.9
574.071	54179.97
574.432	54392.4
574.794	54540.64
575.155	54464.94
575.516	54501.32
575.877	54556.91
576.238	54667.64
576.599	54805.27
576.96	54838.94
577.32	54778.15
577.681	54924.13
578.042	55064.47
578.403	54960.52
578.763	54998.48
579.124	55052.95
579.485	55133.17
579.845	55224.01
580.206	55194.64
580.566	55157.8
580.927	55265.82
581.287	55356.67
581.648	55210
582.008	55285.48
582.368	55215.65
582.728	55359.6
583.089	55252.71
583.449	55285.03
583.809	55284.13
584.169	55319.15
584.529	55282.54
584.889	55439.6
585.249	55283.9
585.609	55268.31
585.969	55424.69
586.329	55300.17
586.688	55359.38
587.048	55350.34
587.408	55348.3
587.768	55426.04
588.127	55372.48
588.487	55371.58
588.846	55541.52
589.206	55385.59
589.565	55384.24
589.925	55594.85
590.284	55482.09
590.643	55489.77
591.003	55670.33
591.362	55741.74
591.721	55686.37
592.08	55668.75
592.44	55746.26
592.799	55800.72
593.158	55743.32
593.517	55725.47
593.876	55778.12
594.235	55779.48
594.593	55898.57
594.952	55858.35
595.311	55845.24
595.67	55875.52
596.029	56033.03
596.387	56010.66
596.746	56107.38
597.104	55987.84
597.463	55989.19
597.822	56084.1
598.18	56010.21
598.538	56031
598.897	56139.24
599.255	55880.04
599.613	56289.75
599.972	55989.42
600.33	56071
600.688	56038.46
601.046	56151.9
601.404	56164.1
601.762	56115.74
602.12	56167.72
602.478	56162.75
602.836	56107.38
603.194	55968.63
603.552	56070.09
603.91	56055.4
604.268	56078.68
604.625	56067.38
604.983	56101.28
605.341	55981.73
605.698	56166.14
606.056	56123.2
606.413	56094.73
606.771	56210.65
607.128	56181.73
607.485	56103.76
607.843	56225.34
608.2	56303.53
608.557	56406.81
608.914	56275.06
609.272	56384.21
609.629	56391.89
609.986	56550.08
610.343	56417.2
610.7	56609.51
611.057	56653.36
611.414	56595.73
611.771	56696.97
612.127	56763.63
612.484	56778.32
612.841	56849.06
613.198	56834.14
613.554	56833.69
613.911	56999.11
614.267	56987.13
614.624	56906
614.98	57060.12
615.337	57209.5
615.693	57115.72
616.05	57059.22
616.406	57221.93
616.762	57164.75
617.118	57154.58
617.475	57217.63
617.831	57285.2
618.187	57318.42
618.543	57287.91
618.899	57468.7
619.255	57430.06
619.611	57375.14
619.967	57449.49
620.323	57465.31
620.678	57423.96
621.034	57373.11
621.39	57331.76
621.746	57346.44
622.101	57534.24
622.457	57322.04
622.812	57389.83
623.168	57427.8
623.523	57462.15
623.879	57463.05
624.234	57320
624.589	57430.28
624.945	57381.7
625.3	57437.97
625.655	57434.8
626.01	57360.23
626.365	57376.5
626.72	57269.16
627.075	57241.14
627.43	57257.41
627.785	57188.93
628.14	57211.31
628.495	57198.2
628.85	57245.66
629.205	57108.94
629.559	57226
629.914	57122.5
630.269	57084.98
630.623	57075.26
630.978	57018.09
631.332	57084.76
631.687	57110.52
632.041	57017.64
632.396	57105.32
632.75	56921.6
633.104	56977.64
633.459	56894.03
633.813	56875.72
634.167	56903.52
634.521	56916.85
634.875	56934.48
635.229	56913.69
635.583	56772.22
635.937	56736.74
636.291	56730.87
636.645	56705.33
636.999	56631.21
637.352	56825.55
637.706	56606.8
638.06	56707.36
638.413	56641.6
638.767	56579.46
639.121	56656.52
639.474	56501.72
639.828	56498.1
640.181	56643.41
640.534	56603.86
640.888	56387.15
641.241	56309.41
641.594	56341.95
641.947	56523.87
642.301	56318
642.654	56377.43
643.007	56404.77
643.36	56286.58
643.713	56324.32
644.066	56344.66
644.419	56091.79
644.771	55998.01
645.124	55711.01
645.477	55653.38
645.83	55582.65
646.182	55375.87
646.535	55338.14
646.888	55348.53
647.24	55218.36
647.593	55354.18
647.945	55252.04
648.298	55149.89
648.65	55038.93
649.002	54990.35
649.355	55167.29
649.707	55035.32
650.059	55159.38
650.411	55498.58
650.763	55473.27
651.115	55716.88
651.467	55640.5
651.819	55626.72
652.171	55531.35
652.523	55440.96
652.875	55450.9
653.227	55396.66
653.578	55539.94
653.93	55480.05
654.282	55279.38
654.633	55229.44
654.985	55286.61
655.337	55334.52
655.688	55299.27
656.039	55339.04
656.391	55084.58
656.742	55190.57
657.094	55130.23
657.445	55254.3
657.796	55162.09
658.147	55123.23
658.498	55029.67
658.849	55116.22
659.2	55054.98
659.551	54975.66
659.902	55029.89
660.253	54962.1
660.604	55088.88
660.955	54938.82
661.306	54974.98
661.656	54829.67
662.007	54853.18
662.358	54932.04
662.708	54876.9
663.059	54843.01
663.409	54695.44
663.76	54914.42
664.11	54794.65
664.461	54922.33
664.811	54880.97
665.161	54840.52
665.511	54800.97
665.862	54860.41
666.212	55003.45
666.562	54931.82
666.912	54876.45
667.262	54719.85
667.612	54701.09
667.962	54794.87
668.312	54653.41
668.662	54852.72
669.011	54672.39
669.361	54676.01
669.711	54713.97
670.06	54631.49
670.41	54611.37
670.76	54516.91
671.109	54670.13
671.459	54513.52
671.808	54521.21
672.157	54568.66
672.507	54379.29
672.856	54383.58
673.205	54572.96
673.554	54494.77
673.904	54426.52
674.253	54607.31
674.602	54474.43
674.951	54064.04
675.3	53910.83
675.649	54364.15
675.998	54382
676.346	54331.61
676.695	54320.08
677.044	54105.85
677.393	54222.46
677.741	54201.44
678.09	54097.72
678.438	54128.45
678.787	54060.88
679.135	54119.64
679.484	53840.32
679.832	53957.38
680.181	53725.75
680.529	53816.82
680.877	53719.19
681.225	53685.75
681.573	53820.21
681.922	53680.1
682.27	53610.05
682.618	53535.02
682.966	53426.1
683.314	53558.97
683.661	53410.5
684.009	53263.84
684.357	53136.61
684.705	53145.42
685.053	53128.02
685.4	52994.24
685.748	52922.15
686.095	52853
686.443	52782.5
686.79	52760.12
687.138	52745.66
687.485	52548.38
687.832	52564.42
688.18	52561.03
688.527	52348.61
688.874	52297.31
689.221	52229.06
689.568	52185.22
689.915	52133.25
690.262	52069.75
690.609	51881.73
690.956	51795.86
691.303	51789.75
691.65	51656.65
691.997	51667.72
692.344	51478.8
692.69	51439.48
693.037	51401.74
693.383	51129.21
693.73	51177.79
694.077	51014.18
694.423	50927.86
694.769	50875.88
695.116	50916.78
695.462	50779.39
695.808	50797.69
696.155	50796.11
696.501	50619.84
696.847	50559.5
697.193	50287.42
697.539	50464.37
697.885	50215.56
698.231	50096.24
698.577	50083.58
698.923	50014.43
699.269	49789.58
699.614	49746.42
699.96	49774.21
700.306	49684.95
700.651	49466.65
700.997	49442.7
701.342	49419.87
701.688	49478.4
702.033	49282.7
702.379	49304.17
702.724	49073.44
703.069	49275.02
703.415	48834.58
703.76	48849.49
704.105	48660.57
704.45	48744.64
704.795	48384.65
705.14	48313.01
705.485	48315.72
705.83	48223.52
706.175	48211.09
706.52	48102.85
706.865	48027.14
707.209	47983.53
707.554	47857.2
707.899	47913.25
708.243	47701.95
708.588	47750.99
708.932	47407.04
709.277	47394.16
709.621	47503.54
709.966	47105.36
710.31	47341.28
710.654	46870.79
710.998	47030.33
711.342	46951.92
711.687	46968.64
712.031	46564.81
712.375	46432.15
712.719	46582.43
713.063	46413.4
713.407	46469.67
713.75	46215.66
714.094	46163.01
714.438	46014.54
714.782	45960.3
715.125	45702.68
715.469	45769.35
715.812	45576.81
716.156	45355.8
716.499	45377.95
716.843	45313.31
717.186	45094.34
717.53	45213.66
717.873	45143.38
718.216	45106.77
718.559	44960.33
718.902	44614.35
719.246	44671.3
719.589	44617.29
719.932	44236.73
720.275	44303.85
720.617	44201.48
720.96	44149.05
721.303	44079.67
721.646	44183.4
721.989	43735.05
722.331	44040.58
722.674	43772.79
723.016	43698.22
723.359	43692.79
723.701	43629.97
724.044	43334.16
724.386	43128.06
724.729	43342.52
725.071	43221.39
725.413	43152.02
725.755	43067.27
726.097	42854.85
726.439	42644.23
726.782	42656.43
727.124	42991.57
727.465	42626.61
727.807	42525.14
728.149	42522.88
728.491	42388.19
728.833	42481.3
729.175	42261.64
729.516	42263.45
729.858	42022.78
730.199	42174.64
730.541	41980.29
730.882	41988.88
731.224	41962.44
731.565	41813.07
731.906	41727.19
732.248	41722
732.589	41670.25
732.93	41598.16
733.271	41592.28
733.612	41695.78
733.953	41616.91
734.294	41359.52
734.635	41351.61
734.976	41409.24
735.317	41277.49
735.658	41209.92
735.999	41276.58
736.339	41096.48
736.68	41258.28
737.021	41073.88
737.361	40934.9
737.702	41124.27
738.042	41034.78
738.383	40891.74
738.723	40961.56
739.063	40790.95
739.404	40768.8
739.744	40735.36
740.084	40478.19
740.424	40759.99
740.764	40618.3
741.104	40556.6
741.444	40376.72
741.784	40122.94
742.124	40363.16
742.464	40282.71
742.804	40158.87
743.143	40156.61
743.483	40225.76
743.823	40005.21
744.162	39959.78
744.502	40044.98
744.841	39677.53
745.181	39930.63
745.52	39635.95
745.86	39854.25
746.199	39487.03
746.538	39456.97
746.877	39490.64
747.216	39480.47
747.556	39351.89
747.895	39175.4
748.234	39093.36
748.573	39165
748.911	39074.83
749.25	39026.02
749.589	38798.68
749.928	38795.97
750.267	38817.44
750.605	38626.94
750.944	38592.59
751.283	38632.36
751.621	38631.23
751.96	38316.44
752.298	38252.71
752.636	38327.06
752.975	38037.57
753.313	37948.54
