Data from white_steel_sheet_FLMS001491_042.txt Node
Date: Tue Feb 07 10:57:54 GMT 2017
User: dcchb
Spectrometer: FLMS00149
Trigger mode: 0
Integration Time (sec): 2.000000E-2
Scans to average: 10
Electric dark correction enabled: true
Nonlinearity correction enabled: false
Boxcar width: 0
XAxis mode: Wavelengths
Number of Pixels in Spectrum: 2048
>>>>>Begin Spectral Data<<<<<
341.393	0.54
341.776	0.54
342.16	0.54
342.543	-64.55
342.927	-75.85
343.31	-60.48
343.693	-78.11
344.077	-58.9
344.46	-63.64
344.843	-48.95
345.226	-54.83
345.61	-37.43
345.993	-18.67
346.376	-7.6
346.759	13.19
347.142	23.13
347.525	51.38
347.908	43.25
348.291	88.44
348.674	109.91
349.057	99.29
349.44	129.35
349.823	138.84
350.206	179.97
350.588	181.32
350.971	194.43
351.354	232.17
351.737	249.8
352.119	262.68
352.502	268.33
352.884	263.58
353.267	288.21
353.65	290.7
354.032	306.07
354.414	314.65
354.797	315.78
355.179	315.1
355.562	337.03
355.944	354.65
356.326	331.6
356.709	331.15
357.091	322.56
357.473	311.04
357.855	342
358.238	348.55
358.62	332.96
359.002	335.44
359.384	358.95
359.766	348.32
360.148	356.01
360.53	361.21
360.912	340.87
361.294	357.36
361.676	323.01
362.057	353.75
362.439	332.28
362.821	342.9
363.203	342.45
363.584	338.15
363.966	342
364.348	324.6
364.729	361.43
365.111	325.95
365.493	339.96
365.874	336.12
366.256	321.88
366.637	307.65
367.019	328.44
367.4	332.96
367.781	326.4
368.163	319.62
368.544	321.66
368.925	329.12
369.306	337.93
369.688	320.98
370.069	329.79
370.45	322.56
370.831	336.12
371.212	318.72
371.593	319.62
371.974	332.73
372.355	345.39
372.736	321.21
373.117	329.79
373.498	346.06
373.879	336.35
374.26	323.24
374.641	335.44
375.021	314.88
375.402	344.48
375.783	351.94
376.163	339.28
376.544	356.01
376.925	348.55
377.305	367.53
377.686	339.74
378.066	332.51
378.447	369.57
378.827	343.13
379.208	346.52
379.588	344.26
379.968	371.37
380.349	370.92
380.729	354.43
381.109	355.1
381.489	372.28
381.87	358.27
382.25	364.14
382.63	374.99
383.01	375.89
383.39	361.88
383.77	352.17
384.15	381.32
384.53	369.79
384.91	390.81
385.29	391.71
385.67	402.56
386.049	392.84
386.429	394.88
386.809	378.61
387.189	379.51
387.568	397.36
387.948	405.05
388.328	399.85
388.707	407.76
389.087	421.09
389.466	434.88
389.846	422.67
390.225	403.46
390.605	432.62
390.984	412.73
391.363	443.01
391.743	430.81
392.122	425.16
392.501	445.27
392.881	450.47
393.26	449.11
393.639	457.47
394.018	447.3
394.397	480.3
394.776	466.97
395.155	463.8
395.534	457.25
395.913	480.3
396.292	483.91
396.671	476
397.05	472.39
397.429	476.68
397.808	519.62
398.186	514.87
398.565	522.56
398.944	536.57
399.323	530.69
399.701	538.15
400.08	535.66
400.458	529.56
400.837	575.44
401.215	567.08
401.594	569.11
401.972	554.19
402.351	563.23
402.729	604.81
403.107	578.6
403.486	619.96
403.864	601.65
404.242	618.6
404.62	655.66
404.999	637.13
405.377	634.42
405.755	677.13
406.133	657.02
406.511	655.43
406.889	680.97
407.267	705.38
407.645	695.66
408.023	715.77
408.401	739.5
408.779	733.4
409.156	760.97
409.534	737.92
409.912	763.23
410.29	768.88
410.667	804.81
411.045	829.89
411.422	819.95
411.8	814.75
412.178	833.06
412.555	853.62
412.933	836.22
413.31	864.92
413.687	868.76
414.065	909.21
414.442	874.19
414.819	925.48
415.197	923.68
415.574	946.95
415.951	954.64
416.328	943.79
416.705	981.53
417.082	978.36
417.46	981.3
417.837	997.35
418.214	992.6
418.591	999.15
418.967	1021.98
419.344	1036.22
419.721	1028.76
420.098	1026.05
420.475	1063.56
420.852	1076.44
421.228	1088.64
421.605	1104.46
421.982	1111.69
422.358	1125.7
422.735	1111.24
423.111	1146.04
423.488	1155.76
423.864	1154.86
424.241	1179.94
424.617	1200.28
424.994	1192.6
425.37	1204.35
425.746	1224.46
426.123	1231.24
426.499	1269.43
426.875	1271.69
427.251	1296.1
427.627	1317.79
428.003	1306.94
428.379	1334.74
428.756	1360.73
429.132	1376.09
429.507	1388.75
429.883	1391.01
430.259	1431.46
430.635	1455.41
431.011	1466.71
431.387	1477.11
431.763	1523.43
432.138	1523.89
432.514	1544
432.89	1564.56
433.265	1589.42
433.641	1591.46
434.016	1638.23
434.392	1610.21
434.767	1656.09
435.143	1686.14
435.518	1705.58
435.894	1707.61
436.269	1752.36
436.644	1779.25
437.02	1793.94
437.395	1771.34
437.77	1817.21
438.145	1830.09
438.52	1842.52
438.895	1849.3
439.271	1860.6
439.646	1920.03
440.021	1928.85
440.395	1938.79
440.77	1913.25
441.145	1950.77
441.52	1987.83
441.895	1973.82
442.27	2024.44
442.645	2052.46
443.019	2072.35
443.394	2049.3
443.769	2058.79
444.143	2047.49
444.518	2143.53
444.892	2101.72
445.267	2140.59
445.641	2126.58
446.016	2161.84
446.39	2182.17
446.764	2181.95
447.139	2190.31
447.513	2256.07
447.887	2239.35
448.262	2257.65
448.636	2285.67
449.01	2316.41
449.384	2336.52
449.758	2337.42
450.132	2347.14
450.506	2390.98
450.88	2404.54
451.254	2421.26
451.628	2403.64
452.002	2469.62
452.376	2497.65
452.75	2497.42
453.123	2535.61
453.497	2589.4
453.871	2576.06
454.244	2625.1
454.618	2657.19
454.992	2724.31
455.365	2683.4
455.739	2783.06
456.112	2803.63
456.486	2796.85
456.859	2830.97
457.232	2911.87
457.606	2874.81
457.979	2920.46
458.352	2979.44
458.725	2977.86
459.099	3055.6
459.472	3081.59
459.845	3132.21
460.218	3167.91
460.591	3193.67
460.964	3189.83
461.337	3303.5
461.71	3277.29
462.083	3338.3
462.456	3369.49
462.829	3409.71
463.201	3475.7
463.574	3477.06
463.947	3531.52
464.32	3590.72
464.692	3634.79
465.065	3648.35
465.438	3710.04
465.81	3752.53
466.183	3755.01
466.555	3866.42
466.928	3915.91
467.3	3873.43
467.672	3968.34
468.045	4048.57
468.417	4058.51
468.789	4087.21
469.161	4124.5
469.534	4187.09
469.906	4290.14
470.278	4327.88
470.65	4392.29
471.022	4453.75
471.394	4565.84
471.766	4565.39
472.138	4657.36
472.51	4697.59
472.882	4796.34
473.253	4860.75
473.625	4953.17
473.997	5019.84
474.369	5056.22
474.74	5065.71
475.112	5207.41
475.484	5262.77
475.855	5367.85
476.227	5408.98
476.598	5550
476.97	5577.79
477.341	5733.72
477.713	5794.96
478.084	5874.28
478.455	6018.91
478.827	6023.88
479.198	6225.01
479.569	6244.67
479.94	6344.32
480.311	6459.8
480.682	6619.35
481.053	6767.82
481.424	6876.74
481.795	6921.26
482.166	7055.49
482.537	7116.51
482.908	7212.55
483.279	7325.54
483.65	7496.84
484.021	7621.35
484.391	7719.2
484.762	7794
485.133	7861.35
485.503	8028.57
485.874	8187.89
486.244	8278.74
486.615	8367.32
486.985	8482.8
487.356	8614.1
487.726	8717.82
488.097	8923.69
488.467	8940.64
488.837	9134.31
489.207	9233.74
489.578	9404.36
489.948	9460.63
490.318	9590.12
490.688	9666.95
491.058	9840.5
491.428	9875.76
491.798	10001.86
492.168	10235.07
492.538	10292.7
492.908	10380.6
493.278	10560.26
493.648	10602.52
494.017	10674.38
494.387	10777.43
494.757	10845.22
495.126	11027.37
495.496	11048.83
495.866	11147.14
496.235	11279.11
496.605	11384.87
496.974	11424.19
497.344	11473.68
497.713	11649.5
498.082	11707.8
498.452	11887.46
498.821	11961.35
499.19	11939.43
499.559	12091.07
499.928	12215.36
500.298	12214.45
500.667	12427.1
501.036	12401.11
501.405	12441.11
501.774	12518.4
502.143	12635.23
502.512	12744.83
502.88	12928.11
503.249	12863.02
503.618	13055.33
503.987	13101.66
504.356	13080.42
504.724	13237.93
505.093	13324.93
505.462	13383.46
505.83	13522.67
506.199	13604.47
506.567	13771.7
506.936	13716.33
507.304	13971.47
507.672	14111.13
508.041	14089.21
508.409	14189.77
508.777	14363.32
509.145	14500.49
509.514	14526.93
509.882	14577.78
510.25	14669.98
510.618	14854.84
510.986	14903.42
511.354	15084.89
511.722	15227.25
512.09	15334.82
512.458	15304.54
512.826	15487.59
513.193	15522.39
513.561	15741.82
513.929	15669.28
514.297	15909.5
514.664	16067.91
515.032	16071.3
515.4	16227.91
515.767	16375.25
516.135	16503.61
516.502	16463.38
516.869	16805.07
517.237	16859.3
517.604	16765.29
517.972	17062.91
518.339	17156.24
518.706	17238.73
519.073	17319.63
519.44	17409.8
519.808	17596.01
520.175	17724.14
520.542	17936.34
520.909	18014.53
521.276	18028.54
521.643	18238.48
522.009	18419.94
522.376	18580.16
522.743	18627.17
523.11	18859.93
523.477	19114.38
523.843	19140.82
524.21	19425.34
524.577	19451.78
524.943	19635.27
525.31	19794.82
525.676	19901.48
526.043	20129.05
526.409	20089.05
526.776	20414.24
527.142	20472.77
527.508	20629.15
527.874	20652.42
528.241	20922.92
528.607	20986.65
528.973	21243.82
529.339	21221.9
529.705	21434.78
530.071	21636.58
530.437	21607.88
530.803	21796.12
531.169	21880.41
531.535	21871.6
531.901	22090.58
532.267	22177.58
532.632	22442.21
532.998	22462.32
533.364	22655.08
533.73	22671.58
534.095	22841.74
534.461	22855.08
534.826	23066.37
535.192	23200.6
535.557	23239.7
535.923	23306.14
536.288	23319.7
536.653	23467.04
537.019	23530.54
537.384	23673.36
537.749	23756.97
538.114	23862.51
538.479	23977.31
538.845	24094.59
539.21	24062.5
539.575	24266.79
539.94	24271.76
540.305	24376.62
540.67	24308.82
541.034	24550.63
541.399	24778.87
541.764	24771.18
542.129	24843.05
542.494	25017.96
542.858	24984.51
543.223	25016.83
543.587	25176.37
543.952	25314.45
544.316	25307.67
544.681	25246.88
545.045	25431.96
545.41	25634.44
545.774	25671.05
546.138	25695
546.503	25903.36
546.867	25799.18
547.231	26068.33
547.595	26053.86
547.959	26144.48
548.324	26205.05
548.688	26346.51
549.052	26493.85
549.416	26518.26
549.779	26533.17
550.143	26678.71
550.507	26819.72
550.871	26890.23
551.235	26944.69
551.599	27136.32
551.962	27069.2
552.326	27307.16
552.689	27390.55
553.053	27333.15
553.417	27357.11
553.78	27732.46
554.143	27728.62
554.507	27772.01
554.87	27863.98
555.234	28148.5
555.597	28059.46
555.96	28228.04
556.323	28389.17
556.686	28449.73
557.05	28556.17
557.413	28717.52
557.776	28810.17
558.139	29075.48
558.502	29126.1
558.865	29125.65
559.228	29328.35
559.59	29369.93
559.953	29409.03
560.316	29830.26
560.679	29797.95
561.041	29842.92
561.404	30162.68
561.767	30301.43
562.129	30219.4
562.492	30615.32
562.854	30556.12
563.217	30595.44
563.579	30715.66
563.941	30919.27
564.304	31040.4
564.666	31208.98
565.028	31262.09
565.39	31424.57
565.753	31489.65
566.115	31658.46
566.477	31776.42
566.839	31888.96
567.201	32110.2
567.563	32134.16
567.925	32219.8
568.287	32352.45
568.648	32417.31
569.01	32545.67
569.372	32735.72
569.734	32563.75
570.095	32942.04
570.457	33122.15
570.819	33089.16
571.18	33052.77
571.542	33239.89
571.903	33366.67
572.265	33545.19
572.626	33520.79
572.987	33621.12
573.349	33657.05
573.71	33872.64
574.071	34024.05
574.432	34050.04
574.794	34358.73
575.155	34185.63
575.516	34192.86
575.877	34234.21
576.238	34431.27
576.599	34544.94
576.96	34483.7
577.32	34620.19
577.681	34599.4
578.042	34767.08
578.403	34668.1
578.763	34628.1
579.124	34763.46
579.485	34911.48
579.845	35043.68
580.206	34770.92
580.566	34904.7
580.927	34982.67
581.287	35150.12
581.648	35013.18
582.008	35087.75
582.368	35114.42
582.728	35096.79
583.089	35127.07
583.449	34883.69
583.809	35190.35
584.169	35301.98
584.529	35021.99
584.889	35398.48
585.249	35128.2
585.609	35088.65
585.969	35308.53
586.329	35216.79
586.688	35248.2
587.048	35274.64
587.408	35080.97
587.768	35188.09
588.127	35060.63
588.487	35196.9
588.846	35462.2
589.206	35125.49
589.565	35250.23
589.925	35344.92
590.284	35320.29
590.643	35358.25
591.003	35321.19
591.362	35391.02
591.721	35271.02
592.08	35292.72
592.44	35438.25
592.799	35380.17
593.158	35257.69
593.517	35338.59
593.876	35374.07
594.235	35245.71
594.593	35241.19
594.952	35342.88
595.311	35382.88
595.67	35415.65
596.029	35603.44
596.387	35536.1
596.746	35584.46
597.104	35441.64
597.463	35490.68
597.822	35560.96
598.18	35468.53
598.538	35401.19
598.897	35627.85
599.255	35349.89
599.613	35743.33
599.972	35523.67
600.33	35729.54
600.688	35490.9
601.046	35588.53
601.404	35681.18
601.762	35504.91
602.12	35821.29
602.478	35650.9
602.836	35689.09
603.194	35645.02
603.552	35655.64
603.91	35677.11
604.268	35600.96
604.625	35633.27
604.983	35852.25
605.341	35685.25
605.698	35802.53
606.056	35917.11
606.413	35863.55
606.771	35953.04
607.128	36003.88
607.485	35880.72
607.843	35836.2
608.2	36053.83
608.557	36024.67
608.914	35969.08
609.272	36155.97
609.629	36282.52
609.986	36417.21
610.343	36073.26
610.7	36325.23
611.057	36377.43
611.414	36347.38
611.771	36304.44
612.127	36492.46
612.484	36546.69
612.841	36552.12
613.198	36591.89
613.554	36639.35
613.911	36711.21
614.267	36636.64
614.624	36658.56
614.98	36615.62
615.337	36852.9
615.693	36794.82
616.05	36683.19
616.406	36978.77
616.762	36929.28
617.118	36827.14
617.475	36946.68
617.831	37087.25
618.187	37100.13
618.543	37091.31
618.899	37320.69
619.255	37270.74
619.611	37102.84
619.967	37331.76
620.323	37415.6
620.678	37237.07
621.034	37117.75
621.39	37124.08
621.746	37075.27
622.101	37491.53
622.457	37186.68
622.812	37367.92
623.168	37418.99
623.523	37476.39
623.879	37389.61
624.234	37183.97
624.589	37359.78
624.945	37414.47
625.3	37444.52
625.655	37399.1
626.01	37480.68
626.365	37460.79
626.72	37340.35
627.075	37386.45
627.43	37343.96
627.785	37228.26
628.14	37328.59
628.495	37318.88
628.85	37298.31
629.205	37285.43
629.559	37437.74
629.914	37043.63
630.269	37247.69
630.623	37128.83
630.978	37103.52
631.332	37220.8
631.687	37233
632.041	36995.27
632.396	37145.77
632.75	36950.53
633.104	36993.69
633.459	36745.79
633.813	36712.11
634.167	36882.73
634.521	36770.64
634.875	36802.05
635.229	36737.88
635.583	36451.56
635.937	36468.28
636.291	36489.75
636.645	36539.24
636.999	36390.77
637.352	36587.15
637.706	36304.89
638.06	36510.54
638.413	36307.6
638.767	36198.23
639.121	36296.31
639.474	36082.98
639.828	36054.5
640.181	36108.51
640.534	36154.61
640.888	35926.6
641.241	35871.23
641.594	35986.26
641.947	35931.12
642.301	35782.65
642.654	35774.06
643.007	35839.82
643.36	35636.21
643.713	35598.92
644.066	35699.49
644.419	35513.73
644.771	35292.94
645.124	34954.87
645.477	34854.99
645.83	34580.87
646.182	34480.31
646.535	34410.03
646.888	34640.08
647.24	34259.52
647.593	34410.03
647.945	34322.12
648.298	34261.56
648.65	34389.24
649.002	34115.35
649.355	34097.49
649.707	34157.83
650.059	34230.6
650.411	34579.74
650.763	34658.61
651.115	34968.66
651.467	34953.52
651.819	34811.15
652.171	34717.36
652.523	34709.68
652.875	34804.82
653.227	34642.56
653.578	34746.52
653.93	34819.06
654.282	34544.04
654.633	34403.7
654.985	34587.42
655.337	34572.74
655.688	34569.8
656.039	34608.21
656.391	34264.95
656.742	34378.16
657.094	34411.38
657.445	34513.53
657.796	34443.02
658.147	34308.79
658.498	34357.6
658.849	34230.15
659.2	34164.16
659.551	33992.19
659.902	34170.94
660.253	34099.3
660.604	34098.17
660.955	33818.63
661.306	33985.41
661.656	33998.96
662.007	33819.76
662.358	33737.73
662.708	33870.61
663.059	33793.32
663.409	33572.31
663.76	33707.22
664.11	33762.36
664.461	33801.23
664.811	33647.79
665.161	33637.17
665.511	33463.84
665.862	33410.28
666.212	33582.03
666.562	33493.44
666.912	33285.54
667.262	33157.41
667.612	33121.02
667.962	33270.85
668.312	32958.09
668.662	33072.89
669.011	32943.4
669.361	32753.35
669.711	32668.38
670.06	32558.32
670.41	32532.11
670.76	32394.04
671.109	32539.79
671.459	32413.47
671.808	32385.45
672.157	32391.32
672.507	32089.86
672.856	31986.59
673.205	32031.11
673.554	32211.44
673.904	31963.99
674.253	32171.22
674.602	31959.92
674.951	31446.26
675.3	31210.56
675.649	31789.76
675.998	31825.24
676.346	31800.6
676.695	31874.27
677.044	31495.75
677.393	31731.68
677.741	31684.22
678.09	31660.04
678.438	31485.36
678.787	31627.28
679.135	31533.49
679.484	31369.66
679.832	31556.09
680.181	31257.12
680.529	31374.4
680.877	31401.74
681.225	31332.59
681.573	31459.6
681.922	31248.53
682.27	31273.61
682.618	31283.1
682.966	31358.58
683.314	31417.79
683.661	31299.37
684.009	31220.28
684.357	31167.63
684.705	31291.47
685.053	31288.53
685.4	31149.77
685.748	31116.78
686.095	31207.85
686.443	31176.67
686.79	31046.95
687.138	31158.59
687.485	31186.38
687.832	30965.82
688.18	31181.86
688.527	30977.58
688.874	31131.02
689.221	30972.15
689.568	31001.3
689.915	31063.45
690.262	30868.65
690.609	30892.61
690.956	30824.13
691.303	30840.86
691.65	30687.64
691.997	30633.63
692.344	30596.57
692.69	30592.27
693.037	30735.32
693.383	30386.4
693.73	30607.42
694.077	30432.5
694.423	30418.95
694.769	30366.29
695.116	30330.36
695.462	30303.69
695.808	30238.61
696.155	30223.47
696.501	30104.83
696.847	30138.05
697.193	29948.9
697.539	30064.6
697.885	29884.5
698.231	29789.36
698.577	29836.36
698.923	29872.07
699.269	29689.02
699.614	29493.32
699.96	29459.42
700.306	29420.78
700.651	29352.08
700.997	29297.39
701.342	29298.98
701.688	29156.38
702.033	29009.94
702.379	28991.19
702.724	28944.41
703.069	29016.72
703.415	28835.71
703.76	28541.48
704.105	28637.07
704.45	28517.53
704.795	28432.56
705.14	28448.6
705.485	28331.54
705.83	28219
706.175	28331.09
706.52	28142.4
706.865	28147.59
707.209	28080.25
707.554	28087.48
707.899	28047.48
708.243	27889.75
708.588	27888.39
708.932	27765
709.277	27587.61
709.621	27670.77
709.966	27488.18
710.31	27658.11
710.654	27405.01
710.998	27383.77
711.342	27392.58
711.687	27199.82
712.031	27249.99
712.375	27092.25
712.719	27195.75
713.063	27054.97
713.407	27129.54
713.75	26819.72
714.094	26916.21
714.438	26839.61
714.782	27034.4
715.125	26609.78
715.469	26837.12
715.812	26736.33
716.156	26431.25
716.499	26548.54
716.843	26533.85
717.186	26322.78
717.53	26500.4
717.873	26407.07
718.216	26375.44
718.559	26261.09
718.902	25997.37
719.246	26114.2
719.589	25979.97
719.932	25881.21
720.275	25873.3
720.617	25825.62
720.96	25856.35
721.303	25863.36
721.646	25887.77
721.989	25657.49
722.331	25762.57
722.674	25543.37
723.016	25643.93
723.359	25648
723.701	25640.99
724.044	25415.24
724.386	25344.5
724.729	25446.65
725.071	25393.09
725.413	25375.91
725.755	25319.42
726.097	25257.05
726.439	25168.01
726.782	25042.59
727.124	25212.53
727.465	25162.81
727.807	24963.5
728.149	24942.93
728.491	24921.46
728.833	24989.71
729.175	24851.63
729.516	24875.81
729.858	24695.48
730.199	24879.88
730.541	24732.54
730.882	24622.94
731.224	24825.65
731.565	24457.29
731.906	24596.27
732.248	24545.88
732.589	24344.76
732.93	24376.17
733.271	24293.01
733.612	24382.72
733.953	24417.52
734.294	24238.32
734.635	24278.99
734.976	24297.98
735.317	24096.63
735.658	24016.4
735.999	24047.81
736.339	24021.15
736.68	24007.14
737.021	23996.74
737.361	23811.89
737.702	24029.51
738.042	23809.18
738.383	23833.36
738.723	23852.11
739.063	23766.69
739.404	23766.24
739.744	23643.76
740.084	23665.45
740.424	23615.28
740.764	23535.96
741.104	23678.56
741.444	23519.69
741.784	23428.62
742.124	23460.48
742.464	23412.58
742.804	23450.09
743.143	23280.83
743.483	23274.28
743.823	23163.32
744.162	23257.1
744.502	23222.52
744.841	23130.32
745.181	23213.26
745.52	23041.29
745.86	23021.17
746.199	23081.74
746.538	22983.44
746.877	22964.68
747.216	22900.27
747.556	22862.76
747.895	22870.44
748.234	22829.09
748.573	22718.58
748.911	22708.41
749.25	22712.48
749.589	22625.25
749.928	22637.68
750.267	22628.42
750.605	22615.76
750.944	22384.13
751.283	22243.34
751.621	22471.58
751.96	22257.8
752.298	22185.26
752.636	22206.51
752.975	22143.23
753.313	22038.15
753.651	22107.53
753.989	22028.43
754.327	21939.39
