Data from White_paper_FLMS001491_031.txt Node
Date: Tue Feb 07 10:34:59 GMT 2017
User: dcchb
Spectrometer: FLMS00149
Trigger mode: 0
Integration Time (sec): 2.000000E-2
Scans to average: 10
Electric dark correction enabled: true
Nonlinearity correction enabled: false
Boxcar width: 0
XAxis mode: Wavelengths
Number of Pixels in Spectrum: 2048
>>>>>Begin Spectral Data<<<<<
341.393	2.01
341.776	2.01
342.16	2.01
342.543	-58.11
342.927	-69.18
343.31	-92.23
343.693	-83.42
344.077	-76.18
344.46	-47.94
344.843	-52.91
345.226	-41.84
345.61	-36.64
345.993	-4.77
346.376	-0.25
346.759	2.68
347.142	30.25
347.525	65.28
347.908	55.34
348.291	79.74
348.674	88.56
349.057	114.32
349.44	140.53
349.823	136.01
350.206	154.77
350.588	228.21
350.971	227.54
351.354	245.16
351.737	249.68
352.119	254.2
352.502	283.35
352.884	295.78
353.267	297.37
353.65	336.01
354.032	325.61
354.414	327.65
354.797	323.81
355.179	348.21
355.562	345.73
355.944	360.41
356.326	351.15
356.709	370.13
357.091	364.26
357.473	367.87
357.855	374.2
358.238	373.97
358.62	377.81
359.002	389.79
359.384	379.62
359.766	349.57
360.148	351.6
360.53	379.4
360.912	372.39
361.294	357.25
361.676	366.06
362.057	363.8
362.439	359.06
362.821	373.97
363.203	343.24
363.584	383.46
363.966	343.24
364.348	362.67
364.729	378.72
365.111	360.41
365.493	385.05
365.874	367.19
366.256	361.77
366.637	375.1
367.019	337.82
367.4	370.13
367.781	355.67
368.163	353.86
368.544	368.78
368.925	372.84
369.306	348.44
369.688	375.56
370.069	379.17
370.45	370.36
370.831	346.86
371.212	372.39
371.593	366.97
371.974	383.46
372.355	373.07
372.736	368.55
373.117	389.57
373.498	376.23
373.879	358.38
374.26	358.83
374.641	389.79
375.021	391.6
375.402	380.3
375.783	392.73
376.163	390.24
376.544	391.37
376.925	409.23
377.305	384.82
377.686	383.46
378.066	384.82
378.447	383.01
378.827	404.03
379.208	418.94
379.588	397.02
379.968	412.16
380.349	408.77
380.729	431.15
381.109	405.84
381.489	415.33
381.87	402
382.25	423.92
382.63	429.11
383.01	424.14
383.39	423.46
383.77	428.89
384.15	446.06
384.53	445.38
384.91	441.09
385.29	454.65
385.67	463.01
386.049	459.17
386.429	466.63
386.809	478.38
387.189	461.43
387.568	455.1
387.948	502.33
388.328	469.34
388.707	476.8
389.087	504.82
389.466	493.74
389.846	500.3
390.225	507.98
390.605	505.5
390.984	509.79
391.363	505.5
391.743	492.84
392.122	526.06
392.501	532.39
392.881	545.49
393.26	546.62
393.639	557.47
394.018	562.44
394.397	541.2
394.776	558.15
395.155	572.39
395.534	561.09
395.913	595.21
396.292	575.1
396.671	572.16
397.05	580.97
397.429	593.85
397.808	590.01
398.186	598.15
398.565	633.85
398.944	618.49
399.323	640.63
399.701	628.2
400.08	647.41
400.458	659.16
400.837	655.77
401.215	658.03
401.594	672.04
401.972	675.21
402.351	674.3
402.729	712.04
403.107	716.34
403.486	739.16
403.864	735.55
404.242	756.34
404.62	758.6
404.999	767.86
405.377	785.94
405.755	798.59
406.133	823
406.511	843.11
406.889	874.07
407.267	850.34
407.645	890.57
408.023	912.49
408.401	918.59
408.779	952.04
409.156	955.65
409.534	988.42
409.912	986.16
410.29	1024.8
410.667	1036.1
411.045	1080.62
411.422	1115.65
411.8	1126.72
412.178	1155.87
412.555	1205.82
412.933	1222.76
413.31	1262.76
413.687	1273.16
414.065	1287.62
414.442	1339.82
414.819	1349.54
415.197	1400.84
415.574	1431.35
415.951	1443.78
416.328	1461.85
416.705	1474.51
417.082	1478.58
417.46	1530.33
417.837	1549.31
418.214	1567.84
418.591	1610.55
418.967	1630.21
419.344	1661.17
419.721	1697.33
420.098	1708.85
420.475	1755.41
420.852	1784.33
421.228	1751.79
421.605	1828.62
421.982	1827.04
422.358	1879.7
422.735	1895.52
423.111	1886.25
423.488	1949.75
423.864	1960.15
424.241	1959.69
424.617	2026.36
424.994	2018.9
425.37	2082.4
425.746	2090.76
426.123	2113.81
426.499	2135.96
426.875	2177.99
427.251	2230.65
427.627	2263.42
428.003	2275.84
428.379	2305.22
428.756	2342.96
429.132	2384.09
429.507	2424.54
429.883	2441.26
430.259	2474.03
430.635	2522.62
431.011	2555.16
431.387	2620.69
431.763	2639.22
432.138	2700.24
432.514	2716.28
432.89	2746.57
433.265	2812.33
433.641	2846.45
434.016	2855.49
434.392	2903.62
434.767	3000.57
435.143	2971.87
435.518	2993.34
435.894	3063.62
436.269	3098.2
436.644	3160.79
437.02	3218.19
437.395	3201.7
437.77	3218.64
438.145	3307.91
438.52	3327.57
438.895	3380.9
439.271	3386.78
439.646	3478.3
440.021	3468.13
440.395	3516.04
440.77	3445.3
441.145	3543.38
441.52	3602.81
441.895	3588.8
442.27	3622.7
442.645	3625.41
443.019	3661.57
443.394	3705.19
443.769	3721
444.143	3723.72
444.518	3765.3
444.892	3738.18
445.267	3790.38
445.641	3850.94
446.016	3887.1
446.39	3897.27
446.764	3922.58
447.139	3926.42
447.513	3978.62
447.887	4007.1
448.262	4028.57
448.636	4044.39
449.01	4142.01
449.384	4070.37
449.758	4200.77
450.132	4185.17
450.506	4200.99
450.88	4245.06
451.254	4243.25
451.628	4279.63
452.002	4354.66
452.376	4340.65
452.75	4422.68
453.123	4452.51
453.497	4523.69
453.871	4544.03
454.244	4641.21
454.618	4708.1
454.992	4764.14
455.365	4748.1
455.739	4845.72
456.112	4932.5
456.486	4934.76
456.859	4974.3
457.232	5099.5
457.606	5120.29
457.979	5163.9
458.352	5253.62
458.725	5299.49
459.099	5387.17
459.472	5433.05
459.845	5512.82
460.218	5541.52
460.591	5608.41
460.964	5654.06
461.337	5753.49
461.71	5835.52
462.083	5940.61
462.456	5929.31
462.829	5967.5
463.201	6088.63
463.574	6160.26
463.947	6242.07
464.32	6293.59
464.692	6398.67
465.065	6484.32
465.438	6534.49
465.81	6555.28
466.183	6697.65
466.555	6813.13
466.928	6869.4
467.3	6903.07
467.672	7001.14
468.045	7145.32
468.417	7192.1
468.789	7216.28
469.161	7358.87
469.534	7480.23
469.906	7665.76
470.278	7668.7
470.65	7748.24
471.022	7951.18
471.394	8115.46
471.766	8205.18
472.138	8235.24
472.51	8448.56
472.882	8550.71
473.253	8637.26
473.625	8847.42
473.997	8965.16
474.369	9023.24
474.74	9089
475.112	9220.29
475.484	9498.93
475.855	9576.44
476.227	9659.38
476.598	9951.8
476.97	9930.78
477.341	10229.76
477.713	10427.27
478.084	10423.65
478.455	10794.26
478.827	10834.72
479.198	11171.66
479.569	11184.76
479.94	11435.83
480.311	11595.6
480.682	11867.46
481.053	12133.44
481.424	12293.43
481.795	12352.64
482.166	12596.48
482.537	12745.17
482.908	13036.01
483.279	13173.41
483.65	13335.67
484.021	13606.85
484.391	13724.81
484.762	13853.84
485.133	14024.69
485.503	14151.24
485.874	14582.41
486.244	14658.57
486.615	14975.17
486.985	15093.36
487.356	15414.93
487.726	15522.95
488.097	15833.91
488.467	15853.79
488.837	16238.19
489.207	16333.1
489.578	16542.14
489.948	16826.2
490.318	16954.1
490.688	17049.01
491.058	17362.45
491.428	17558.38
491.798	17661.43
492.168	18048.08
492.538	18069.33
492.908	18341.64
493.278	18480.84
493.648	18549.54
494.017	18736.43
494.387	18809.87
494.757	19103.88
495.126	19266.81
495.496	19340.03
495.866	19496.63
496.235	19740.92
496.605	19905.21
496.974	19933.01
497.344	20147.24
497.713	20294.81
498.082	20459.77
498.452	20749.03
498.821	20703.61
499.19	20849.14
499.559	21073.99
499.928	21093.43
500.298	21343.82
500.667	21466.07
501.036	21480.76
501.405	21714.66
501.774	21697.93
502.143	22025.61
502.512	22030.8
502.88	22229.44
503.249	22305.83
503.618	22457.01
503.987	22585.37
504.356	22617
504.724	22766.38
505.093	22966.15
505.462	23073.94
505.83	23249.3
506.199	23456.98
506.567	23682.51
506.936	23701.5
507.304	23980.36
507.672	24108.49
508.041	24262.84
508.409	24278.66
508.777	24553.9
509.145	24762.94
509.514	24774.46
509.882	24919.32
510.25	24979.2
510.618	25231.4
510.986	25181.91
511.354	25590.49
511.722	25734.21
512.09	26020.53
512.458	25997.48
512.826	26176.91
513.193	26352.73
513.561	26466.39
513.929	26694.41
514.297	27017.34
514.664	27084.01
515.032	27202.42
515.4	27329.2
515.767	27480.38
516.135	27784.33
516.502	27539.36
516.869	27996.98
517.237	28137.99
517.604	28197.87
517.972	28466.57
518.339	28642.38
518.706	28690.97
519.073	28989.72
519.44	29018.42
519.808	29281.91
520.175	29431.06
520.542	29799.87
520.909	29963.48
521.276	29929.35
521.643	30262.23
522.009	30396.23
522.376	30614.76
522.743	30830.35
523.11	31157.8
523.477	31362.99
523.843	31617.9
524.21	32072.8
524.577	32073.93
524.943	32341.49
525.31	32441.15
525.676	32687.25
526.043	32841.82
526.409	32985.09
526.776	33287.01
527.142	33452.65
527.508	33564.06
527.874	33972.41
528.241	33957.95
528.607	34221.67
528.973	34430.93
529.339	34490.82
529.705	34852.61
530.071	35139.84
530.437	35307.07
530.803	35532.37
531.169	35757.9
531.535	35708.86
531.901	35924
532.267	36081.28
532.632	36229.75
532.998	36416.87
533.364	36644.21
533.73	36617.99
534.095	37037.42
534.461	37124.42
534.826	37267.47
535.192	37407.35
535.557	37608.7
535.923	37633.78
536.288	37759.66
536.653	38036.71
537.019	38037.39
537.384	38083.26
537.749	38399.64
538.114	38583.36
538.479	38735.9
538.845	38765.28
539.21	38771.83
539.575	38907.65
539.94	39123.01
540.305	39339.5
540.67	39457.92
541.034	39613.85
541.399	39708.76
541.764	39879.38
542.129	39981.52
542.494	40094.28
542.858	40152.36
543.223	40289.08
543.587	40514.16
543.952	40481.62
544.316	40756.87
544.681	40649.98
545.045	41143.07
545.41	41208.61
545.774	41205.89
546.138	41289.06
546.503	41431.88
546.867	41337.87
547.231	41784.86
547.595	41946.21
547.959	42106.44
548.324	42099.43
548.688	42218.07
549.052	42225.53
549.416	42422.59
549.779	42619.87
550.143	42729.7
550.507	42947.77
550.871	43045.85
551.235	43086.3
551.599	43461.2
551.962	43416.68
552.326	43705.72
552.689	43869.1
553.053	43846.95
553.417	43808.09
553.78	44213.27
554.143	44059.6
554.507	44333.04
554.87	44467.28
555.234	44864.55
555.597	44705.01
555.96	44801.05
556.323	45125.79
556.686	45063.65
557.05	45364.2
557.413	45525.78
557.776	45575.04
558.139	45975.26
558.502	45830.41
558.865	46078.76
559.228	46328.02
559.59	46444.63
559.953	46426.32
560.316	46938.85
560.679	46915.35
561.041	47161.9
561.404	47223.59
561.767	47484.37
562.129	47263.81
562.492	47860.41
562.854	47687.53
563.217	47902.22
563.579	47974.08
563.941	48282.54
564.304	48482.54
564.666	48579.03
565.028	48674.62
565.39	48849.99
565.753	49049.08
566.115	49116.65
566.477	49324.55
566.839	49400.71
567.201	49656.07
567.563	49628.27
567.925	49979.45
568.287	50009.5
568.648	49995.95
569.01	50383.28
569.372	50510.51
569.734	50388.03
570.095	50690.62
570.457	50848.13
570.819	50969.48
571.18	50823.04
571.542	51099.19
571.903	51109.14
572.265	51342.58
572.626	51372.18
572.987	51525.85
573.349	51653.98
573.71	51663.02
574.071	51813.98
574.432	51926.97
574.794	52155.21
575.155	52123.8
575.516	52120.86
575.877	52250.35
576.238	52292.16
576.599	52424.81
576.96	52464.58
577.32	52505.26
577.681	52686.04
578.042	52702.99
578.403	52760.39
578.763	52761.52
579.124	52886.04
579.485	53032.7
579.845	53083.1
580.206	52990.67
580.566	53038.8
580.927	53131
581.287	53243.54
581.648	53129.87
582.008	53357.21
582.368	53266.14
582.728	53345.69
583.089	53278.12
583.449	53369.64
583.809	53339.59
584.169	53441.28
584.529	53464.33
584.889	53669.75
585.249	53399.25
585.609	53436.08
585.969	53633.82
586.329	53475.18
586.688	53621.84
587.048	53614.61
587.408	53528.96
587.768	53602.18
588.127	53685.79
588.487	53588.62
588.846	53836.52
589.206	53608.96
589.565	53686.24
589.925	53749.07
590.284	53686.47
590.643	53740.93
591.003	53917.88
591.362	53917.88
591.721	53894.6
592.08	53946.8
592.44	54002.62
592.799	53947.93
593.158	53933.24
593.517	54023.41
593.876	53980.47
594.235	53940.47
594.593	54072
594.952	54135.95
595.311	53973.92
595.67	54105.67
596.029	54285.1
596.387	54262.27
596.746	54290.52
597.104	54195.38
597.463	54175.5
597.822	54365.55
598.18	54179.79
598.538	54223.86
598.897	54399.9
599.255	54233.8
599.613	54616.61
599.972	54382.5
600.33	54488.93
600.688	54287.58
601.046	54472.89
601.404	54512.66
601.762	54497.3
602.12	54647.8
602.478	54673.34
602.836	54666.78
603.194	54562.83
603.552	54574.81
603.91	54523.51
604.268	54593.11
604.625	54558.76
604.983	54719.44
605.341	54633.34
605.698	54793.79
606.056	54791.75
606.413	54740.45
606.771	54918.08
607.128	54868.59
607.485	54721.02
607.843	54886.21
608.2	54970.28
608.557	54974.12
608.914	54901.81
609.272	55050.28
609.629	55106.55
609.986	55182.48
610.343	54994.68
610.7	55255.69
611.057	55163.49
611.414	55178.86
611.771	55190.61
612.127	55366.43
612.484	55310.16
612.841	55429.02
613.198	55327.56
613.554	55342.92
613.911	55485.29
614.267	55417.95
614.624	55373.66
614.98	55427.44
615.337	55516.48
615.693	55484.61
616.05	55509.7
616.406	55604.61
616.762	55522.13
617.118	55523.71
617.475	55509.25
617.831	55609.13
618.187	55634.89
618.543	55644.38
618.899	55816.13
619.255	55637.38
619.611	55679.64
619.967	55742.46
620.323	55798.28
620.678	55745.85
621.034	55739.75
621.39	55714.21
621.746	55695.23
622.101	56010.48
622.457	55782.69
622.812	55809.8
623.168	55856.36
623.523	55750.82
623.879	55897.94
624.234	55711.28
624.589	55866.3
624.945	55882.12
625.3	55846.41
625.655	55913.08
626.01	55879.86
626.365	55934.55
626.72	55903.36
627.075	55843.93
627.43	55855.45
627.785	55806.19
628.14	55890.25
628.495	55916.69
628.85	55911.95
629.205	55784.49
629.559	56055.22
629.914	55840.09
630.269	55885.06
630.623	55824.94
630.978	55729.35
631.332	55848.45
631.687	55926.86
632.041	55828.79
632.396	55811.84
632.75	55695.91
633.104	55738.39
633.459	55684.84
633.813	55689.13
634.167	55615.91
634.521	55610.71
634.875	55644.61
635.229	55640.32
635.583	55551.28
635.937	55539.3
636.291	55547.89
636.645	55558.06
636.999	55524.61
637.352	55591.28
637.706	55402.58
638.06	55455.24
638.413	55475.58
638.767	55394.9
639.121	55483.94
639.474	55258.18
639.828	55316.26
640.181	55398.52
640.534	55391.74
640.888	55312.64
641.241	55192.87
641.594	55314.9
641.947	55393.54
642.301	55285.07
642.654	55251.4
643.007	55290.04
643.36	55178.18
643.713	55150.84
644.066	55271.29
644.419	55099.77
644.771	54839.66
645.124	54586.33
645.477	54628.37
645.83	54447.35
646.182	54330.97
646.535	54355.38
646.888	54362.84
647.24	54243.29
647.593	54429.5
647.945	54257.75
648.298	54201.03
648.65	54147.93
649.002	54120.81
649.355	54162.84
649.707	54156.06
650.059	54284.87
650.411	54625.88
650.763	54630.17
651.115	54976.15
651.467	54883.5
651.819	54826.1
652.171	54785.42
652.523	54707.23
652.875	54784.97
653.227	54607.12
653.578	54748.59
653.93	54725.54
654.282	54598.54
654.633	54546.11
654.985	54614.81
655.337	54696.16
655.688	54612.77
656.039	54743.84
656.391	54494.13
656.742	54512.21
657.094	54505.66
657.445	54551.08
657.796	54544.75
658.147	54466.34
658.498	54513.11
658.849	54530.06
659.2	54467.01
659.551	54451.42
659.902	54479.22
660.253	54439.44
660.604	54550.18
660.955	54434.7
661.306	54468.14
661.656	54433.79
662.007	54408.71
662.358	54364.42
662.708	54310.18
663.059	54336.4
663.409	54182.95
663.76	54550.85
664.11	54398.32
664.461	54421.14
664.811	54347.24
665.161	54315.15
665.511	54187.25
665.862	54216.17
666.212	54342.27
666.562	54322.61
666.912	54316.74
667.262	54158.55
667.612	54189.28
667.962	54221.14
668.312	54172.56
668.662	54256.62
669.011	54162.62
669.361	54108.83
669.711	54082.62
670.06	54079.45
670.41	54089.4
670.76	53979.34
671.109	54112.45
671.459	54027.93
671.808	53989.29
672.157	54053.92
672.507	53856.63
672.856	53854.15
673.205	53820.48
673.554	54033.13
673.904	53871.78
674.253	53931.66
674.602	53857.09
674.951	53400.6
675.3	53274.73
675.649	53721.05
675.998	53709.52
676.346	53682.85
676.695	53754.04
677.044	53556.3
677.393	53650.31
677.741	53655.28
678.09	53517.43
678.438	53420.49
678.787	53544.55
679.135	53563.54
679.484	53290.55
679.832	53414.61
680.181	53141.85
680.529	53280.15
680.877	53244.22
681.225	53167.39
681.573	53293.71
681.922	53008.07
682.27	53089.2
682.618	52982.99
682.966	52923.33
683.314	53003.1
683.661	52824.8
684.009	52712.48
684.357	52668.19
684.705	52667.74
685.053	52674.07
685.4	52535.99
685.748	52403.34
686.095	52398.14
686.443	52333.74
686.79	52171.03
687.138	52250.8
687.485	52225.94
687.832	52119.51
688.18	52102.33
688.527	51847.42
688.874	51894.2
689.221	51785.05
689.568	51615.34
689.915	51657.14
690.262	51656.01
690.609	51449.01
690.956	51413.76
691.303	51334.44
691.65	51227.55
691.997	51161.79
692.344	50951.4
692.69	50961.57
693.037	50884.06
693.383	50688.13
693.73	50753.44
694.077	50602.48
694.423	50606.32
694.769	50407.91
695.116	50393.22
695.462	50293.56
695.808	50181.7
696.155	50239.55
696.501	50033.01
696.847	49920.24
697.193	49690.42
697.539	49933.12
697.885	49526.35
698.231	49523.87
698.577	49463.98
698.923	49433.25
699.269	49248.17
699.614	49050.43
699.96	48895.41
700.306	48922.08
700.651	48779.25
700.997	48630.56
701.342	48688.86
701.688	48658.35
702.033	48474.86
702.379	48530.22
702.724	48304.01
703.069	48349.66
703.415	47930.91
703.76	47998.94
704.105	47908.32
704.45	47824.25
704.795	47512.62
705.14	47535.22
705.485	47569.34
705.83	47272.4
706.175	47506.29
706.52	47178.62
706.865	47109.02
707.209	47031.73
707.554	46941.79
707.899	46978.62
708.243	46814.79
708.588	46681.46
708.932	46488.01
709.277	46510.84
709.621	46423.16
709.966	46238.98
710.31	46352.88
710.654	46134.13
710.998	46121.92
711.342	46013.45
711.687	45983.4
712.031	45799.67
712.375	45635.61
712.719	45550.41
713.063	45633.35
713.407	45743.85
713.75	45505.89
714.094	45410.3
714.438	45179.35
714.782	45328.72
715.125	45072.91
715.469	45188.84
715.812	45033.14
716.156	44771.9
716.499	44812.35
716.843	44804.22
717.186	44502.76
717.53	44752.92
717.873	44743.65
718.216	44619.82
718.559	44244.91
718.902	44084.46
719.246	44219.83
719.589	44085.37
719.932	43870.68
720.275	43989.55
720.617	43891.47
720.96	43842.89
721.303	43788.2
721.646	43856.9
721.989	43523.57
722.331	43742.32
722.674	43535.55
723.016	43540.75
723.359	43472.95
723.701	43541.2
724.044	43118.61
724.386	42941.67
724.729	43305.5
725.071	43113.87
725.413	43068.9
725.755	43014.66
726.097	42836.13
726.439	42608.12
726.782	42712.75
727.124	42857.38
727.465	42590.26
727.807	42540.77
728.149	42533.77
728.491	42336.49
728.833	42440.89
729.175	42166.09
729.516	42129.49
729.858	42052.65
730.199	42079.54
730.541	42124.74
730.882	41922.26
731.224	42094.23
731.565	41842.26
731.906	41865.54
732.248	41880
732.589	41691.08
732.93	41550.52
733.271	41682.49
733.612	41636.84
733.953	41591.65
734.294	41552.1
734.635	41342.39
734.976	41419
735.317	41240.47
735.658	41148.95
735.999	41102.62
736.339	41109.63
736.68	41157.31
737.021	40967.26
737.361	40795.96
737.702	40929.07
738.042	40929.52
738.383	40823.31
738.723	40847.71
739.063	40670.77
739.404	40718
739.744	40594.84
740.084	40417.44
740.424	40574.95
740.764	40278.01
741.104	40616.08
741.444	40265.35
741.784	40242.08
742.124	40266.03
742.464	40183.1
742.804	40134.96
743.143	40023.1
743.483	40090.44
743.823	39815.42
744.162	39896.32
744.502	39880.96
744.841	39790.79
745.181	40029.88
745.52	39755.76
745.86	39890.9
746.199	39678.7
746.538	39554.64
746.877	39629.44
747.216	39525.71
747.556	39386.51
747.895	39443
748.234	39314.42
748.573	39151.03
748.911	39202.78
749.25	39118.04
749.589	39215.66
749.928	38995.78
750.267	38995.33
750.605	39018.61
750.944	38949.68
751.283	38769.8
751.621	38751.95
751.96	38456.81
752.298	38602.35
752.636	38640.76
752.975	38486.42
753.313	38284.61
