Data from white_steel_sheet_FLMS001491_005.txt Node
Date: Tue Feb 07 10:57:18 GMT 2017
User: dcchb
Spectrometer: FLMS00149
Trigger mode: 0
Integration Time (sec): 2.000000E-2
Scans to average: 10
Electric dark correction enabled: true
Nonlinearity correction enabled: false
Boxcar width: 0
XAxis mode: Wavelengths
Number of Pixels in Spectrum: 2048
>>>>>Begin Spectral Data<<<<<
341.393	-16.48
341.776	-16.48
342.16	-16.48
342.543	-53.32
342.927	-79.53
343.31	-53.77
343.693	-55.58
344.077	-75.46
344.46	-55.8
344.843	-61
345.226	-24.84
345.61	-21.45
345.993	-21.68
346.376	-0.21
346.759	-2.92
347.142	19.22
347.525	38.66
347.908	54.48
348.291	54.25
348.674	104.64
349.057	101.48
349.44	121.82
349.823	143.74
350.206	167.24
350.588	203.4
350.971	201.82
351.354	225.32
351.737	251.08
352.119	256.28
352.502	259.44
352.884	262.38
353.267	272.55
353.65	297.41
354.032	310.06
354.414	305.54
354.797	318.42
355.179	324.07
355.562	318.88
355.944	341.7
356.326	337.18
356.709	344.19
357.091	358.87
357.473	347.58
357.855	355.03
358.238	351.42
358.62	352.77
359.002	345.54
359.384	345.09
359.766	353.23
360.148	358.2
360.53	342.38
360.912	334.69
361.294	320.46
361.676	344.41
362.057	347.12
362.439	328.37
362.821	345.32
363.203	333.34
363.584	351.64
363.966	323.4
364.348	327.92
364.729	328.59
365.111	324.53
365.493	322.72
365.874	333.56
366.256	330.4
366.637	343.28
367.019	320.23
367.4	317.75
367.781	298.31
368.163	308.25
368.544	331.76
368.925	321.36
369.306	317.29
369.688	307.58
370.069	328.37
370.45	328.37
370.831	327.46
371.212	316.39
371.593	321.14
371.974	321.14
372.355	324.75
372.736	323.17
373.117	326.33
373.498	332.43
373.879	331.53
374.26	323.17
374.641	318.65
375.021	327.01
375.402	329.72
375.783	334.02
376.163	359.1
376.544	350.51
376.925	334.02
377.305	344.86
377.686	349.38
378.066	337.41
378.447	344.64
378.827	336.5
379.208	352.1
379.588	361.36
379.968	343.96
380.349	365.2
380.729	355.03
381.109	349.16
381.489	371.3
381.87	378.76
382.25	361.81
382.63	367.01
383.01	352.77
383.39	370.17
383.77	373.11
384.15	372.43
384.53	368.82
384.91	395.03
385.29	376.05
385.67	387.12
386.049	385.77
386.429	381.25
386.809	398.87
387.189	394.81
387.568	393.45
387.948	388.25
388.328	386.67
388.707	403.17
389.087	398.2
389.466	400.68
389.846	398.42
390.225	411.98
390.605	431.19
390.984	414.69
391.363	435.48
391.743	422.83
392.122	449.04
392.501	459.89
392.881	442.49
393.26	451.3
393.639	451.08
394.018	458.99
394.397	466.22
394.776	477.06
395.155	449.27
395.534	480
395.913	470.96
396.292	488.36
396.671	484.97
397.05	500.11
397.429	491.3
397.808	510.28
398.186	502.37
398.565	499.21
398.944	500.11
399.323	528.36
399.701	530.17
400.08	562.94
400.458	530.62
400.837	533.33
401.215	564.75
401.594	578.08
401.972	593.22
402.351	574.24
402.729	608.81
403.107	594.57
403.486	611.75
403.864	628.47
404.242	619.43
404.62	651.52
404.999	640.9
405.377	672.76
405.755	661.47
406.133	678.41
406.511	692.88
406.889	699.88
407.267	703.5
407.645	717.96
408.023	718.87
408.401	729.94
408.779	752.99
409.156	763.84
409.534	767.45
409.912	798.64
410.29	811.07
410.667	827.11
411.045	791.41
411.422	830.73
411.8	829.82
412.178	858.52
412.555	869.14
412.933	903.04
413.31	887.9
413.687	912.53
414.065	915.24
414.442	923.83
414.819	933.1
415.197	954.11
415.574	968.8
415.951	975.13
416.328	989.82
416.705	983.72
417.082	990.04
417.46	1008.58
417.837	1034.56
418.214	1039.08
418.591	1047.44
418.967	1051.29
419.344	1063.04
419.721	1083.15
420.098	1086.54
420.475	1075.92
420.852	1117.27
421.228	1120.89
421.605	1114.11
421.982	1152.53
422.358	1171.51
422.735	1187.1
423.111	1136.48
423.488	1183.26
423.864	1192.53
424.241	1209.93
424.617	1249.25
424.994	1242.92
425.37	1243.37
425.746	1285.63
426.123	1263.03
426.499	1271.17
426.875	1316.59
427.251	1311.17
427.627	1363.14
428.003	1352.75
428.379	1394.78
428.756	1413.54
429.132	1437.49
429.507	1411.05
429.883	1442.01
430.259	1473.87
430.635	1492.4
431.011	1499.41
431.387	1548.67
431.763	1567.88
432.138	1558.39
432.514	1594.32
432.89	1590.48
433.265	1650.82
433.641	1637.94
434.016	1665.28
434.392	1695.56
434.767	1710.93
435.143	1711.38
435.518	1742.57
435.894	1785.5
436.269	1813.3
436.644	1857.14
437.02	1830.25
437.395	1834.32
437.77	1868.89
438.145	1893.3
438.52	1906.18
438.895	1934.43
439.271	1950.7
439.646	1998.83
440.021	2009.45
440.395	2019.62
440.77	1994.54
441.145	2054.65
441.52	2063.91
441.895	2071.15
442.27	2130.81
442.645	2106.17
443.019	2120.86
443.394	2129.68
443.769	2126.96
444.143	2149.11
444.518	2186.85
444.892	2194.53
445.267	2201.99
445.641	2216.23
446.016	2216.45
446.39	2269.56
446.764	2308.2
447.139	2292.84
447.513	2289.22
447.887	2320.41
448.262	2327.18
448.636	2400.18
449.01	2398.82
449.384	2383.68
449.758	2444.7
450.132	2491.47
450.506	2450.8
450.88	2499.61
451.254	2459.61
451.628	2568.76
452.002	2559.49
452.376	2604.47
452.75	2617.12
453.123	2630.23
453.497	2654.86
453.871	2656.67
454.244	2740.96
454.618	2797.45
454.992	2804.69
455.365	2833.39
455.739	2896.89
456.112	2907.51
456.486	2951.8
456.859	2971.01
457.232	3009.88
457.606	3006.49
457.979	3027.51
458.352	3128.97
458.725	3144.11
459.099	3173.94
459.472	3222.75
459.845	3220.27
460.218	3291
460.591	3323.09
460.964	3323.32
461.337	3415.74
461.71	3456.42
462.083	3499.81
462.456	3515.85
462.829	3514.27
463.201	3629.07
463.574	3589.3
463.947	3684.44
464.32	3744.32
464.692	3750.42
465.065	3789.29
465.438	3820.7
465.81	3950.19
466.183	3948.38
466.555	4012.79
466.928	4036.29
467.3	4075.84
467.672	4139.79
468.045	4232.45
468.417	4287.36
468.789	4272.9
469.161	4349.28
469.534	4383.63
469.906	4502.95
470.278	4557.86
470.65	4547.92
471.022	4648.93
471.394	4773.67
471.766	4769.83
472.138	4871.52
472.51	4907.46
472.882	4952.43
473.253	5052.99
473.625	5097.28
473.997	5219.76
474.369	5273.1
474.74	5346.77
475.112	5438.74
475.484	5533.88
475.855	5630.15
476.227	5653.2
476.598	5772.07
476.97	5873.08
477.341	6013.64
477.713	6087.09
478.084	6137.25
478.455	6322.79
478.827	6267.65
479.198	6530.92
479.569	6536.11
479.94	6751.93
480.311	6781.53
480.682	6934.52
481.053	7072.82
481.424	7206.38
481.795	7256.77
482.166	7429.2
482.537	7489.53
482.908	7710.55
483.279	7760.49
483.65	7862.86
484.021	8012.46
484.391	8093.13
484.762	8195.96
485.133	8270.31
485.503	8377.42
485.874	8617.64
486.244	8633.23
486.615	8817.41
486.985	8927.46
487.356	9075.93
487.726	9131.98
488.097	9337.85
488.467	9303.5
488.837	9567.45
489.207	9620.1
489.578	9875.46
489.948	9872.75
490.318	10047.89
490.688	10070.94
491.058	10243.36
491.428	10387.09
491.798	10502.34
492.168	10734.2
492.538	10785.27
492.908	10836.79
493.278	11051.25
493.648	11072.27
494.017	11173.51
494.387	11290.11
494.757	11423.22
495.126	11528.52
495.496	11660.95
495.866	11740.72
496.235	11802.64
496.605	12002.18
496.974	12028.4
497.344	12210.54
497.713	12251.22
498.082	12274.72
498.452	12457.77
498.821	12516.52
499.19	12622.51
499.559	12730.3
499.928	12828.83
500.298	12863.86
500.667	13022.5
501.036	13009.39
501.405	13214.36
501.774	13228.59
502.143	13280.57
502.512	13438.53
502.88	13558.75
503.249	13561.01
503.618	13629.26
503.987	13718.75
504.356	13871.06
504.724	13898.41
505.093	14138.63
505.462	14174.78
505.83	14264.95
506.199	14296.14
506.567	14511.72
506.936	14586.75
507.304	14727.54
507.672	14757.14
508.041	14812.73
508.409	15063.57
508.777	15086.4
509.145	15221.99
509.514	15316.9
509.882	15432.38
510.25	15461.75
510.618	15544.01
510.986	15603.45
511.354	15819.94
511.722	15980.61
512.09	16122.08
512.458	16133.83
512.826	16313.48
513.193	16417.66
513.561	16477.77
513.929	16639.58
514.297	16798.44
514.664	16952.56
515.032	17055.84
515.4	17068.27
515.767	17261.93
516.135	17380.8
516.502	17266.23
516.869	17595.71
517.237	17727.23
517.604	17748.47
517.972	17918.41
518.339	18050.84
518.706	18122.7
519.073	18197.28
519.44	18427.78
519.808	18607.43
520.175	18662.8
520.542	18906.41
520.909	18909.12
521.276	19040.87
521.643	19255.55
522.009	19280.19
522.376	19557.69
522.743	19611.48
523.11	19933.05
523.477	20078.58
523.843	20131.69
524.21	20370.55
524.577	20526.48
524.943	20593.14
525.31	20738.68
525.676	20927.37
526.043	21055.28
526.409	21132.57
526.776	21449.85
527.142	21486.91
527.508	21592.67
527.874	21816.16
528.241	21971.87
528.607	22074.46
528.973	22307
529.339	22274.46
529.705	22568.23
530.071	22816.14
530.437	22813.2
530.803	22955.57
531.169	23104.72
531.535	23142.23
531.901	23231.95
532.267	23419.96
532.632	23532.05
532.998	23664.48
533.364	23753.74
533.73	23812.27
534.095	24102.21
534.461	24153.73
534.826	24361.41
535.192	24369.99
535.557	24535.87
535.923	24594.85
536.288	24577
536.653	24811.57
537.019	24825.12
537.384	24903.09
537.749	24997.1
538.114	25051.78
538.479	25092.24
538.845	25278.9
539.21	25270.54
539.575	25433.02
539.94	25469.4
540.305	25638.44
540.67	25727.47
541.034	25817.64
541.399	25940.8
541.764	26058.54
542.129	26049.72
542.494	26158.42
542.858	26255.14
543.223	26324.97
543.587	26517.96
543.952	26560.9
544.316	26557.51
544.681	26636.15
545.045	26785.07
545.41	27002.02
545.774	27055.35
546.138	26985.75
546.503	27120.43
546.867	27175.57
547.231	27425.73
547.595	27367.43
547.959	27550.7
548.324	27707.31
548.688	27760.41
549.052	27937.58
549.416	27863.24
549.779	27945.27
550.143	27910.01
550.507	28211.02
550.871	28346.39
551.235	28297.58
551.599	28544.12
551.962	28646.27
552.326	28686.04
552.689	28823.44
553.053	28750.44
553.417	28884
553.78	29281.73
554.143	29153.6
554.507	29297.32
554.87	29342.97
555.234	29643.75
555.597	29661.83
555.96	29758.78
556.323	29712.68
556.686	29854.37
557.05	30121.71
557.413	30122.16
557.776	30338.2
558.139	30450.74
558.502	30568.48
558.865	30505.65
559.228	30836.49
559.59	30878.3
559.953	31011.85
560.316	31327.78
560.679	31361.9
561.041	31513.54
561.404	31628.56
561.767	31846.41
562.129	31709.91
562.492	32026.52
562.854	31964.6
563.217	32222.22
563.579	32336.57
563.941	32446.17
564.304	32538.14
564.666	32786.04
565.028	32976.32
565.39	33055.42
565.753	33161.4
566.115	33280.95
566.477	33403.66
566.839	33518
567.201	33722.29
567.563	33755.28
567.925	33877.09
568.287	33887.94
568.648	34085.9
569.01	34183.07
569.372	34445.44
569.734	34339
570.095	34651.98
570.457	34644.75
570.819	34766.78
571.18	34698.08
571.542	35045.42
571.903	35066.44
572.265	35145.76
572.626	35291.97
572.987	35436.82
573.349	35428.91
573.71	35539.64
574.071	35717.04
574.432	35764.72
574.794	36032.06
575.155	35895.79
575.516	35834.55
575.877	36040.42
576.238	36073.87
576.599	36119.97
576.96	36164.03
577.32	36157.03
577.681	36459.17
578.042	36442.67
578.403	36443.8
578.763	36557.02
579.124	36535.55
579.485	36656.9
579.845	36737.58
580.206	36731.93
580.566	36616.23
580.927	36660.97
581.287	36921.3
581.648	36697.35
582.008	36887.18
582.368	36722.21
582.728	36904.13
583.089	36837.69
583.449	36792.95
583.809	36988.19
584.169	36986.16
584.529	36910.91
584.889	37123.33
585.249	36967.63
585.609	36727.41
585.969	36983.67
586.329	37021.64
586.688	37128.3
587.048	36997.69
587.408	36975.99
587.768	36952.49
588.127	37033.39
588.487	36951.81
588.846	37230
589.206	37063.45
589.565	37082.65
589.925	37039.27
590.284	37013.5
590.643	37024.35
591.003	37127.4
591.362	37223.67
591.721	37039.49
592.08	37197
592.44	37228.41
592.799	37237
593.158	37046.27
593.517	37200.39
593.876	37201.3
594.235	37108.42
594.593	36991.58
594.952	37165.14
595.311	37119.04
595.67	37095.08
596.029	37231.58
596.387	37328.07
596.746	37433.15
597.104	37218.7
597.463	37291.01
597.822	37345.02
598.18	37182.09
598.538	37380.73
598.897	37597.67
599.255	37183.67
599.613	37655.75
599.972	37329.2
600.33	37532.36
600.688	37285.36
601.046	37515.64
601.404	37574.17
601.762	37480.16
602.12	37555.86
602.478	37478.35
602.836	37613.49
603.194	37390.44
603.552	37509.08
603.91	37421.86
604.268	37702.3
604.625	37414.62
604.983	37578.01
605.341	37485.58
605.698	37634.28
606.056	37645.13
606.413	37582.08
606.771	37788.4
607.128	37841.05
607.485	37790.43
607.843	37775.74
608.2	37813.94
608.557	37874.95
608.914	37822.52
609.272	38043.99
609.629	38130.08
609.986	38190.65
610.343	38026.58
610.7	38225.45
611.057	38203.76
611.414	38171.21
611.771	38294.6
612.127	38328.95
612.484	38384.99
612.841	38498.21
613.198	38431.32
613.554	38408.04
613.911	38602.61
614.267	38528.94
614.624	38477.65
614.98	38537.53
615.337	38766
615.693	38763.29
616.05	38481.71
616.406	38919.67
616.762	38801.48
617.118	38760.12
617.475	38623.41
617.831	38815.49
618.187	38925.77
618.543	38902.04
618.899	39156.05
619.255	39138.42
619.611	39065.2
619.967	39059.33
620.323	39222.49
620.678	39037.86
621.034	39058.65
621.39	39022.26
621.746	39020.91
622.101	39419.09
622.457	39024.07
622.812	39250.51
623.168	39345.65
623.523	39260
623.879	39430.16
624.234	39082.83
624.589	39228.14
624.945	39222.94
625.3	39429.26
625.655	39264.97
626.01	39230.4
626.365	39233.11
626.72	39183.84
627.075	39024.3
627.43	39028.59
627.785	39004.19
628.14	39152.43
628.495	39244.41
628.85	39141.81
629.205	39055.26
629.559	39197.4
629.914	39053.68
630.269	39126.22
630.623	38987.46
630.978	38951.98
631.332	39131.19
631.687	39107.01
632.041	38968.26
632.396	38936.17
632.75	38884.19
633.104	38846.22
633.459	38658.66
633.813	38757.64
634.167	38816.17
634.521	38714.7
634.875	38691.43
635.229	38503.63
635.583	38415.95
635.937	38577.3
636.291	38336.41
636.645	38365.79
636.999	38248.05
637.352	38289.18
637.706	38164.89
638.06	38198.33
638.413	38124.44
638.767	38044.21
639.121	38127.37
639.474	37973.93
639.828	37790.21
640.181	37939.13
640.534	37958.34
640.888	37828.62
641.241	37657.33
641.594	37638.35
641.947	37877.21
642.301	37606.71
642.654	37607.39
643.007	37599.7
643.36	37560.61
643.713	37569.42
644.066	37594.05
644.419	37402.87
644.771	37212.82
645.124	36869.78
645.477	36673.17
645.83	36490.35
646.182	36369
646.535	36285.61
646.888	36333.97
647.24	36222.79
647.593	36349.34
647.945	36268.21
648.298	36077.48
648.65	35939.41
649.002	35821.67
649.355	35963.81
649.707	35931.5
650.059	36046.98
650.411	36404.71
650.763	36536
651.115	36933.28
651.467	36740.74
651.819	36736.9
652.171	36730.8
652.523	36733.06
652.875	36594.08
653.227	36484.25
653.578	36708.43
653.93	36575.32
654.282	36397.02
654.633	36365.16
654.985	36389.34
655.337	36332.17
655.688	36341.88
656.039	36321.54
656.391	35916.36
656.742	36247.65
657.094	36124.04
657.445	36279.51
657.796	36154.77
658.147	35962.68
658.498	35986.64
658.849	36047.88
659.2	36048.11
659.551	35843.37
659.902	36083.13
660.253	35805.63
660.604	35890.14
660.955	35694.67
661.306	35918.84
661.656	35693.76
662.007	35733.76
662.358	35627.33
662.708	35550.94
663.059	35526.09
663.409	35235.92
663.76	35585.52
664.11	35442.7
664.461	35414
664.811	35352.3
665.161	35366.54
665.511	35159.54
665.862	35228.92
666.212	35336.94
666.562	35142.82
666.912	35033.22
667.262	34979.43
667.612	34941.47
667.962	34868.48
668.312	34642.04
668.662	34811.08
669.011	34747.35
669.361	34624.87
669.711	34443.63
670.06	34302.84
670.41	34298.77
670.76	34216.29
671.109	34313.24
671.459	34323.86
671.808	34094.71
672.157	34111.66
672.507	34000.93
672.856	33797.32
673.205	33904.66
673.554	33871.21
673.904	33578.11
674.253	33830.09
674.602	33746.92
674.951	33156.2
675.3	33058.81
675.649	33467.38
675.998	33553.71
676.346	33431.23
676.695	33501.51
677.044	33181.97
677.393	33372.24
677.741	33350.32
678.09	33203.89
678.438	33122.76
678.787	33266.48
679.135	33276.65
679.484	33037.34
679.832	33145.81
680.181	33036.21
680.529	33196.88
680.877	33061.29
681.225	32976.77
681.573	33303.09
681.922	33053.61
682.27	32868.75
682.618	32929.54
682.966	32987.4
683.314	33065.59
683.661	33016.77
684.009	32857
684.357	32863.1
684.705	32903.33
685.053	33054.29
685.4	32983.33
685.748	32857.68
686.095	32801.41
686.443	32860.39
686.79	32689.32
687.138	32840.28
687.485	32794.18
687.832	32786.95
688.18	32855.2
688.527	32719.61
688.874	32701.3
689.221	32753.96
689.568	32665.82
689.915	32657.69
690.262	32681.41
690.609	32559.38
690.956	32546.28
691.303	32569.1
691.65	32445.94
691.997	32453.85
692.344	32344.47
692.69	32276
693.037	32351.25
693.383	32084.14
693.73	32139.06
694.077	32058.83
694.423	32197.81
694.769	32065.61
695.116	32005.73
695.462	31889.35
695.808	31986.97
696.155	31903.36
696.501	31801.44
696.847	31766.86
697.193	31549.92
697.539	31711.5
697.885	31566.87
698.231	31474.67
698.577	31372.07
698.923	31457.94
699.269	31325.29
699.614	31090.95
699.96	31094.79
700.306	31075.81
700.651	30928.92
700.997	30908.58
701.342	30810.05
701.688	30842.59
702.033	30688.25
702.379	30783.16
702.724	30629.49
703.069	30681.92
703.415	30263.63
703.76	30252.55
704.105	30271.08
704.45	30212.55
704.795	30083.29
705.14	30045.78
705.485	29980.02
705.83	29821.83
706.175	29893.47
706.52	29727.59
706.865	29641.49
707.209	29622.74
707.554	29486.02
707.899	29617.31
708.243	29504.55
708.588	29376.87
708.932	29172.58
709.277	29327.6
709.621	29196.76
709.966	29107.27
710.31	29053.04
710.654	28940.27
710.998	28945.47
711.342	28999.03
711.687	28717.45
712.031	28678.13
712.375	28708.64
712.719	28669.32
713.063	28539.15
713.407	28719.48
713.75	28375.77
714.094	28481.3
714.438	28365.82
714.782	28420.06
715.125	28212.38
715.469	28372.38
715.812	28127.86
716.156	27924.48
716.499	28058.94
716.843	28005.83
717.186	27794.31
717.53	27976.91
717.873	27987.75
718.216	27896.91
718.559	27740.3
718.902	27516.8
719.246	27632.28
719.589	27542.57
719.932	27496.01
720.275	27476.58
720.617	27436.81
720.96	27358.84
721.303	27323.82
721.646	27389.58
721.989	27225.29
722.331	27310.48
722.674	27074.1
723.016	27129.92
723.359	27073.88
723.701	27101.22
724.044	26873.66
724.386	26788.01
724.729	27002.24
725.071	26855.58
725.413	26817.84
725.755	26806.99
726.097	26619.65
726.439	26453.56
726.782	26623.72
727.124	26814.9
727.465	26569.71
727.807	26499.88
728.149	26448.58
728.491	26399.09
728.833	26461.24
729.175	26379.21
729.516	26246.33
729.858	26263.05
730.199	26240.68
730.541	26058.09
730.882	25968.82
731.224	26260.57
731.565	26022.38
731.906	25925.43
732.248	25987.58
732.589	25825.32
732.93	25825.78
733.271	25872.78
733.612	25871.42
733.953	25730.86
734.294	25661.94
734.635	25671.2
734.976	25640.47
735.317	25626.46
735.658	25489.74
735.999	25556.63
736.339	25426.92
736.68	25443.64
737.021	25400.93
737.361	25221.27
737.702	25382.17
738.042	25328.84
738.383	25320.93
738.723	25304.66
739.063	25197.54
739.404	25208.39
739.744	25074.16
740.084	25122.97
740.424	25093.37
740.764	24918.23
741.104	25075.96
741.444	24881.62
741.784	24927.04
742.124	24981.05
742.464	24841.39
742.804	24725.47
743.143	24680.27
743.483	24723.66
743.823	24606.15
744.162	24566.15
744.502	24634.17
744.841	24541.29
745.181	24621.29
745.52	24481.86
745.86	24469.65
746.199	24419.49
746.538	24316.44
746.877	24417
747.216	24428.3
747.556	24277.34
747.895	24216.55
748.234	24165.25
748.573	24113.73
748.911	24020.4
749.25	24030.34
749.589	23908.99
749.928	23932.94
750.267	24007.97
750.605	23836.45
750.944	23876.22
751.283	23699.28
751.621	23786.73
751.96	23682.1
752.298	23600.98
752.636	23613.4
752.975	23495.89
753.313	23421.55
753.651	23506.51
753.989	23355.78
754.327	23359.63
