Data from white_wall_FLMS001491_074.txt Node
Date: Tue Feb 07 11:05:45 GMT 2017
User: dcchb
Spectrometer: FLMS00149
Trigger mode: 0
Integration Time (sec): 2.000000E-2
Scans to average: 10
Electric dark correction enabled: true
Nonlinearity correction enabled: false
Boxcar width: 0
XAxis mode: Wavelengths
Number of Pixels in Spectrum: 2048
>>>>>Begin Spectral Data<<<<<
341.393	-10.38
341.776	-10.38
342.16	-10.38
342.543	-49.93
342.927	-70.49
343.31	-71.62
343.693	-46.31
344.077	-67.33
344.46	-76.14
344.843	-32.3
345.226	-34.34
345.61	-36.14
345.993	-1.57
346.376	15.83
346.759	-0.21
347.142	35.95
347.525	17.64
347.908	57.87
348.291	42.72
348.674	93.12
349.057	102.84
349.44	123.17
349.823	135.83
350.206	172.66
350.588	199.33
350.971	240.91
351.354	243.17
351.737	251.98
352.119	257.41
352.502	263.28
352.884	298.99
353.267	289.05
353.65	291.31
354.032	306.45
354.414	305.77
354.797	331.53
355.179	323.62
355.562	336.95
355.944	337.86
356.326	344.41
356.709	340.12
357.091	356.84
357.473	356.61
357.855	363.62
358.238	361.59
358.62	347.12
359.002	333.11
359.384	345.32
359.766	360.46
360.148	355.71
360.53	358.42
360.912	327.69
361.294	348.71
361.676	338.31
362.057	340.12
362.439	340.34
362.821	344.19
363.203	345.54
363.584	352.32
363.966	339.67
364.348	365.43
364.729	327.92
365.111	333.79
365.493	331.98
365.874	330.17
366.256	340.57
366.637	333.56
367.019	339.67
367.4	318.65
367.781	339.21
368.163	340.34
368.544	335.15
368.925	341.47
369.306	351.64
369.688	341.7
370.069	323.17
370.45	338.99
370.831	322.72
371.212	324.75
371.593	330.17
371.974	340.8
372.355	354.58
372.736	339.21
373.117	341.47
373.498	341.47
373.879	343.73
374.26	333.79
374.641	341.02
375.021	332.66
375.402	323.4
375.783	333.11
376.163	367.46
376.544	367.91
376.925	361.13
377.305	359.1
377.686	356.39
378.066	338.08
378.447	327.24
378.827	351.42
379.208	361.81
379.588	352.1
379.968	354.36
380.349	373.56
380.729	364.98
381.109	355.49
381.489	369.72
381.87	368.59
382.25	374.47
382.63	378.08
383.01	379.44
383.39	366.11
383.77	374.47
384.15	391.42
384.53	380.34
384.91	402.72
385.29	414.24
385.67	382.83
386.049	394.58
386.429	384.41
386.809	403.62
387.189	397.07
387.568	410.85
387.948	426.44
388.328	398.2
388.707	427.8
389.087	431.64
389.466	442.49
389.846	427.57
390.225	418.76
390.605	437.29
390.984	448.82
391.363	449.49
391.743	453.34
392.122	444.97
392.501	489.94
392.881	472.77
393.26	493.56
393.639	481.81
394.018	502.6
394.397	512.77
394.776	521.36
395.155	524.97
395.534	523.39
395.913	517.06
396.292	537.85
396.671	549.15
397.05	531.07
397.429	571.3
397.808	559.77
398.186	557.29
398.565	571.75
398.944	577.17
399.323	609.04
399.701	586.89
400.08	592.99
400.458	610.17
400.837	644.97
401.215	641.13
401.594	664.86
401.972	666.44
402.351	651.97
402.729	683.39
403.107	702.37
403.486	709.6
403.864	711.41
404.242	706.44
404.62	710.05
404.999	744.63
405.377	776.72
405.755	758.19
406.133	799.54
406.511	804.74
406.889	809.71
407.267	845.64
407.645	847
408.023	874.12
408.401	894.68
408.779	893.1
409.156	906.66
409.534	893.1
409.912	938.52
410.29	955.47
410.667	974.23
411.045	962.02
411.422	988.01
411.8	1040.44
412.178	1031.63
412.555	1054.22
412.933	1052.42
413.31	1090.15
413.687	1087.44
414.065	1119.53
414.442	1118.63
414.819	1135.58
415.197	1152.3
415.574	1194.33
415.951	1173.77
416.328	1158.85
416.705	1208.12
417.082	1210.15
417.46	1239.53
417.837	1215.8
418.214	1242.92
418.591	1260.77
418.967	1287.21
419.344	1315.91
419.721	1328.57
420.098	1311.17
420.475	1339.41
420.852	1364.5
421.228	1371.73
421.605	1371.73
421.982	1418.73
422.358	1425.06
422.735	1397.27
423.111	1440.43
423.488	1443.59
423.864	1466.19
424.241	1520.88
424.617	1527.21
424.994	1519.52
425.37	1556.13
425.746	1537.6
426.123	1567.66
426.499	1596.36
426.875	1594.77
427.251	1642.23
427.627	1677.71
428.003	1660.76
428.379	1690.14
428.756	1706.86
429.132	1760.87
429.507	1764.71
429.883	1806.52
430.259	1817.14
430.635	1838.84
431.011	1835.9
431.387	1875.9
431.763	1938.27
432.138	1934.43
432.514	1988.44
432.89	1997.02
433.265	2040.41
433.641	2044.48
434.016	2077.02
434.392	2094.87
434.767	2147.53
435.143	2154.53
435.518	2143.91
435.894	2209.9
436.269	2221.65
436.644	2234.31
437.02	2267.98
437.395	2282.44
437.77	2305.26
438.145	2360.18
438.52	2381.87
438.895	2382.1
439.271	2414.64
439.646	2446.73
440.021	2493.28
440.395	2484.69
440.77	2449.44
441.145	2499.61
441.52	2581.64
441.895	2537.57
442.27	2591.81
442.645	2581.19
443.019	2644.24
443.394	2639.04
443.769	2671.58
444.143	2667.74
444.518	2712.71
444.892	2710.68
445.267	2740.73
445.641	2779.15
446.016	2785.7
446.39	2806.04
446.764	2809.66
447.139	2842.65
447.513	2883.55
447.887	2890.33
448.262	2910.9
448.636	2910.9
449.01	2980.95
449.384	2994.06
449.758	2998.81
450.132	3063.21
450.506	3084.45
450.88	3128.75
451.254	3098.46
451.628	3168.74
452.002	3189.76
452.376	3196.09
452.75	3280.15
453.123	3298.46
453.497	3371.68
453.871	3378.23
454.244	3414.39
454.618	3458
454.992	3484.22
455.365	3525.57
455.739	3603.08
456.112	3631.56
456.486	3657.09
456.859	3716.07
457.232	3795.17
457.606	3739.35
457.979	3846.24
458.352	3887.14
458.725	3922.4
459.099	3942.06
459.472	4087.82
459.845	4092.56
460.218	4111.77
460.591	4154.71
460.964	4168.04
461.337	4284.65
461.71	4351.09
462.083	4432.21
462.456	4458.2
462.829	4450.74
463.201	4577.07
463.574	4555.15
463.947	4657.74
464.32	4737.29
464.692	4805.09
465.065	4801.92
465.438	4872.43
465.81	4990.84
466.183	5069.49
466.555	5164.62
466.928	5195.58
467.3	5196.49
467.672	5223.15
468.045	5379.76
468.417	5401
468.789	5435.13
469.161	5530.04
469.534	5626.98
469.906	5760.31
470.278	5800.09
470.65	5846.41
471.022	5991.27
471.394	6064.94
471.766	6126.41
472.138	6293.86
472.51	6356.91
472.882	6450.24
473.253	6529.79
473.625	6646.39
473.997	6796.9
474.369	6847.97
474.74	6915.54
475.112	7058.13
475.484	7140.39
475.855	7306.04
476.227	7363.44
476.598	7575.86
476.97	7693.15
477.341	7806.81
477.713	7976.08
478.084	8015.62
478.455	8267.82
478.827	8293.13
479.198	8513.01
479.569	8536.06
479.94	8826
480.311	8958.87
480.682	9054.01
481.053	9252.2
481.424	9470.27
481.795	9564.51
482.166	9711.62
482.537	9873.43
482.908	10075.23
483.279	10169.01
483.65	10327.65
484.021	10624.14
484.391	10735.55
484.762	10822.78
485.133	10932.16
485.503	11079.72
485.874	11346.61
486.244	11449.66
486.615	11647.39
486.985	11747.95
487.356	11998.34
487.726	12063.43
488.097	12335.28
488.467	12369.86
488.837	12653.92
489.207	12848.26
489.578	12975.94
489.948	13137.75
490.318	13371.41
490.688	13365.31
491.058	13694.34
491.428	13787
491.798	13945.64
492.168	14259.53
492.538	14373.42
492.908	14504.94
493.278	14698.38
493.648	14728.67
494.017	14917.36
494.387	15094.53
494.757	15266.28
495.126	15316
495.496	15499.49
495.866	15598.7
496.235	15683.22
496.605	15866.94
496.974	15964.79
497.344	16166.59
497.713	16336.08
498.082	16413.59
498.452	16579.92
498.821	16641.84
499.19	16833.92
499.559	16925.67
499.928	17082.28
500.298	17210.86
500.667	17466.22
501.036	17349.16
501.405	17594.81
501.774	17659.44
502.143	17830.05
502.512	17955.25
502.88	18010.84
503.249	18195.92
503.618	18336.03
503.987	18409.02
504.356	18502.13
504.724	18637.04
505.093	18867.99
505.462	18861.89
505.83	19109.34
506.199	19318.6
506.567	19455.32
506.936	19511.82
507.304	19731.7
507.672	19837.46
508.041	19987.29
508.409	20169.65
508.777	20395.64
509.145	20466.82
509.514	20474.5
509.882	20700.49
510.25	20908.16
510.618	20959.46
510.986	21044.43
511.354	21282.62
511.722	21433.57
512.09	21691.87
512.458	21641.03
512.826	21933.22
513.193	22031.98
513.561	22127.57
513.929	22334.12
514.297	22636.03
514.664	22626.09
515.032	22791.28
515.4	22918.96
515.767	23144.26
516.135	23296.35
516.502	23148.11
516.869	23622.67
517.237	23758.26
517.604	23721.88
517.972	23972.72
518.339	24216.78
518.706	24218.36
519.073	24529.76
519.44	24701.29
519.808	24897.66
520.175	24941.28
520.542	25192.35
520.909	25362.51
521.276	25443.41
521.643	25806.79
522.009	25991.42
522.376	26066.22
522.743	26326.78
523.11	26535.36
523.477	26862.36
523.843	26888.8
524.21	27162.69
524.577	27240.65
524.943	27450.59
525.31	27698.95
525.676	27894.42
526.043	28111.37
526.409	28102.78
526.776	28625.7
527.142	28596.32
527.508	28740.73
527.874	29149.76
528.241	29182.52
528.607	29276.53
528.973	29520.14
529.339	29644.66
529.705	29820.25
530.071	30047.13
530.437	30159.9
530.803	30393.79
531.169	30588.59
531.535	30517.18
531.901	30790.16
532.267	30937.28
532.632	31198.52
532.998	31243.71
533.364	31340.21
533.73	31510.15
534.095	31750.82
534.461	31991.04
534.826	32062.67
535.192	32218.6
535.557	32277.13
535.923	32311.93
536.288	32488.43
536.653	32736.78
537.019	32707.4
537.384	32907.17
537.749	33071.91
538.114	33313.71
538.479	33351.68
538.845	33371.57
539.21	33461.06
539.575	33647.49
539.94	33811.78
540.305	33805.68
540.67	33783.53
541.034	33986.92
541.399	34202.96
541.764	34382.39
542.129	34632.55
542.494	34686.79
542.858	34706.45
543.223	34844.97
543.587	35131.07
543.952	34973.11
544.316	35187.56
544.681	35259.43
545.045	35456.03
545.41	35581.9
545.774	35764.5
546.138	35806.98
546.503	35970.59
546.867	36077.03
547.231	36319.74
547.595	36487.64
547.959	36576
548.324	36664.81
548.688	36632.95
549.052	36792.72
549.416	37063.22
549.779	37107.96
550.143	37168.3
550.507	37625.69
550.871	37658.46
551.235	37690.55
551.599	38145.23
551.962	38143.42
552.326	38140.71
552.689	38499.11
553.053	38235.84
553.417	38522.39
553.78	39023.17
554.143	38939.1
554.507	38977.75
554.87	39331.86
555.234	39629.71
555.597	39481.69
555.96	39723.94
556.323	39866.99
556.686	39982.69
557.05	40313.08
557.413	40521.89
557.776	40473.75
558.139	40824.03
558.502	41014.98
558.865	41117.35
559.228	41353.5
559.59	41399.6
559.953	41615.87
560.316	41967.95
560.679	42065.12
561.041	42366.81
561.404	42492.46
561.767	42642.51
562.129	42594.37
562.492	43105.32
562.854	43110.52
563.217	43056.28
563.579	43333.34
563.941	43550.06
564.304	43914.11
564.666	43976.26
565.028	44126.76
565.39	44329.47
565.753	44497.38
566.115	44598.16
566.477	44644.49
566.839	44881.32
567.201	45042.45
567.563	45222.55
567.925	45542.09
568.287	45475.43
568.648	45582.54
569.01	45778.25
569.372	46093.27
569.734	46087.39
570.095	46340.04
570.457	46428.4
570.819	46558.34
571.18	46570.32
571.542	46773.93
571.903	46883.75
572.265	46975.73
572.626	47130.07
572.987	47133.46
573.349	47361.25
573.71	47468.82
574.071	47586.79
574.432	47585.43
574.794	47966.66
575.155	47882.37
575.516	47922.6
575.877	48017.06
576.238	48089.37
576.599	48219.31
576.96	48279.42
577.32	48282.81
577.681	48332.08
578.042	48447.33
578.403	48289.82
578.763	48689.58
579.124	48560.09
579.485	48768.45
579.845	48882.12
580.206	48739.3
580.566	48695.46
580.927	48798.28
581.287	48948.56
581.648	48949.24
582.008	49027.65
582.368	48838.73
582.728	49011.61
583.089	48899.29
583.449	48928.67
583.809	48937.94
584.169	49104.49
584.529	48989.46
584.889	49356.46
585.249	49177.7
585.609	49071.72
585.969	49145.84
586.329	49138.61
586.688	49164.15
587.048	49131.38
587.408	49093.19
587.768	49058.39
588.127	49121.43
588.487	49152.17
588.846	49404.36
589.206	49073.75
589.565	49228.55
589.925	49304.93
590.284	49205.73
590.643	49335.44
591.003	49406.85
591.362	49508.54
591.721	49440.75
592.08	49425.38
592.44	49494.76
592.799	49396.46
593.158	49350.35
593.517	49408.66
593.876	49478.71
594.235	49414.76
594.593	49365.95
594.952	49455.21
595.311	49344.25
595.67	49501.31
596.029	49633.29
596.387	49571.14
596.746	49676.9
597.104	49572.04
597.463	49595.77
597.822	49834.86
598.18	49539.28
598.538	49566.17
598.897	49766.84
599.255	49537.02
599.613	49975.42
599.972	49769.78
600.33	49809.33
600.688	49635.55
601.046	49935.65
601.404	49877.57
601.762	49901.3
602.12	50013.61
602.478	50098.58
602.836	50085.7
603.194	49883.22
603.552	50033.95
603.91	49979.94
604.268	50110.56
604.625	49944.92
604.983	50131.13
605.341	49985.14
605.698	50168.19
606.056	50273.49
606.413	50317.34
606.771	50411.34
607.128	50483.88
607.485	50282.99
607.843	50285.25
608.2	50598.91
608.557	50647.95
608.914	50428.74
609.272	50588.29
609.629	50660.15
609.986	50749.87
610.343	50584.67
610.7	50871.67
611.057	50844.78
611.414	50799.36
611.771	50848.17
612.127	50889.3
612.484	50945.34
612.841	51040.48
613.198	50966.81
613.554	50929.52
613.911	51174.49
614.267	51140.59
614.624	51066.92
614.98	51171.1
615.337	51298.33
615.693	51255.39
616.05	51227.59
616.406	51411.54
616.762	51363.18
617.118	51234.83
617.475	51355.27
617.831	51466.68
618.187	51438.44
618.543	51608.83
618.899	51704.19
619.255	51581.26
619.611	51544.2
619.967	51684.98
620.323	51765.66
620.678	51595.95
621.034	51470.3
621.39	51571.77
621.746	51556.17
622.101	51991.87
622.457	51656.28
622.812	51779.9
623.168	51835.71
623.523	51687.47
623.879	51972.66
624.234	51617.19
624.589	51755.94
624.945	51748.94
625.3	51824.64
625.655	51799.1
626.01	51827.8
626.365	51793.68
626.72	51813.34
627.075	51787.8
627.43	51702.38
627.785	51582.39
628.14	51681.14
628.495	51823.74
628.85	51756.17
629.205	51563.18
629.559	51816.28
629.914	51664.87
630.269	51677.98
630.623	51574.03
630.978	51499.22
631.332	51576.29
631.687	51654.7
632.041	51525.44
632.396	51563.4
632.75	51453.8
633.104	51499.9
633.459	51330.64
633.813	51352.34
634.167	51411.09
634.521	51230.31
634.875	51303.52
635.229	51326.8
635.583	51152.34
635.937	51179.01
636.291	51226.24
636.645	51037.32
636.999	51057.43
637.352	51202.28
637.706	50918.22
638.06	50978.33
638.413	50962.06
638.767	50858.34
639.121	50890.65
639.474	50710.55
639.828	50784.89
640.181	50658.12
640.534	50712.35
640.888	50601.62
641.241	50570.66
641.594	50552.36
641.947	50610.21
642.301	50454.96
642.654	50486.6
643.007	50442.53
643.36	50421.74
643.713	50387.39
644.066	50602.07
644.419	50259.03
644.771	49919.83
645.124	49667.18
645.477	49699.5
645.83	49375.67
646.182	49322.56
646.535	49210.02
646.888	49254.99
647.24	48948.33
647.593	49278.72
647.945	49094.32
648.298	48971.16
648.65	49014.32
649.002	48823.59
649.355	48954.89
649.707	48980.65
650.059	49086.86
650.411	49437.81
650.763	49498.15
651.115	49824.69
651.467	49807.07
651.819	49680.29
652.171	49546.06
652.523	49476.23
652.875	49457.7
653.227	49443.01
653.578	49687.07
653.93	49526.4
654.282	49401.43
654.633	49269
654.985	49268.1
655.337	49264.48
655.688	49324.37
656.039	49409.34
656.391	49133.86
656.742	49109.01
657.094	49198.95
657.445	49172.51
657.796	49147.65
658.147	49102.45
658.498	49042.57
658.849	49218.16
659.2	49075.56
659.551	49038.05
659.902	49069.46
660.253	49033.98
660.604	49053.64
660.955	48838.73
661.306	49022
661.656	48790.37
662.007	48826.98
662.358	48752.4
662.708	48729.13
663.059	48830.59
663.409	48536.14
663.76	48794.66
664.11	48724.83
664.461	48722.8
664.811	48732.74
665.161	48735.91
665.511	48541.11
665.862	48555.12
666.212	48778.39
666.562	48770.48
666.912	48576.82
667.262	48597.83
667.612	48552.64
667.962	48524.61
668.312	48539.3
668.662	48697.04
669.011	48449.81
669.361	48555.57
669.711	48465.41
670.06	48328.69
670.41	48322.36
670.76	48310.83
671.109	48423.15
671.459	48339.31
671.808	48181.12
672.157	48271.97
672.507	48035.14
672.856	48156.04
673.205	48075.36
673.554	48217.73
673.904	48096.15
674.253	48317.84
674.602	48118.3
674.951	47485.77
675.3	47188.6
675.649	47891.18
675.998	47859.09
676.346	47844.18
676.695	48015.02
677.044	47630.63
677.393	47757.4
677.741	47805.99
678.09	47654.58
678.438	47602.15
678.787	47653.68
679.135	47613.23
679.484	47367.13
679.832	47571.64
680.181	47163.29
680.529	47425.66
680.877	47224.76
681.225	47283.52
681.573	47441.48
681.922	47050.53
682.27	47018.66
682.618	46990.87
682.966	46971.43
683.314	46964.65
683.661	46750.2
684.009	46650.54
684.357	46533.71
684.705	46408.74
685.053	46549.52
685.4	46406.48
685.748	46269.31
686.095	46187.27
686.443	46057.79
686.79	46079.25
687.138	46163.55
687.485	46109.99
687.832	45838.36
688.18	46010.56
688.527	45704.58
688.874	45557.91
689.221	45544.35
689.568	45450.57
689.915	45318.37
690.262	45329.22
690.609	45161.99
690.956	44967.42
691.303	45012.16
691.65	44823.47
691.997	44822.79
692.344	44619.86
692.69	44642
693.037	44577.83
693.383	44241.56
693.73	44425.51
694.077	44056.26
694.423	44077.95
694.769	43973.1
695.116	43909.37
695.462	43848.58
695.808	43673.89
696.155	43640.67
696.501	43491.3
696.847	43421.25
697.193	43163.4
697.539	43345.99
697.885	42866.91
698.231	42849.51
698.577	42884.31
698.923	42751.43
699.269	42589.85
699.614	42344.44
699.96	42254.95
700.306	42402.52
700.651	42089.53
700.997	41895.64
701.342	41969.31
701.688	41929.53
702.033	41777.67
702.379	41797.56
702.724	41585.14
703.069	41719.14
703.415	41205.03
703.76	41221.53
704.105	41372.49
704.45	41159.84
704.795	41070.8
705.14	40868.54
705.485	40909.67
705.83	40661.09
706.175	40588.78
706.52	40395.34
706.865	40582
707.209	40383.59
707.554	40308.56
707.899	40365.05
708.243	40104.04
708.588	40000.54
708.932	39888.23
709.277	39919.19
709.621	39881.68
709.966	39706.31
710.31	39697.28
710.654	39420.45
710.998	39432.42
711.342	39429.94
711.687	39314.01
712.031	39157.18
712.375	39027.69
712.719	39187.46
713.063	39041.25
713.407	39099.55
713.75	38789.28
714.094	38873.34
714.438	38682.16
714.782	38740.92
715.125	38643.74
715.469	38497.31
715.812	38349.29
716.156	38257.09
716.499	38385.22
716.843	38185.9
717.186	38076.98
717.53	38161.27
717.873	38125.34
718.216	37983.2
718.559	37831.56
718.902	37547.5
719.246	37676.31
719.589	37615.07
719.932	37497.56
720.275	37458.24
720.617	37415.08
720.96	37387.73
721.303	37222.31
721.646	37202.65
721.989	37048.53
722.331	37180.73
722.674	37118.36
723.016	37007.63
723.359	37081.98
723.701	37033.16
724.044	36768.99
724.386	36627.3
724.729	36745.71
725.071	36715.43
725.413	36706.62
725.755	36616
726.097	36389.57
726.439	36160.42
726.782	36236.58
727.124	36539.39
727.465	36213.3
727.807	36200.19
728.149	36105.28
728.491	36049.01
728.833	36072.51
729.175	35929.24
729.516	35832.29
729.858	35743.48
730.199	35861.67
730.541	35805.17
730.882	35665.52
731.224	35872.07
731.565	35523.37
731.906	35540.1
732.248	35457.84
732.589	35301.68
732.93	35277.28
733.271	35305.07
733.612	35303.72
733.953	35284.51
734.294	35072.99
734.635	35035.93
734.976	35051.97
735.317	34871.41
735.658	34811.3
735.999	34895.37
736.339	34839.78
736.68	34807.69
737.021	34728.14
737.361	34562.95
737.702	34901.7
738.042	34469.84
738.383	34616.96
738.723	34577.41
739.063	34441.59
739.404	34488.15
739.744	34398.66
740.084	34240.02
740.424	34304.2
740.764	34153.01
741.104	34313.69
741.444	34057.2
741.784	33986.92
742.124	34139.68
742.464	33983.75
742.804	33971.78
743.143	33757.54
743.483	33869.41
743.823	33684.33
744.162	33696.53
744.502	33686.59
744.841	33683.65
745.181	33620.6
745.52	33470.32
745.86	33560.71
746.199	33499.25
746.538	33398.01
746.877	33398.23
747.216	33342.87
747.556	33104.45
747.895	33108.97
748.234	33060.39
748.573	32859.94
748.911	33019.71
749.25	32923.44
749.589	32690.45
749.928	32753.05
750.267	32902.65
750.605	32809.55
750.944	32605.03
751.283	32454.08
751.621	32488.43
751.96	32286.17
752.298	32340.41
752.636	32278.26
752.975	32270.8
753.313	32112.84
