Data from white_poster_card_FLMS001491_00071.txt Node
Date: Wed Feb 08 11:51:58 GMT 2017
User: dcchb
Spectrometer: FLMS00149
Trigger mode: 0
Integration Time (sec): 2.000000E-2
Scans to average: 10
Electric dark correction enabled: true
Nonlinearity correction enabled: false
Boxcar width: 0
XAxis mode: Wavelengths
Number of Pixels in Spectrum: 2048
>>>>>Begin Spectral Data<<<<<
341.393	-17.3
341.776	-17.3
342.16	-17.3
342.543	-56.62
342.927	-60.92
343.31	-75.38
343.693	-65.44
344.077	-59.33
344.46	-54.36
344.843	-46.23
345.226	-49.17
345.61	-43.52
345.993	-38.77
346.376	-1.93
346.759	11.4
347.142	30.38
347.525	53.66
347.908	64.5
348.291	54.56
348.674	97.05
349.057	122.58
349.44	117.38
349.823	135.91
350.206	184.05
350.588	211.39
350.971	206.2
351.354	221.11
351.737	246.87
352.119	249.81
352.502	267.89
352.884	291.39
353.267	276.02
353.65	312.18
354.032	297.94
354.414	302.69
354.797	307.21
355.179	303.59
355.562	329.13
355.944	325.97
356.326	350.6
356.709	332.97
357.091	331.84
357.473	331.16
357.855	344.5
358.238	347.21
358.62	368.45
359.002	363.48
359.384	343.37
359.766	359.41
360.148	350.15
360.53	336.14
360.912	337.49
361.294	337.94
361.676	319.19
362.057	349.02
362.439	323.03
362.821	333.2
363.203	327.32
363.584	329.81
363.966	331.16
364.348	347.89
364.729	322.8
365.111	332.07
365.493	330.03
365.874	324.61
366.256	304.05
366.637	331.39
367.019	325.74
367.4	322.8
367.781	321.22
368.163	316.47
368.544	335.68
368.925	342.24
369.306	328.9
369.688	298.4
370.069	319.86
370.45	306.31
370.831	319.64
371.212	327.32
371.593	302.92
371.974	325.97
372.355	311.73
372.736	325.29
373.117	330.26
373.498	350.82
373.879	331.16
374.26	315.12
374.641	352.18
375.021	316.02
375.402	334.78
375.783	340.65
376.163	321.22
376.544	336.59
376.925	337.04
377.305	338.85
377.686	342.01
378.066	341.56
378.447	337.04
378.827	344.5
379.208	349.47
379.588	342.46
379.968	337.94
380.349	346.3
380.729	356.47
381.109	338.4
381.489	342.91
381.87	355.12
382.25	364.38
382.63	364.61
383.01	333.2
383.39	358.28
383.77	368.68
384.15	365.51
384.53	360.09
384.91	376.13
385.29	374.33
385.67	360.32
386.049	370.71
386.429	365.29
386.809	373.87
387.189	366.87
387.568	372.29
387.948	379.75
388.328	386.3
388.707	379.3
389.087	381.56
389.466	390.6
389.846	417.04
390.225	375.68
390.605	416.59
390.984	381.11
391.363	407.09
391.743	401.67
392.122	408.22
392.501	423.82
392.881	400.54
393.26	398.96
393.639	408
394.018	411.61
394.397	413.65
394.776	444.83
395.155	407.77
395.534	440.54
395.913	434.66
396.292	419.52
396.671	419.97
397.05	455.45
397.429	425.85
397.808	444.15
398.186	443.25
398.565	447.09
398.944	470.37
399.323	475.34
399.701	466.75
400.08	472.85
400.458	472.4
400.837	470.59
401.215	475.34
401.594	460.88
401.972	462.46
402.351	484.38
402.729	493.87
403.107	485.74
403.486	484.83
403.864	488
404.242	483.48
404.62	497.26
404.999	519.63
405.377	499.52
405.755	492.74
406.133	511.5
406.511	551.95
406.889	535.23
407.267	547.43
407.645	546.53
408.023	574.32
408.401	571.16
408.779	581.55
409.156	614.09
409.534	596.47
409.912	617.71
410.29	623.81
410.667	613.87
411.045	626.52
411.422	647.09
411.8	643.25
412.178	704.71
412.555	697.03
412.933	707.65
413.31	702.91
413.687	738.38
414.065	743.13
414.442	753.07
414.819	775.67
415.197	797.37
415.574	796.24
415.951	828.55
416.328	828.78
416.705	845.05
417.082	854.99
417.46	867.42
417.837	888.66
418.214	926.18
418.591	931.37
418.967	930.02
419.344	965.27
419.721	943.58
420.098	981.77
420.475	989.9
420.852	1011.82
421.228	1032.16
421.605	1035.55
421.982	1089.56
422.358	1066.96
422.735	1080.75
423.111	1098.6
423.488	1117.36
423.864	1140.18
424.241	1154.87
424.617	1170.92
424.994	1149.9
425.37	1211.14
425.746	1194.87
426.123	1211.59
426.499	1205.72
426.875	1231.93
427.251	1250.01
427.627	1301.53
428.003	1305.83
428.379	1354.41
428.756	1343.11
429.132	1383.11
429.507	1372.49
429.883	1403.45
430.259	1429.67
430.635	1448.65
431.011	1477.57
431.387	1500.62
431.763	1522.54
432.138	1524.35
432.514	1533.39
432.89	1557.35
433.265	1600.73
433.641	1616.55
434.016	1616.78
434.392	1680.73
434.767	1722.54
435.143	1696.78
435.518	1700.39
435.894	1755.08
436.269	1719.15
436.644	1811.58
437.02	1808.41
437.395	1807.51
437.77	1874.85
438.145	1862.42
438.52	1933.61
438.895	1901.29
439.271	1903.78
439.646	1944.45
440.021	1973.15
440.395	1995.3
440.77	1965.92
441.145	1965.7
441.52	2016.77
441.895	2000.5
442.27	2053.15
442.645	2046.15
443.019	2062.64
443.394	2101.29
443.769	2104.22
444.143	2141.96
444.518	2149.42
444.892	2123.88
445.267	2133.83
445.641	2146.71
446.016	2161.4
446.39	2156.65
446.764	2202.07
447.139	2171.12
447.513	2239.81
447.887	2254.05
448.262	2258.12
448.636	2255.63
449.01	2281.85
449.384	2293.15
449.758	2322.98
450.132	2341.05
450.506	2344.22
450.88	2384.22
451.254	2379.02
451.628	2418.79
452.002	2438.23
452.376	2493.82
452.75	2491.56
453.123	2506.47
453.497	2569.97
453.871	2551.9
454.244	2615.62
454.618	2637.09
454.992	2640.26
455.365	2685.45
455.739	2715.96
456.112	2750.76
456.486	2764.55
456.859	2795.05
457.232	2824.21
457.606	2837.76
457.979	2885.45
458.352	2953.24
458.725	2979.46
459.099	2957.08
459.472	3049.96
459.845	3049.51
460.218	3130.64
460.591	3106.46
460.964	3129.06
461.337	3190.52
461.71	3248.6
462.083	3290.18
462.456	3305.55
462.829	3343.97
463.201	3371.08
463.574	3374.25
463.947	3468.26
464.32	3516.62
464.692	3550.74
465.065	3524.98
465.438	3622.83
465.81	3668.25
466.183	3698.98
466.555	3759.77
466.928	3784.18
467.3	3806.33
467.672	3848.13
468.045	3918.64
468.417	3943.5
468.789	3974.23
469.161	4098.97
469.534	4082.03
469.906	4175.13
470.278	4237.95
470.65	4266.88
471.022	4319.99
471.394	4400.89
471.766	4480.43
472.138	4456.48
472.51	4593.88
472.882	4617.15
473.253	4666.87
473.625	4759.75
473.997	4822.12
474.369	4839.29
474.74	4909.8
475.112	5043.36
475.484	5085.84
475.855	5194.76
476.227	5257.59
476.598	5349.34
476.97	5416.91
477.341	5492.84
477.713	5590.69
478.084	5604.25
478.455	5740.74
478.827	5819.15
479.198	6012.82
479.569	6025.48
479.94	6134.4
480.311	6232.7
480.682	6411.68
481.053	6521.28
481.424	6588.63
481.795	6652.13
482.166	6747.27
482.537	6872.91
482.908	6971.22
483.279	7049.18
483.65	7166.69
484.021	7331.21
484.391	7374.37
484.762	7462.05
485.133	7565.78
485.503	7620.46
485.874	7866.11
486.244	7888.03
486.615	8035.82
486.985	8087.34
487.356	8333.89
487.726	8337.96
488.097	8527.56
488.467	8533.43
488.837	8724.16
489.207	8789.92
489.578	8894.55
489.948	9050.71
490.318	9168.67
490.688	9113.53
491.058	9389.23
491.428	9508.55
491.798	9617.02
492.168	9763.68
492.538	9785.83
492.908	9929.1
493.278	9997.12
493.648	10005.03
494.017	10141.3
494.387	10317.57
494.757	10360.96
495.126	10481.86
495.496	10541.97
495.866	10682.53
496.235	10813.37
496.605	10866.48
496.974	11045.46
497.344	11001.17
497.713	11116.64
498.082	11149.86
498.452	11302.85
498.821	11308.95
499.19	11392.79
499.559	11563.64
499.928	11605.67
500.298	11602.28
500.667	11839.56
501.036	11826.91
501.405	11908.26
501.774	11934.7
502.143	12054.7
502.512	12137.63
502.88	12299.66
503.249	12381.47
503.618	12380.11
503.987	12511.18
504.356	12497.17
504.724	12680.9
505.093	12747.79
505.462	12789.14
505.83	12898.52
506.199	12969.25
506.567	13181
506.936	13144.39
507.304	13336.47
507.672	13468.22
508.041	13405.17
508.409	13480.65
508.777	13712.51
509.145	13693.98
509.514	13822.56
509.882	13924.48
510.25	13972.16
510.618	14154.98
510.986	14067.75
511.354	14257.35
511.722	14402.66
512.09	14509.1
512.458	14464.35
512.826	14597
513.193	14861.4
513.561	14839.48
513.929	14903.89
514.297	15163.09
514.664	15211
515.032	15265.69
515.4	15444.44
515.767	15471.1
516.135	15544.55
516.502	15542.29
516.869	15820.47
517.237	15965.78
517.604	15913.13
517.972	16053.91
518.339	16227.69
518.706	16267.02
519.073	16393.79
519.44	16514.01
519.808	16726.89
520.175	16756.04
520.542	17028.35
520.909	17048.69
521.276	17100.44
521.643	17306.76
522.009	17405.74
522.376	17550.6
522.743	17756.02
523.11	17827.2
523.477	18017.93
523.843	18127.31
524.21	18226.51
524.577	18468.09
524.943	18480.06
525.31	18706.5
525.676	18780.85
526.043	18919.6
526.409	19064.68
526.776	19254.28
527.142	19367.27
527.508	19585.35
527.874	19598.45
528.241	19721.84
528.607	19754.16
528.973	19927.71
529.339	20013.58
529.705	20226.46
530.071	20430.3
530.437	20441.14
530.803	20618.31
531.169	20643.4
531.535	20706.45
531.901	20780.34
532.267	21022.14
532.632	21051.75
532.998	21185.3
533.364	21346.88
533.73	21291.29
534.095	21582.13
534.461	21584.84
534.826	21733.09
535.192	21827.55
535.557	22072.74
535.923	22046.75
536.288	22072.51
536.653	22182.79
537.019	22169.69
537.384	22381.21
537.749	22560.86
538.114	22589.79
538.479	22672.05
538.845	22738.03
539.21	22736.9
539.575	22827.52
539.94	23031.13
540.305	23049.89
540.67	23123.11
541.034	23294.4
541.399	23289.66
541.764	23293.5
542.129	23459.37
542.494	23460.5
542.858	23621.4
543.223	23630.66
543.587	23826.14
543.952	23853.03
544.316	23818.23
544.681	23922.41
545.045	24076.3
545.41	24210.54
545.774	24255.05
546.138	24313.36
546.503	24366.69
546.867	24460.02
547.231	24695.72
547.595	24726.23
547.959	24856.17
548.324	24780.69
548.688	24906.56
549.052	25004.87
549.416	25032.44
549.779	25134.35
550.143	25291.19
550.507	25363.95
550.871	25511.52
551.235	25457.51
551.599	25659.54
551.962	25741.57
552.326	25791.51
552.689	25991.73
553.053	25783.83
553.417	26040.09
553.78	26298.62
554.143	26191.27
554.507	26466.97
554.87	26525.28
555.234	26821.99
555.597	26624.71
555.96	26817.7
556.323	26954.42
556.686	27014.53
557.05	27132.94
557.413	27300.17
557.776	27309.66
558.139	27458.59
558.502	27639.37
558.865	27595.53
559.228	27861.97
559.59	27867.84
559.953	28019.25
560.316	28233.48
560.679	28259.24
561.041	28409.07
561.404	28687.71
561.767	28837.31
562.129	28734.94
562.492	29077.07
562.854	29097.41
563.217	29044.98
563.579	29253.57
563.941	29323.62
564.304	29502.6
564.666	29748.24
565.028	29731.97
565.39	29893.1
565.753	30017.84
566.115	30303.26
566.477	30184.39
566.839	30390.94
567.201	30537.83
567.563	30588.9
567.925	30768.78
568.287	30824.6
568.648	30902.79
569.01	31096
569.372	31283.8
569.734	31153.18
570.095	31557.24
570.457	31436.79
570.819	31604.92
571.18	31612.38
571.542	31874.29
571.903	31838.13
572.265	32003.1
572.626	32065.02
572.987	32242.64
573.349	32249.19
573.71	32448.29
574.071	32526.25
574.432	32555.85
574.794	32707.71
575.155	32779.35
575.516	32648.28
575.877	32887.37
576.238	32858.22
576.599	33060.25
576.96	33140.92
577.32	33133.24
577.681	33302.73
578.042	33340.01
578.403	33371.65
578.763	33504.53
579.124	33452.33
579.485	33612.77
579.845	33664.3
580.206	33571.42
580.566	33610.51
580.927	33640.8
581.287	33721.92
581.648	33624.98
582.008	33741.81
582.368	33698.87
582.728	33832.43
583.089	33766.44
583.449	33909.04
583.809	33722.38
584.169	34003.5
584.529	33776.16
584.889	34126.66
585.249	33908.59
585.609	33890.96
585.969	34063.61
586.329	33894.57
586.688	34059.09
587.048	33959.21
587.408	33889.6
587.768	33933.9
588.127	33966.44
588.487	33968.47
588.846	34157.84
589.206	33828.81
589.565	33934.57
589.925	34184.28
590.284	33999.66
590.643	34131.18
591.003	34250.27
591.362	34331.4
591.721	34113.78
592.08	34234.9
592.44	34321.91
592.799	34172.53
593.158	34191.29
593.517	34154.23
593.876	34302.25
594.235	34111.74
594.593	34287.11
594.952	34373.43
595.311	34287.56
595.67	34422.7
596.029	34515.35
596.387	34502.92
596.746	34536.82
597.104	34335.24
597.463	34263.15
597.822	34573.88
598.18	34419.98
598.538	34479.19
598.897	34657.27
599.255	34411.85
599.613	34901.55
599.972	34538.85
600.33	34677.15
600.688	34601.22
601.046	34747.43
601.404	34843.48
601.762	34777.04
602.12	34842.12
602.478	34815.45
602.836	34933.19
603.194	34833.53
603.552	34870.59
603.91	34517.16
604.268	34995.11
604.625	34669.24
604.983	34972.96
605.341	34913.76
605.698	35144.03
606.056	35066.52
606.413	35129.57
606.771	35306.52
607.128	35145.39
607.485	35154.65
607.843	35125.05
608.2	35406.63
608.557	35318.27
608.914	35249.57
609.272	35416.57
609.629	35490.69
609.986	35641.87
610.343	35436.46
610.7	35755.32
611.057	35650.69
611.414	35676.9
611.771	35627.86
612.127	35741.31
612.484	35724.13
612.841	35971.81
613.198	35659.73
613.554	35801.87
613.911	35928.65
614.267	35867.86
614.624	35990.34
614.98	35932.04
615.337	36139.49
615.693	36018.36
616.05	36099.04
616.406	36190.79
616.762	36172.03
617.118	36113.95
617.475	36142.2
617.831	36316.43
618.187	36328.18
618.543	36295.42
618.899	36460.38
619.255	36377.9
619.611	36309.65
619.967	36438.24
620.323	36545.35
620.678	36386.49
621.034	36294.96
621.39	36346.71
621.746	36252.48
622.101	36597.33
622.457	36329.99
622.812	36527.27
623.168	36569.98
623.523	36597.55
623.879	36623.54
624.234	36416.54
624.589	36505.81
624.945	36475.07
625.3	36539.48
625.655	36550.78
626.01	36539.25
626.365	36532.47
626.72	36528.18
627.075	36471
627.43	36495.64
627.785	36348.07
628.14	36463.09
628.495	36388.29
628.85	36434.4
629.205	36305.36
629.559	36522.75
629.914	36130.67
630.269	36400.95
630.623	36379.71
630.978	36152.59
631.332	36431.23
631.687	36392.81
632.041	36236.21
632.396	36235.98
632.75	36032.82
633.104	36221.07
633.459	35965.48
633.813	35945.82
634.167	35940.17
634.521	35923.67
634.875	35891.13
635.229	35901.75
635.583	35640.97
635.937	35716.9
636.291	35673.96
636.645	35523.68
636.999	35600.52
637.352	35699.27
637.706	35497.92
638.06	35523.01
638.413	35566.4
638.767	35486.85
639.121	35482.56
639.474	35334.76
639.828	35266.97
640.181	35302.22
640.534	35337.25
640.888	35263.58
641.241	35022.68
641.594	35046.63
641.947	35126.63
642.301	35058.84
642.654	35007.54
643.007	35041.89
643.36	34949.46
643.713	34943.59
644.066	34989.46
644.419	34710.82
644.771	34524.61
645.124	34192.65
645.477	34258.63
645.83	33942.48
646.182	33808.02
646.535	33715.14
646.888	33733.68
647.24	33500.91
647.593	33659.55
647.945	33634.92
648.298	33556.05
648.65	33388.37
649.002	33372.1
649.355	33377.3
649.707	33353.35
650.059	33460.01
650.411	33997.62
650.763	34041.92
651.115	34219.31
651.467	34050.95
651.819	33986.55
652.171	34008.24
652.523	33901.58
652.875	33813
653.227	33733.68
653.578	34130.27
653.93	33788.59
654.282	33725.54
654.633	33534.58
654.985	33820
655.337	33597.86
655.688	33688.48
656.039	33785.88
656.391	33528.26
656.742	33519.44
657.094	33614.81
657.445	33688.93
657.796	33506.34
658.147	33448.48
658.498	33583.62
658.849	33589.72
659.2	33443.74
659.551	33411.88
659.902	33586.56
660.253	33458.88
660.604	33494.81
660.955	33251.43
661.306	33455.94
661.656	33305.44
662.007	33289.17
662.358	33291.43
662.708	33227.02
663.059	33152
663.409	32992
663.76	33178.21
664.11	33220.47
664.461	33279.22
664.811	33220.24
665.161	33090.98
665.511	33135.05
665.862	33216.4
666.212	33175.27
666.562	33288.49
666.912	32990.64
667.262	33030.64
667.612	32937.99
667.962	33114.48
668.312	32941.83
668.662	33255.5
669.011	32998.78
669.361	32877.43
669.711	32850.99
670.06	32958.33
670.41	32846.01
670.76	32799.01
671.109	32825.68
671.459	32843.98
671.808	32847.37
672.157	32758.79
672.507	32578.68
672.856	32686.92
673.205	32647.38
673.554	32696.41
673.904	32614.16
674.253	32664.32
674.602	32650.77
674.951	32234.73
675.3	31991.8
675.649	32485.12
675.998	32483.54
676.346	32493.48
676.695	32457.1
677.044	32238.57
677.393	32435.86
677.741	32456.87
678.09	32365.12
678.438	32321.96
678.787	32400.38
679.135	32211.91
679.484	32116.32
679.832	32256.43
680.181	32023.66
680.529	32158.8
680.877	32040.16
681.225	31964.23
681.573	32132.14
681.922	31959.26
682.27	31801.75
682.618	31792.48
682.966	31705.03
683.314	31756.78
683.661	31684.46
684.009	31568.08
684.357	31427.52
684.705	31478.14
685.053	31452.15
685.4	31491.47
685.748	31256.68
686.095	31155.89
686.443	31152.27
686.79	31059.62
687.138	31148.21
687.485	31110.02
687.832	30932.39
688.18	31016.68
688.527	30799.06
688.874	30705.96
689.221	30638.84
689.568	30588.67
689.915	30637.26
690.262	30506.19
690.609	30327.21
690.956	30299.19
691.303	30188.23
691.65	30232.52
691.997	30032.08
692.344	29991.85
692.69	29936.26
693.037	29990.5
693.383	29713.67
693.73	29914.57
694.077	29589.6
694.423	29626.44
694.769	29512.09
695.116	29399.33
695.462	29437.74
695.808	29189.39
696.155	29366.11
696.501	29128.82
696.847	29096.73
697.193	28822.62
697.539	29043.4
697.885	28819.45
698.231	28680.25
698.577	28772.22
698.923	28630.98
699.269	28557.77
699.614	28415.62
699.96	28146.93
700.306	28313.7
700.651	28176.99
700.997	28136.08
701.342	28080.72
701.688	27993.94
702.033	27878.69
702.379	27837.33
702.724	27862.42
703.069	27915.98
703.415	27624.68
703.76	27615.42
704.105	27466.27
704.45	27581.29
704.795	27386.72
705.14	27157.8
705.485	27235.31
705.83	27126.17
706.175	27204.81
706.52	27123
706.865	26850.01
707.209	26991.93
707.554	26788.55
707.899	26774.54
708.243	26726.18
708.588	26733.41
708.932	26601.66
709.277	26529.12
709.621	26453.41
709.966	26232.4
710.31	26271.95
710.654	26122.12
710.998	26321.44
711.342	26227.88
711.687	26176.59
712.031	25968.68
712.375	25916.71
712.719	25857.27
713.063	25855.01
713.407	25941.34
713.75	25808.69
714.094	25761
714.438	25728.69
714.782	25694.34
715.125	25558.3
715.469	25700.67
715.812	25392.43
716.156	25305.2
716.499	25236.27
716.843	25395.59
717.186	25396.72
717.53	25293.45
717.873	25354.91
718.216	25186.33
718.559	24987.01
718.902	24911.76
719.246	25055.03
719.589	24893.23
719.932	24856.62
720.275	24752.67
720.617	24718.77
720.96	24729.62
721.303	24655.95
721.646	24636.29
721.989	24542.96
722.331	24695.04
722.674	24519
723.016	24428.38
723.359	24380.47
723.701	24475.84
724.044	24276.75
724.386	24164.89
724.729	24276.3
725.071	24145.23
725.413	24194.72
725.755	24082.86
726.097	24048.28
726.439	23847.38
726.782	23832.01
727.124	24061.16
727.465	23939.81
727.807	23865.23
728.149	23823.65
728.491	23801.96
728.833	23816.42
729.175	23680.61
729.516	23639.25
729.858	23598.35
730.199	23660.72
730.541	23492.14
730.882	23588.18
731.224	23514.28
731.565	23462.31
731.906	23397
732.248	23447.39
732.589	23202.2
732.93	23158.81
733.271	23204.46
733.612	23257.11
733.953	23290.56
734.294	23115.42
734.635	22992.71
734.976	23110.23
735.317	22907.75
735.658	23026.16
735.999	23002.43
736.339	22890.34
736.68	22949.78
737.021	22766.96
737.361	22730.57
737.702	22808.99
738.042	22779.39
738.383	22722.89
738.723	22797.69
739.063	22569
739.404	22663.01
739.744	22500.3
740.084	22505.5
740.424	22564.93
740.764	22417.81
741.104	22422.79
741.444	22301.21
741.784	22291.49
742.124	22301.89
742.464	22209.68
742.804	22263.24
743.143	22184.37
743.483	22223.92
743.823	22032.74
744.162	22070.93
744.502	22149.12
744.841	21971.27
745.181	22013.76
745.52	22042.23
745.86	22011.72
746.199	21750.49
746.538	21945.06
746.877	21896.25
747.216	21843.14
747.556	21796.81
747.895	21712.07
748.234	21654.44
748.573	21634.33
748.911	21606.08
749.25	21573.99
749.589	21353.89
749.928	21587.55
750.267	21466.43
750.605	21441.79
750.944	21371.97
751.283	21322.48
751.621	21307.56
751.96	21135.59
752.298	21232.08
752.636	21174.46
752.975	21031.64
753.313	20982.37
753.651	21005.87
753.989	20909.38
754.327	20981.92
