Data from White_reflection_standard_FLMS001491_011.txt Node
Date: Tue Feb 07 10:31:57 GMT 2017
User: dcchb
Spectrometer: FLMS00149
Trigger mode: 0
Integration Time (sec): 2.000000E-2
Scans to average: 10
Electric dark correction enabled: true
Nonlinearity correction enabled: false
Boxcar width: 0
XAxis mode: Wavelengths
Number of Pixels in Spectrum: 2048
>>>>>Begin Spectral Data<<<<<
341.393	-25.96
341.776	-25.96
342.16	-25.96
342.543	-57.37
342.927	-55.79
343.31	-60.99
343.693	-60.76
344.077	-76.58
344.46	-64.83
344.843	-39.52
345.226	-36.13
345.61	-28.9
345.993	-28.9
346.376	-13.08
346.759	17.43
347.142	11.55
347.525	33.7
347.908	79.35
348.291	61.04
348.674	102.17
349.057	104.43
349.44	138.33
349.823	148.72
350.206	186.92
350.588	236.63
350.971	253.13
351.354	259.23
351.737	276.18
352.119	309.62
352.502	303.07
352.884	313.24
353.267	317.08
353.65	336.29
354.032	356.18
354.414	353.01
354.797	370.87
355.179	394.14
355.562	355.27
355.944	386.91
356.326	407.02
356.709	409.06
357.091	373.8
357.473	388.27
357.855	418.32
358.238	410.19
358.62	419
359.002	409.51
359.384	388.94
359.766	398.44
360.148	399.57
360.53	389.4
360.912	419.23
361.294	387.14
361.676	396.85
362.057	415.84
362.439	419.68
362.821	410.41
363.203	413.12
363.584	407.93
363.966	397.98
364.348	409.96
364.729	419
365.111	412.45
365.493	425.55
365.874	400.47
366.256	406.35
366.637	420.36
367.019	410.19
367.4	423.07
367.781	429.62
368.163	423.97
368.544	422.39
368.925	424.65
369.306	431.43
369.688	419.45
370.069	410.86
370.45	435.27
370.831	435.95
371.212	436.85
371.593	421.94
371.974	438.66
372.355	424.88
372.736	441.37
373.117	446.57
373.498	444.99
373.879	464.2
374.26	460.36
374.641	447.02
375.021	436.17
375.402	439.79
375.783	495.61
376.163	513.01
376.544	480.02
376.925	494.03
377.305	468.04
377.686	478.66
378.066	491.77
378.447	491.31
378.827	491.31
379.208	502.61
379.588	511.2
379.968	519.34
380.349	519.56
380.729	516.62
381.109	538.55
381.489	532.44
381.87	541.93
382.25	542.39
382.63	546.91
383.01	550.52
383.39	559.34
383.77	557.3
384.15	561.37
384.53	579.22
384.91	571.99
385.29	579
385.67	604.76
386.049	629.39
386.429	620.8
386.809	626.9
387.189	628.49
387.568	619.9
387.948	646.56
388.328	621.71
388.707	644.53
389.087	637.98
389.466	663.06
389.846	679.78
390.225	696.28
390.605	696.51
390.984	686.79
391.363	694.02
391.743	731.31
392.122	718.88
392.501	727.01
392.881	724.75
393.26	753
393.639	755.49
394.018	779.22
394.397	786.22
394.776	784.64
395.155	767.69
395.534	785.77
395.913	781.25
396.292	806.79
396.671	812.89
397.05	848.82
397.429	837.75
397.808	844.3
398.186	854.92
398.565	859.89
398.944	863.06
399.323	862.38
399.701	901.47
400.08	908.7
400.458	926.78
400.837	924.52
401.215	934.24
401.594	957.29
401.972	935.82
402.351	942.83
402.729	972.66
403.107	977.63
403.486	975.37
403.864	992.77
404.242	1012.88
404.62	1037.29
404.999	1032.54
405.377	1036.84
405.755	1053.56
406.133	1074.35
406.511	1076.16
406.889	1101.24
407.267	1128.59
407.645	1132.65
408.023	1142.37
408.401	1148.25
408.779	1180.11
409.156	1208.81
409.534	1209.04
409.912	1199.54
410.29	1235.02
410.667	1265.31
411.045	1293.33
411.422	1282.25
411.8	1301.01
412.178	1332.42
412.555	1348.02
412.933	1341.24
413.31	1393.21
413.687	1399.54
414.065	1414.91
414.442	1413.32
414.819	1443.83
415.197	1453.55
415.574	1460.1
415.951	1511.17
416.328	1513.43
416.705	1507.79
417.082	1534.23
417.46	1565.41
417.837	1587.78
418.214	1625.07
418.591	1597.05
418.967	1613.55
419.344	1612.64
419.721	1641.12
420.098	1648.12
420.475	1690.38
420.852	1714.33
421.228	1731.28
421.605	1733.77
421.982	1765.63
422.358	1766.54
422.735	1820.09
423.111	1771.51
423.488	1839.98
423.864	1864.39
424.241	1871.39
424.617	1896.93
424.994	1928.57
425.37	1970.82
425.746	1948.23
426.123	1989.81
426.499	1988.9
426.875	2011.05
427.251	2058.05
427.627	2097.15
428.003	2108.9
428.379	2169.46
428.756	2157.94
429.132	2225.73
429.507	2221.21
429.883	2260.99
430.259	2291.04
430.635	2307.99
431.011	2363.13
431.387	2411.94
431.763	2458.27
432.138	2458.04
432.514	2463.47
432.89	2521.32
433.265	2554.76
433.641	2595.89
434.016	2619.62
434.392	2679.73
434.767	2726.51
435.143	2745.04
435.518	2736
435.894	2789.56
436.269	2814.87
436.644	2850.12
437.02	2887.18
437.395	2898.48
437.77	2931.02
438.145	3048.76
438.52	3012.38
438.895	3065.94
439.271	3058.7
439.646	3119.49
440.021	3157.01
440.395	3142.77
440.77	3160.85
441.145	3213.96
441.52	3310
441.895	3264.35
442.27	3304.8
442.645	3353.61
443.019	3366.49
443.394	3388.41
443.769	3406.49
444.143	3406.49
444.518	3489.2
444.892	3438.58
445.267	3546.83
445.641	3510.22
446.016	3554.96
446.39	3614.85
446.764	3594.28
447.139	3601.29
447.513	3646.26
447.887	3660.27
448.262	3683.55
448.636	3766.03
449.01	3774.84
449.384	3806.26
449.758	3854.62
450.132	3893.49
450.506	3926.03
450.88	3956.53
451.254	3921.06
451.628	4028.17
452.002	4097.77
452.376	4104.78
452.75	4130.32
453.123	4181.84
453.497	4248.05
453.871	4263.87
454.244	4397.65
454.618	4388.61
454.992	4423.64
455.365	4447.82
455.739	4561.72
456.112	4564.65
456.486	4674.48
456.859	4691.2
457.232	4784.99
457.606	4744.76
457.979	4834.93
458.352	4993.34
458.725	5068.6
459.099	5049.39
459.472	5174.36
459.845	5170.74
460.218	5301.13
460.591	5311.53
460.964	5353.79
461.337	5437.85
461.71	5558.53
462.083	5696.6
462.456	5645.08
462.829	5670.61
463.201	5817.28
463.574	5784.06
463.947	5951.28
464.32	6067.89
464.692	6030.15
465.065	6103.37
465.438	6219.53
465.81	6291.84
466.183	6385.17
466.555	6532.06
466.928	6563.02
467.3	6545.84
467.672	6685.5
468.045	6871.03
468.417	6911.71
468.789	6956.68
469.161	7025.61
469.534	7102.67
469.906	7333.62
470.278	7373.39
470.65	7494.97
471.022	7645.7
471.394	7788.52
471.766	7842.99
472.138	8009.99
472.51	8068.52
472.882	8209.98
473.253	8273.71
473.625	8383.99
473.997	8611.55
474.369	8709.4
474.74	8772.68
475.112	8923.86
475.484	9079.11
475.855	9257.64
476.227	9320.91
476.598	9603.39
476.97	9677.29
477.341	9929.94
477.713	10093.77
478.084	10074.11
478.455	10402.47
478.827	10445.18
479.198	10793.42
479.569	10792.51
479.94	11151.6
480.311	11286.74
480.682	11454.64
481.053	11791.13
481.424	11897.12
481.795	12027.96
482.166	12226.6
482.537	12407.16
482.908	12696.42
483.279	12801.27
483.65	13027.71
484.021	13226.57
484.391	13459.56
484.762	13546.11
485.133	13695.94
485.503	13930.96
485.874	14190.16
486.244	14363.72
486.615	14606.2
486.985	14821.79
487.356	14937.04
487.726	15226.97
488.097	15512.16
488.467	15458.6
488.837	15894.98
489.207	15988.53
489.578	16275.76
489.948	16475.08
490.318	16650.44
490.688	16777.44
491.058	17106.7
491.428	17318.44
491.798	17433.47
492.168	17853.34
492.538	17811.54
492.908	18109.16
493.278	18271.64
493.648	18334.24
494.017	18554.34
494.387	18694.23
494.757	18830.49
495.126	19135.34
495.496	19231.16
495.866	19416.47
496.235	19604.03
496.605	19733.52
496.974	19931.03
497.344	20069.78
497.713	20219.84
498.082	20309.1
498.452	20618.24
498.821	20679.94
499.19	20756.09
499.559	20918.12
499.928	21119.02
500.298	21216.87
500.667	21555.85
501.036	21466.36
501.405	21628.39
501.774	21748.61
502.143	22024.99
502.512	22128.03
502.88	22333.68
503.249	22315.37
503.618	22565.08
503.987	22569.83
504.356	22796.04
504.724	23018.18
505.093	22963.04
505.462	23334.1
505.83	23290.49
506.199	23463.82
506.567	23862.9
506.936	23875.33
507.304	24312.38
507.672	24280.07
508.041	24431.93
508.409	24526.84
508.777	24825.82
509.145	24997.79
509.514	25075.98
509.882	25264
510.25	25300.83
510.618	25564.1
510.986	25560.03
511.354	25981.27
511.722	26236.85
512.09	26458.54
512.458	26517.75
512.826	26637.07
513.193	26736.73
513.561	26988.25
513.929	27085.42
514.297	27438.63
514.664	27655.57
515.032	27658.28
515.4	28016.47
515.767	28028.44
516.135	28285.84
516.502	28094.66
516.869	28693.06
517.237	28782.32
517.604	28948.65
517.972	29209.2
518.339	29386.37
518.706	29423.66
519.073	29704.78
519.44	29913.82
519.808	30163.75
520.175	30224.54
520.542	30754.7
520.909	30820.46
521.276	30938.42
521.643	31222.03
522.009	31478.3
522.376	31631.51
522.743	31912.41
523.11	32220.65
523.477	32462
523.843	32719.85
524.21	33051.81
524.577	33305.14
524.943	33491.58
525.31	33554.85
525.676	34113.48
526.043	34196.87
526.409	34343.98
526.776	34750.53
527.142	34850.64
527.508	35009.96
527.874	35288.59
528.241	35514.8
528.607	35526.33
528.973	35948.24
529.339	36123.82
529.705	36405.62
530.071	36643.58
530.437	36879.06
530.803	37028.21
531.169	37167.86
531.535	37235.66
531.901	37320.63
532.267	37571.7
532.632	37811.01
532.998	37911.35
533.364	38256.42
533.73	38376.42
534.095	38529.64
534.461	38691.21
534.826	39032.22
535.192	39015.95
535.557	39347.69
535.923	39358.99
536.288	39553.34
536.653	39690.74
537.019	39748.14
537.384	39926.21
537.749	40012.08
538.114	40252.98
538.479	40325.07
538.845	40464.95
539.21	40504.5
539.575	40713.76
539.94	40902.68
540.305	41104.48
540.67	41065.39
541.034	41299.06
541.399	41457.7
541.764	41561.2
542.129	41755.09
542.494	41795.77
542.858	42032.14
543.223	42026.27
543.587	42375.86
543.952	42377.9
544.316	42425.35
544.681	42376.09
545.045	42752.58
545.41	42958.22
545.774	43029.18
546.138	43084.77
546.503	43355.72
546.867	43368.61
547.231	43703.29
547.595	43679.56
547.959	43943.73
548.324	43824.41
548.688	44071.86
549.052	44253.1
549.416	44493.77
549.779	44428.46
550.143	44623.26
550.507	44809.47
550.871	44895.8
551.235	44903.03
551.599	45234.55
551.962	45365.84
552.326	45496.91
552.689	45681.99
553.053	45543.46
553.417	45920.4
553.78	46328.53
554.143	46051.02
554.507	46379.37
554.87	46353.84
555.234	46802.41
555.597	46636.54
555.96	46849.87
556.323	47213.93
556.686	47209.41
557.05	47413.02
557.413	47600.36
557.776	47589.96
558.139	47887.36
558.502	48010.52
558.865	48125.54
559.228	48340.68
559.59	48595.36
559.953	48610.95
560.316	49104.5
560.679	48944.5
561.041	49264.5
561.404	49429.46
561.767	49627.65
562.129	49498.61
562.492	49918.26
562.854	49807.31
563.217	49910.58
563.579	50114.19
563.941	50410
564.304	50462.43
564.666	50720.05
565.028	50741.07
565.39	50920.05
565.753	51193.94
566.115	51235.74
566.477	51332.46
566.839	51524.78
567.201	51694.71
567.563	51690.19
567.925	51847.93
568.287	51995.27
568.648	52048.83
569.01	52206.34
569.372	52383.06
569.734	52352.55
570.095	52524.97
570.457	52677.06
570.819	52798.19
571.18	52877.28
571.542	53035.02
571.903	53102.36
572.265	53191.62
572.626	53286.31
572.987	53324.73
573.349	53341.45
573.71	53543.48
574.071	53496.47
574.432	53682.68
574.794	53799.07
575.155	53788.44
575.516	53769.91
575.877	53908.44
576.238	53992.05
576.599	54077.7
576.96	54114.99
577.32	54163.35
577.681	54241.99
578.042	54340.97
578.403	54260.3
578.763	54329.22
579.124	54429.33
579.485	54519.95
579.845	54535.32
580.206	54439.27
580.566	54495.09
580.927	54599.95
581.287	54699.61
581.648	54543.9
582.008	54665.03
582.368	54645.6
582.728	54758.36
583.089	54666.84
583.449	54715.2
583.809	54787.51
584.169	54808.53
584.529	54705.26
584.889	54972.37
585.249	54735.99
585.609	54675.65
585.969	54871.13
586.329	54723.56
586.688	54837.23
587.048	54769.21
587.408	54778.7
587.768	54785.71
588.127	54752.71
588.487	54757.68
588.846	54949.77
589.206	54729.21
589.565	54680.4
589.925	54917.68
590.284	54796.78
590.643	54865.03
591.003	54936.21
591.362	54907.29
591.721	54896.66
592.08	54967.17
592.44	55067.28
592.799	55058.24
593.158	54981.63
593.517	54911.58
593.876	55005.36
594.235	54935.08
594.593	54902.99
594.952	55062.99
595.311	54967.85
595.67	55029.32
596.029	55177.79
596.387	55165.58
596.746	55156.32
597.104	55055.08
597.463	55119.26
597.822	55235.41
598.18	55105.02
598.538	55086.49
598.897	55207.39
599.255	55032.71
599.613	55389.98
599.972	55277.22
600.33	55384.56
600.688	55221.63
601.046	55331.68
601.404	55416.88
601.762	55341.62
602.12	55446.93
602.478	55498.46
602.836	55464.33
603.194	55337.78
603.552	55488.74
603.91	55319.93
604.268	55499.13
604.625	55370.55
604.983	55544.33
605.341	55495.07
605.698	55651.67
606.056	55613.03
606.413	55593.14
606.771	55658
607.128	55756.98
607.485	55593.14
607.843	55623.88
608.2	55747.71
608.557	55836.75
608.914	55760.82
609.272	55896.41
609.629	55936.64
609.986	56034.04
610.343	55910.42
610.7	56084.88
611.057	55999.01
611.414	56047.82
611.771	56082.17
612.127	56078.33
612.484	56120.13
612.841	56213.24
613.198	56147.93
613.554	56200.36
613.911	56280.36
614.267	56275.38
614.624	56253.24
614.98	56363.74
615.337	56361.71
615.693	56336.63
616.05	56286.01
616.406	56500.01
616.762	56398.32
617.118	56304.76
617.475	56356.74
617.831	56413.46
618.187	56466.57
618.543	56484.19
618.899	56647.13
619.255	56544.3
619.611	56553.34
619.967	56651.19
620.323	56632.89
620.678	56535.72
621.034	56516.28
621.39	56541.37
621.746	56562.61
622.101	56838.08
622.457	56520.35
622.812	56619.1
623.168	56594.92
623.523	56625.88
623.879	56700.68
624.234	56518.09
624.589	56613.23
624.945	56623.17
625.3	56606.68
625.655	56588.37
626.01	56683.96
626.365	56641.93
626.72	56616.17
627.075	56602.16
627.43	56561.03
627.785	56574.59
628.14	56571.42
628.495	56604.87
628.85	56562.61
629.205	56365.1
629.559	56595.6
629.914	56447.13
630.269	56459.56
630.623	56355.38
630.978	56393.8
631.332	56409.39
631.687	56510.18
632.041	56312.9
632.396	56410.52
632.75	56360.13
633.104	56309.73
633.459	56235.16
633.813	56177.99
634.167	56168.27
634.521	56111.1
634.875	56180.02
635.229	56077.88
635.583	55959.46
635.937	55969.86
636.291	55969.86
636.645	55985.45
636.999	55797.88
637.352	55985
637.706	55780.26
638.06	55897.54
638.413	55824.55
638.767	55628.17
639.121	55789.52
639.474	55625.23
639.828	55635.4
640.181	55729.18
640.534	55682.41
640.888	55521.05
641.241	55431.57
641.594	55500.26
641.947	55587.04
642.301	55452.58
642.654	55470.66
643.007	55414.84
643.36	55335.52
643.713	55308.63
644.066	55396.76
644.419	55204
644.771	55009.66
645.124	54712.26
645.477	54664.58
645.83	54516.11
646.182	54367.64
646.535	54329.45
646.888	54354.98
647.24	54153.86
647.593	54329.67
647.945	54297.81
648.298	54180.3
648.65	54094.65
649.002	53939.4
649.355	54077.48
649.707	54019.17
650.059	54181.65
650.411	54533.28
650.763	54522.21
651.115	54742.77
651.467	54685.14
651.819	54572.38
652.171	54542.55
652.523	54579.38
652.875	54524.7
653.227	54341.2
653.578	54540.29
653.93	54440.18
654.282	54305.49
654.633	54250.81
654.985	54211.26
655.337	54273.86
655.688	54218.26
656.039	54337.58
656.391	54094.65
656.742	54129.9
657.094	54103.46
657.445	54323.8
657.796	54181.43
658.147	54006.29
658.498	54074.31
658.849	54060.98
659.2	53972.17
659.551	53973.07
659.902	54000.19
660.253	53989.8
660.604	54042.9
660.955	53919.51
661.306	53979.63
661.656	53917.03
662.007	53907.09
662.358	53871.15
662.708	53916.8
663.059	53828.44
663.409	53645.4
663.76	53848.56
664.11	53803.36
664.461	53843.13
664.811	53839.29
665.161	53741.21
665.511	53707.77
665.862	53690.59
666.212	53779.18
666.562	53864.37
666.912	53634.78
667.262	53639.07
667.612	53592.29
667.962	53723.14
668.312	53584.61
668.662	53666.87
669.011	53549.35
669.361	53470.26
669.711	53471.62
670.06	53380.55
670.41	53458.51
670.76	53306.88
671.109	53435.46
671.459	53301
671.808	53300.32
672.157	53407.89
672.507	53124.06
672.856	53218.97
673.205	53204.96
673.554	53290.15
673.904	53178.52
674.253	53363.14
674.602	53188.23
674.951	52747.79
675.3	52582.83
675.649	53064.85
675.998	53096.94
676.346	53126.99
676.695	53186.88
677.044	52907.34
677.393	52980.56
677.741	53010.61
678.09	52891.52
678.438	52892.65
678.787	52880.9
679.135	52823.05
679.484	52677.51
679.832	52722.03
680.181	52542.38
680.529	52770.84
680.877	52581.47
681.225	52558.65
681.573	52648.59
681.922	52522.26
682.27	52430.74
682.618	52329.27
682.966	52303.74
683.314	52369.95
683.661	52224.64
684.009	52009.28
684.357	52019.68
684.705	51930.87
685.053	51860.59
685.4	51895.84
685.748	51875.05
686.095	51760.93
686.443	51586.24
686.79	51507.83
687.138	51621.95
687.485	51545.34
687.832	51600.71
688.18	51504.66
688.527	51328.62
688.874	51260.38
689.221	51180.6
689.568	51010.89
689.915	50950.33
690.262	50982.64
690.609	50847.96
690.956	50810.9
691.303	50746.72
691.65	50441.19
691.997	50531.35
692.344	50300.4
692.69	50257.46
693.037	50320.74
693.383	49944.48
693.73	50072.84
694.077	49778.38
694.423	49870.81
694.769	49795.33
695.116	49633.53
695.462	49526.86
695.808	49471.27
696.155	49544.04
696.501	49226.08
696.847	49276.7
697.193	49028.12
697.539	49111.28
697.885	48724.4
698.231	48659.99
698.577	48647.34
698.923	48703.15
699.269	48362.37
699.614	48176.84
699.96	48174.13
700.306	48220.23
700.651	48043.28
700.997	47864.53
701.342	47794.93
701.688	47824.08
702.033	47646.91
702.379	47641.94
702.724	47606.91
703.069	47535.28
703.415	47200.82
703.76	47102.29
704.105	47131.9
704.45	47065.01
704.795	46674.51
705.14	46590.67
705.485	46614.17
705.83	46437.23
706.175	46398.36
706.52	46401.75
706.865	46107.29
707.209	46188.87
707.554	45872.72
707.899	46083.34
708.243	45823.46
708.588	45823.68
708.932	45579.62
709.277	45536.68
709.621	45555.44
709.966	45254.43
710.31	45282.45
710.654	44899.41
710.998	44996.59
711.342	44983.7
711.687	44914.55
712.031	44769.47
712.375	44548.91
712.719	44778.96
713.063	44664.16
713.407	44737.16
713.75	44431.4
714.094	44311.41
714.438	44150.51
714.782	44258.3
715.125	43979.89
715.469	44047.91
715.812	43673
716.156	43620.58
716.499	43631.88
716.843	43687.47
717.186	43307.36
717.53	43696.05
717.873	43633.68
718.216	43432.11
718.559	43269.4
718.902	43096.97
719.246	43077.31
719.589	43017.65
719.932	42710.54
720.275	42847.94
720.617	42767.49
720.96	42625.8
721.303	42591.68
721.646	42656.08
721.989	42282.98
722.331	42558.68
722.674	42296.32
723.016	42351.68
723.359	42017.68
723.701	42343.55
724.044	42102.42
724.386	41745.15
724.729	42009.55
725.071	41895.2
725.413	41748.76
725.755	41643
726.097	41540.4
726.439	41386.96
726.782	41358.71
727.124	41616.34
727.465	41189.23
727.807	41297.93
728.149	41137.93
728.491	41005.96
728.833	41370.47
729.175	40927.77
729.516	40960.76
729.858	40764.83
730.199	40829.92
730.541	40841.67
730.882	40630.6
731.224	40775.91
731.565	40578.85
731.906	40334.56
732.248	40516.7
732.589	40142.25
732.93	40206.65
733.271	40280.78
733.612	40305.18
733.953	40231.74
734.294	40048.47
734.635	39966.21
734.976	40035.59
735.317	39832.65
735.658	39685.76
735.999	39560.57
736.339	39514.02
736.68	39806.67
737.021	39544.07
737.361	39517.41
737.702	39623.85
738.042	39411.87
738.383	39276.51
738.723	39486.9
739.063	39108.15
739.404	39283.74
739.744	39155.16
740.084	39005.78
740.424	38993.58
740.764	38788.84
741.104	38932.79
741.444	38710.42
741.784	38548.85
742.124	38561.5
742.464	38539.81
742.804	38581.61
743.143	38447.83
743.483	38425.46
743.823	38265.91
744.162	38248.97
744.502	38206.48
744.841	38107.95
745.181	38204.22
745.52	37989.54
745.86	38081.51
746.199	37852.82
746.538	37753.84
746.877	37851.46
747.216	37788.64
747.556	37798.36
747.895	37751.58
748.234	37533.05
748.573	37422.77
748.911	37333.28
749.25	37458.7
749.589	37190.91
749.928	37146.17
750.267	37307.52
750.605	37053.07
750.944	36983.69
751.283	36905.27
751.621	36918.15
751.96	36663.47
752.298	36780.08
