Data from white_wall_FLMS001491_065.txt Node
Date: Tue Feb 07 11:05:23 GMT 2017
User: dcchb
Spectrometer: FLMS00149
Trigger mode: 0
Integration Time (sec): 2.000000E-2
Scans to average: 10
Electric dark correction enabled: true
Nonlinearity correction enabled: false
Boxcar width: 0
XAxis mode: Wavelengths
Number of Pixels in Spectrum: 2048
>>>>>Begin Spectral Data<<<<<
341.393	-7.81
341.776	-7.81
342.16	-7.81
342.543	-55.04
342.927	-67.02
343.31	-87.81
343.693	-60.01
344.077	-47.36
344.46	-73.57
344.843	-39.22
345.226	-13.69
345.61	-15.95
345.993	-27.25
346.376	3.71
346.759	1.23
347.142	17.5
347.525	11.4
347.908	38.97
348.291	75.8
348.674	94.11
349.057	122.13
349.44	120.55
349.823	166.42
350.206	166.87
350.588	241.67
350.971	252.97
351.354	254.56
351.737	259.75
352.119	282.13
352.502	290.94
352.884	310.37
353.267	284.84
353.65	312.18
354.032	340.65
354.414	318.96
354.797	328.45
355.179	337.72
355.562	326.87
355.944	342.24
356.326	354.21
356.709	383.37
357.091	364.38
357.473	357.6
357.855	344.5
358.238	375.23
358.62	358.06
359.002	368
359.384	368.68
359.766	369.81
360.148	362.58
360.53	362.8
360.912	369.58
361.294	359.41
361.676	365.74
362.057	372.52
362.439	363.93
362.821	341.11
363.203	357.15
363.584	357.38
363.966	337.04
364.348	364.16
364.729	366.87
365.111	351.73
365.493	342.24
365.874	346.53
366.256	347.66
366.637	338.17
367.019	345.85
367.4	341.78
367.781	348.34
368.163	325.97
368.544	331.39
368.925	342.69
369.306	349.24
369.688	332.75
370.069	342.01
370.45	334.78
370.831	344.95
371.212	332.52
371.593	349.47
371.974	344.72
372.355	325.97
372.736	358.28
373.117	368.45
373.498	373.65
373.879	380.88
374.26	332.29
374.641	332.29
375.021	364.84
375.402	354.21
375.783	353.54
376.163	352.41
376.544	367.09
376.925	361.67
377.305	367.77
377.686	336.59
378.066	362.12
378.447	361.45
378.827	367.55
379.208	381.56
379.588	373.42
379.968	398.05
380.349	369.58
380.729	370.03
381.109	360.54
381.489	393.53
381.87	380.43
382.25	389.69
382.63	403.25
383.01	388.11
383.39	403.93
383.77	392.18
384.15	391.5
384.53	383.14
384.91	398.96
385.29	433.08
385.67	391.95
386.049	422.91
386.429	418.62
386.809	427.66
387.189	427.43
387.568	441.67
387.948	419.75
388.328	453.65
388.707	427.43
389.087	455
389.466	452.52
389.846	440.77
390.225	473.31
390.605	478.96
390.984	458.62
391.363	482.8
391.743	484.38
392.122	481.22
392.501	502.01
392.881	511.27
393.26	503.14
393.639	497.71
394.018	542.68
394.397	529.35
394.776	549.24
395.155	527.99
395.534	546.07
395.913	549.69
396.292	564.83
396.671	561.44
397.05	587.88
397.429	580.42
397.808	571.61
398.186	626.3
398.565	610.48
398.944	607.31
399.323	628.1
399.701	664.04
400.08	654.54
400.458	678.05
400.837	666.52
401.215	683.24
401.594	720.31
401.972	703.13
402.351	704.04
402.729	717.82
403.107	735.9
403.486	732.51
403.864	766.63
404.242	765.73
404.62	790.36
404.999	808.21
405.377	811.6
405.755	836.91
406.133	850.92
406.511	880.98
406.889	895.67
407.267	898.61
407.645	907.65
408.023	922.79
408.401	972.95
408.779	989.68
409.156	976.57
409.534	1011.37
409.912	1004.14
410.29	1032.84
410.667	1050.92
411.045	1064.7
411.422	1082.33
411.8	1107.87
412.178	1129.56
412.555	1159.84
412.933	1166.62
413.31	1168.43
413.687	1198.49
414.065	1221.31
414.442	1218.82
414.819	1221.99
415.197	1244.36
415.574	1277.58
415.951	1309.89
416.328	1314.87
416.705	1321.87
417.082	1333.17
417.46	1354.64
417.837	1386.28
418.214	1394.86
418.591	1388.76
418.967	1405.03
419.344	1432.83
419.721	1443
420.098	1464.02
420.475	1466.5
420.852	1499.49
421.228	1533.17
421.605	1530
421.982	1531.58
422.358	1581.98
422.735	1604.35
423.111	1591.47
423.488	1644.8
423.864	1619.94
424.241	1644.58
424.617	1694.52
424.994	1689.55
425.37	1704.23
425.746	1733.84
426.123	1744.46
426.499	1764.35
426.875	1784.23
427.251	1806.83
427.627	1841.86
428.003	1853.16
428.379	1888.18
428.756	1894.06
429.132	1959.37
429.507	1972.48
429.883	1987.62
430.259	2011.8
430.635	2047.05
431.011	2055.41
431.387	2093.38
431.763	2116.2
432.138	2127.73
432.514	2208.18
432.89	2212.02
433.265	2248.63
433.641	2297.89
434.016	2294.73
434.392	2300.38
434.767	2360.26
435.143	2366.36
435.518	2417.66
435.894	2419.7
436.269	2440.49
436.644	2509.41
437.02	2541.73
437.395	2515.29
437.77	2573.82
438.145	2600.26
438.52	2656.75
438.895	2688.84
439.271	2727.26
439.646	2721.61
440.021	2772
440.395	2781.49
440.77	2743.08
441.145	2811.32
441.52	2863.07
441.895	2807.48
442.27	2900.81
442.645	2898.78
443.019	2921.6
443.394	2980.13
443.769	2977.87
444.143	2991.88
444.518	3055.84
444.892	3040.47
445.267	3060.81
445.641	3095.84
446.016	3126.12
446.39	3170.86
446.764	3182.39
447.139	3163.18
447.513	3228.94
447.887	3213.35
448.262	3239.79
448.636	3266
449.01	3296.51
449.384	3341.93
449.758	3383.74
450.132	3417.64
450.506	3408.37
450.88	3447.24
451.254	3485.43
451.628	3542.38
452.002	3572.89
452.376	3622.38
452.75	3647.23
453.123	3634.58
453.497	3788.7
453.871	3776.04
454.244	3889.94
454.618	3865.53
454.992	3958.64
455.365	3958.86
455.739	4044.06
456.112	4078.41
456.486	4174.23
456.859	4138.75
457.232	4237.28
457.606	4221.91
457.979	4265.98
458.352	4408.12
458.725	4447.44
459.099	4462.58
459.472	4575.35
459.845	4600.43
460.218	4680.65
460.591	4686.08
460.964	4751.61
461.337	4822.34
461.71	4959.06
462.083	4962.68
462.456	4948.22
462.829	5022.34
463.201	5132.17
463.574	5108.44
463.947	5215.78
464.32	5334.65
464.692	5380.97
465.065	5403.57
465.438	5485.83
465.81	5614.19
466.183	5694.64
466.555	5819.15
466.928	5859.38
467.3	5821.41
467.672	5940.73
468.045	6071.13
468.417	6065.7
468.789	6156.32
469.161	6267.28
469.534	6360.38
469.906	6482.19
470.278	6509.76
470.65	6608.06
471.022	6782.29
471.394	6848.73
471.766	6983.64
472.138	7039.91
472.51	7156.97
472.882	7333.69
473.253	7354.71
473.625	7486.68
473.997	7716.05
474.369	7698.43
474.74	7851.87
475.112	7982.49
475.484	8129.83
475.855	8276.04
476.227	8355.36
476.598	8600.78
476.97	8687.78
477.341	8897.49
477.713	9005.51
478.084	9078.73
478.455	9291.83
478.827	9394.2
479.198	9643.24
479.569	9641.43
479.94	9946.05
480.311	9994.41
480.682	10302.2
481.053	10511.23
481.424	10626.94
481.795	10870.55
482.166	11009.07
482.537	11119.58
482.908	11367.94
483.279	11509.63
483.65	11762.28
484.021	11955.26
484.391	12098.31
484.762	12211.76
485.133	12331.98
485.503	12549.6
485.874	12809.03
486.244	12902.36
486.615	13214.89
486.985	13435.68
487.356	13647.2
487.726	13753.64
488.097	14032.27
488.467	14019.17
488.837	14423.67
489.207	14531.47
489.578	14765.13
489.948	14866.83
490.318	15193.15
490.688	15250.77
491.058	15510.88
491.428	15641.95
491.798	15829.29
492.168	16138.66
492.538	16170.75
492.908	16422.04
493.278	16685.99
493.648	16782.26
494.017	16933.21
494.387	17181.12
494.757	17278.29
495.126	17472.41
495.496	17614.55
495.866	17650.26
496.235	17913.75
496.605	18085.5
496.974	18155.78
497.344	18393.51
497.713	18567.07
498.082	18616.33
498.452	18839.83
498.821	18863.11
499.19	19010.22
499.559	19256.09
499.928	19409.76
500.298	19515.97
500.667	19716.64
501.036	19757.09
501.405	19993.25
501.774	20032.57
502.143	20208.83
502.512	20247.02
502.88	20448.15
503.249	20632.78
503.618	20799.1
503.987	20875.03
504.356	21000
504.724	21239.77
505.093	21313.66
505.462	21338.07
505.83	21612.86
506.199	21836.81
506.567	22084.26
506.936	22026.19
507.304	22435.44
507.672	22446.06
508.041	22581.88
508.409	22786.84
508.777	23011.02
509.145	23233.16
509.514	23131.69
509.882	23379.37
510.25	23539.59
510.618	23722.64
510.986	23899.36
511.354	24107.49
511.722	24246.92
512.09	24576.4
512.458	24569.17
512.826	24772.33
513.193	24864.76
513.561	25059.78
513.929	25214.13
514.297	25417.96
514.664	25770.72
515.032	25796.71
515.4	26004.61
515.767	26112.63
516.135	26317.37
516.502	26331.38
516.869	26751.94
517.237	26817.92
517.604	26785.38
517.972	27221.98
518.339	27320.51
518.706	27459.49
519.073	27685.92
519.44	27803.44
519.808	28182.41
520.175	28195.06
520.542	28579.46
520.909	28822.17
521.276	28813.8
521.643	29003.4
522.009	29280.91
522.376	29538.31
522.743	29814
523.11	29996.6
523.477	30397.49
523.843	30511.61
524.21	30796.13
524.577	30805.62
524.943	31181.88
525.31	31258.71
525.676	31707.06
526.043	31718.13
526.409	31964.91
526.776	32355.18
527.142	32325.8
527.508	32550.88
527.874	32805.34
528.241	32870.42
528.607	33239.45
528.973	33459.33
529.339	33505.21
529.705	33883.5
530.071	34170.95
530.437	34134.79
530.803	34545.41
531.169	34664.72
531.535	34537.04
531.901	34718.96
532.267	35047.76
532.632	35267.42
532.998	35285.05
533.364	35454.31
533.73	35623.34
534.095	35998.02
534.461	36053.16
534.826	36319.6
535.192	36346.04
535.557	36730.21
535.923	36578.12
536.288	36825.35
536.653	37083.64
537.019	36986.25
537.384	37220.14
537.749	37372.22
538.114	37510.3
538.479	37567.02
538.845	37815.38
539.21	37753.91
539.575	38014.47
539.94	38158.64
540.305	38415.59
540.67	38453.33
541.034	38703.04
541.399	38749.14
541.764	38908.68
542.129	39045.63
542.494	39176.02
542.858	39359.74
543.223	39359.06
543.587	39691.26
543.952	39644.71
544.316	39837.92
544.681	39906.85
545.045	40086.73
545.41	40307.97
545.774	40386.16
546.138	40524.91
546.503	40602.2
546.867	40743.66
547.231	41058.91
547.595	41089.64
547.959	41309.07
548.324	41147.04
548.688	41469.29
549.052	41551.32
549.416	41695.73
549.779	41879
550.143	41984.53
550.507	42283.51
550.871	42464.52
551.235	42548.81
551.599	42814.34
551.962	42857.05
552.326	43135.46
552.689	43264.95
553.053	43157.38
553.417	43384.72
553.78	43941.77
554.143	43835.1
554.507	44125.49
554.87	44349.67
555.234	44817.23
555.597	44523.45
555.96	44783.55
556.323	44955.3
556.686	45078.24
557.05	45372.47
557.413	45417.66
557.776	45558.45
558.139	45849.51
558.502	46087.7
558.865	46189.39
559.228	46355.72
559.59	46517.52
559.953	46696.95
560.316	47033.89
560.679	47062.82
561.041	47299.42
561.404	47502.8
561.767	47886.98
562.129	47664.16
562.492	48110.47
562.854	48033.41
563.217	48206.29
563.579	48332.16
563.941	48590.01
564.304	48767.86
564.666	48967.17
565.028	49006.27
565.39	49251.23
565.753	49308.41
566.115	49512.7
566.477	49608.06
566.839	49705.46
567.201	49869.52
567.563	50069.74
567.925	50147.03
568.287	50290.08
568.648	50345.67
569.01	50514.48
569.372	50868.14
569.734	50747.92
570.095	50950.17
570.457	51135.7
570.819	51107.91
571.18	51151.52
571.542	51392.87
571.903	51331.4
572.265	51574.56
572.626	51589.7
572.987	51707.67
573.349	51804.16
573.71	51931.39
574.071	51994.89
574.432	52129.58
574.794	52296.35
575.155	52306.29
575.516	52273.3
575.877	52421.32
576.238	52430.58
576.599	52578.83
576.96	52523.92
577.32	52585.38
577.681	52723.68
578.042	52798.71
578.403	52778.37
578.763	52806.17
579.124	52864.02
579.485	52990.8
579.845	53129.32
580.206	52922.55
580.566	53030.34
580.927	53156.89
581.287	53172.94
581.648	53050.91
582.008	53173.16
582.368	53208.64
582.728	53318.24
583.089	53287.74
583.449	53199.15
583.809	53227.85
584.169	53350.56
584.529	53290.9
584.889	53451.8
585.249	53288.87
585.609	53158.7
585.969	53449.54
586.329	53368.64
586.688	53453.38
587.048	53375.64
587.408	53268.75
587.768	53407.06
588.127	53263.56
588.487	53306.95
588.846	53594.17
589.206	53324.35
589.565	53349.88
589.925	53476.21
590.284	53400.73
590.643	53463.33
591.003	53461.97
591.362	53589.65
591.721	53511.01
592.08	53586.03
592.44	53577.45
592.799	53494.96
593.158	53549.2
593.517	53483.21
593.876	53610.44
594.235	53515.3
594.593	53546.71
594.952	53630.55
595.311	53600.5
595.67	53646.82
596.029	53728.4
596.387	53759.82
596.746	53848.17
597.104	53695.64
597.463	53678.24
597.822	53786.71
598.18	53666.48
598.538	53727.05
598.897	53861.96
599.255	53630.78
599.613	54054.04
599.972	53822.19
600.33	53933.6
600.688	53855.18
601.046	53913.48
601.404	54064.89
601.762	53993.93
602.12	54088.17
602.478	54078.45
602.836	54113.7
603.194	53992.13
603.552	54070.32
603.91	53966.36
604.268	54159.8
604.625	54126.36
604.983	54139.47
605.341	54017.89
605.698	54261.27
606.056	54274.6
606.413	54319.57
606.771	54377.2
607.128	54432.11
607.485	54291.78
607.843	54296.07
608.2	54455.62
608.557	54552.79
608.914	54459.68
609.272	54624.43
609.629	54584.88
609.986	54755.95
610.343	54610.19
610.7	54761.6
611.057	54755.5
611.414	54733.57
611.771	54599.34
612.127	54798.21
612.484	54781.94
612.841	54807.25
613.198	54823.52
613.554	54784.42
613.911	54968.15
614.267	54927.24
614.624	54876.62
614.98	54946.68
615.337	55100.8
615.693	54962.5
616.05	55020.12
616.406	55115.26
616.762	55085.2
617.118	55096.28
617.475	55155.26
617.831	55248.14
618.187	55197.52
618.543	55302.15
618.899	55368.59
619.255	55376.27
619.611	55387.12
619.967	55420.79
620.323	55481.58
620.678	55309.38
621.034	55262.83
621.39	55402.26
621.746	55378.08
622.101	55608.35
622.457	55507.79
622.812	55510.28
623.168	55504.63
623.523	55544.4
623.879	55532.88
624.234	55346.44
624.589	55415.82
624.945	55533.33
625.3	55556.38
625.655	55445.19
626.01	55486.55
626.365	55618.98
626.72	55498.07
627.075	55491.75
627.43	55441.35
627.785	55376.5
628.14	55414.69
628.495	55481.13
628.85	55416.27
629.205	55363.39
629.559	55541.69
629.914	55324.97
630.269	55342.6
630.623	55334.92
630.978	55208.82
631.332	55347.34
631.687	55462.6
632.041	55292.66
632.396	55344.86
632.75	55219.89
633.104	55192.55
633.459	55155.71
633.813	55108.93
634.167	55099.89
634.521	55001.59
634.875	55037.97
635.229	55041.36
635.583	54966.34
635.937	54975.6
636.291	54960.01
636.645	55009.73
636.999	54849.05
637.352	54985.32
637.706	54801.37
638.06	54929.28
638.413	54806.57
638.767	54751.2
639.121	54815.15
639.474	54581.49
639.828	54622.62
640.181	54689.51
640.534	54653.58
640.888	54616.74
641.241	54457.2
641.594	54534.03
641.947	54555.95
642.301	54442.06
642.654	54390.53
643.007	54484.77
643.36	54480.02
643.713	54387.82
644.066	54446.58
644.419	54210.2
644.771	54058.34
645.124	53808.4
645.477	53706.26
645.83	53548.75
646.182	53469.2
646.535	53241.64
646.888	53464.68
647.24	53273.73
647.593	53391.46
647.945	53239.38
648.298	53049.33
648.65	53021.98
649.002	52988.54
649.355	53132.49
649.707	53110.79
650.059	53240.96
650.411	53511.69
650.763	53562.76
651.115	53864.45
651.467	53780.83
651.819	53759.36
652.171	53689.08
652.523	53596.43
652.875	53642.08
653.227	53513.72
653.578	53731.34
653.93	53585.36
654.282	53441.41
654.633	53491.57
654.985	53438.47
655.337	53492.7
655.688	53377
656.039	53484.12
656.391	53278.47
656.742	53238.02
657.094	53325.7
657.445	53425.81
657.796	53345.36
658.147	53233.05
658.498	53139.94
658.849	53282.54
659.2	53187.17
659.551	53161.19
659.902	53192.82
660.253	53176.1
660.604	53103.11
660.955	52996.22
661.306	53146.05
661.656	53053.39
662.007	52970.46
662.358	52961.19
662.708	52920.29
663.059	53043
663.409	52788.99
663.76	52945.6
664.11	52971.36
664.461	52991.47
664.811	52914.19
665.161	52930.23
665.511	52792.61
665.862	52904.02
666.212	52971.59
666.562	52899.5
666.912	52842.33
667.262	52819.95
667.612	52826.51
667.962	52914.19
668.312	52747.86
668.662	52854.3
669.011	52756.45
669.361	52727.3
669.711	52683.46
670.06	52610.69
670.41	52617.25
670.76	52667.41
671.109	52705.15
671.459	52599.85
671.808	52549.45
672.157	52509.45
672.507	52369.12
672.856	52403.69
673.205	52387.42
673.554	52556.23
673.904	52329.34
674.253	52506.97
674.602	52450.92
674.951	52022.01
675.3	51692.07
675.649	52307.42
675.998	52196.01
676.346	52228.56
676.695	52355.33
677.044	52025.17
677.393	52205.73
677.741	52220.42
678.09	52120.08
678.438	52012.97
678.787	52037.15
679.135	51995.79
679.484	51823.82
679.832	51980.65
680.181	51741.79
680.529	51828.11
680.877	51788.12
681.225	51781.79
681.573	51920.32
681.922	51671.73
682.27	51654.33
682.618	51631.28
682.966	51518.74
683.314	51522.13
683.661	51373.66
684.009	51239.43
684.357	51066.33
684.705	51014.35
685.053	51080.56
685.4	51071.52
685.748	50898.2
686.095	50946.33
686.443	50673.79
686.79	50646.9
687.138	50789.05
687.485	50813.68
687.832	50563.29
688.18	50645.77
688.527	50342.73
688.874	50380.02
689.221	50282.62
689.568	50177.99
689.915	50025.9
690.262	50103.41
690.609	49959.24
690.956	49803.76
691.303	49738.45
691.65	49607.38
691.997	49561.96
692.344	49319.93
692.69	49380.72
693.037	49361.74
693.383	48861.19
693.73	49112.03
694.077	48984.57
694.423	48917.68
694.769	48806.95
695.116	48723.56
695.462	48563.79
695.808	48538.48
696.155	48544.81
696.501	48287.87
696.847	48261.2
697.193	48117.48
697.539	48165.84
697.885	47923.13
698.231	47667.09
698.577	47695.34
698.923	47639.75
699.269	47538.96
699.614	47372.86
699.96	47403.15
700.306	47271.4
700.651	46896.94
700.997	46891.07
701.342	46976.72
701.688	46926.55
702.033	46680.45
702.379	46675.03
702.724	46372.89
703.069	46539.89
703.415	46137.64
703.76	46119.34
704.105	46083.63
704.45	46066.91
704.795	45722.06
705.14	45772.91
705.485	45887.25
705.83	45687.26
706.175	45549.64
706.52	45391.45
706.865	45218.12
707.209	45168.85
707.554	45102.87
707.899	45400.94
708.243	45032.14
708.588	44910.1
708.932	44674.18
709.277	44786.04
709.621	44778.58
709.966	44442.55
710.31	44572.03
710.654	44191.48
710.998	44271.03
711.342	44329.33
711.687	44193.97
712.031	43980.19
712.375	43880.98
712.719	43993.29
713.063	43763.69
713.407	43967.3
713.75	43564.15
714.094	43639.63
714.438	43496.81
714.782	43543.13
715.125	43198.74
715.469	43406.64
715.812	43054.11
716.156	42863.83
716.499	42941.79
716.843	42877.84
717.186	42646.21
717.53	42819.54
717.873	42725.08
718.216	42777.28
718.559	42530.73
718.902	42298.2
719.246	42328.7
719.589	42104.08
719.932	42214.58
720.275	42150.4
720.617	42010.29
720.96	42004.42
721.303	42020.46
721.646	41995.6
721.989	41608.95
722.331	41736.63
722.674	41545.45
723.016	41598.33
723.359	41498.67
723.701	41504.09
724.044	41337.54
724.386	41330.99
724.729	41378.67
725.071	41199.24
725.413	41149.3
725.755	41147.04
726.097	40851
726.439	40691.68
726.782	40763.55
727.124	40858.23
727.465	40770.1
727.807	40663.21
728.149	40500.5
728.491	40531.46
728.833	40481.97
729.175	40482.42
729.516	40268.87
729.858	40208.31
730.199	40431.58
730.541	40098.71
730.882	40152.49
731.224	40197.23
731.565	39897.81
731.906	39970.12
732.248	39879.95
732.589	39686.29
732.93	39609
733.271	39693.29
733.612	39714.08
733.953	39648.55
734.294	39460.08
734.635	39391.15
734.976	39550.92
735.317	39275.45
735.658	39155.45
735.999	39093.31
736.339	39353.19
736.68	39302.12
737.021	39118.17
737.361	38948
737.702	39028
738.042	38886.53
738.383	38783.03
738.723	38896.48
739.063	38642.47
739.404	38771.28
739.744	38676.6
740.084	38631.85
740.424	38611.06
740.764	38383.72
741.104	38608.58
741.444	38293.1
741.784	38224.18
742.124	38234.8
742.464	38166.33
742.804	38116.38
743.143	38062.15
743.483	38162.03
743.823	37881.14
744.162	37874.58
744.502	37930.85
744.841	37757.52
745.181	37757.98
745.52	37471.43
745.86	37797.52
746.199	37539.45
746.538	37567.02
746.877	37705.77
747.216	37602.05
747.556	37353.47
747.895	37291.1
748.234	37190.53
748.573	37137.43
748.911	37005.45
749.25	37091.55
749.589	36928.85
749.928	36937.21
750.267	36943.99
750.605	36734.5
750.944	36821.5
751.283	36602.3
751.621	36642.75
751.96	36386.26
752.298	36431.46
752.636	36523.88
752.975	36357.79
753.313	36275.53
