Data from whiteboard_FLMS001491_00068.txt Node
Date: Wed Feb 08 11:27:30 GMT 2017
User: dcchb
Spectrometer: FLMS00149
Trigger mode: 0
Integration Time (sec): 2.000000E-2
Scans to average: 10
Electric dark correction enabled: true
Nonlinearity correction enabled: false
Boxcar width: 0
XAxis mode: Wavelengths
Number of Pixels in Spectrum: 2048
>>>>>Begin Spectral Data<<<<<
341.393	-6.13
341.776	-6.13
342.16	-6.13
342.543	-66.47
342.927	-69.86
343.31	-65.79
343.693	-65.34
344.077	-73.7
344.46	-75.73
344.843	-77.09
345.226	-59.69
345.61	-44.32
345.993	-0.71
346.376	-2.74
346.759	6.53
347.142	38.61
347.525	65.51
347.908	82.91
348.291	73.42
348.674	81.55
349.057	116.58
349.44	133.53
349.823	133.3
350.206	176.01
350.588	226.63
350.971	223.24
351.354	274.99
351.737	266.41
352.119	260.3
352.502	282.9
352.884	302.11
353.267	316.12
353.65	324.71
354.032	330.81
354.414	332.84
354.797	319.29
355.179	339.85
355.562	351.37
355.944	373.97
356.326	344.14
356.709	382.56
357.091	360.19
357.473	394.54
357.855	378.94
358.238	384.14
358.62	393.63
359.002	371.71
359.384	360.87
359.766	357.7
360.148	374.88
360.53	376.69
360.912	364.71
361.294	361.77
361.676	387.31
362.057	383.69
362.439	376.46
362.821	367.19
363.203	367.65
363.584	366.29
363.966	362.67
364.348	363.13
364.729	387.76
365.111	365.39
365.493	368.32
365.874	374.2
366.256	352.73
366.637	378.04
367.019	373.97
367.4	368.1
367.781	379.17
368.163	379.62
368.544	372.62
368.925	371.71
369.306	353.41
369.688	378.94
370.069	380.53
370.45	392.05
370.831	387.31
371.212	379.17
371.593	370.13
371.974	370.13
372.355	374.88
372.736	381.66
373.117	380.53
373.498	369.45
373.879	375.1
374.26	393.41
374.641	368.1
375.021	382.79
375.402	377.36
375.783	400.19
376.163	395.44
376.544	416.23
376.925	411.03
377.305	418.04
377.686	416.01
378.066	421.88
378.447	393.63
378.827	409.9
379.208	409.45
379.588	408.32
379.968	404.48
380.349	429.56
380.729	422.56
381.109	436.57
381.489	453.52
381.87	442.22
382.25	452.84
382.63	446.06
383.01	441.32
383.39	450.36
383.77	452.84
384.15	486.06
384.53	456.23
384.91	462.56
385.29	480.19
385.67	468.43
386.049	494.42
386.429	480.64
386.809	502.33
387.189	498.49
387.568	502.56
387.948	508.43
388.328	520.41
388.707	504.82
389.087	532.39
389.466	519.05
389.846	526.29
390.225	567.19
390.605	532.61
390.984	540.07
391.363	564.25
391.743	583.01
392.122	569.22
392.501	570.58
392.881	612.61
393.26	606.51
393.639	597.7
394.018	628.43
394.397	610.13
394.776	639.28
395.155	646.06
395.534	638.37
395.913	652.16
396.292	659.39
396.671	686.96
397.05	698.03
397.429	680.86
397.808	707.98
398.186	681.54
398.565	750.46
398.944	718.37
399.323	719.5
399.701	770.12
400.08	767.86
400.458	780.52
400.837	790.23
401.215	801.76
401.594	810.8
401.972	817.8
402.351	839.95
402.729	834.07
403.107	867.52
403.486	889.21
403.864	896.67
404.242	924.69
404.62	917.91
404.999	939.16
405.377	965.82
405.755	977.12
406.133	986.61
406.511	1008.31
406.889	991.36
407.267	1051.47
407.645	1055.54
408.023	1106.84
408.401	1137.12
408.779	1115.65
409.156	1134.41
409.534	1174.4
409.912	1173.95
410.29	1210.56
410.667	1237.91
411.045	1270.45
411.422	1312.71
411.8	1313.61
412.178	1346.38
412.555	1347.28
412.933	1388.41
413.31	1390.9
413.687	1453.27
414.065	1441.06
414.442	1448.75
414.819	1506.15
415.197	1532.13
415.574	1543.89
415.951	1580.5
416.328	1596.77
416.705	1604
417.082	1616.88
417.46	1627.27
417.837	1727.38
418.214	1706.82
418.591	1716.08
418.967	1771.68
419.344	1752.69
419.721	1779.59
420.098	1836.31
420.475	1812.58
420.852	1819.13
421.228	1853.48
421.605	1879.7
421.982	1909.07
422.358	1942.07
422.735	1978
423.111	1980.26
423.488	2024.78
423.864	2011.22
424.241	2058.22
424.617	2084.66
424.994	2100.48
425.37	2108.84
425.746	2159.91
426.123	2197.65
426.499	2245.56
426.875	2286.01
427.251	2306.13
427.627	2356.97
428.003	2369.17
428.379	2410.53
428.756	2440.13
429.132	2438.78
429.507	2504.09
429.883	2545.44
430.259	2580.02
430.635	2580.92
431.011	2620.02
431.387	2671.09
431.763	2728.26
432.138	2749.73
432.514	2780.46
432.89	2821.59
433.265	2884.87
433.641	2918.54
434.016	2999.67
434.392	2984.98
434.767	3064.75
435.143	3014.81
435.518	3085.77
435.894	3157.85
436.269	3219.55
436.644	3253.45
437.02	3284.63
437.395	3293.22
437.77	3388.58
438.145	3392.2
438.52	3428.58
438.895	3485.76
439.271	3495.25
439.646	3573.21
440.021	3601.91
440.395	3617.73
440.77	3596.94
441.145	3682.59
441.52	3741.12
441.895	3760.78
442.27	3760.1
442.645	3809.59
443.019	3828.12
443.394	3866.08
443.769	3902.47
444.143	3893.88
444.518	3962.58
444.892	3979.75
445.267	3993.99
445.641	4044.39
446.016	4024.95
446.39	4120.77
446.764	4130.94
447.139	4135.23
447.513	4206.19
447.887	4202.57
448.262	4215.68
448.636	4251.39
449.01	4349.24
449.384	4355.56
449.758	4393.75
450.132	4464.04
450.506	4493.41
450.88	4549.46
451.254	4546.52
451.628	4621.32
452.002	4690.47
452.376	4757.36
452.75	4767.76
453.123	4837.13
453.497	4963.46
453.871	4956.9
454.244	5103.79
454.618	5131.14
454.992	5161.87
455.365	5197.8
455.739	5316.22
456.112	5364.35
456.486	5484.8
456.859	5450.9
457.232	5591.69
457.606	5603.44
457.979	5691.8
458.352	5792.59
458.725	5844.11
459.099	5862.42
459.472	6010.21
459.845	6050.21
460.218	6141.96
460.591	6242.07
460.964	6244.55
461.337	6376.75
461.71	6447.94
462.083	6507.82
462.456	6537.43
462.829	6624.2
463.201	6730.64
463.574	6785.56
463.947	6970.18
464.32	7050.41
464.692	7121.37
465.065	7172.89
465.438	7407.91
465.81	7427.57
466.183	7527.23
466.555	7714.57
466.928	7796.38
467.3	7790.95
467.672	7922.48
468.045	8141.45
468.417	8181.45
468.789	8238.63
469.161	8380.99
469.534	8475.68
469.906	8629.35
470.278	8742.34
470.65	8828.67
471.022	8986.18
471.394	9201.31
471.766	9258.26
472.138	9359.73
472.51	9627.29
472.882	9617.12
473.253	9832.03
473.625	9940.73
473.997	10187.73
474.369	10220.04
474.74	10350.89
475.112	10566.7
475.484	10750.42
475.855	10912.45
476.227	10958.78
476.598	11398.32
476.97	11389.5
477.341	11764.86
477.713	11837.63
478.084	12007.34
478.455	12316.94
478.827	12420.66
479.198	12807.77
479.569	12847.54
479.94	13284.59
480.311	13414.76
480.682	13707.18
481.053	14033.73
481.424	14203.67
481.795	14352.14
482.166	14584.9
482.537	14805.46
482.908	15079.35
483.279	15295.39
483.65	15550.75
484.021	15877.97
484.391	16102.15
484.762	16222.82
485.133	16371.97
485.503	16571.29
485.874	17093.99
486.244	17210.14
486.615	17573.29
486.985	17683.8
487.356	17958.14
487.726	18086.05
488.097	18565.36
488.467	18595.87
488.837	18944.78
489.207	19182.29
489.578	19473.81
489.948	19609.63
490.318	20041.93
490.688	20019.78
491.058	20294.81
491.428	20669.94
491.798	20844.85
492.168	21154.9
492.538	21285.51
492.908	21595.11
493.278	21931.37
493.648	21988.77
494.017	22317.13
494.387	22453.17
494.757	22697.91
495.126	22903.1
495.496	22937.9
495.866	23201.62
496.235	23529.75
496.605	23776.75
496.974	23935.84
497.344	24008.15
497.713	24183.74
498.082	24486.33
498.452	24719.55
498.821	24830.28
499.19	24832.09
499.559	25112.98
499.928	25294.22
500.298	25539.41
500.667	25780.76
501.036	25799.75
501.405	26107.53
501.774	26157.25
502.143	26420.52
502.512	26630.23
502.88	26810.34
503.249	26790.68
503.618	27144.12
503.987	27168.07
504.356	27399.93
504.724	27713.82
505.093	27691
505.462	27814.83
505.83	28097.76
506.199	28286.91
506.567	28616.39
506.936	28643.74
507.304	29034.91
507.672	29177.96
508.041	29287.34
508.409	29548.35
508.777	29848.23
509.145	29995.57
509.514	30073.98
509.882	30395.78
510.25	30418.15
510.618	30495.89
510.986	30679.62
511.354	30972.94
511.722	31402.31
512.09	31521.85
512.458	31628.74
512.826	31904.22
513.193	32092.01
513.561	32147.6
513.929	32348.05
514.297	32653.58
514.664	32946.9
515.032	33029.84
515.4	33384.63
515.767	33423.73
516.135	33727.67
516.502	33659.43
516.869	34302.57
517.237	34433.19
517.604	34373.98
517.972	34929.22
518.339	35137.35
518.706	35177.8
519.073	35553.16
519.44	35731.91
519.808	36160.83
520.175	36186.14
520.542	36626.13
520.909	36713.13
521.276	36942.28
521.643	37354.7
522.009	37575.25
522.376	37800.11
522.743	38083.04
523.11	38516.47
523.477	38820.19
523.843	39004.37
524.21	39491.14
524.577	39725.25
524.943	39946.94
525.31	40169.54
525.676	40554.16
526.043	40807.03
526.409	40851.1
526.776	41329.51
527.142	41340.35
527.508	41660.8
527.874	41887.46
528.241	42020.11
528.607	42168.81
528.973	42700.09
529.339	42591.62
529.705	43058.5
530.071	43340.3
530.437	43374.88
530.803	43601.99
531.169	44032.26
531.535	43897.8
531.901	43987.97
532.267	44256.44
532.632	44677.22
532.998	44770.32
533.364	44945.46
533.73	44968.51
534.095	45448.49
534.461	45781.59
534.826	45831.08
535.192	45886
535.557	46251.86
535.923	46156.95
536.288	46495.7
536.653	46648.91
537.019	46596.94
537.384	46782.47
537.749	47002.13
538.114	47111.95
538.479	47151.95
538.845	47518.27
539.21	47500.87
539.575	47744.48
539.94	47884.59
540.305	48086.17
540.67	48070.12
541.034	48230.79
541.399	48494.97
541.764	48584.91
542.129	48698.35
542.494	48893.83
542.858	49007.5
543.223	49199.81
543.587	49356.87
543.952	49489.97
544.316	49560.93
544.681	49641.15
545.045	49686.8
545.41	49904.2
545.774	49995.95
546.138	50122.5
546.503	50200.69
546.867	50136.28
547.231	50553.22
547.595	50504.18
547.959	50673.89
548.324	50779.43
548.688	50760.22
549.052	50965.19
549.416	50994.79
549.779	51040.21
550.143	51080.66
550.507	51311.16
550.871	51385.51
551.235	51412.41
551.599	51584.6
551.962	51612.17
552.326	51734.43
552.689	51861.88
553.053	51841.32
553.417	51890.58
553.78	52284.02
554.143	52171.03
554.507	52358.14
554.87	52421.64
555.234	52685.82
555.597	52543.67
555.96	52622.77
556.323	52869.99
556.686	52810.79
557.05	53173.71
557.413	53192.25
557.776	53336.87
558.139	53477.44
558.502	53524.67
558.865	53603.76
559.228	53911.55
559.59	53894.37
559.953	54014.37
560.316	54312.67
560.679	54270.18
561.041	54471.99
561.404	54629.04
561.767	54738.65
562.129	54641.7
562.492	55086.43
562.854	55085.98
563.217	55138.18
563.579	55265.86
563.941	55560.32
564.304	55614.33
564.666	55768.22
565.028	55829.69
565.39	56005.5
565.753	56192.17
566.115	56170.47
566.477	56341.54
566.839	56365.04
567.201	56585.6
567.563	56576.79
567.925	56788.54
568.287	56776.33
568.648	56884.8
569.01	57038.47
569.372	57142.2
569.734	57102.2
570.095	57266.71
570.457	57275.98
570.819	57305.13
571.18	57380.16
571.542	57492.92
571.903	57499.48
572.265	57580.38
572.626	57643.2
572.987	57639.36
573.349	57805.46
573.71	57810.66
574.071	57888.85
574.432	57963.19
574.794	58158.89
575.155	58011.55
575.516	57934.72
575.877	58099.91
576.238	58132
576.599	58151.21
576.96	58165
577.32	58218.1
577.681	58357.08
578.042	58281.6
578.403	58350.3
578.763	58372.9
579.124	58391.43
579.485	58417.19
579.845	58492.22
580.206	58394.14
580.566	58520.92
580.927	58501.48
581.287	58635.49
581.648	58535.83
582.008	58669.84
582.368	58589.39
582.728	58726.11
583.089	58646.11
583.449	58636.85
583.809	58826.9
584.169	58811.08
584.529	58804.98
584.889	58942.38
585.249	58838.65
585.609	58840.91
585.969	59016.5
586.329	58963.39
586.688	58991.64
587.048	59019.66
587.408	59047.23
587.768	59096.05
588.127	59080.68
588.487	59092.2
588.846	59341.24
589.206	59110.96
589.565	59167.91
589.925	59335.36
590.284	59276.83
590.643	59301.24
591.003	59395.47
591.362	59398.41
591.721	59409.26
592.08	59367.22
592.44	59440.89
592.799	59445.19
593.158	59398.86
593.517	59405.87
593.876	59409.26
594.235	59354.57
594.593	59324.51
594.952	59413.78
595.311	59307.34
595.67	59339.2
596.029	59517.28
596.387	59400.9
596.746	59405.42
597.104	59265.53
597.463	59341.24
597.822	59357.73
598.18	59237.51
598.538	59215.36
598.897	59350.05
599.255	59112.32
599.613	59466.66
599.972	59230.5
600.33	59250.17
600.688	59094.46
601.046	59261.01
601.404	59305.53
601.762	59191.64
602.12	59311.63
602.478	59289.94
602.836	59219.88
603.194	59133.78
603.552	59222.82
603.91	59114.58
604.268	59276.83
604.625	59187.12
604.983	59272.31
605.341	59148.92
605.698	59331.75
606.056	59411.97
606.413	59342.59
606.771	59429.6
607.128	59501.91
607.485	59395.25
607.843	59493.1
608.2	59646.54
608.557	59760.66
608.914	59662.13
609.272	59708.68
609.629	59815.12
609.986	59859.41
610.343	59770.15
610.7	59968.56
611.057	59970.37
611.414	59903.48
611.771	60013.99
612.127	60132.63
612.484	60150.03
612.841	60250.36
613.198	60244.94
613.554	60239.52
613.911	60376.01
614.267	60384.82
614.624	60309.35
614.98	60430.7
615.337	60624.82
615.693	60529
616.05	60526.97
616.406	60642.9
616.762	60590.24
617.118	60617.59
617.475	60585.5
617.831	60654.2
618.187	60626.85
618.543	60661.88
618.899	60807.86
619.255	60736.23
619.611	60726.06
619.967	60786.4
620.323	60708.88
620.678	60736.68
621.034	60626.17
621.39	60556.35
621.746	60572.62
622.101	60756.34
622.457	60529.45
622.812	60530.13
623.168	60639.96
623.523	60579.85
623.879	60609.68
624.234	60418.5
624.589	60472.96
624.945	60402.45
625.3	60457.82
625.655	60367.65
626.01	60364.03
626.365	60296.01
626.72	60282.45
627.075	60208.78
627.43	60227.77
627.785	60159.75
628.14	60215.34
628.495	60158.84
628.85	60191.38
629.205	60078.84
629.559	60256.69
629.914	60078.17
630.269	60067.09
630.623	59990.03
630.978	59988.45
631.332	60089.24
631.687	60096.24
632.041	60000.88
632.396	59991.61
632.75	59865.06
633.104	59920.88
633.459	59870.71
633.813	59854.9
634.167	59895.12
634.521	59903.93
634.875	59933.31
635.229	59862.13
635.583	59823.03
635.937	59846.53
636.291	59842.01
636.645	59852.18
636.999	59754.11
637.352	59926.08
637.706	59794.56
638.06	59897.83
638.413	59872.97
638.767	59756.14
639.121	59842.69
639.474	59712.07
639.828	59734.9
640.181	59767.67
640.534	59769.25
640.888	59762.69
641.241	59697.39
641.594	59795.91
641.947	59741.45
642.301	59776.48
642.654	59763.37
643.007	59806.08
643.36	59747.78
643.713	59613.09
644.066	59730.38
644.419	59582.13
644.771	59470.05
645.124	59367.68
645.477	59248.58
645.83	59001.58
646.182	58871.19
646.535	58795.94
646.888	58851.53
647.24	58639.11
647.593	58769.27
647.945	58735.83
648.298	58602.27
648.65	58450.41
649.002	58413.35
649.355	58505.33
649.707	58448.38
650.059	58489.06
650.411	58770.18
650.763	58725.43
651.115	58904.19
651.467	58837.75
651.819	58768.14
652.171	58742.38
652.523	58666
652.875	58621.71
653.227	58453.8
653.578	58576.96
653.93	58506.91
654.282	58376.74
654.633	58311.88
654.985	58391.66
655.337	58337.19
655.688	58357.08
656.039	58405.67
656.391	58110.08
656.742	58114.15
657.094	58133.13
657.445	58211.77
657.796	58130.87
658.147	58069.18
658.498	58105.34
658.849	58141.72
659.2	58105.56
659.551	57916.19
659.902	58022.17
660.253	57972.46
660.604	57981.5
660.955	57926.13
661.306	57983.31
661.656	57968.39
662.007	58031.44
662.358	58036.86
662.708	57988.28
663.059	58008.39
663.409	57884.33
663.76	58071.44
664.11	57922.06
664.461	58007.03
664.811	58031.21
665.161	58011.33
665.511	57984.21
665.862	58078.9
666.212	58051.33
666.562	58047.03
666.912	58050.42
667.262	57958.67
667.612	58052.68
667.962	57988.96
668.312	58050.42
668.662	58132.68
669.011	58042.51
669.361	58028.5
669.711	58022.17
670.06	58026.47
670.41	57967.49
670.76	57894.72
671.109	58080.7
671.459	57995.06
671.808	57890.65
672.157	58037.32
672.507	57798.9
672.856	57797.32
673.205	57866.02
673.554	57921.61
673.904	57810.88
674.253	57941.27
674.602	57859.47
674.951	57429.2
675.3	57300.16
675.649	57704.9
675.998	57653.82
676.346	57634.39
676.695	57725.91
677.044	57485.01
677.393	57572.24
677.741	57598.01
678.09	57567.5
678.438	57355.98
678.787	57461.74
679.135	57418.35
679.484	57177.45
679.832	57202.76
680.181	57064.01
680.529	57125.7
680.877	57037.79
681.225	56937.23
681.573	57099.71
681.922	56837.35
682.27	56804.35
682.618	56740.17
682.966	56610.91
683.314	56640.97
683.661	56565.04
684.009	56425.15
684.357	56392.61
684.705	56294.99
685.053	56317.59
685.4	56352.16
685.748	56149.91
686.095	56158.04
686.443	56103.81
686.79	55959.4
687.138	56006.41
687.485	56033.98
687.832	55825.17
688.18	55970.48
688.527	55801.22
688.874	55746.75
689.221	55740.88
689.568	55653.2
689.915	55638.06
690.262	55601.22
690.609	55568.91
690.956	55452.98
691.303	55408.23
691.65	55253.43
691.997	55219.76
692.344	55176.37
692.69	55107.9
693.037	55135.25
693.383	54871.98
693.73	54917.62
694.077	54798.08
694.423	54808.02
694.769	54774.12
695.116	54685.09
695.462	54780.68
695.808	54634.47
696.155	54648.25
696.501	54418.43
696.847	54426.34
697.193	54198.77
697.539	54335.27
697.885	54187.7
698.231	54160.36
698.577	54037.42
698.923	54094.59
699.269	53939.57
699.614	53732.12
699.96	53726.69
700.306	53742.06
700.651	53468.62
700.997	53431.79
701.342	53390.88
701.688	53396.76
702.033	53283.54
702.379	53282.19
702.724	53201.06
703.069	53109.54
703.415	52874.29
703.76	52957.68
704.105	52858.24
704.45	52813.95
704.795	52658.47
705.14	52547.97
705.485	52473.85
705.83	52297.13
706.175	52386.62
706.52	52249.22
706.865	52018.04
707.209	51999.51
707.554	51898.95
707.899	51828.89
708.243	51693.3
708.588	51665.51
708.932	51482.23
709.277	51399.98
709.621	51381.9
709.966	51284.05
710.31	51131.96
710.654	50974.68
710.998	50879.09
711.342	50866.88
711.687	50750.05
712.031	50480.9
712.375	50344.18
712.719	50376.5
713.063	50243.17
713.407	50432.54
713.75	50149.39
714.094	50168.37
714.438	49994.59
714.782	49931.31
715.125	49774.26
715.469	49862.62
715.812	49698.1
716.156	49505.11
716.499	49472.8
716.843	49479.57
717.186	49299.92
717.53	49404.32
717.873	49193.03
718.216	49141.5
718.559	49155.52
718.902	48786.94
719.246	48825.58
719.589	48737
719.932	48527.51
720.275	48567.28
720.617	48504.69
720.96	48546.49
721.303	48542.88
721.646	48438.02
721.989	48227.63
722.331	48347.63
722.674	48186.95
723.016	48217.24
723.359	48077.58
723.701	48222.43
724.044	47882.1
724.386	47695.44
724.729	47992.16
725.071	47801.2
725.413	47791.03
725.755	47635.78
726.097	47556.69
726.439	47471.72
726.782	47623.35
727.124	47705.16
727.465	47379.29
727.807	47459.51
728.149	47355.79
728.491	47243.25
728.833	47328.67
729.175	47144.95
729.516	47249.8
729.858	47163.7
730.199	47244.83
730.541	47085.06
730.882	47005.74
731.224	47093.42
731.565	46837.16
731.906	46910.83
732.248	46913.09
732.589	46766.88
732.93	46640.1
733.271	46705.18
733.612	46823.83
733.953	46787.44
734.294	46611.63
734.635	46472.87
734.976	46589.93
735.317	46307
735.658	46454.12
735.999	46296.83
736.339	46230.17
736.68	46234.24
737.021	45909.27
737.361	45872.89
737.702	45961.48
738.042	45870.4
738.383	45651.65
738.723	45710.63
739.063	45530.98
739.404	45559.68
739.744	45465.67
740.084	45173.47
740.424	45171.89
740.764	45146.58
741.104	45147.94
741.444	44762.41
741.784	44822.07
742.124	44801.05
742.464	44653.03
742.804	44564
743.143	44458.01
743.483	44409.65
743.823	44128.3
744.162	44071.13
744.502	44142.09
744.841	43888.99
745.181	43856.45
745.52	43638.37
745.86	43813.06
746.199	43598.15
746.538	43364.48
746.877	43509.34
747.216	43264.6
747.556	43077.94
747.895	43027.31
748.234	42879.97
748.573	42902.35
748.911	42701.45
749.25	42545.97
749.589	42412.87
749.928	42384.17
750.267	42443.38
750.605	42225.08
750.944	42165.19
751.283	41910.51
751.621	42024.4
751.96	41840
752.298	41724.98
752.636	41711.19
