Data from white_steel_sheet_FLMS001491_021.txt Node
Date: Tue Feb 07 10:57:36 GMT 2017
User: dcchb
Spectrometer: FLMS00149
Trigger mode: 0
Integration Time (sec): 2.000000E-2
Scans to average: 10
Electric dark correction enabled: true
Nonlinearity correction enabled: false
Boxcar width: 0
XAxis mode: Wavelengths
Number of Pixels in Spectrum: 2048
>>>>>Begin Spectral Data<<<<<
341.393	-7.88
341.776	-7.88
342.16	-7.88
342.543	-54.89
342.927	-72.74
343.31	-53.08
343.693	-69.57
344.077	-70.48
344.46	-50.59
344.843	-56.92
345.226	-26.86
345.61	-28.22
345.993	-33.87
346.376	-8.79
346.759	9.52
347.142	29.41
347.525	27.6
347.908	78.9
348.291	77.54
348.674	82.74
349.057	92.68
349.44	126.35
349.823	133.81
350.206	153.7
350.588	219.91
350.971	221.94
351.354	214.71
351.737	228.5
352.119	249.74
352.502	254.03
352.884	297.65
353.267	295.61
353.65	317.99
354.032	301.26
354.414	300.59
354.797	333.58
355.179	331.54
355.562	317.31
355.944	339.68
356.326	354.14
356.709	321.15
357.091	361.6
357.473	354.6
357.855	349.85
358.238	364.76
358.62	355.73
359.002	329.96
359.384	348.04
359.766	358.44
360.148	358.89
360.53	366.35
360.912	330.42
361.294	346.69
361.676	338.78
362.057	355.05
362.439	362.96
362.821	327.25
363.203	338.78
363.584	346.23
363.966	344.43
364.348	359.11
364.729	359.79
365.111	317.08
365.493	336.06
365.874	312.79
366.256	334.71
366.637	323.64
367.019	321.6
367.4	339.91
367.781	339
368.163	325.44
368.544	321.83
368.925	342.39
369.306	323.18
369.688	336.29
370.069	305.56
370.45	333.8
370.831	314.6
371.212	336.06
371.593	338.55
371.974	321.38
372.355	335.39
372.736	328.61
373.117	334.93
373.498	338.78
373.879	329.51
374.26	324.54
374.641	326.8
375.021	337.42
375.402	342.39
375.783	342.84
376.163	354.37
376.544	372.22
376.925	342.62
377.305	320.25
377.686	352.11
378.066	349.85
378.447	361.37
378.827	337.42
379.208	358.89
379.588	349.62
379.968	346.01
380.349	348.95
380.729	368.15
381.109	367.02
381.489	359.79
381.87	353.69
382.25	356.63
382.63	362.96
383.01	382.17
383.39	365.44
383.77	372.67
384.15	370.87
384.53	374.03
384.91	376.97
385.29	375.84
385.67	384.42
386.049	382.17
386.429	378.32
386.809	381.49
387.189	397.53
387.568	377.87
387.948	386.46
388.328	414.93
388.707	408.15
389.087	404.09
389.466	407.48
389.846	392.33
390.225	408.61
390.605	434.37
390.984	424.42
391.363	446.57
391.743	438.21
392.122	440.02
392.501	439.79
392.881	475.04
393.26	435.5
393.639	457.42
394.018	446.12
394.397	456.74
394.776	441.82
395.155	461.71
395.534	481.37
395.913	511.65
396.292	471.43
396.671	494.7
397.05	503.07
397.429	522.5
397.808	504.2
398.186	518.88
398.565	517.08
398.944	521.37
399.323	534.7
399.701	527.92
400.08	557.08
400.458	553.46
400.837	561.82
401.215	565.66
401.594	560.01
401.972	574.02
402.351	599.33
402.729	590.75
403.107	599.56
403.486	641.14
403.864	620.35
404.242	615.38
404.62	628.94
404.999	638.43
405.377	650.41
405.755	670.29
406.133	670.75
406.511	662.16
406.889	696.06
407.267	684.3
407.645	710.97
408.023	715.04
408.401	715.49
408.779	743.29
409.156	748.94
409.534	762.49
409.912	765.88
410.29	820.35
410.667	789.84
411.045	804.98
411.422	813.79
411.8	832.77
412.178	873.45
412.555	866.45
412.933	858.31
413.31	896.28
413.687	877.07
414.065	920
414.442	916.39
414.819	931.08
415.197	926.11
415.574	929.27
415.951	959.1
416.328	966.33
416.705	945.09
417.082	979.21
417.46	1006.56
417.837	1016.95
418.214	1017.85
418.591	1032.77
418.967	1015.82
419.344	1056.95
419.721	1074.12
420.098	1061.24
420.475	1084.52
420.852	1108.93
421.228	1070.06
421.605	1115.25
421.982	1144.18
422.358	1132.88
422.735	1163.61
423.111	1154.57
423.488	1183.5
423.864	1202.93
424.241	1193.22
424.617	1215.36
424.994	1212.65
425.37	1207
425.746	1259.2
426.123	1258.3
426.499	1295.14
426.875	1281.8
427.251	1296.94
427.627	1346.21
428.003	1322.71
428.379	1381.01
428.756	1366.32
429.132	1392.53
429.507	1396.38
429.883	1440.44
430.259	1446.77
430.635	1435.47
431.011	1490.16
431.387	1494.68
431.763	1514.56
432.138	1548.01
432.514	1558.18
432.89	1566.77
433.265	1592.98
433.641	1619.65
434.016	1633.88
434.392	1641.57
434.767	1678.18
435.143	1694.9
435.518	1728.57
435.894	1734.67
436.269	1757.95
436.644	1797.04
437.02	1802.69
437.395	1816.7
437.77	1840.43
438.145	1875.23
438.52	1872.97
438.895	1870.94
439.271	1920.88
439.646	1941.22
440.021	1950.71
440.395	1972.41
440.77	1969.47
441.145	1973.54
441.52	2037.71
441.895	2051.95
442.27	2051.27
442.645	2034.1
443.019	2088.79
443.394	2086.75
443.769	2113.64
444.143	2096.7
444.518	2128.11
444.892	2138.05
445.267	2180.08
445.641	2202
446.016	2183.47
446.39	2221.66
446.764	2254.66
447.139	2252.85
447.513	2271.15
447.887	2262.57
448.262	2289.46
448.636	2310.93
449.01	2331.49
449.384	2362.68
449.758	2381.21
450.132	2405.16
450.506	2440.19
450.88	2447.87
451.254	2444.48
451.628	2506.85
452.002	2509.79
452.376	2532.62
452.75	2559.28
453.123	2600.64
453.497	2645.61
453.871	2664.14
454.244	2704.36
454.618	2703.69
454.992	2728.32
455.365	2762.22
455.739	2830.01
456.112	2811.03
456.486	2854.19
456.859	2900.29
457.232	2951.14
457.606	2934.64
457.979	2979.61
458.352	3037.69
458.725	3074.52
459.099	3093.96
459.472	3138.93
459.845	3168.98
460.218	3229.32
460.591	3231.58
460.964	3255.54
461.337	3357.68
461.71	3434.06
462.083	3442.65
462.456	3422.99
462.829	3459.15
463.201	3508.64
463.574	3502.76
463.947	3568.07
464.32	3626.15
464.692	3673.83
465.065	3707.73
465.438	3765.35
465.81	3779.82
466.183	3869.53
466.555	3912.47
466.928	3934.16
467.3	3950.66
467.672	3998.12
468.045	4074.05
468.417	4127.15
468.789	4180.26
469.161	4254.15
469.534	4297.77
469.906	4370.08
470.278	4386.35
470.65	4443.08
471.022	4569.17
471.394	4649.85
471.766	4665.89
472.138	4747.93
472.51	4786.34
472.882	4913.57
473.253	4890.3
473.625	4947.69
473.997	5121.48
474.369	5162.83
474.74	5160.8
475.112	5312.2
475.484	5381.81
475.855	5493.44
476.227	5521.92
476.598	5652.08
476.97	5718.3
477.341	5841.46
477.713	5921.45
478.084	5993.99
478.455	6143.82
478.827	6226.98
479.198	6366.64
479.569	6366.41
479.94	6489.8
480.311	6609.35
480.682	6767.76
481.053	6869.9
481.424	6945.83
481.795	7033.06
482.166	7180.86
482.537	7236
482.908	7407.07
483.279	7438.02
483.65	7638.02
484.021	7794.17
484.391	7933.38
484.762	8000.72
485.133	8040.27
485.503	8098.35
485.874	8341.96
486.244	8383.99
486.615	8529.97
486.985	8685.45
487.356	8792.34
487.726	8870.08
488.097	9104.2
488.467	9160.92
488.837	9259.9
489.207	9345.77
489.578	9492.89
489.948	9597.52
490.318	9800.9
490.688	9831.18
491.058	9974.68
491.428	10100.1
491.798	10174.45
492.168	10351.62
492.538	10388
492.908	10556.81
493.278	10719.07
493.648	10670.03
494.017	10838.61
494.387	10964.94
494.757	11066.4
495.126	11152.28
495.496	11268.66
495.866	11287.19
496.235	11516.79
496.605	11679.5
496.974	11762.66
497.344	11823.22
497.713	11846.72
498.082	11945.48
498.452	12077.9
498.821	12084.46
499.19	12176.66
499.559	12323.32
499.928	12370.1
500.298	12455.29
500.667	12689.86
501.036	12680.37
501.405	12781.16
501.774	12752.69
502.143	12897.54
502.512	12988.61
502.88	13112
503.249	13164.43
503.618	13221.38
503.987	13404.2
504.356	13529.84
504.724	13532.78
505.093	13601.93
505.462	13733.45
505.83	13771.42
506.199	13927.12
506.567	14066.78
506.936	14111.75
507.304	14253.89
507.672	14255.47
508.041	14399.65
508.409	14486.65
508.777	14582.24
509.145	14692.75
509.514	14719.19
509.882	14860.2
510.25	15014.1
510.618	15061.78
510.986	15172.51
511.354	15289.34
511.722	15428.78
512.09	15552.84
512.458	15628.32
512.826	15751.03
513.193	15854.3
513.561	16045.93
513.929	15995.54
514.297	16228.08
514.664	16379.94
515.032	16509.88
515.4	16570.44
515.767	16700.38
516.135	16813.15
516.502	16723.2
516.869	17096.53
517.237	17165
517.604	17150.99
517.972	17351.44
518.339	17431.43
518.706	17516.4
519.073	17612.22
519.44	17671.43
519.808	18048.37
520.175	17955.94
520.542	18272.54
520.909	18371.07
521.276	18319.55
521.643	18572.2
522.009	18761.57
522.376	18820.78
522.743	18953.2
523.11	19186.42
523.477	19456.47
523.843	19492.4
524.21	19728.32
524.577	19876.57
524.943	19932.84
525.31	20145.26
525.676	20371.24
526.043	20390.9
526.409	20554.74
526.776	20728.75
527.142	20809.88
527.508	20913.83
527.874	21157.44
528.241	21343.42
528.607	21395.62
528.973	21544.77
529.339	21507.49
529.705	21847.14
530.071	21958.77
530.437	22077.19
530.803	22201.93
531.169	22236.28
531.535	22408.7
531.901	22610.96
532.267	22622.26
532.632	22703.39
532.998	22920.33
533.364	23056.82
533.73	23117.39
534.095	23365.97
534.461	23303.37
534.826	23455.23
535.192	23572.74
535.557	23717.6
535.923	23733.87
536.288	23948.1
536.653	23961.88
537.019	23965.95
537.384	24134.53
537.749	24155.78
538.114	24284.59
538.479	24272.61
538.845	24513.73
539.21	24436.45
539.575	24590.79
539.94	24735.65
540.305	24927.28
540.67	24888.87
541.034	24980.84
541.399	25080.72
541.764	25176.32
542.129	25340.83
542.494	25376.31
542.858	25324.33
543.223	25379.02
543.587	25789.86
543.952	25716.64
544.316	25876.64
544.681	25736.53
545.045	26005.9
545.41	26106.23
545.774	26050.87
546.138	26165.22
546.503	26306
546.867	26251.99
547.231	26550.74
547.595	26560.23
547.959	26658.76
548.324	26703.96
548.688	26931.98
549.052	26965.42
549.416	26942.37
549.779	27077.28
550.143	27129.48
550.507	27341.23
550.871	27354.11
551.235	27420.55
551.599	27626.42
551.962	27698.73
552.326	27779.64
552.689	27971.72
553.053	27879.07
553.417	27916.58
553.78	28264.37
554.143	28094.88
554.507	28275.44
554.87	28384.37
555.234	28656.45
555.597	28617.81
555.96	28704.81
556.323	28834.98
556.686	28955.88
557.05	29137.12
557.413	29308.41
557.776	29194.06
558.139	29534.62
558.502	29600.38
558.865	29632.47
559.228	29792.69
559.59	30003.31
559.953	30023.42
560.316	30369.17
560.679	30340.47
561.041	30629.73
561.404	30567.81
561.767	30732.1
562.129	30851.87
562.492	31140.45
562.854	31053.9
563.217	31158.31
563.579	31346.32
563.941	31461.8
564.304	31568.92
564.666	31812.98
565.028	31704.28
565.39	31925.74
565.753	32095.91
566.115	32129.58
566.477	32258.16
566.839	32590.81
567.201	32721.43
567.563	32814.76
567.925	32968.2
568.287	32901.08
568.648	32931.59
569.01	33189.89
569.372	33355.76
569.734	33297.46
570.095	33483.22
570.457	33718.92
570.819	33752.36
571.18	33861.28
571.542	34052.24
571.903	34017.89
572.265	34129.07
572.626	34198.68
572.987	34333.36
573.349	34262.4
573.71	34452.91
574.071	34475.05
574.432	34623.07
574.794	34941.03
575.155	34759.57
575.516	34810.64
575.877	34979.9
576.238	35075.49
576.599	35077.75
576.96	35009.05
577.32	35126.34
577.681	35385.09
578.042	35419.21
578.403	35258.08
578.763	35402.26
579.124	35505.31
579.485	35607.45
579.845	35683.84
580.206	35491.75
580.566	35628.02
580.927	35732.87
581.287	35777.17
581.648	35678.41
582.008	35868.24
582.368	35781.23
582.728	35984.17
583.089	35780.1
583.449	35729.26
583.809	35747.79
584.169	35857.62
584.529	35887.9
584.889	36009.7
585.249	35811.74
585.609	35755.47
585.969	35923.83
586.329	35752.08
586.688	35936.71
587.048	35863.27
587.408	35877.05
587.768	35923.6
588.127	35773.1
588.487	35762.93
588.846	36055.35
589.206	35802.7
589.565	35824.4
589.925	36040.44
590.284	35934
590.643	36060.77
591.003	35901.01
591.362	36081.79
591.721	36032.98
592.08	35949.59
592.44	36169.02
592.799	36008.35
593.158	35964.96
593.517	36122.02
593.876	36010.38
594.235	35869.37
594.593	35799.76
594.952	36024.39
595.311	35805.41
595.67	36082.7
596.029	36283.14
596.387	36181.9
596.746	36255.12
597.104	36105.97
597.463	36077.27
597.822	36250.37
598.18	36096.93
598.538	35979.65
598.897	36326.53
599.255	36011.28
599.613	36479.75
599.972	36303.93
600.33	36365.17
600.688	36213.54
601.046	36340.77
601.404	36479.97
601.762	36400.65
602.12	36457.6
602.478	36453.76
602.836	36501.67
603.194	36149.81
603.552	36428.45
603.91	36250.6
604.268	36508.45
604.625	36316.59
604.983	36327.21
605.341	36277.27
605.698	36511.84
606.056	36524.72
606.413	36567.2
606.771	36518.16
607.128	36687.2
607.485	36523.59
607.843	36479.52
608.2	36704.6
608.557	36893.52
608.914	36642.91
609.272	36725.39
609.629	36897.14
609.986	36942.11
610.343	36820.3
610.7	37187.07
611.057	36999.73
611.414	36964.93
611.771	36919.06
612.127	37117.92
612.484	37115.21
612.841	37225.49
613.198	37162.67
613.554	37156.11
613.911	37320.18
614.267	37258.48
614.624	37243.79
614.98	37452.83
615.337	37644.91
615.693	37531.92
616.05	37424.81
616.406	37643.56
616.762	37534.18
617.118	37567.4
617.475	37626.16
617.831	37797.45
618.187	37747.28
618.543	37871.35
618.899	38038.12
619.255	37970.56
619.611	37932.59
619.967	37981.63
620.323	38039.03
620.678	37857.11
621.034	37824.12
621.39	37807.17
621.746	37778.24
622.101	38165.35
622.457	37809.2
622.812	37951.8
623.168	38140.04
623.523	38016.43
623.879	38105.69
624.234	37849.43
624.589	38004
624.945	38149.76
625.3	38181.4
625.655	38035.41
626.01	38080.38
626.365	38176.43
626.72	37954.51
627.075	37957.9
627.43	37985.7
627.785	37966.49
628.14	38035.41
628.495	37971.91
628.85	37851.01
629.205	37808.75
629.559	37918.81
629.914	37823.21
630.269	37767.4
630.623	37802.42
630.978	37820.95
631.332	37950.44
631.687	37904.79
632.041	37663.67
632.396	37814.4
632.75	37696.89
633.104	37619.6
633.459	37470.46
633.813	37470
634.167	37480.62
634.521	37407.41
634.875	37389.33
635.229	37419.61
635.583	37165.83
635.937	37385.49
636.291	37182.55
636.645	37166.73
636.999	37125.15
637.352	37174.42
637.706	37001.77
638.06	37179.39
638.413	36985.95
638.767	36864.6
639.121	36959.96
639.474	36760.42
639.828	36766.52
640.181	36776.91
640.534	36737.59
640.888	36698.05
641.241	36553.19
641.594	36536.92
641.947	36566.52
642.301	36480.65
642.654	36433.19
643.007	36491.27
643.36	36361.78
643.713	36355
644.066	36468.45
644.419	36305.06
644.771	35994.56
645.124	35583.27
645.477	35538.98
645.83	35109.61
646.182	35219.89
646.535	35090.86
646.888	35250.4
647.24	34997.07
647.593	35175.15
647.945	35045.43
648.298	34877.53
648.65	34884.76
649.002	34792.79
649.355	34903.97
649.707	34798.21
650.059	34963.85
650.411	35309.16
650.763	35436.61
651.115	35746.43
651.467	35566.55
651.819	35676.15
652.171	35548.7
652.523	35437.51
652.875	35396.39
653.227	35401.58
653.578	35449.49
653.93	35381.7
654.282	35225.54
654.633	35315.03
654.985	35317.07
655.337	35302.38
655.688	35249.95
656.039	35256.28
656.391	34981.48
656.742	35008.37
657.094	35014.47
657.445	35221.02
657.796	35091.31
658.147	35081.37
658.498	34897.87
658.849	35033.01
659.2	34867.13
659.551	34790.98
659.902	34902.84
660.253	34713.47
660.604	34760.24
660.955	34598.21
661.306	34713.47
661.656	34612.68
662.007	34490.65
662.358	34568.38
662.708	34557.76
663.059	34442.96
663.409	34221.95
663.76	34557.09
664.11	34448.39
664.461	34412.91
664.811	34366.58
665.161	34366.13
665.511	34055.4
665.862	34024.44
666.212	34054.27
666.562	34149.64
666.912	33929.08
667.262	33852.92
667.612	33783.09
667.962	33739.25
668.312	33713.49
668.662	33783.09
669.011	33560.73
669.361	33459.26
669.711	33391.69
670.06	33285.48
670.41	33107.18
670.76	33167.29
671.109	33177.69
671.459	33157.8
671.808	33016.56
672.157	33053.4
672.507	32854.53
672.856	32816.34
673.205	32838.49
673.554	32854.31
673.904	32589.91
674.253	32716.23
674.602	32579.06
674.951	32066.76
675.3	31995.12
675.649	32423.13
675.998	32334.77
676.346	32362.57
676.695	32445.73
677.044	32177.49
677.393	32326.86
677.741	32312.4
678.09	32187.66
678.438	32034.21
678.787	32169.8
679.135	32085.96
679.484	32009.81
679.832	32145.17
680.181	32027.66
680.529	31964.39
680.877	32014.33
681.225	32004.38
681.573	32122.12
681.922	31909.92
682.27	31924.16
682.618	31946.53
682.966	31938.85
683.314	32093.2
683.661	31978.4
684.009	31881.22
684.357	31780.44
684.705	31901.56
685.053	31903.82
685.4	31831.96
685.748	31801
686.095	31736.82
686.443	31665.41
686.79	31723.94
687.138	31796.71
687.485	31834.45
687.832	31781.34
688.18	31738.63
688.527	31678.07
688.874	31756.26
689.221	31619.99
689.568	31682.36
689.915	31602.59
690.262	31599.88
690.609	31456.83
690.956	31466.32
691.303	31490.5
691.65	31485.53
691.997	31440.11
692.344	31319.88
692.69	31279.66
693.037	31280.11
693.383	31178.64
693.73	31278.53
694.077	31112.2
694.423	31223.39
694.769	31079.21
695.116	31064.07
695.462	30942.04
695.808	30935.03
696.155	31019.33
696.501	30693.68
696.847	30823.4
697.193	30613.23
697.539	30715.15
697.885	30407.14
698.231	30480.58
698.577	30382.28
698.923	30329.17
699.269	30287.37
699.614	30117.2
699.96	30025.68
700.306	30159.01
700.651	29987.49
700.997	29886.47
701.342	29809.19
701.688	29747.27
702.033	29559.03
702.379	29734.84
702.724	29590.89
703.069	29581.4
703.415	29234.97
703.76	29387.73
704.105	29260.5
704.45	29258.47
704.795	29063.44
705.14	28950
705.485	28990
705.83	28870.46
706.175	28887.63
706.52	28799.95
706.865	28732.61
707.209	28673.4
707.554	28661.2
707.899	28745.49
708.243	28368.1
708.588	28504.59
708.932	28162.45
709.277	28225.95
709.621	28383.69
709.966	28123.81
710.31	28199.96
710.654	28003.59
710.998	28147.54
711.342	28050.59
711.687	27904.38
712.031	27835.68
712.375	27612.64
712.719	27648.57
713.063	27711.84
713.407	27713.2
713.75	27661.67
714.094	27515.91
714.438	27335.35
714.782	27545.97
715.125	27381.46
715.469	27260.55
715.812	27139.43
716.156	26984.86
716.499	27127
716.843	27093.78
717.186	26867.34
717.53	26975.36
717.873	27115.02
718.216	26960.68
718.559	26892.2
718.902	26717.29
719.246	26820.79
719.589	26761.36
719.932	26531.76
720.275	26666.45
720.617	26456.28
720.96	26557.75
721.303	26471.2
721.646	26416.73
721.989	26271.88
722.331	26421.93
722.674	26259
723.016	26269.85
723.359	26260.81
723.701	26228.72
724.044	25999.12
724.386	25887.71
724.729	25993.92
725.071	26008.61
725.413	25903.08
725.755	25939.01
726.097	25802.74
726.439	25672.12
726.782	25837.77
727.124	25795.73
727.465	25554.38
727.807	25673.7
728.149	25555.06
728.491	25504.67
728.833	25577.21
729.175	25407.04
729.516	25315.29
729.858	25302.87
730.199	25338.12
730.541	25276.88
730.882	25296.31
731.224	25328.63
731.565	25164.11
731.906	25096.54
732.248	25149.88
732.589	24999.14
732.93	24964.8
733.271	25000.73
733.612	25007.96
733.953	24910.11
734.294	24891.13
734.635	24726.38
734.976	24883.67
735.317	24751.47
735.658	24625.14
735.999	24609.1
736.339	24577.69
736.68	24715.99
737.021	24514.64
737.361	24355.09
737.702	24447.52
738.042	24441.42
738.383	24376.56
738.723	24441.42
739.063	24357.13
739.404	24347.86
739.744	24362.1
740.084	24295.89
740.424	24245.04
740.764	24231.71
741.104	24214.31
741.444	23996.69
741.784	24003.24
742.124	24143.57
742.464	24127.53
742.804	23906.29
743.143	23805.05
743.483	23935.44
743.823	23788.1
744.162	23724.15
744.502	23947.42
744.841	23703.59
745.181	23763.47
745.52	23651.84
745.86	23749.69
746.199	23467.66
746.538	23584.27
746.877	23553.99
747.216	23552.18
747.556	23431.5
747.895	23471.28
748.234	23405.74
748.573	23395.35
748.911	23336.14
749.25	23364.16
749.589	23114.22
749.928	23148.57
750.267	23101.57
750.605	23090.04
750.944	22982.47
751.283	23002.59
751.621	23070.61
751.96	22908.13
752.298	22853.66
752.636	22922.82
752.975	22692.76
753.313	22586.55
753.651	22769.37
753.989	22530.74
754.327	22571.64
754.666	22335.71
