Data from White_paper_FLMS001491_025.txt Node
Date: Tue Feb 07 10:34:52 GMT 2017
User: dcchb
Spectrometer: FLMS00149
Trigger mode: 0
Integration Time (sec): 2.000000E-2
Scans to average: 10
Electric dark correction enabled: true
Nonlinearity correction enabled: false
Boxcar width: 0
XAxis mode: Wavelengths
Number of Pixels in Spectrum: 2048
>>>>>Begin Spectral Data<<<<<
341.393	-23.19
341.776	-23.19
342.16	-23.19
342.543	-75.62
342.927	-65.9
343.31	-78.56
343.693	-76.52
344.077	-56.41
344.46	-58.9
344.843	-58.44
345.226	-49.41
345.61	-20.03
345.993	-20.93
346.376	-6.47
346.759	5.28
347.142	35.34
347.525	33.53
347.908	57.48
348.291	72.63
348.674	101.33
349.057	120.08
349.44	111.27
349.823	144.94
350.206	159.18
350.588	221.1
350.971	238.04
351.354	247.76
351.737	266.74
352.119	264.71
352.502	276.46
352.884	334.54
353.267	307.2
353.65	311.94
354.032	313.97
354.414	323.47
354.797	339.28
355.179	346.06
355.562	342.67
355.944	358.49
356.326	367.08
356.709	379.28
357.091	369.11
357.473	354.43
357.855	381.09
358.238	368.44
358.62	353.07
359.002	337.03
359.384	351.94
359.766	362.34
360.148	373.18
360.53	367.76
360.912	352.17
361.294	377.25
361.676	349.23
362.057	360.75
362.439	374.76
362.821	373.63
363.203	360.3
363.584	377.7
363.966	368.89
364.348	351.71
364.729	341.77
365.111	357.36
365.493	375.22
365.874	349.23
366.256	347.87
366.637	343.13
367.019	351.94
367.4	334.54
367.781	352.62
368.163	332.73
368.544	361.43
368.925	351.04
369.306	367.08
369.688	351.49
370.069	370.47
370.45	365.95
370.831	371.6
371.212	376.35
371.593	370.02
371.974	363.47
372.355	384.71
372.736	375.89
373.117	365.72
373.498	359.85
373.879	350.58
374.26	363.47
374.641	385.84
375.021	351.04
375.402	375.44
375.783	389.68
376.163	388.55
376.544	421.32
376.925	401.43
377.305	413.63
377.686	376.35
378.066	385.84
378.447	390.81
378.827	381.54
379.208	385.61
379.588	390.81
379.968	416.57
380.349	404.37
380.729	419.51
381.109	410.7
381.489	406.63
381.87	426.97
382.25	431.94
382.63	416.12
383.01	409.57
383.39	421.54
383.77	407.76
384.15	435.33
384.53	438.27
384.91	452.5
385.29	425.61
385.67	432.62
386.049	448.43
386.429	443.46
386.809	433.52
387.189	464.71
387.568	453.41
387.948	469.9
388.328	455.21
388.707	467.42
389.087	485.5
389.466	490.24
389.846	507.87
390.225	496.79
390.605	484.37
390.984	491.6
391.363	482.33
391.743	498.83
392.122	527.98
392.501	513.74
392.881	501.99
393.26	545.83
393.639	517.59
394.018	531.6
394.397	544.48
394.776	538.83
395.155	575.21
395.534	548.54
395.913	554.42
396.292	558.71
396.671	571.14
397.05	598.71
397.429	574.08
397.808	566.4
398.186	608.88
398.565	596
398.944	600.97
399.323	612.27
399.701	623.57
400.08	635.32
400.458	619.73
400.837	649.56
401.215	636.23
401.594	665.38
401.972	668.54
402.351	665.38
402.729	662.89
403.107	690.01
403.486	710.57
403.864	715.77
404.242	730.46
404.62	738.14
404.999	731.14
405.377	769.1
405.755	788.99
406.133	801.42
406.511	818.59
406.889	816.79
407.267	857.01
407.645	843.9
408.023	885.26
408.401	890.68
408.779	904.47
409.156	921.64
409.534	955.77
409.912	976.56
410.29	1013.17
410.667	1024.69
411.045	1057.23
411.422	1077.57
411.8	1083.22
412.178	1142.88
412.555	1188.3
412.933	1178.58
413.31	1203.44
413.687	1241.63
414.065	1272.37
414.442	1307.17
414.819	1318.92
415.197	1344.68
415.574	1391.01
415.951	1397.79
416.328	1436.88
416.705	1445.02
417.082	1479.59
417.46	1489.31
417.837	1536.54
418.214	1579.7
418.591	1583.77
418.967	1590.1
419.344	1661.51
419.721	1669.19
420.098	1680.04
420.475	1701.28
420.852	1729.53
421.228	1787.83
421.605	1806.36
421.982	1819.02
422.358	1855.86
422.735	1856.76
423.111	1879.58
423.488	1907.61
423.864	1931.79
424.241	1935.4
424.617	1997.09
424.994	1999.13
425.37	2005.68
425.746	2032.35
426.123	2112.57
426.499	2107.15
426.875	2115.06
427.251	2189.86
427.627	2220.82
428.003	2208.16
428.379	2299.46
428.756	2304.43
429.132	2359.8
429.507	2347.14
429.883	2417.65
430.259	2493.35
430.635	2499
431.011	2529.28
431.387	2552.56
431.763	2639.56
432.138	2644.31
432.514	2675.72
432.89	2703.97
433.265	2785.32
433.641	2839.33
434.016	2840.91
434.392	2880.24
434.767	2940.57
435.143	2964.3
435.518	2983.74
435.894	3015.6
436.269	3039.33
436.644	3113.22
437.02	3102.6
437.395	3130.4
437.77	3209.94
438.145	3251.07
438.52	3287.23
438.895	3293.33
439.271	3353.89
439.646	3377.85
440.021	3418.53
440.395	3439.99
440.77	3470.73
441.145	3482.48
441.52	3535.59
441.895	3541.91
442.27	3566.32
442.645	3541.91
443.019	3618.29
443.394	3585.3
443.769	3686.99
444.143	3661.68
444.518	3711.85
444.892	3720.66
445.267	3750.95
445.641	3811.06
446.016	3789.59
446.39	3828.23
446.764	3864.16
447.139	3836.82
447.513	3922.69
447.887	3916.37
448.262	3939.64
448.636	3974.22
449.01	4026.65
449.384	4044.72
449.758	4039.75
450.132	4125.17
450.506	4121.56
450.88	4169.69
451.254	4148.45
451.628	4234.78
452.002	4239.75
452.376	4298.5
452.75	4326.52
453.123	4387.31
453.497	4418.5
453.871	4465.96
454.244	4553.19
454.618	4559.29
454.992	4670.24
455.365	4660.75
455.739	4772.61
456.112	4783.69
456.486	4880.41
456.859	4870.24
457.232	4998.15
457.606	4962.21
457.979	5084.47
458.352	5125.15
458.725	5241.3
459.099	5265.03
459.472	5326.95
459.845	5449.88
460.218	5454.63
460.591	5458.25
460.964	5513.84
461.337	5641.07
461.71	5758.58
462.083	5830.89
462.456	5808.07
462.829	5827.73
463.201	5987.5
463.574	5980.72
463.947	6073.82
464.32	6255.51
464.692	6285.8
465.065	6317.43
465.438	6379.58
465.81	6458.45
466.183	6589.06
466.555	6689.85
466.928	6703.19
467.3	6728.95
467.672	6831.09
468.045	7029.96
468.417	7020.92
468.789	7135.72
469.161	7175.49
469.534	7317.41
469.906	7480.57
470.278	7471.53
470.65	7646.89
471.022	7704.97
471.394	7910.84
471.766	8012.3
472.138	8040.1
472.51	8252.3
472.882	8398.73
473.253	8439.86
473.625	8553.08
473.997	8722.79
474.369	8826.75
474.74	8892.05
475.112	9081.88
475.484	9250.46
475.855	9442.1
476.227	9493.39
476.598	9702.2
476.97	9763.22
477.341	9984.68
477.713	10174.51
478.084	10179.03
478.455	10584.44
478.827	10635.51
479.198	10864.88
479.569	10901.72
479.94	11227.81
480.311	11373.35
480.682	11592.1
481.053	11769.04
481.424	12017.4
481.795	12077.96
482.166	12350.27
482.537	12424.39
482.908	12729.92
483.279	12799.75
483.65	13052.85
484.021	13395.66
484.391	13405.38
484.762	13542.33
485.133	13698.71
485.503	13876.1
485.874	14234.06
486.244	14322.19
486.615	14615.52
486.985	14707.27
487.356	14985.91
487.726	15142.51
488.097	15450.98
488.467	15461.6
488.837	15802.16
489.207	15968.48
489.578	16177.96
489.948	16291.86
490.318	16529.14
490.688	16590.83
491.058	16895.91
491.428	17118.73
491.798	17318.05
492.168	17528.89
492.538	17720.97
492.908	17854.3
493.278	18020.4
493.648	18061.08
494.017	18205.26
494.387	18482.31
494.757	18679.59
495.126	18734.28
495.496	18973.6
495.866	19010.88
496.235	19234.38
496.605	19414.72
496.974	19395.28
497.344	19737.19
497.713	19879.56
498.082	19908.71
498.452	20162.27
498.821	20218.76
499.19	20291.98
499.559	20427.12
499.928	20648.36
500.298	20741.23
500.667	20961.34
501.036	20959.08
501.405	21178.74
501.774	21267.32
502.143	21508.67
502.512	21492.63
502.88	21711.15
503.249	21765.39
503.618	21988.89
503.987	22046.28
504.356	22207.86
504.724	22327.86
505.093	22399.95
505.462	22475.43
505.83	22732.14
506.199	22774.4
506.567	23122.19
506.936	23078.35
507.304	23371.9
507.672	23552.69
508.041	23583.19
508.409	23742.96
508.777	23940.47
509.145	24083.97
509.514	24124.42
509.882	24321.03
510.25	24414.13
510.618	24661.58
510.986	24766.67
511.354	24898.64
511.722	25181.57
512.09	25353.54
512.458	25378.63
512.826	25540.88
513.193	25697.04
513.561	25814.32
513.929	26031.94
514.297	26332.95
514.664	26362.1
515.032	26529.33
515.4	26656.78
515.767	26807.06
516.135	26912.6
516.502	26918.47
516.869	27431.45
517.237	27504.22
517.604	27480.72
517.972	27795.74
518.339	27910.31
518.706	27945.11
519.073	28229.17
519.44	28270.75
519.808	28617.19
520.175	28587.36
520.542	29012.43
520.909	29205.42
521.276	29116.83
521.643	29496.48
522.009	29680.66
522.376	29902.35
522.743	30047.43
523.11	30373.98
523.477	30780.29
523.843	30758.6
524.21	31066.61
524.577	31256.44
524.943	31432.93
525.31	31679.93
525.676	31823.65
526.043	32012.12
526.409	32215.73
526.776	32481.04
527.142	32561.71
527.508	32817.3
527.874	33120.8
528.241	33251.64
528.607	33345.87
528.973	33748.8
529.339	33714.9
529.705	34048.68
530.071	34196.25
530.437	34514.66
530.803	34525.5
531.169	34869
531.535	34749.91
531.901	34937.47
532.267	35061.76
532.632	35320.29
532.998	35426.72
533.364	35703.33
533.73	35762.08
534.095	36108.97
534.461	36081.85
534.826	36377.43
535.192	36434.16
535.557	36746.01
535.923	36732.68
536.288	36855.16
536.653	37186.9
537.019	37098.32
537.384	37333.11
537.749	37476.84
538.114	37567.68
538.479	37576.05
538.845	37743.95
539.21	37842.71
539.575	37895.13
539.94	38043.38
540.305	38405.4
540.67	38309.81
541.034	38513.42
541.399	38747.09
541.764	38683.36
542.129	38857.37
542.494	39010.13
542.858	39269.56
543.223	39213.97
543.587	39548.42
543.952	39592.94
544.316	39777.57
544.681	39691.7
545.045	40011.46
545.41	40207.39
545.774	40187.5
546.138	40333.04
546.503	40365.13
546.867	40552.46
547.231	40912
547.595	40980.48
547.959	40973.02
548.324	41196.52
548.688	41252.79
549.052	41420.69
549.416	41454.59
549.779	41683.51
550.143	41663.85
550.507	42072.42
550.871	42047.57
551.235	42194.46
551.599	42462.02
551.962	42434.22
552.326	42618.4
552.689	42678.51
553.053	42670.38
553.417	42801.9
553.78	43314.88
554.143	43163.7
554.507	43341.09
554.87	43348.1
555.234	43822.89
555.597	43733.17
555.96	43751.25
556.323	44099.26
556.686	44062.2
557.05	44459.93
557.413	44441.63
557.776	44415.87
558.139	44880.94
558.502	44753.94
558.865	44816.53
559.228	45314.83
559.59	45487.02
559.953	45376.52
560.316	45950.74
560.679	45788.49
561.041	46078.87
561.404	46127.91
561.767	46523.83
562.129	46461.69
562.492	46754.34
562.854	46768.57
563.217	46695.35
563.579	46955.23
563.941	47359.07
564.304	47253.98
564.666	47667.31
565.028	47742.78
565.39	47908.43
565.753	48010.12
566.115	48344.58
566.477	48365.59
566.839	48372.6
567.201	48687.84
567.563	48784.56
567.925	49017.78
568.287	49051.68
568.648	49101.39
569.01	49251.45
569.372	49599.46
569.734	49387.49
570.095	49658.21
570.457	49896.85
570.819	50011.88
571.18	50037.41
571.542	50217.52
571.903	50253.68
572.265	50447.8
572.626	50398.31
572.987	50630.84
573.349	50728.02
573.71	50882.81
574.071	50930.72
574.432	51092.53
574.794	51376.14
575.155	51250.26
575.516	51207.1
575.877	51322.13
576.238	51441.22
576.599	51590.37
576.96	51608.9
577.32	51567.32
577.681	51809.12
578.042	51894.54
578.403	51872.39
578.763	51976.12
579.124	52071.26
579.485	52277.13
579.845	52277.81
580.206	52163.46
580.566	52229.45
580.927	52372.04
581.287	52409.33
581.648	52334.75
582.008	52474.19
582.368	52444.36
582.728	52505.82
583.089	52514.18
583.449	52485.94
583.809	52580.85
584.169	52590.34
584.529	52513.28
584.889	52850.67
585.249	52716.66
585.609	52556.67
585.969	52817.45
586.329	52699.49
586.688	52776.1
587.048	52725.25
587.408	52762.09
587.768	52813.16
588.127	52802.09
588.487	52830.79
588.846	52970.9
589.206	52873.5
589.565	52869.88
589.925	53026.71
590.284	52967.28
590.643	53009.76
591.003	52992.59
591.362	53144.68
591.721	53128.41
592.08	53115.07
592.44	53173.83
592.799	53212.02
593.158	53157.56
593.517	53208.4
593.876	53241.17
594.235	53165.01
594.593	53224
594.952	53271.23
595.311	53228.06
595.67	53290.21
596.029	53417.66
596.387	53505.34
596.746	53476.87
597.104	53338.57
597.463	53367.27
597.822	53488.4
598.18	53388.96
598.538	53397.1
598.897	53611.78
599.255	53407.95
599.613	53869.4
599.972	53546.02
600.33	53699.46
600.688	53591.22
601.046	53654.04
601.404	53797.99
601.762	53687.26
602.12	53953.47
602.478	53824.21
602.836	53868.05
603.194	53698.11
603.552	53814.26
603.91	53750.31
604.268	53927.25
604.625	53800.93
604.983	53944.66
605.341	53758.22
605.698	53967.03
606.056	53986.46
606.413	54021.04
606.771	54096.52
607.128	54034.6
607.485	54021.04
607.843	54041.6
608.2	54121.83
608.557	54226
608.914	54161.6
609.272	54236.17
609.629	54324.98
609.986	54402.72
610.343	54308.49
610.7	54483.4
611.057	54418.77
611.414	54355.49
611.771	54475.94
612.127	54552.1
612.484	54581.25
612.841	54577.41
613.198	54569.27
613.554	54560.91
613.911	54734.46
614.267	54687.91
614.624	54669.38
614.98	54707.8
615.337	54831.86
615.693	54711.87
616.05	54756.39
616.406	54814.46
616.762	54842.03
617.118	54792.09
617.475	54744.18
617.831	54877.74
618.187	54866.66
618.543	54847.46
618.899	55008.81
619.255	54976.04
619.611	55029.6
619.967	55057.85
620.323	55087.9
620.678	55058.98
621.034	54949.83
621.39	54982.82
621.746	55000.67
622.101	55278.63
622.457	55001.8
622.812	55037.06
623.168	55185.53
623.523	55121.57
623.879	55195.47
624.234	55048.13
624.589	55094.46
624.945	55052.42
625.3	55171.97
625.655	55126.09
626.01	55185.3
626.365	55131.29
626.72	55156.37
627.075	55065.08
627.43	55126.54
627.785	54998.41
628.14	55152.08
628.495	55107.11
628.85	55099.88
629.205	55026.43
629.559	55258.52
629.914	55059.43
630.269	55107.56
630.623	55003.84
630.978	55049.71
631.332	55132.87
631.687	55163.38
632.041	55034.8
632.396	55103.04
632.75	55016.49
633.104	55001.8
633.459	54929.49
633.813	54847.68
634.167	54902.37
634.521	54853.56
634.875	54948.02
635.229	54950.5
635.583	54851.98
635.937	54819.89
636.291	54761.81
636.645	54840.68
636.999	54793.45
637.352	54886.55
637.706	54644.07
638.06	54817.17
638.413	54738.98
638.767	54682.49
639.121	54776.72
639.474	54635.26
639.828	54688.14
640.181	54708.93
640.534	54675.94
640.888	54590.51
641.241	54552.55
641.594	54464.19
641.947	54631.64
642.301	54535.83
642.654	54574.69
643.007	54515.71
643.36	54522.04
643.713	54408.6
644.066	54546.45
644.419	54334.7
644.771	54175.38
645.124	53905.79
645.477	53875.5
645.83	53703.53
646.182	53575.63
646.535	53565
646.888	53628.51
647.24	53470.32
647.593	53659.69
647.945	53593.48
648.298	53365.24
648.65	53387.83
649.002	53414.95
649.355	53516.42
649.707	53457.44
650.059	53492.69
650.411	53879.8
650.763	53838.22
651.115	54202.5
651.467	54100.81
651.819	54165.67
652.171	54061.04
652.523	54032.34
652.875	54064.2
653.227	53779.69
653.578	54082.96
653.93	53995.05
654.282	53881.38
654.633	53856.07
654.985	53880.02
655.337	53893.81
655.688	53896.52
656.039	53896.07
656.391	53730.2
656.742	53714.6
657.094	53796.64
657.445	53854.71
657.796	53806.81
658.147	53745.79
658.498	53715.28
658.849	53790.76
659.2	53773.36
659.551	53693.14
659.902	53812.23
660.253	53700.37
660.604	53813.36
660.955	53610.88
661.306	53745.34
661.656	53677.54
662.007	53703.31
662.358	53642.29
662.708	53644.32
663.059	53671.89
663.409	53419.25
663.76	53699.01
664.11	53635.06
664.461	53705.34
664.811	53606.13
665.161	53639.35
665.511	53531.56
665.862	53548.51
666.212	53617.21
666.562	53590.99
666.912	53552.35
667.262	53601.16
667.612	53604.1
667.962	53539.47
668.312	53444.78
668.662	53554.83
669.011	53460.37
669.361	53438.23
669.711	53395.74
670.06	53334.05
670.41	53262.87
670.76	53224.45
671.109	53340.6
671.459	53335.41
671.808	53229.87
672.157	53226.03
672.507	53178.35
672.856	53041.4
673.205	53150.78
673.554	53232.58
673.904	53040.72
674.253	53299.47
674.602	53100.61
674.951	52653.16
675.3	52482.09
675.649	53017.45
675.998	52933.16
676.346	52967.51
676.695	53051.12
677.044	52772.03
677.393	52816.55
677.741	53000.27
678.09	52797.57
678.438	52741.52
678.787	52765.7
679.135	52843.44
679.484	52479.38
679.832	52616.55
680.181	52313.74
680.529	52534.52
680.877	52505.37
681.225	52382.21
681.573	52553.73
681.922	52323.45
682.27	52257.02
682.618	52285.72
682.966	52184.02
683.314	52241.65
683.661	52174.53
684.009	51940.64
684.357	51814.77
684.705	51845.05
685.053	51963.69
685.4	51768.22
685.748	51584.72
686.095	51598.05
686.443	51405.06
686.79	51366.87
687.138	51441.22
687.485	51408.68
687.832	51317.83
688.18	51361.22
688.527	51079.19
688.874	51027.44
689.221	50991.29
689.568	50896.37
689.915	50662.93
690.262	50759.2
690.609	50691.18
690.956	50492.99
691.303	50468.14
691.65	50343.17
691.997	50238.31
692.344	50086.23
692.69	50088.49
693.037	50079.45
693.383	49779.79
693.73	49927.13
694.077	49661.15
694.423	49726.46
694.769	49504.09
695.116	49505.9
695.462	49481.72
695.808	49335.06
696.155	49325.12
696.501	48961.96
696.847	49051.45
697.193	48771.23
697.539	48914.5
697.885	48721.52
698.231	48536.89
698.577	48647.62
698.923	48485.82
699.269	48333.5
699.614	48149.78
699.96	48057.35
700.306	48000.63
700.651	47824.36
700.997	47866.17
701.342	47690.36
701.688	47631.37
702.033	47460.76
702.379	47488.78
702.724	47327.2
703.069	47361.55
703.415	47143.03
703.76	46929.25
704.105	46953.65
704.45	46945.29
704.795	46763.15
705.14	46722.25
705.485	46512.08
705.83	46487.45
706.175	46475.25
706.52	46286.78
706.865	46202.03
707.209	46114.58
707.554	45889.73
707.899	46119.55
708.243	45770.41
708.588	45771.31
708.932	45682.5
709.277	45394.82
709.621	45495.61
709.966	45084.78
710.31	45351.43
710.654	45000.94
710.998	44993.93
711.342	45238.22
711.687	44925.01
712.031	44680.94
712.375	44677.78
712.719	44725.46
713.063	44520.04
713.407	44812.24
713.75	44438.69
714.094	44462.64
714.438	44311.69
714.782	44251.35
715.125	44040.51
715.469	44207.28
715.812	43823.11
716.156	43809.78
716.499	43736.11
716.843	43872.15
717.186	43547.64
717.53	43658.15
717.873	43656.56
718.216	43502.67
718.559	43327.99
718.902	43163.24
719.246	43314.88
719.589	43089.12
719.932	42980.42
720.275	42816.59
720.617	42848.9
720.96	42857.26
721.303	42967.99
721.646	42914.44
721.989	42557.61
722.331	42745.18
722.674	42526.2
723.016	42575.46
723.359	42593.77
723.701	42534.11
724.044	42255.7
724.386	42132.31
724.729	42204.85
725.071	42108.36
725.413	42149.26
725.755	42050.05
726.097	41925.76
726.439	41676.73
726.782	41773.45
727.124	41895.48
727.465	41648.26
727.807	41688.48
728.149	41560.57
728.491	41376.62
728.833	41415.72
729.175	41325.33
729.516	41231.32
729.858	41243.07
730.199	41273.35
730.541	41215.27
730.882	41021.15
731.224	41177.31
731.565	41005.56
731.906	41030.64
732.248	40866.35
732.589	40794.27
732.93	40606.02
733.271	40703.2
733.612	40687.6
733.953	40789.97
734.294	40479.25
734.635	40301.62
734.976	40490.09
735.317	40321.06
735.658	40255.07
735.999	40207.16
736.339	40058.24
736.68	40252.59
737.021	40030.67
737.361	39959.03
737.702	40091.91
738.042	39943.89
738.383	39890.79
738.723	39986.83
739.063	39874.06
739.404	39852.82
739.744	39690.57
740.084	39670
740.424	39678.59
740.764	39592.94
741.104	39627.74
741.444	39305.94
741.784	39321.54
742.124	39388.2
742.464	39318.37
742.804	39251.71
743.143	39140.52
743.483	39178.49
743.823	38912.51
744.162	38871.83
744.502	38968.55
744.841	38908.44
745.181	39150.24
745.52	38928.55
745.86	38831.83
746.199	38685.62
746.538	38785.05
746.877	38841.78
747.216	38655.79
747.556	38597.04
747.895	38605.62
748.234	38359.98
748.573	38289.25
748.911	38316.82
749.25	38319.53
749.589	38045.86
749.928	38175.35
750.267	38172.19
750.605	38119.08
750.944	37950.27
751.283	37807.45
751.621	37898.75
751.96	37684.97
752.298	37665.31
752.636	37668.02
752.975	37538.98
