Data from White_reflection_standard_FLMS001491_047.txt Node
Date: Tue Feb 07 10:32:04 GMT 2017
User: dcchb
Spectrometer: FLMS00149
Trigger mode: 0
Integration Time (sec): 2.000000E-2
Scans to average: 10
Electric dark correction enabled: true
Nonlinearity correction enabled: false
Boxcar width: 0
XAxis mode: Wavelengths
Number of Pixels in Spectrum: 2048
>>>>>Begin Spectral Data<<<<<
341.393	-28.97
341.776	-28.97
342.16	-28.97
342.543	-50.66
342.927	-82.3
343.31	-62.19
343.693	-48.85
344.077	-68.06
344.46	-54.73
344.843	-62.64
345.226	-47.27
345.61	-31.68
345.993	-20.15
346.376	11.48
346.759	12.84
347.142	20.07
347.525	38.15
347.908	47.19
348.291	62.1
348.674	94.64
349.057	109.11
349.44	115.66
349.823	137.36
350.206	167.41
350.588	230.46
350.971	259.39
351.354	259.16
351.737	270.68
352.119	297.35
352.502	312.94
352.884	317.92
353.267	324.24
353.65	312.27
354.032	337.58
354.414	361.53
354.797	365.6
355.179	394.75
355.562	389.1
355.944	379.61
356.326	388.2
356.709	391.81
357.091	399.95
357.473	409.89
357.855	389.78
358.238	401.08
358.62	413.51
359.002	394.07
359.384	390.46
359.766	391.36
360.148	389.1
360.53	402.21
360.912	407.63
361.294	394.3
361.676	420.96
362.057	414.64
362.439	423.68
362.821	409.21
363.203	415.77
363.584	419.16
363.966	419.83
364.348	415.31
364.729	387.52
365.111	398.14
365.493	402.21
365.874	413.05
366.256	401.98
366.637	411.02
367.019	418.48
367.4	407.86
367.781	414.64
368.163	419.83
368.544	420.29
368.925	407.18
369.306	412.6
369.688	434.52
370.069	425.94
370.45	427.74
370.831	442.88
371.212	430.68
371.593	440.4
371.974	411.7
372.355	455.31
372.736	439.72
373.117	457.8
373.498	453.28
373.879	450.12
374.26	436.78
374.641	426.39
375.021	414.64
375.402	484.01
375.783	475.88
376.163	475.43
376.544	499.83
376.925	494.63
377.305	494.63
377.686	496.67
378.066	478.82
378.447	501.41
378.827	503.67
379.208	517.68
379.588	511.81
379.968	534.18
380.349	516.55
380.729	526.27
381.109	523.56
381.489	532.37
381.87	560.17
382.25	540.96
382.63	548.87
383.01	547.06
383.39	549.77
383.77	556.1
384.15	587.29
384.53	575.08
384.91	589.77
385.29	594.52
385.67	590.9
386.049	593.84
386.429	612.82
386.809	624.12
387.189	616.21
387.568	626.83
387.948	637.23
388.328	651.92
388.707	634.74
389.087	682.88
389.466	651.01
389.846	682.43
390.225	676.1
390.605	687.62
390.984	690.79
391.363	706.38
391.743	698.92
392.122	715.87
392.501	728.07
392.881	753.38
393.26	735.08
393.639	727.17
394.018	765.14
394.397	761.07
394.776	764.01
395.155	789.77
395.534	816.89
395.913	803.1
396.292	808.07
396.671	829.77
397.05	842.2
397.429	851.46
397.808	839.71
398.186	845.36
398.565	890.78
398.944	865.92
399.323	886.49
399.701	869.99
400.08	892.59
400.458	929.88
400.837	918.8
401.215	932.59
401.594	948.41
401.972	926.03
402.351	928.29
402.729	979.59
403.107	950.22
403.486	976.43
403.864	971.91
404.242	994.51
404.62	1022.53
404.999	1038.35
405.377	1055.52
405.755	1033.6
406.133	1071.12
406.511	1095.07
406.889	1105.01
407.267	1109.98
407.645	1099.14
408.023	1129.42
408.401	1147.05
408.779	1154.28
409.156	1171
409.534	1201.06
409.912	1221.62
410.29	1228.85
410.667	1239.93
411.045	1272.69
411.422	1278.34
411.8	1329.87
412.178	1320.6
412.555	1357.66
412.933	1359.47
413.31	1413.71
413.687	1434.04
414.065	1420.26
414.442	1408.51
414.819	1431.56
415.197	1445.8
415.574	1470.65
415.951	1520.82
416.328	1495.96
416.705	1534.38
417.082	1533.48
417.46	1559.24
417.837	1578
418.214	1603.08
418.591	1589.07
418.967	1607.6
419.344	1641.5
419.721	1638.56
420.098	1655.51
420.475	1695.28
420.852	1672
421.228	1733.47
421.605	1734.15
421.982	1767.59
422.358	1785.45
422.735	1802.62
423.111	1796.29
423.488	1871.77
423.864	1866.35
424.241	1907.03
424.617	1897.31
424.994	1913.58
425.37	1952.9
425.746	1969.17
426.123	1989.74
426.499	1988.61
426.875	2042.84
427.251	2059.34
427.627	2107.92
428.003	2120.81
428.379	2143.18
428.756	2201.03
429.132	2190.18
429.507	2250.97
429.883	2251.65
430.259	2283.51
430.635	2332.1
431.011	2347.24
431.387	2380.69
431.763	2470.4
432.138	2418.43
432.514	2499.33
432.89	2487.35
433.265	2580.91
433.641	2633.33
434.016	2621.81
434.392	2684.41
434.767	2751.07
435.143	2729.83
435.518	2754.24
435.894	2769.15
436.269	2827.23
436.644	2903.61
437.02	2888.92
437.395	2932.08
437.77	2955.59
438.145	3042.59
438.52	3055.47
438.895	3072.19
439.271	3049.14
439.646	3156.03
440.021	3148.35
440.395	3167.11
440.77	3144.51
441.145	3170.27
441.52	3285.07
441.895	3299.08
442.27	3306.76
442.645	3300.21
443.019	3392.18
443.394	3379.3
443.769	3403.03
444.143	3377.04
444.518	3473.09
444.892	3429.25
445.267	3493.65
445.641	3532.52
446.016	3537.49
446.39	3587.21
446.764	3594.89
447.139	3619.3
447.513	3678.73
447.887	3738.84
448.262	3701.78
448.636	3715.11
449.01	3802.57
449.384	3803.93
449.758	3851.61
450.132	3897.71
450.506	3957.37
450.88	3939.06
451.254	3974.54
451.628	4029.46
452.002	4052.51
452.376	4134.76
452.75	4134.31
453.123	4175.22
453.497	4304.48
453.871	4305.16
454.244	4356.23
454.618	4392.61
454.992	4457.24
455.365	4452.27
455.739	4607.52
456.112	4659.04
456.486	4706.95
456.859	4740.4
457.232	4817.01
457.606	4823.33
457.979	4895.65
458.352	4974.97
458.725	5017.45
459.099	5059.03
459.472	5200.72
459.845	5230.78
460.218	5293.38
460.591	5369.08
460.964	5358.01
461.337	5463.54
461.71	5581.96
462.083	5659.02
462.456	5716.19
462.829	5687.94
463.201	5801.16
463.574	5867.15
463.947	5929.52
464.32	6033.92
464.692	6131.1
465.065	6120.02
465.438	6237.76
465.81	6334.48
466.183	6374.25
466.555	6527.02
466.928	6561.82
467.3	6548.26
467.672	6658.09
468.045	6856.27
468.417	6919.32
468.789	6957.74
469.161	7050.39
469.534	7152.54
469.906	7306.88
470.278	7364.28
470.65	7458.29
471.022	7616.25
471.394	7773.54
471.766	7825.74
472.138	7938.96
472.51	8067.54
472.882	8176.47
473.253	8331.26
473.625	8434.54
473.997	8608.54
474.369	8736.68
474.74	8738.26
475.112	8878.37
475.484	9121.07
475.855	9268.41
476.227	9352.71
476.598	9609.2
476.97	9705.92
477.341	9867.95
477.713	10047.15
478.084	10150.43
478.455	10368.72
478.827	10529.17
479.198	10737.08
479.569	10877.64
479.94	11110.17
480.311	11209.61
480.682	11516.72
481.053	11740.67
481.424	11949.47
481.795	12048.91
482.166	12243.7
482.537	12475.11
482.908	12659.96
483.279	12832.16
483.65	13074.19
484.021	13229.89
484.391	13451.58
484.762	13542.2
485.133	13742.87
485.503	13932.25
485.874	14169.98
486.244	14364.55
486.615	14604.77
486.985	14819.23
487.356	15019.68
487.726	15189.16
488.097	15474.58
488.467	15607
488.837	15846.77
489.207	16066.88
489.578	16251.73
489.948	16561.1
490.318	16691.04
490.688	16788.22
491.058	17022.79
491.428	17277.24
491.798	17400.4
492.168	17833.61
492.538	17881.3
492.908	18061.63
493.278	18434.73
493.648	18317.44
494.017	18518.79
494.387	18737.32
494.757	18986.58
495.126	19090.76
495.496	19154.03
495.866	19415.04
496.235	19580.91
496.605	19756.5
496.974	19871.53
497.344	20026.78
497.713	20217.05
498.082	20362.59
498.452	20579.76
498.821	20683.26
499.19	20844.38
499.559	20953.98
499.928	21078.5
500.298	21262.68
500.667	21546.74
501.036	21390.13
501.405	21677.13
501.774	21746.28
502.143	21978.81
502.512	22148.75
502.88	22286.15
503.249	22346.26
503.618	22550.33
503.987	22666.48
504.356	22843.88
504.724	22956.19
505.093	23098.11
505.462	23211.78
505.83	23382.39
506.199	23546.23
506.567	23984.19
506.936	23854.92
507.304	24156.61
507.672	24277.74
508.041	24353.89
508.409	24578.07
508.777	24790.04
509.145	24887.66
509.514	25059.19
509.882	25363.13
510.25	25407.43
510.618	25510.93
510.986	25657.36
511.354	26038.14
511.722	26125.6
512.09	26370.11
512.458	26352.71
512.826	26730.1
513.193	26772.14
513.561	26858.46
513.929	27074.5
514.297	27326.02
514.664	27631.77
515.032	27764.88
515.4	27933.91
515.767	28083.51
516.135	28322.83
516.502	28203.74
516.869	28660.22
517.237	28916.71
517.604	28810.27
517.972	29122.36
518.339	29384.95
518.706	29520.31
519.073	29621.33
519.44	29900.41
519.808	30291.59
520.175	30153.29
520.542	30708.75
520.909	30889.77
521.276	30920.05
521.643	31242.98
522.009	31503.76
522.376	31712.8
522.743	31976.07
523.11	32263.29
523.477	32554.58
523.843	32707.57
524.21	33094.91
524.577	33240.21
524.943	33394.79
525.31	33825.51
525.676	33967.88
526.043	34112.73
526.409	34287.42
526.776	34681.98
527.142	34889.44
527.508	35040.62
527.874	35213.72
528.241	35496.43
528.607	35656.65
528.973	35928.73
529.339	35970.76
529.705	36361.04
530.071	36675.83
530.437	36810.29
530.803	36913.79
531.169	37255.25
531.535	37282.37
531.901	37404.85
532.267	37671.28
532.632	37812.75
532.998	38013.65
533.364	38160.99
533.73	38358.27
534.095	38579.06
534.461	38788.54
534.826	38909.67
535.192	39024.69
535.557	39504.68
535.923	39425.14
536.288	39507.17
536.653	39705.58
537.019	39718.69
537.384	40009.98
537.749	40162.74
538.114	40267.37
538.479	40362.96
538.845	40564.77
539.21	40549.85
539.575	40794.59
539.94	40790.07
540.305	41309.83
540.67	41051.31
541.034	41228.25
541.399	41584.17
541.764	41650.39
542.129	41757.05
542.494	41891.96
542.858	42038.63
543.223	42053.99
543.587	42278.39
543.952	42213.76
544.316	42447.43
544.681	42506.18
545.045	42759.29
545.41	42945.04
545.774	43076.11
546.138	43004.02
546.503	43353.85
546.867	43204.02
547.231	43781.41
547.595	43664.35
547.959	43872.02
548.324	43835.87
548.688	44174.16
549.052	44305.46
549.416	44337.77
549.779	44338
550.143	44618.9
550.507	44910.42
550.871	45069.96
551.235	44984.54
551.599	45408.48
551.962	45316.96
552.326	45474.69
552.689	45747.91
553.053	45648.47
553.417	45827.45
553.78	46215.24
554.143	46111.51
554.507	46273.32
554.87	46541.56
555.234	46864.71
555.597	46645.06
555.96	46909.46
556.323	47145.16
556.686	47222.22
557.05	47511.93
557.413	47491.82
557.776	47692.49
558.139	47866.95
558.502	48078.24
558.865	48121.86
559.228	48481.85
559.59	48536.53
559.953	48572.01
560.316	48965.22
560.679	48990.31
561.041	49293.35
561.404	49418.55
561.767	49661.93
562.129	49610.63
562.492	50039.09
562.854	49938.53
563.217	49986.67
563.579	50172.88
563.941	50440.67
564.304	50594.11
564.666	50743.93
565.028	50815.8
565.39	50962.69
565.753	51216.92
566.115	51272.96
566.477	51427.53
566.839	51499.17
567.201	51735.77
567.563	51679.05
567.925	52004.01
568.287	51971.7
568.648	52050.57
569.01	52226.83
569.372	52442.42
569.734	52258.47
570.095	52663.88
570.457	52723.54
570.819	52871.34
571.18	52783.2
571.542	52950.43
571.903	53044.89
572.265	53204.89
572.626	53343.41
572.987	53303.87
573.349	53443.75
573.71	53541.83
574.071	53609.62
574.432	53681.94
574.794	53883.51
575.155	53855.26
575.516	53774.59
575.877	53995.37
576.238	53992.21
576.599	54061.36
576.96	54086.67
577.32	54149.27
577.681	54268.36
578.042	54328.92
578.403	54285.08
578.763	54406.21
579.124	54444.18
579.485	54490.73
579.845	54555.81
580.206	54508.81
580.566	54481.91
580.927	54604.62
581.287	54742.7
581.648	54625.87
582.008	54725.07
582.368	54649.82
582.728	54765.52
583.089	54681.68
583.449	54712.64
583.809	54805.52
584.169	54874.9
584.529	54783.38
584.889	54992.86
585.249	54778.86
585.609	54724.39
585.969	54880.32
586.329	54801.45
586.688	54866.31
587.048	54777.27
587.408	54715.36
587.768	54884.39
588.127	54747.44
588.487	54764.85
588.846	54925.07
589.206	54750.83
589.565	54679.88
589.925	54935.69
590.284	54822.24
590.643	54881.23
591.003	55001.9
591.362	54974.78
591.721	54874.67
592.08	54970.94
592.44	55030.6
592.799	54942.47
593.158	54923.94
593.517	54993.09
593.876	55066.08
594.235	54925.52
594.593	54955.35
594.952	55079.19
595.311	55001.22
595.67	54991.51
596.029	55222.91
596.387	55163.93
596.746	55247.32
597.104	55176.59
597.463	55137.04
597.822	55208.22
598.18	55152.41
598.538	55096.14
598.897	55248
599.255	54987.66
599.613	55470.82
599.972	55206.42
600.33	55388.11
600.688	55145.63
601.046	55374.32
601.404	55439.86
601.762	55311.27
602.12	55534.09
602.478	55469.01
602.836	55556.01
603.194	55379.52
603.552	55448.44
603.91	55326.41
604.268	55518.5
604.625	55474.21
604.983	55606.41
605.341	55478.05
605.698	55591.94
606.056	55656.12
606.413	55670.58
606.771	55713.75
607.128	55723.46
607.485	55668.1
607.843	55625.16
608.2	55790.58
608.557	55867.19
608.914	55811.15
609.272	55862.22
609.629	55967.98
609.986	55960.75
610.343	55890.24
610.7	56128.88
611.057	56103.34
611.414	56110.8
611.771	56069.9
612.127	56172.27
612.484	56145.83
612.841	56228.31
613.198	56144.24
613.554	56125.71
613.911	56280.06
614.267	56328.42
614.624	56228.31
614.98	56270.12
615.337	56309.21
615.693	56335.65
616.05	56291.58
616.406	56450.22
616.762	56378.36
617.118	56367.06
617.475	56343.79
617.831	56447.29
618.187	56507.85
618.543	56472.15
618.899	56645.93
619.255	56591.46
619.611	56506.72
619.967	56617.9
620.323	56653.16
620.678	56507.62
621.034	56556.66
621.39	56487.74
621.746	56538.81
622.101	56775.64
622.457	56493.84
622.812	56605.02
623.168	56668.07
623.523	56626.04
623.879	56655.42
624.234	56478.47
624.589	56589.43
624.945	56704.46
625.3	56700.16
625.655	56650.9
626.01	56639.6
626.365	56636.66
626.72	56620.16
627.075	56568.41
627.43	56575.42
627.785	56532.71
628.14	56621.97
628.495	56656.55
628.85	56547.4
629.205	56464.46
629.559	56661.52
629.914	56444.8
630.269	56470.56
630.623	56463.78
630.978	56396.67
631.332	56465.59
631.687	56475.99
632.041	56297.01
632.396	56405.71
632.75	56286.16
633.104	56330.91
633.459	56261.08
633.813	56196.67
634.167	56148.31
634.521	56182.89
634.875	56186.28
635.229	56070.57
635.583	55888.88
635.937	55997.81
636.291	55933.63
636.645	55963.91
636.999	55919.17
637.352	55983.57
637.706	55751.71
638.06	55889.79
638.413	55784.48
638.767	55708.55
639.121	55800.07
639.474	55600.76
639.828	55647.53
640.181	55653.41
640.534	55625.61
640.888	55562.34
641.241	55375.22
641.594	55545.16
641.947	55555.56
642.301	55441.21
642.654	55483.24
643.007	55428.56
643.36	55327.54
643.713	55312.85
644.066	55391.95
644.419	55182.24
644.771	55020.88
645.124	54753.55
645.477	54752.64
645.83	54464.51
646.182	54318.3
646.535	54373.9
646.888	54314.69
647.24	54122.15
647.593	54368.25
647.945	54304.29
648.298	54127.35
648.65	54034.92
649.002	53943.62
649.355	54110.63
649.707	53963.28
650.059	54081.7
650.411	54481.24
650.763	54593.32
651.115	54710.61
651.467	54621.35
651.819	54672.87
652.171	54584.96
652.523	54477.62
652.875	54555.13
653.227	54326.89
653.578	54505.19
653.93	54412.99
654.282	54317.63
654.633	54224.29
654.985	54312.2
655.337	54302.03
655.688	54280.11
656.039	54346.78
656.391	54043.06
656.742	54146.33
657.094	54104.75
657.445	54305.65
657.796	54091.42
658.147	54118.76
658.498	54038.31
658.849	54032.66
659.2	54078.99
659.551	54034.7
659.902	54088.03
660.253	54079.44
660.604	54055.71
660.955	53946.56
661.306	54053.68
661.656	53911.53
662.007	53972.55
662.358	53890.74
662.708	53824.98
663.059	53812.55
663.409	53648.04
663.76	53841.03
664.11	53794.7
664.461	53839.45
664.811	53846.9
665.161	53767.13
665.511	53703.18
665.862	53683.97
666.212	53778.66
666.562	53819.11
666.912	53718.32
667.262	53599
667.612	53632.22
667.962	53669.51
668.312	53468.16
668.662	53729.17
669.011	53507.7
669.361	53542.05
669.711	53502.51
670.06	53476.29
670.41	53510.19
670.76	53387.03
671.109	53426.8
671.459	53522.39
671.808	53276.52
672.157	53413.02
672.507	53198.56
672.856	53159.69
673.205	53253.02
673.554	53347.03
673.904	53187.03
674.253	53283.3
674.602	53231.1
674.951	52761.28
675.3	52612.13
675.649	53036.76
675.998	52993.59
676.346	53018
676.695	53101.84
677.044	52880.15
677.393	52955.18
677.741	52989.52
678.09	52859.81
678.438	52838.12
678.787	52849.42
679.135	52916.53
679.484	52670.44
679.832	52906.36
680.181	52654.17
680.529	52706.14
680.877	52576.65
681.225	52496.88
681.573	52713.37
681.922	52470.89
682.27	52339.6
682.618	52383.21
682.966	52227.28
683.314	52249.88
683.661	52269.32
684.009	52043.33
684.357	51956.11
684.705	51929.89
685.053	51960.63
685.4	51947.74
685.748	51752.72
686.095	51708.43
686.443	51539.39
686.79	51574.42
687.138	51572.84
687.485	51463.01
687.832	51407.65
688.18	51493.74
688.527	51203.36
688.874	51292.17
689.221	51072.06
689.568	51042.23
689.915	51010.59
690.262	50961.56
690.609	50862.35
690.956	50829.13
691.303	50674.78
691.65	50549.14
691.997	50508.91
692.344	50296.94
692.69	50282.48
693.037	50345.07
693.383	49897.85
693.73	50140.11
694.077	49849.27
694.423	49894.92
694.769	49793.9
695.116	49712.55
695.462	49575.15
695.808	49467.58
696.155	49576.73
696.501	49253.58
696.847	49260.13
697.193	48943.98
697.539	49179.23
697.885	48869.86
698.231	48596.19
698.577	48645.68
698.923	48646.59
699.269	48404.11
699.614	48266.03
699.96	48261.74
700.306	48149.65
700.651	48076.21
700.997	47925.03
701.342	47711.7
701.688	47791.7
702.033	47781.98
702.379	47564.81
702.724	47492.27
703.069	47458.82
703.415	47078.49
703.76	47163.24
704.105	46998.72
704.45	47097.02
704.795	46784.72
705.14	46773.19
705.485	46685.06
705.83	46387.66
706.175	46479.87
706.52	46397.83
706.865	46163.26
707.209	46025.87
707.554	46083.94
707.899	46068.8
708.243	45824.29
708.588	45879.88
708.932	45407.58
709.277	45646.89
709.621	45510.85
709.966	45330.74
710.31	45382.49
710.654	45016.18
710.998	45175.72
711.342	45000.81
711.687	44893.69
712.031	44721.49
712.375	44614.15
712.719	44664.55
713.063	44593.36
713.407	44637.65
713.75	44298
714.094	44408.51
714.438	44201.51
714.782	44146.82
715.125	44003.55
715.469	44003.32
715.812	43792.7
716.156	43608.53
716.499	43731.24
716.843	43760.39
717.186	43508.64
717.53	43744.8
717.873	43524.69
718.216	43329.67
718.559	43249.89
718.902	43016.91
719.246	43096.23
719.589	42882.45
719.932	42852.39
720.275	42826.85
720.617	42748.89
720.96	42608.1
721.303	42695.33
721.646	42517.71
721.989	42251.05
722.331	42481.33
722.674	42352.74
723.016	42315
723.359	42174.44
723.701	42242.01
724.044	42012.86
724.386	41821.91
724.729	42085.18
725.071	41791.85
725.413	41709.37
725.755	41887.67
726.097	41626.89
726.439	41341.92
726.782	41454.46
727.124	41621.01
727.465	41370.17
727.807	41254.01
728.149	41325.2
728.491	41055.38
728.833	41234.13
729.175	40992.55
729.516	40927.7
729.858	40819
730.199	40840.01
730.541	40663.07
730.882	40673.24
731.224	40789.85
731.565	40542.39
731.906	40559.8
732.248	40405.22
732.589	40298.56
732.93	40157.55
733.271	40161.16
733.612	40270.54
733.953	40192.8
734.294	40064.67
734.635	39876.42
734.976	40030.77
735.317	39815.63
735.658	39692.25
735.999	39842.3
736.339	39622.42
736.68	39598.01
737.021	39620.84
737.361	39305.82
737.702	39616.32
738.042	39379.49
738.383	39291.81
738.723	39447.51
739.063	39195.31
739.404	39335.42
739.744	39118.48
740.084	39041.42
740.424	38982.89
740.764	38842.78
741.104	38998.71
741.444	38730.69
741.784	38658.15
742.124	38786.28
742.464	38655.89
742.804	38526.85
743.143	38341.32
743.483	38370.02
743.823	38244.15
744.162	38088.22
744.502	38199.18
744.841	37997.38
745.181	38330.48
745.52	38006.19
745.86	38030.14
746.199	37849.58
746.538	37937.72
746.877	37858.17
747.216	37761.22
747.556	37702.24
747.895	37688.46
748.234	37565.07
748.573	37423.38
748.911	37458.86
749.25	37410.73
749.589	37211.18
749.928	37160.79
750.267	37313.1
750.605	37161.69
750.944	36947.46
751.283	36751.31
751.621	37134.8
751.96	36663.85
