Data from White_reflection_standard_FLMS001491_020.txt Node
Date: Tue Feb 07 10:31:59 GMT 2017
User: dcchb
Spectrometer: FLMS00149
Trigger mode: 0
Integration Time (sec): 2.000000E-2
Scans to average: 10
Electric dark correction enabled: true
Nonlinearity correction enabled: false
Boxcar width: 0
XAxis mode: Wavelengths
Number of Pixels in Spectrum: 2048
>>>>>Begin Spectral Data<<<<<
341.393	-23.84
341.776	-23.84
342.16	-23.84
342.543	-72.65
342.927	-57.29
343.31	-61.35
343.693	-67
344.077	-56.38
344.46	-57.06
344.843	-47.8
345.226	-75.37
345.61	-36.5
345.993	-5.54
346.376	-12.32
346.759	11.19
347.142	26.55
347.525	46.21
347.908	67.91
348.291	74.24
348.674	83.05
349.057	110.17
349.44	116.95
349.823	120.34
350.206	191.29
350.588	229.94
350.971	240.11
351.354	264.29
351.737	293.66
352.119	290.5
352.502	286.21
352.884	321.23
353.267	325.3
353.65	343.15
354.032	357.84
354.414	352.42
354.797	344.74
355.179	363.72
355.562	367.11
355.944	371.4
356.326	376.37
356.709	390.39
357.091	381.8
357.473	417.5
357.855	384.06
358.238	395.81
358.62	396.26
359.002	424.06
359.384	413.66
359.766	418.86
360.148	401.46
360.53	421.57
360.912	375.92
361.294	402.81
361.676	391.97
362.057	399.65
362.439	418.63
362.821	401.91
363.203	425.19
363.584	405.53
363.966	415.7
364.348	418.63
364.729	418.18
365.111	429.71
365.493	398.29
365.874	401.01
366.256	420.44
366.637	405.07
367.019	410.95
367.4	435.58
367.781	419.76
368.163	402.36
368.544	425.86
368.925	436.94
369.306	423.6
369.688	424.06
370.069	425.64
370.45	416.15
370.831	429.03
371.212	425.41
371.593	444.17
371.974	421.8
372.355	434.23
372.736	435.58
373.117	455.24
373.498	431.74
373.879	464.73
374.26	447.11
374.641	432.87
375.021	439.42
375.402	458.86
375.783	455.92
376.163	492.53
376.544	503.15
376.925	487.11
377.305	498.18
377.686	487.33
378.066	487.33
378.447	503.15
378.827	474.45
379.208	499.53
379.588	521
379.968	530.72
380.349	523.94
380.729	512.42
381.109	540.21
381.489	528.01
381.87	534.56
382.25	540.89
382.63	545.64
383.01	549.03
383.39	573.21
383.77	547.44
384.15	565.07
384.53	608.68
384.91	594.45
385.29	612.98
385.67	595.13
386.049	604.84
386.429	619.53
386.809	626.54
387.189	614.56
387.568	621.11
387.948	641.23
388.328	657.95
388.707	659.98
389.087	662.69
389.466	652.75
389.846	666.76
390.225	672.64
390.605	680.55
390.984	676.71
391.363	678.97
391.743	714.44
392.122	720.09
392.501	735.69
392.881	737.95
393.26	758.51
393.639	765.74
394.018	768
394.397	773.88
394.776	789.02
395.155	773.2
395.534	803.93
395.913	829.7
396.292	802.13
396.671	830.37
397.05	835.8
397.429	821.56
397.808	855.46
398.186	862.01
398.565	859.3
398.944	879.41
399.323	864.72
399.701	891.39
400.08	885.06
400.458	920.31
400.837	911.05
401.215	892.29
401.594	928
401.972	933.65
402.351	962.12
402.729	961.44
403.107	980.65
403.486	977.94
403.864	995.12
404.242	998.5
404.62	1008
404.999	1025.4
405.377	1033.98
405.755	1069.46
406.133	1064.72
406.511	1102.91
406.889	1087.77
407.267	1096.13
407.645	1125.96
408.023	1166.18
408.401	1151.5
408.779	1175.22
409.156	1187.2
409.534	1204.15
409.912	1214.09
410.29	1257.03
410.667	1239.63
411.045	1261.55
411.422	1276.01
411.8	1276.01
412.178	1348.1
412.555	1335.45
412.933	1337.7
413.31	1394.88
413.687	1395.56
414.065	1407.08
414.442	1409.79
414.819	1443.01
415.197	1446.18
415.574	1476.46
415.951	1511.03
416.328	1536.12
416.705	1536.12
417.082	1567.53
417.46	1542.9
417.837	1584.48
418.214	1558.04
418.591	1598.94
418.967	1625.16
419.344	1629.45
419.721	1690.01
420.098	1650.01
420.475	1696.57
420.852	1693.85
421.228	1735.89
421.605	1713.74
421.982	1750.58
422.358	1763
422.735	1828.31
423.111	1777.24
423.488	1856.56
423.864	1846.17
424.241	1889.1
424.617	1915.99
424.994	1914.64
425.37	1938.59
425.746	1912.83
426.123	1963.45
426.499	1989.21
426.875	2021.75
427.251	2031.7
427.627	2110.79
428.003	2120.06
428.379	2170
428.756	2174.75
429.132	2214.07
429.507	2244.57
429.883	2282.09
430.259	2273.27
430.635	2326.38
431.011	2339.71
431.387	2386.04
431.763	2447.05
432.138	2449.54
432.514	2477.56
432.89	2521.4
433.265	2574.73
433.641	2606.37
434.016	2624.22
434.392	2681.62
434.767	2750.78
435.143	2702.87
435.518	2725.92
435.894	2798.23
436.269	2806.14
436.644	2858.34
437.02	2915.06
437.395	2930.21
437.77	2955.06
438.145	2972.01
438.52	3002.97
438.895	3037.77
439.271	3047.49
439.646	3128.84
440.021	3202.74
440.395	3207.26
440.77	3179.01
441.145	3221.05
441.52	3250.2
441.895	3321.61
442.27	3275.28
442.645	3290.65
443.019	3374.26
443.394	3384.43
443.769	3393.02
444.143	3405.22
444.518	3461.94
444.892	3488.38
445.267	3488.61
445.641	3505.78
446.016	3558.89
446.39	3585.1
446.764	3613.13
447.139	3636.18
447.513	3656.97
447.887	3679.79
448.262	3716.17
448.636	3716.4
449.01	3749.62
449.384	3789.17
449.758	3816.96
450.132	3903.06
450.506	3902.84
450.88	3979.9
451.254	3942.83
451.628	4004.75
452.002	4068.48
452.376	4093.34
452.75	4130.85
453.123	4169.49
453.497	4264.63
453.871	4252.66
454.244	4371.98
454.618	4427.34
454.992	4498.3
455.365	4448.36
455.739	4601.57
456.112	4624.4
456.486	4676.15
456.859	4712.08
457.232	4821
457.606	4809.7
457.979	4863.94
458.352	4997.27
458.725	5033.43
459.099	5077.72
459.472	5174.21
459.845	5193.42
460.218	5291.27
460.591	5331.95
460.964	5341.89
461.337	5512.51
461.71	5557.03
462.083	5655.78
462.456	5633.86
462.829	5665.05
463.201	5820.3
463.574	5820.07
463.947	5891.26
464.32	6062.78
464.692	6077.69
465.065	6142.1
465.438	6258.03
465.81	6358.59
466.183	6425.25
466.555	6525.59
466.928	6548.64
467.3	6584.35
467.672	6647.85
468.045	6839.71
468.417	6840.39
468.789	6923.77
469.161	7009.87
469.534	7182.07
469.906	7360.82
470.278	7396.75
470.65	7458.22
471.022	7585.9
471.394	7710.19
471.766	7851.21
472.138	7890.75
472.51	8085.55
472.882	8192.44
473.253	8249.39
473.625	8412.55
473.997	8614.8
474.369	8692.99
474.74	8726.66
475.112	9019.31
475.484	9107.22
475.855	9271.96
476.227	9288.91
476.598	9553.53
476.97	9647.54
477.341	9910.13
477.713	10051.83
478.084	10066.29
478.455	10385.83
478.827	10447.75
479.198	10790.34
479.569	10756.21
479.94	11103.78
480.311	11277.78
480.682	11500.15
481.053	11662.63
481.424	11881.61
481.795	12084.09
482.166	12199.79
482.537	12400.01
482.908	12631.65
483.279	12794.8
483.65	13071.18
484.021	13337.39
484.391	13463.94
484.762	13635.69
485.133	13754.78
485.503	13922.23
485.874	14142.79
486.244	14328.1
486.615	14625.04
486.985	14798.82
487.356	15113.84
487.726	15245.59
488.097	15548.86
488.467	15509.08
488.837	15871.33
489.207	16102.51
489.578	16297.54
489.948	16481.49
490.318	16761.03
490.688	16708.37
491.058	17033.11
491.428	17229.72
491.798	17422.48
492.168	17772.08
492.538	17899.08
492.908	18009.58
493.278	18299.97
493.648	18429.91
494.017	18654.09
494.387	18708.55
494.757	18827.64
495.126	19094.98
495.496	19190.34
495.866	19360.06
496.235	19620.61
496.605	19753.94
496.974	19823.55
497.344	20141.05
497.713	20181.96
498.082	20368.39
498.452	20531.55
498.821	20763.86
499.19	20713.92
499.559	20967.7
499.928	21167.01
500.298	21310.74
500.667	21587.79
501.036	21515.03
501.405	21665.98
501.774	21732.65
502.143	22046.54
502.512	22058.29
502.88	22325.85
503.249	22317.04
503.618	22571.72
503.987	22615.11
504.356	22733.98
504.724	22976.23
505.093	23089
505.462	23229.11
505.83	23295.32
506.199	23509.78
506.567	23842.65
506.936	23865.93
507.304	24270.44
507.672	24287.84
508.041	24522.86
508.409	24602.18
508.777	24863.19
509.145	24998.78
509.514	25014.14
509.882	25257.53
510.25	25385.66
510.618	25544.3
510.986	25635.37
511.354	25947.68
511.722	26146.32
512.09	26358.29
512.458	26410.04
512.826	26704.04
513.193	26768.45
513.561	26899.07
513.929	27159.62
514.297	27302.9
514.664	27548.09
515.032	27646.62
515.4	27911.7
515.767	28070.34
516.135	28206.6
516.502	28209.54
516.869	28760.49
517.237	28969.29
517.604	28814.95
517.972	29178.78
518.339	29473.69
518.706	29441.6
519.073	29646.34
519.44	29919.55
519.808	30209.94
520.175	30202.48
520.542	30678.18
520.909	30907.32
521.276	30997.04
521.643	31342.57
522.009	31555.44
522.376	31764.02
522.743	31962.21
523.11	32150.91
523.477	32464.8
523.843	32738.91
524.21	33119.69
524.577	33362.85
524.943	33376.41
525.31	33476.52
525.676	33833.12
526.043	34106.11
526.409	34263.17
526.776	34739.31
527.142	34800.78
527.508	35084.61
527.874	35334.78
528.241	35425.4
528.607	35453.42
528.973	35894.31
529.339	35943.57
529.705	36386.95
530.071	36535.2
530.437	36670.79
530.803	36990.78
531.169	37160.94
531.535	37361.62
531.901	37492.23
532.267	37556.87
532.632	37812.9
532.998	37960.47
533.364	38219.9
533.73	38292.21
534.095	38648.81
534.461	38794.35
534.826	38800.45
535.192	39098.75
535.557	39176.71
535.923	39338.06
536.288	39612.18
536.653	39719.75
537.019	39713.42
537.384	39858.27
537.749	40060.75
538.114	40174.88
538.479	40329
538.845	40568.09
539.21	40551.14
539.575	40756.78
539.94	40914.07
540.305	41152.93
540.67	41057.34
541.034	41386.14
541.399	41539.81
541.764	41593.37
542.129	41695.74
542.494	41865.23
542.858	42009.63
543.223	42091.44
543.587	42346.57
543.952	42209.85
544.316	42501.14
544.681	42468.83
545.045	42830.4
545.41	43120.56
545.774	42978.19
546.138	43048.92
546.503	43288.24
546.867	43367.79
547.231	43781.33
547.595	43728.91
547.959	43959.86
548.324	43943.59
548.688	44022.91
549.052	44203.02
549.416	44413.41
549.779	44369.57
550.143	44585.16
550.507	44817.47
550.871	45042.54
551.235	44956.9
551.599	45320.5
551.962	45337.68
552.326	45412.48
552.689	45836.42
553.053	45620.16
553.417	45751.9
553.78	46291.33
554.143	46134.72
554.507	46289.52
554.87	46537.19
555.234	46846.56
555.597	46605.44
555.96	46897.86
556.323	47042.04
556.686	47211.3
557.05	47494.91
557.413	47478.41
557.776	47735.36
558.139	47882.92
558.502	48039.53
558.865	48167.43
559.228	48508.89
559.59	48526.29
559.953	48687.19
560.316	48979.16
560.679	49063
561.041	49257.57
561.404	49496.21
561.767	49585.48
562.129	49539.38
562.492	49948.4
562.854	49839.71
563.217	50014.17
563.579	50147.95
563.941	50377.55
564.304	50537.77
564.666	50771.43
565.028	50799.23
565.39	50977.08
565.753	51115.83
566.115	51158.32
566.477	51358.99
566.839	51550.85
567.201	51704.97
567.563	51788.58
567.925	51936.83
568.287	51956.49
568.648	51975.92
569.01	52220.66
569.372	52438.96
569.734	52385.63
570.095	52467.66
570.457	52704.49
570.819	52776.35
571.18	52813.87
571.542	52924.6
571.903	53060.41
572.265	53120.75
572.626	53245.94
572.987	53224.02
573.349	53375.88
573.71	53458.59
574.071	53598.93
574.432	53643.9
574.794	53866.49
575.155	53818.58
575.516	53751.24
575.877	53934.51
576.238	53973.16
576.599	54194.62
576.96	54120.27
577.32	54083.89
577.681	54280.95
578.042	54272.36
578.403	54279.59
578.763	54308.52
579.124	54324.11
579.485	54499.92
579.845	54544.89
580.206	54505.35
580.566	54500.83
580.927	54563.65
581.287	54713.48
581.648	54597.32
582.008	54672.35
582.368	54626.93
582.728	54687.71
583.089	54658.56
583.449	54702.18
583.809	54716.64
584.169	54747.6
584.529	54707.38
584.889	54929.29
585.249	54723.19
585.609	54678.45
585.969	54859.01
586.329	54825.34
586.688	54792.34
587.048	54779.01
587.408	54762.74
587.768	54748.5
588.127	54857.88
588.487	54694.72
588.846	54936.3
589.206	54831.89
589.565	54793.02
589.925	54897.88
590.284	54823.3
590.643	54867.82
591.003	54919.57
591.362	55040.25
591.721	54887.71
592.08	54931.1
592.44	55031.66
592.799	54977.88
593.158	54990.76
593.517	54961.83
593.876	55010.42
594.235	55029.63
594.593	54977.2
594.952	55069.4
595.311	54953.02
595.67	55103.3
596.029	55202.05
596.387	55174.48
596.746	55276.17
597.104	55127.93
597.463	55051.09
597.822	55247.02
598.18	55173.35
598.538	55077.31
598.897	55284.99
599.255	55007.48
599.613	55496.51
599.972	55293.8
600.33	55378.54
600.688	55241.37
601.046	55343.74
601.404	55453.34
601.762	55360.92
602.12	55524.08
602.478	55554.36
602.836	55501.7
603.194	55329.05
603.552	55469.39
603.91	55342.61
604.268	55549.84
604.625	55415.83
604.983	55606.79
605.341	55428.71
605.698	55610.18
606.056	55658.99
606.413	55589.61
606.771	55697.18
607.128	55737.86
607.485	55601.59
607.843	55647.24
608.2	55802.49
608.557	55837.97
608.914	55761.13
609.272	55957.29
609.629	55914.8
609.986	56069.6
610.343	55953.67
610.7	56149.37
611.057	56050.39
611.414	56009.04
611.771	56037.96
612.127	56165.64
612.484	56116.83
612.841	56252.42
613.198	56133.33
613.554	56135.59
613.911	56284.96
614.267	56253.55
614.624	56181.91
614.98	56290.84
615.337	56400.21
615.693	56330.61
616.05	56338.07
616.406	56441.57
616.762	56391.85
617.118	56379.42
617.475	56384.17
617.831	56447.67
618.187	56471.85
618.543	56535.12
618.899	56616.25
619.255	56606.31
619.611	56509.59
619.967	56590.72
620.323	56646.53
620.678	56515.92
621.034	56467.1
621.39	56522.24
621.746	56473.2
622.101	56765.17
622.457	56507.78
622.812	56599.3
623.168	56608.12
623.523	56666.19
623.879	56708.9
624.234	56514.11
624.589	56571.05
624.945	56638.85
625.3	56658.96
625.655	56686.31
626.01	56628.45
626.365	56611.96
626.72	56630.04
627.075	56599.08
627.43	56627.1
627.785	56532.64
628.14	56595.24
628.495	56566.76
628.85	56544.84
629.205	56475.92
629.559	56595.91
629.914	56454.45
630.269	56491.73
630.623	56410.83
630.978	56420.1
631.332	56503.26
631.687	56507.33
632.041	56314.11
632.396	56446.76
632.75	56211.97
633.104	56295.36
633.459	56182.14
633.813	56238.63
634.167	56147.34
634.521	56146.21
634.875	56182.59
635.229	56114.57
635.583	55981.24
635.937	56003.39
636.291	55988.02
636.645	55933.11
636.999	55901.92
637.352	55946.44
637.706	55782.15
638.06	55911.86
638.413	55814.92
638.767	55697.63
639.121	55765.2
639.474	55624.64
639.828	55575.37
640.181	55638.42
640.534	55632.77
640.888	55573.57
641.241	55464.19
641.594	55460.8
641.947	55540.57
642.301	55417.19
642.654	55452.21
643.007	55439.79
643.36	55333.35
643.713	55302.39
644.066	55448.15
644.419	55112.11
644.771	54925.45
645.124	54678.45
645.477	54661.73
645.83	54510.77
646.182	54414.95
646.535	54333.6
646.888	54319.81
647.24	54187.61
647.593	54402.07
647.945	54244.79
648.298	54118.46
648.65	54063.78
649.002	54026.94
649.355	54114.62
649.707	54099.48
650.059	54149.2
650.411	54488.17
650.763	54476.87
651.115	54788.5
651.467	54682.29
651.819	54612.69
652.171	54515.97
652.523	54532.46
652.875	54456.08
653.227	54319.36
653.578	54554.38
653.93	54378.8
654.282	54332.24
654.633	54263.32
654.985	54237.78
655.337	54279.59
655.688	54272.13
656.039	54287.5
656.391	54109.65
656.742	54097.22
657.094	54075.3
657.445	54306.48
657.796	54119.59
658.147	54048.18
658.498	53967.96
658.849	54142.64
659.2	54004.79
659.551	53969.99
659.902	54109.42
660.253	53912.59
660.604	54102.87
660.955	53890.22
661.306	54045.02
661.656	53941.29
662.007	53937.9
662.358	53924.12
662.708	53907.85
663.059	53803.67
663.409	53654.97
663.76	53780.85
664.11	53815.65
664.461	53792.6
664.811	53854.74
665.161	53720.06
665.511	53604.35
665.862	53741.52
666.212	53719.83
666.562	53802.99
666.912	53675.99
667.262	53640.06
667.612	53636.89
667.962	53658.36
668.312	53558.93
668.662	53695.88
669.011	53588.31
669.361	53494.07
669.711	53512.6
670.06	53382.44
670.41	53298.15
670.76	53351.48
671.109	53452.04
671.459	53371.82
671.808	53344.93
672.157	53450.23
672.507	53206.62
672.856	53256.79
673.205	53213.86
673.554	53275.77
673.904	53142.9
674.253	53315.55
674.602	53177.02
674.951	52718.95
675.3	52544.04
675.649	53088.89
675.998	53156.91
676.346	53006.85
676.695	53138.15
677.044	52900.64
677.393	53040.3
677.741	52963.92
678.09	52859.06
678.438	52845.96
678.787	52890.47
679.135	52811.83
679.484	52685.51
679.832	52798.27
680.181	52605.51
680.529	52646.41
680.877	52535.68
681.225	52563.25
681.573	52754.88
681.922	52533.42
682.27	52363.71
682.618	52313.31
682.966	52313.77
683.314	52407.77
683.661	52308.79
684.009	52067.44
684.357	52048.91
684.705	51968.01
685.053	52049.37
685.4	51914.91
685.748	51675.59
686.095	51629.49
686.443	51602.15
686.79	51539.32
687.138	51575.25
687.485	51465.88
687.832	51457.07
688.18	51422.26
688.527	51293.23
688.874	51302.94
689.221	51164.42
689.568	51089.39
689.915	50977.98
690.262	50984.54
690.609	50890.53
690.956	50733.47
691.303	50643.75
691.65	50482.85
691.997	50456.19
692.344	50360.82
692.69	50272.24
693.037	50306.36
693.383	50029.53
693.73	50137.1
694.077	49812.14
694.423	49870.21
694.769	49759.71
695.116	49784.34
695.462	49578.47
695.808	49459.38
696.155	49552.71
696.501	49181.64
696.847	49171.93
697.193	48892.84
697.539	49074.08
697.885	48815.55
698.231	48674.54
698.577	48708.89
698.923	48571.49
699.269	48436.35
699.614	48244.49
699.96	48167.43
700.306	48246.98
700.651	48006.76
700.997	47834.79
701.342	47870.04
701.688	47918.63
702.033	47567.9
702.379	47567.22
702.724	47485.64
703.069	47625.75
703.415	47176.05
703.76	47141.25
704.105	47061.02
704.45	46953
704.795	46697.19
705.14	46647.93
705.485	46738.09
705.83	46527.7
706.175	46460.36
706.52	46388.95
706.865	46186.02
707.209	46124.78
707.554	45932.92
707.899	46073.03
708.243	45806.82
708.588	45669.87
708.932	45538.8
709.277	45460.61
709.621	45633.49
709.966	45201.64
710.31	45304.23
710.654	44960.29
710.998	44982.21
711.342	45092.71
711.687	44924.36
712.031	44663.12
712.375	44497.25
712.719	44735.66
713.063	44530.24
713.407	44826.05
713.75	44370.02
714.094	44400.98
714.438	44196.92
714.782	44199.4
715.125	44071.72
715.469	43928
715.812	43813.42
716.156	43697.5
716.499	43536.6
716.843	43761.22
717.186	43479.87
717.53	43563.71
717.873	43668.12
718.216	43436.49
718.559	43291.4
718.902	42962.6
719.246	43022.03
719.589	43003.28
719.932	42840.34
720.275	42888.25
720.617	42590.18
720.96	42732.77
721.303	42702.27
721.646	42631.31
721.989	42228.61
722.331	42425.44
722.674	42372.56
723.016	42279.23
723.359	42199.23
723.701	42295.05
724.044	42002.62
724.386	41705.46
724.729	42044.43
725.071	41813.25
725.413	41809.18
725.755	41756.76
726.097	41663.42
726.439	41387.05
726.782	41364
727.124	41599.25
727.465	41217.33
727.807	41325.13
728.149	41208.07
728.491	41106.83
728.833	41115.64
729.175	40896.21
729.516	40973.72
729.858	40896.89
730.199	40772.15
730.541	40672.04
730.882	40659.61
731.224	40794.75
731.565	40476.79
731.906	40528.09
732.248	40670
732.589	40144.14
732.93	40039.96
733.271	40262.33
733.612	40190.92
733.953	40260.3
734.294	39980.98
734.635	40018.95
734.976	39978.5
735.317	39787.99
735.658	39778.28
735.999	39809.91
736.339	39450.6
736.68	39576.93
737.021	39592.07
737.361	39408.34
737.702	39590.26
738.042	39453.76
738.383	39318.85
738.723	39340.1
739.063	39176.94
739.404	39215.81
739.744	39046.32
740.084	38897.62
740.424	38888.13
740.764	38842.48
741.104	39006.77
741.444	38656.95
741.784	38630.74
742.124	38764.52
742.464	38584.18
742.804	38488.14
743.143	38388.03
743.483	38405.88
743.823	38253.8
744.162	38212.22
744.502	38244.98
744.841	38084.76
745.181	38209.5
745.52	37945.33
745.86	38048.83
746.199	37851.55
746.538	37810.87
746.877	37910.53
747.216	37881.6
747.556	37713.92
747.895	37637.99
748.234	37555.28
748.573	37441.61
748.911	37543.31
749.25	37408.17
749.589	37165.24
749.928	37220.38
750.267	37264.9
750.605	37089.31
750.944	37071.91
751.283	36863.55
751.621	36986.26
751.96	36817.22
752.298	36688.41
752.636	36622.43
