Data from white_steel_sheet_FLMS001491_006.txt Node
Date: Tue Feb 07 10:57:18 GMT 2017
User: dcchb
Spectrometer: FLMS00149
Trigger mode: 0
Integration Time (sec): 2.000000E-2
Scans to average: 10
Electric dark correction enabled: true
Nonlinearity correction enabled: false
Boxcar width: 0
XAxis mode: Wavelengths
Number of Pixels in Spectrum: 2048
>>>>>Begin Spectral Data<<<<<
341.393	-16.36
341.776	-16.36
342.16	-16.36
342.543	-60.87
342.927	-62
343.31	-70.59
343.693	-70.14
344.077	-54.09
344.46	-39.41
344.843	-51.16
345.226	-27.65
345.61	-40.31
345.993	-20.88
346.376	-8.67
346.759	-7.32
347.142	29.97
347.525	40.14
347.908	62.06
348.291	56.18
348.674	90.99
349.057	110.87
349.44	119.91
349.823	123.98
350.206	177.09
350.588	201.94
350.971	216.86
351.354	228.38
351.737	252.34
352.119	238.55
352.502	262.96
352.884	270.42
353.267	279.46
353.65	296.4
354.032	314.71
354.414	320.58
354.797	322.84
355.179	333.24
355.562	311.32
355.944	312.9
356.326	333.92
356.709	334.6
357.091	352.45
357.473	359.45
357.855	352.67
358.238	365.33
358.62	330.75
359.002	351.09
359.384	352.9
359.766	328.04
360.148	330.75
360.53	319.68
360.912	347.02
361.294	344.99
361.676	345.67
362.057	346.8
362.439	354.93
362.821	337.31
363.203	335.27
363.584	325.1
363.966	320.36
364.348	318.78
364.729	342.05
365.111	335.73
365.493	334.37
365.874	330.75
366.256	324.2
366.637	317.65
367.019	325.78
367.4	312.22
367.781	333.92
368.163	336.4
368.544	322.39
368.925	309.96
369.306	354.03
369.688	317.2
370.069	328.04
370.45	333.01
370.831	325.56
371.212	319.91
371.593	337.08
371.974	321.94
372.355	327.59
372.736	327.14
373.117	337.53
373.498	322.39
373.879	326.69
374.26	334.6
374.641	312.22
375.021	326.46
375.402	345.44
375.783	326.69
376.163	331.43
376.544	350.64
376.925	342.05
377.305	330.53
377.686	325.1
378.066	336.63
378.447	341.83
378.827	346.57
379.208	364.65
379.588	341.83
379.968	339.12
380.349	373.92
380.729	358.55
381.109	371.66
381.489	359.68
381.87	367.82
382.25	373.01
382.63	375.05
383.01	352.9
383.39	359.23
383.77	365.33
384.15	400.58
384.53	381.15
384.91	357.87
385.29	383.41
385.67	354.03
386.049	385.44
386.429	378.44
386.809	402.39
387.189	381.37
387.568	380.7
387.948	402.84
388.328	397.64
388.707	408.04
389.087	431.77
389.466	421.37
389.846	395.39
390.225	413.92
390.605	432.22
390.984	436.29
391.363	415.05
391.743	435.61
392.122	455.5
392.501	441.49
392.881	461.82
393.26	444.2
393.639	450.75
394.018	455.72
394.397	476.96
394.776	455.27
395.155	486.46
395.534	497.3
395.913	492.78
396.292	494.14
396.671	508.6
397.05	483.52
397.429	512.22
397.808	511.09
398.186	524.87
398.565	542.27
398.944	519
399.323	538.21
399.701	537.75
400.08	556.28
400.458	563.06
400.837	568.04
401.215	559.22
401.594	562.39
401.972	575.27
402.351	593.35
402.729	599.67
403.107	605.78
403.486	617.98
403.864	612.1
404.242	635.15
404.62	636.96
404.999	662.27
405.377	672.44
405.755	693.91
406.133	675.6
406.511	690.52
406.889	675.6
407.267	695.04
407.645	728.48
408.023	769.84
408.401	737.52
408.779	771.65
409.156	749.5
409.534	782.72
409.912	763.29
410.29	797.86
410.667	821.14
411.045	828.37
411.422	840.12
411.8	850.06
412.178	865.88
412.555	861.59
412.933	888.71
413.31	911.3
413.687	911.08
414.065	901.81
414.442	929.16
414.819	931.64
415.197	949.95
415.574	961.02
415.951	969.61
416.328	988.82
416.705	986.78
417.082	1005.99
417.46	1035.59
417.837	1058.64
418.214	1065.2
418.591	1060.45
418.967	1050.06
419.344	1074.92
419.721	1076.05
420.098	1095.25
420.475	1094.35
420.852	1096.38
421.228	1116.72
421.605	1169.6
421.982	1145.65
422.358	1148.13
422.735	1153.78
423.111	1176.38
423.488	1193.1
423.864	1194.46
424.241	1219.54
424.617	1224.97
424.994	1271.52
425.37	1257.74
425.746	1251.41
426.123	1277.85
426.499	1291.86
426.875	1322.14
427.251	1332.54
427.627	1345.87
428.003	1360.33
428.379	1347.9
428.756	1419.31
429.132	1427.45
429.507	1437.62
429.883	1469.26
430.259	1488.92
430.635	1480.55
431.011	1477.16
431.387	1564.85
431.763	1568.24
432.138	1558.52
432.514	1594.45
432.89	1597.61
433.265	1645.52
433.641	1664.96
434.016	1682.58
434.392	1695.46
434.767	1715.12
435.143	1745.86
435.518	1739.76
435.894	1754.45
436.269	1806.87
436.644	1806.2
437.02	1820.88
437.395	1860.21
437.77	1874.22
438.145	1884.61
438.52	1895.68
438.895	1926.42
439.271	1951.95
439.646	1983.37
440.021	2010.94
440.395	2017.72
440.77	2031.95
441.145	2026.3
441.52	2095.68
441.895	2044.83
442.27	2074.66
442.645	2084.83
443.019	2096.36
443.394	2127.54
443.769	2161.89
444.143	2152.85
444.518	2178.16
444.892	2199.86
445.267	2197.15
445.641	2236.92
446.016	2255.68
446.39	2255.9
446.764	2296.8
447.139	2270.14
447.513	2291.61
447.887	2341.77
448.262	2331.38
448.636	2367.31
449.01	2411.6
449.384	2432.62
449.758	2419.74
450.132	2475.78
450.506	2488.21
450.88	2489.57
451.254	2489.57
451.628	2588.55
452.002	2591.94
452.376	2563.69
452.75	2594.42
453.123	2661.77
453.497	2648.66
453.871	2673.97
454.244	2774.08
454.618	2735.89
454.992	2762.78
455.365	2792.84
455.739	2826.73
456.112	2914.64
456.486	2938.6
456.859	2939.95
457.232	3000.51
457.606	3005.26
457.979	3049.55
458.352	3107.4
458.725	3141.3
459.099	3186.27
459.472	3231.92
459.845	3243.9
460.218	3279.38
460.591	3342.88
460.964	3318.47
461.337	3424.91
461.71	3457.68
462.083	3525.02
462.456	3518.92
462.829	3554.85
463.201	3592.14
463.574	3608.86
463.947	3666.03
464.32	3779.48
464.692	3741.74
465.065	3823.09
465.438	3872.13
465.81	3930.66
466.183	3954.61
466.555	4059.02
466.928	4064.67
467.3	4045.46
467.672	4106.47
468.045	4273.93
468.417	4198
468.789	4261.05
469.161	4358.9
469.534	4428.95
469.906	4483.19
470.278	4537.88
470.65	4601.6
471.022	4679.34
471.394	4746.01
471.766	4718.66
472.138	4875.04
472.51	4913.68
472.882	4986.22
473.253	5047.92
473.625	5159.78
473.997	5259.66
474.369	5251.08
474.74	5366.55
475.112	5485.87
475.484	5512.76
475.855	5614.46
476.227	5665.98
476.598	5833.43
476.97	5852.64
477.341	5992.75
477.713	6065.52
478.084	6167.44
478.455	6287.43
478.827	6355.23
479.198	6501.21
479.569	6552.51
479.94	6745.27
480.311	6751.6
480.682	6960.86
481.053	7101.88
481.424	7230.01
481.795	7225.94
482.166	7364.92
482.537	7478.59
482.908	7584.35
483.279	7756.55
483.65	7864.79
484.021	8029.08
484.391	8049.42
484.762	8202.64
485.133	8270.66
485.503	8416.19
485.874	8559.24
486.244	8660.03
486.615	8846.91
486.985	8909.29
487.356	9080.35
487.726	9147.7
488.097	9323.74
488.467	9378.43
488.837	9584.3
489.207	9707
489.578	9852.76
489.948	9942.25
490.318	10080.78
490.688	10125.98
491.058	10273.32
491.428	10382.92
491.798	10516.7
492.168	10673.31
492.538	10733.42
492.908	10875.11
493.278	11070.36
493.648	11058.61
494.017	11221.99
494.387	11291.82
494.757	11440.29
495.126	11606.39
495.496	11705.14
495.866	11691.36
496.235	11867.4
496.605	11981.07
496.974	12031.92
497.344	12129.99
497.713	12237.33
498.082	12315.3
498.452	12459.02
498.821	12528.4
499.19	12603.88
499.559	12709.64
499.928	12858.33
500.298	12898.79
500.667	13028.27
501.036	13058.33
501.405	13174.71
501.774	13171.09
502.143	13341.03
502.512	13508.94
502.88	13536.73
503.249	13515.94
503.618	13683.62
503.987	13667.8
504.356	13837.29
504.724	13948.02
505.093	14009.94
505.462	14060.34
505.83	14190.05
506.199	14364.06
506.567	14545.3
506.936	14582.81
507.304	14680.21
507.672	14737.15
508.041	14878.85
508.409	14974.89
508.777	15150.93
509.145	15245.16
509.514	15313.41
509.882	15401.32
510.25	15492.84
510.618	15604.93
510.986	15651.26
511.354	15816.67
511.722	16021.19
512.09	16052.6
512.458	16095.54
512.826	16306.61
513.193	16320.16
513.561	16471.35
513.929	16623.66
514.297	16757.44
514.664	16884.67
515.032	16996.76
515.4	17158.79
515.767	17252.79
516.135	17353.36
516.502	17283.3
516.869	17672.22
517.237	17788.83
517.604	17680.13
517.972	18019.1
518.339	18065.2
518.706	18069.72
519.073	18217.06
519.44	18449.15
519.808	18546.09
520.175	18611.63
520.542	18765.75
520.909	18995.12
521.276	18971.39
521.643	19226.08
522.009	19358.05
522.376	19558.27
522.743	19615.22
523.11	19781.99
523.477	20087.75
523.843	20082.1
524.21	20442.99
524.577	20586.49
524.943	20618.81
525.31	20751.46
525.676	21000.72
526.043	21113.03
526.409	21265.8
526.776	21503.3
527.142	21547.6
527.508	21616.97
527.874	21835.5
528.241	21909.17
528.607	22044.99
528.973	22237.97
529.339	22222.83
529.705	22464.41
530.071	22660.79
530.437	22745.53
530.803	22953.66
531.169	23113.21
531.535	23018.07
531.901	23169.25
532.267	23272.98
532.632	23540.99
532.998	23550.48
533.364	23779.18
533.73	23843.36
534.095	24087.42
534.461	24181.2
534.826	24245.83
535.192	24334.64
535.557	24503
535.923	24512.94
536.288	24641.75
536.653	24723.56
537.019	24828.19
537.384	24812.6
537.749	25027.73
538.114	25109.76
538.479	25200.61
538.845	25317.22
539.21	25350.44
539.575	25413.26
539.94	25515.85
540.305	25696.87
540.67	25727.83
541.034	25734.38
541.399	26005.33
541.764	25941.15
542.129	26135.95
542.494	26270.86
542.858	26373.91
543.223	26329.39
543.587	26500.24
543.952	26521.48
544.316	26667.69
544.681	26622.72
545.045	26852.54
545.41	26921.47
545.774	26975.7
546.138	27017.28
546.503	27113.33
546.867	27177.96
547.231	27497.05
547.595	27409.82
547.959	27565.74
548.324	27727.55
548.688	27751.73
549.052	27850.48
549.416	27827.88
549.779	27885.06
550.143	27902.91
550.507	28200.3
550.871	28262.67
551.235	28325.72
551.599	28546.96
551.962	28588.99
552.326	28708.76
552.689	28711.7
553.053	28667.18
553.417	28865.14
553.78	29237.79
554.143	29085.7
554.507	29304
554.87	29346.04
555.234	29787.61
555.597	29676.65
555.96	29685.69
556.323	29833.48
556.686	29848.62
557.05	30157.99
557.413	30243.87
557.776	30269.63
558.139	30489.28
558.502	30586.46
558.865	30602.05
559.228	30875.49
559.59	30881.59
559.953	30943.06
560.316	31293.56
560.679	31344.18
561.041	31396.83
561.404	31635.92
561.767	31719.53
562.129	31650.83
562.492	32151.61
562.854	32124.72
563.217	32202.68
563.579	32125.17
563.941	32532.85
564.304	32656.68
564.666	32855.55
565.028	32949.78
565.39	32874.31
565.753	33071.59
566.115	33181.64
566.477	33412.14
566.839	33557.45
567.201	33747.28
567.563	33832.47
567.925	33969.19
568.287	33886.71
568.648	34027.5
569.01	34218.9
569.372	34304.55
569.734	34325.79
570.095	34544.77
570.457	34693.92
570.819	34775.5
571.18	34787.02
571.542	34992.89
571.903	35001.71
572.265	35130.29
572.626	35216.39
572.987	35330.06
573.349	35526.66
573.71	35595.14
574.071	35664.74
574.432	35831.97
574.794	35971.62
575.155	35961
575.516	35772.31
575.877	36113.54
576.238	35976.37
576.599	36203.71
576.96	36130.49
577.32	36290.49
577.681	36353.54
578.042	36528.45
578.403	36334.33
578.763	36547.88
579.124	36513.53
579.485	36657.93
579.845	36673.3
580.206	36616.35
580.566	36688.22
580.927	36656.13
581.287	36844.82
581.648	36599.86
582.008	36965.72
582.368	36795.78
582.728	36808.21
583.089	36883.01
583.449	37045.95
583.809	36913.52
584.169	37084.82
584.529	36859.96
584.889	37188.99
585.249	36878.72
585.609	36825.61
585.969	37012.28
586.329	36973.18
586.688	36988.1
587.048	37004.37
587.408	36959.17
587.768	36946.29
588.127	36865.39
588.487	36912.62
588.846	37212.72
589.206	36940.86
589.565	36940.86
589.925	37158.49
590.284	36976.57
590.643	37165.72
591.003	37164.36
591.362	37291.14
591.721	37037.36
592.08	37121.2
592.44	37189.9
592.799	37175.43
593.158	37012.95
593.517	37103.35
593.876	37149.45
594.235	37068.09
594.593	37179.5
594.952	37038.49
595.311	37086.62
595.67	37138.37
596.029	37279.39
596.387	37364.13
596.746	37339.05
597.104	37138.6
597.463	37181.31
597.822	37441.87
598.18	37269.22
598.538	37158.26
598.897	37388.54
599.255	37160.29
599.613	37714.4
599.972	37351.25
600.33	37486.61
600.688	37339.95
601.046	37379.27
601.404	37539.72
601.762	37465.6
602.12	37597.34
602.478	37517.12
602.836	37666.72
603.194	37422.43
603.552	37464.92
603.91	37423.79
604.268	37576.55
604.625	37336.11
604.983	37639.15
605.341	37484.58
605.698	37608.87
606.056	37736.1
606.413	37655.65
606.771	37764.57
607.128	37902.87
607.485	37682.54
607.843	37806.83
608.2	37906.94
608.557	37931.12
608.914	37727.51
609.272	37979.93
609.629	38002.76
609.986	37995.3
610.343	38014.06
610.7	38344.9
611.057	38205.24
611.414	38211.34
611.771	38104.68
612.127	38441.62
612.484	38334.95
612.841	38398.91
613.198	38394.84
613.554	38419.7
613.911	38526.81
614.267	38506.47
614.624	38430.54
614.98	38574.95
615.337	38742.85
615.693	38729.29
616.05	38635.51
616.406	38854.26
616.762	38756.41
617.118	38669.63
617.475	38698.56
617.831	38830.53
618.187	38893.36
618.543	38893.13
618.899	39127.93
619.255	39024.88
619.611	38884.32
619.967	39193.69
620.323	39270.75
620.678	39151.65
621.034	38845.45
621.39	39116.17
621.746	39071.2
622.101	39377.64
622.457	39245.66
622.812	39293.8
623.168	39274.59
623.523	39303.06
623.879	39331.99
624.234	39071.43
624.589	39241.6
624.945	39229.62
625.3	39311.88
625.655	39302.61
626.01	39177.87
626.365	39234.14
626.72	39417.86
627.075	39061.71
627.43	39069.62
627.785	38977.42
628.14	39123.63
628.495	39043.86
628.85	39053.35
629.205	39011.09
629.559	39197.75
629.914	39026.23
630.269	39070.53
630.623	38920.02
630.978	38902.17
631.332	39107.81
631.687	39142.84
632.041	39022.17
632.396	39020.13
632.75	38798.44
633.104	38884.54
633.459	38790.08
633.813	38805.22
634.167	38603.87
634.521	38605.23
634.875	38757.09
635.229	38590.76
635.583	38479.36
635.937	38462.41
636.291	38399.58
636.645	38511.67
636.999	38202.98
637.352	38458.57
637.706	38123.43
638.06	38216.31
638.413	38053.15
638.767	37964.57
639.121	38041.85
639.474	37862.65
639.828	38004.34
640.181	37942.19
640.534	37847.73
640.888	37698.81
641.241	37633.95
641.594	37626.27
641.947	37724.35
642.301	37506.5
642.654	37698.36
643.007	37591.02
643.36	37486.84
643.713	37483.9
644.066	37605.93
644.419	37369.33
644.771	37205.49
645.124	36768.67
645.477	36750.36
645.83	36463.14
646.182	36305.18
646.535	36173.88
646.888	36358.96
647.24	36064.05
647.593	36405.06
647.945	36216.36
648.298	36059.31
648.65	35969.36
649.002	35980.21
649.355	36046.65
649.707	35980.89
650.059	35993.32
650.411	36393.99
650.763	36583.59
651.115	36781.32
651.467	36804.82
651.819	36822.68
652.171	36650.03
652.523	36627.43
652.875	36673.3
653.227	36491.16
653.578	36630.36
653.93	36499.29
654.282	36304.05
654.633	36122.81
654.985	36533.19
655.337	36393.53
655.688	36286.42
656.039	36471.72
656.391	36047.1
656.742	36078.51
657.094	36118.06
657.445	36285.06
657.796	36145.63
658.147	36083.49
658.498	35965.52
658.849	36063.6
659.2	36111.28
659.551	35809.37
659.902	36102.47
660.253	36015.69
660.604	35900.44
660.955	35725.08
661.306	35903.15
661.656	35831.06
662.007	35694.12
662.358	35707.68
662.708	35669.26
663.059	35605.98
663.409	35379.1
663.76	35559.88
664.11	35580
664.461	35542.26
664.811	35457.51
665.161	35280.34
665.511	35262.26
665.862	35161.02
666.212	35347.46
666.562	35296.16
666.912	35095.94
667.262	34837.42
667.612	34853.91
667.962	34824.76
668.312	34640.36
668.662	34858.89
669.011	34668.61
669.361	34607.37
669.711	34558.1
670.06	34359.69
670.41	34222.07
670.76	34284.89
671.109	34338.22
671.459	34195.4
671.808	34063.2
672.157	34127.61
672.507	33811.46
672.856	33869.53
673.205	33910.89
673.554	33895.75
673.904	33685.81
674.253	33926.48
674.602	33565.81
674.951	33208.99
675.3	32978.03
675.649	33517.9
675.998	33563.55
676.346	33404.91
676.695	33583.21
677.044	33128.31
677.393	33419.15
677.741	33369.43
678.09	33269.55
678.438	33113.62
678.787	33222.54
679.135	33330.79
679.484	33089.67
679.832	33165.37
680.181	33031.82
680.529	33138.48
680.877	32932.83
681.225	32974.87
681.573	33325.59
681.922	32930.57
682.27	32924.47
682.618	33128.76
682.966	32959.5
683.314	33062.32
683.661	32992.04
684.009	32882.21
684.357	32838.83
684.705	32902.33
685.053	32974.87
685.4	32936.68
685.748	32804.93
686.095	32801.99
686.443	32768.09
686.79	32823.46
687.138	32919.95
687.485	32908.43
687.832	32765.16
688.18	32834.08
688.527	32740.3
688.874	32715.67
689.221	32767.19
689.568	32813.74
689.915	32714.99
690.262	32630.92
690.609	32383.02
690.956	32557.93
691.303	32582.11
691.65	32487.42
691.997	32401.78
692.344	32297.82
692.69	32340.53
693.037	32361.55
693.383	32037.04
693.73	32292.4
694.077	32183.25
694.423	32190.48
694.769	32072.97
695.116	31933.99
695.462	32022.35
695.808	31996.14
696.155	31981.67
696.501	31756.37
696.847	31730.83
697.193	31462.14
697.539	31655.13
697.885	31413.33
698.231	31437.51
698.577	31522.25
698.923	31435.25
699.269	31281.58
699.614	31172.88
699.96	31154.58
700.306	31140.57
700.651	30999.1
700.997	30873
701.342	30797.75
701.688	30721.82
702.033	30712.78
702.379	30767.92
702.724	30639.56
703.069	30703.51
703.415	30374.48
703.76	30227.37
704.105	30437.53
704.45	30256.07
704.795	30098.11
705.14	29931.56
705.485	29929.52
705.83	29908.28
706.175	29868.28
706.52	29779.47
706.865	29824.89
707.209	29582.64
707.554	29480.04
707.899	29632.36
708.243	29401.63
708.588	29405.92
708.932	29248.86
709.277	29167.96
709.621	29203.67
709.966	29039.38
710.31	29215.19
710.654	28802.77
710.998	29009.77
711.342	28979.27
711.687	28861.08
712.031	28711.25
712.375	28572.05
712.719	28649.11
713.063	28667.64
713.407	28651.14
713.75	28420.18
714.094	28499.28
714.438	28298.38
714.782	28363.24
715.125	28286.18
715.469	28353.29
715.812	28113.53
716.156	27959.18
716.499	28106.75
716.843	28072.17
717.186	27838.28
717.53	27918.73
717.873	27847.77
718.216	27867.88
718.559	27673.76
718.902	27600.77
719.246	27749.92
719.589	27632.18
719.932	27460.21
720.275	27437.16
720.617	27463.6
720.96	27341.8
721.303	27348.35
721.646	27356.48
721.989	27158.52
722.331	27285.75
722.674	27101.12
723.016	27122.82
723.359	27010.28
723.701	27101.58
724.044	26954.69
724.386	26881.02
724.729	26927.12
725.071	26828.36
725.413	26844.41
725.755	26767.57
726.097	26702.72
726.439	26688.48
726.782	26489.84
727.124	26738.42
727.465	26424.31
727.807	26502.04
728.149	26382.72
728.491	26485.32
728.833	26416.85
729.175	26314.48
729.516	26353.12
729.858	26305.66
730.199	26283.74
730.541	26103.41
730.882	26109.96
731.224	26125.56
731.565	25998.55
731.906	25815.51
732.248	25984.99
732.589	25852.34
732.93	25762.18
733.271	25760.37
733.612	25830.87
733.953	25779.8
734.294	25722.18
734.635	25569.19
734.976	25732.12
735.317	25550.66
735.658	25652.35
735.999	25577.32
736.339	25459.13
736.68	25467.04
737.021	25333.94
737.361	25371.68
737.702	25396.08
738.042	25281.51
738.383	25326.03
738.723	25386.59
739.063	25227.05
739.404	25301.4
739.744	25112.7
740.084	25034.29
740.424	24993.83
740.764	25082.87
741.104	25046.04
741.444	24948.19
741.784	24831.35
742.124	24872.71
742.464	24782.54
742.804	24753.61
743.143	24868.19
743.483	24769.89
743.823	24655.99
744.162	24685.14
744.502	24653.73
744.841	24456.22
745.181	24617.35
745.52	24434.3
745.86	24501.19
746.199	24484.92
746.538	24355.43
746.877	24290.8
747.216	24368.77
747.556	24304.36
747.895	24283.12
748.234	24160.86
748.573	24167.19
748.911	24037.93
749.25	24006.52
749.589	23922
749.928	23941.88
750.267	23994.99
750.605	23952.96
750.944	23809.23
751.283	23733.75
751.621	23856.69
751.96	23714.77
752.298	23675
752.636	23599.97
752.975	23507.09
753.313	23488.11
753.651	23540.31
