Data from white_steel_sheet_FLMS001491_049.txt Node
Date: Tue Feb 07 10:57:56 GMT 2017
User: dcchb
Spectrometer: FLMS00149
Trigger mode: 0
Integration Time (sec): 2.000000E-2
Scans to average: 10
Electric dark correction enabled: true
Nonlinearity correction enabled: false
Boxcar width: 0
XAxis mode: Wavelengths
Number of Pixels in Spectrum: 2048
>>>>>Begin Spectral Data<<<<<
341.393	-15.9
341.776	-15.9
342.16	-15.9
342.543	-52.29
342.927	-67.2
343.31	-79.63
343.693	-78.5
344.077	-62.23
344.46	-41.89
344.843	-39.86
345.226	-37.37
345.61	-35.79
345.993	-30.14
346.376	2.63
346.759	13.7
347.142	36.07
347.525	33.13
347.908	53.93
348.291	78.56
348.674	87.82
349.057	99.57
349.44	120.59
349.823	147.26
350.206	158.78
350.588	197.65
350.971	207.59
351.354	242.39
351.737	246.46
352.119	283.3
352.502	266.57
352.884	295.27
353.267	262.28
353.65	297.76
354.032	322.39
354.414	311.55
354.797	308.83
355.179	357.65
355.562	321.04
355.944	336.86
356.326	344.31
356.709	355.16
357.091	329.85
357.473	348.38
357.855	347.93
358.238	354.48
358.62	350.19
359.002	336.86
359.384	350.41
359.766	327.14
360.148	367.82
360.53	358.55
360.912	327.36
361.294	332.56
361.676	358.1
362.057	335.27
362.439	355.61
362.821	349.28
363.203	332.79
363.584	331.21
363.966	332.11
364.348	345.67
364.729	342.73
365.111	331.43
365.493	323.75
365.874	326.69
366.256	315.39
366.637	316.97
367.019	319.91
367.4	330.08
367.781	355.61
368.163	333.47
368.544	317.42
368.925	337.08
369.306	333.24
369.688	337.99
370.069	325.33
370.45	327.82
370.831	337.08
371.212	336.86
371.593	349.06
371.974	327.59
372.355	336.63
372.736	333.24
373.117	337.76
373.498	334.14
373.879	337.31
374.26	344.09
374.641	335.95
375.021	313.58
375.402	352.45
375.783	349.06
376.163	353.13
376.544	372.33
376.925	331.66
377.305	351.54
377.686	345.89
378.066	333.69
378.447	360.13
378.827	367.82
379.208	338.44
379.588	363.07
379.968	362.84
380.349	361.04
380.729	374.37
381.109	341.6
381.489	362.62
381.87	374.82
382.25	348.38
382.63	354.71
383.01	386.8
383.39	360.81
383.77	373.01
384.15	385.89
384.53	377.53
384.91	377.31
385.29	392.9
385.67	394.71
386.049	394.26
386.429	380.24
386.809	382.73
387.189	370.75
387.568	396.51
387.948	408.27
388.328	402.16
388.707	412.56
389.087	404.88
389.466	394.03
389.846	419.11
390.225	406.68
390.605	413.46
390.984	411.88
391.363	420.02
391.743	447.59
392.122	434.03
392.501	417.98
392.881	468.15
393.26	449.39
393.639	448.94
394.018	449.62
394.397	466.12
394.776	464.99
395.155	477.42
395.534	474.93
395.913	469.06
396.292	476.06
396.671	462.95
397.05	484.65
397.429	481.48
397.808	487.59
398.186	539.79
398.565	515.61
398.944	525.55
399.323	521.94
399.701	533.46
400.08	548.38
400.458	553.12
400.837	553.8
401.215	574.59
401.594	578.43
401.972	573.23
402.351	576.62
402.729	598.77
403.107	611.2
403.486	580.46
403.864	600.35
404.242	625.44
404.62	629.96
404.999	622.05
405.377	639.67
405.755	653.46
406.133	643.29
406.511	686.45
406.889	697.07
407.267	696.39
407.645	702.5
408.023	740.46
408.401	761.25
408.779	776.39
409.156	754.25
409.534	747.47
409.912	768.71
410.29	778.2
410.667	794.7
411.045	826.11
411.422	821.14
411.8	829.05
412.178	850.29
412.555	845.77
412.933	850.29
413.31	876.73
413.687	875.15
414.065	913.79
414.442	892.55
414.819	934.35
415.197	934.35
415.574	950.17
415.951	967.35
416.328	976.16
416.705	967.8
417.082	970.96
417.46	1015.26
417.837	990.4
418.214	991.98
418.591	1020
418.967	1010.74
419.344	1053.9
419.721	1069.72
420.098	1057.97
420.475	1055.03
420.852	1093.45
421.228	1095.48
421.605	1092.99
421.982	1117.63
422.358	1117.4
422.735	1130.28
423.111	1144.74
423.488	1140.45
423.864	1163.05
424.241	1220.22
424.617	1222.26
424.994	1234.69
425.37	1224.29
425.746	1236.72
426.123	1239.2
426.499	1263.38
426.875	1264.29
427.251	1299.77
427.627	1324.17
428.003	1309.71
428.379	1330.73
428.756	1378.18
429.132	1384.06
429.507	1393.78
429.883	1394.23
430.259	1440.56
430.635	1445.07
431.011	1452.76
431.387	1486.43
431.763	1531.63
432.138	1522.81
432.514	1548.35
432.89	1575.92
433.265	1569.82
433.641	1641.45
434.016	1619.31
434.392	1635.13
434.767	1695.01
435.143	1667.67
435.518	1715.12
435.894	1697.27
436.269	1745.63
436.644	1761.45
437.02	1773.65
437.395	1779.98
437.77	1791.28
438.145	1832.86
438.52	1866.08
438.895	1856.36
439.271	1893.88
439.646	1946.76
440.021	1939.53
440.395	1955.57
440.77	1936.59
441.145	1955.57
441.52	1994.44
441.895	2020.2
442.27	2029.69
442.645	2032.18
443.019	2050.26
443.394	2086.64
443.769	2115.57
444.143	2104.72
444.518	2146.53
444.892	2086.87
445.267	2163.93
445.641	2171.16
446.016	2199.63
446.39	2234.88
446.764	2225.17
447.139	2198.73
447.513	2243.02
447.887	2258.16
448.262	2271.95
448.636	2306.52
449.01	2302
449.384	2338.16
449.758	2355.11
450.132	2392.17
450.506	2401.21
450.88	2413.64
451.254	2399.63
451.628	2455.9
452.002	2506.29
452.376	2514.43
452.75	2524.82
453.123	2564.14
453.497	2600.98
453.871	2650.92
454.244	2672.16
454.618	2657.92
454.992	2708.32
455.365	2709
455.739	2806.62
456.112	2835.09
456.486	2810.24
456.859	2868.31
457.232	2918.26
457.606	2920.74
457.979	2966.84
458.352	2990.8
458.725	3029.21
459.099	3056.33
459.472	3131.36
459.845	3131.13
460.218	3209.32
460.591	3228.3
460.964	3201.41
461.337	3300.17
461.71	3322.54
462.083	3409.09
462.456	3382.88
462.829	3417.68
463.201	3474.63
463.574	3435.08
463.947	3532.93
464.32	3618.13
464.692	3633.27
465.065	3699.48
465.438	3724.56
465.81	3749.2
466.183	3806.37
466.555	3844.56
466.928	3908.51
467.3	3906.25
467.672	3974.5
468.045	4094.5
468.417	4071.9
468.789	4103.54
469.161	4155.06
469.534	4221.27
469.906	4349.86
470.278	4340.82
470.65	4398.44
471.022	4475.5
471.394	4568.38
471.766	4579.46
472.138	4661.04
472.51	4788.26
472.882	4886.34
473.253	4874.14
473.625	4983.51
473.997	5014.25
474.369	5101.93
474.74	5119.55
475.112	5236.61
475.484	5311.87
475.855	5424.63
476.227	5504.63
476.598	5600.9
476.97	5639.77
477.341	5770.16
477.713	5839.08
478.084	5898.97
478.455	6106.42
478.827	6070.26
479.198	6250.15
479.569	6284.27
479.94	6426.64
480.311	6494.89
480.682	6635
481.053	6802.9
481.424	6892.16
481.795	6994.99
482.166	7093.06
482.537	7175.77
482.908	7293.73
483.279	7390.91
483.65	7542.09
484.021	7690.56
484.391	7781.41
484.762	7878.35
485.133	7970.78
485.503	8084.9
485.874	8236.53
486.244	8286.03
486.615	8439.92
486.985	8581.16
487.356	8767.14
487.726	8776.41
488.097	8939.57
488.467	8985.22
488.837	9194.7
489.207	9258.2
489.578	9404.41
489.948	9561.02
490.318	9606.89
490.688	9689.83
491.058	9858.64
491.428	10010.5
491.798	10041.91
492.168	10328.68
492.538	10349.93
492.908	10409.13
493.278	10575.46
493.648	10593.76
494.017	10799.41
494.387	10850.48
494.757	11007.31
495.126	11116.69
495.496	11115.33
495.866	11210.69
496.235	11301.76
496.605	11480.07
496.974	11531.14
497.344	11534.08
497.713	11703.79
498.082	11835.31
498.452	11910.79
498.821	11977.23
499.19	12111.01
499.559	12123.44
499.928	12279.37
500.298	12326.37
500.667	12441.17
501.036	12442.3
501.405	12573.14
501.774	12599.13
502.143	12782.63
502.512	12840.03
502.88	12981.72
503.249	12985.79
503.618	13061.27
503.987	13171.09
504.356	13339.45
504.724	13393.01
505.093	13462.16
505.462	13531.31
505.83	13593.23
506.199	13606.34
506.567	13931.53
506.936	13860.34
507.304	14061.47
507.672	14099.66
508.041	14214.46
508.409	14228.92
508.777	14443.38
509.145	14600.89
509.514	14584.39
509.882	14784.84
510.25	14845.63
510.618	15005.85
510.986	15025.28
511.354	15162.68
511.722	15362
512.09	15485.61
512.458	15521.99
512.826	15662.33
513.193	15684.02
513.561	15669.79
513.929	15923.11
514.297	16027.52
514.664	16152.94
515.032	16220.51
515.4	16430.67
515.767	16435.64
516.135	16547.5
516.502	16569.65
516.869	16896.87
517.237	16916.08
517.604	16925.8
517.972	17143.65
518.339	17263.42
518.706	17397.2
519.073	17457.08
519.44	17677.42
519.808	17833.12
520.175	17772.78
520.542	18070.4
520.909	18267.68
521.276	18150.4
521.643	18409.83
522.009	18572.99
522.376	18619.99
522.743	18881.23
523.11	18984.27
523.477	19175.46
523.843	19216.81
524.21	19517.82
524.577	19637.59
524.943	19654.77
525.31	19925.49
525.676	20167.52
526.043	20177.92
526.409	20342.21
526.776	20532.71
527.142	20591.69
527.508	20757.79
527.874	20856.09
528.241	20978.57
528.607	21080.26
528.973	21311.22
529.339	21322.97
529.705	21673.47
530.071	21761.83
530.437	21808.61
530.803	22002.05
531.169	22162.95
531.535	22108.26
531.901	22192.55
532.267	22230.52
532.632	22475.03
532.998	22609.04
533.364	22671.41
533.73	22804.06
534.095	23068.46
534.461	23021.68
534.826	23281.56
535.192	23332.86
535.557	23434.55
535.923	23425.51
536.288	23662.57
536.653	23725.62
537.019	23697.82
537.384	23836.58
537.749	23933.98
538.114	23939.17
538.479	24069.56
538.845	24160.18
539.21	24152.73
539.575	24401.08
539.94	24500.74
540.305	24634.52
540.67	24528.76
541.034	24785.03
541.399	24831.58
541.764	24840.84
542.129	25084.68
542.494	25139.14
542.858	25130.33
543.223	25213.26
543.587	25436.31
543.952	25445.35
544.316	25433.6
544.681	25498.91
545.045	25636.98
545.41	25780.93
545.774	25789.97
546.138	25909.29
546.503	25914.49
546.867	26001.27
547.231	26328.94
547.595	26401.71
547.959	26333.01
548.324	26344.99
548.688	26519.67
549.052	26597.63
549.416	26643.73
549.779	26739.33
550.143	26862.94
550.507	27092.76
550.871	27244.62
551.235	27075.59
551.599	27259.09
551.962	27262.02
552.326	27354.9
552.689	27540.66
553.053	27529.59
553.417	27655.01
553.78	27967.99
554.143	27736.36
554.507	28020.65
554.87	28124.6
555.234	28490.69
555.597	28211.6
555.96	28362.11
556.323	28570.24
556.686	28581.31
557.05	28812.04
557.413	28863.34
557.776	28917.57
558.139	29137.68
558.502	29198.02
558.865	29213.61
559.228	29435.75
559.59	29602.75
559.953	29643.66
560.316	29910.99
560.679	29856.31
561.041	30189.4
561.404	30256.29
561.767	30378.1
562.129	30388.49
562.492	30824.42
562.854	30727.92
563.217	30788.71
563.579	30862.61
563.941	31096.72
564.304	31305.76
564.666	31406.1
565.028	31438.86
565.39	31591.63
565.753	31752.75
566.115	31875.46
566.477	32083.37
566.839	32004.95
567.201	32261.44
567.563	32292.17
567.925	32530.81
568.287	32612.17
568.648	32524.26
569.01	32737.36
569.372	32863.68
569.734	32827.3
570.095	33047.41
570.457	33318.36
570.819	33341.86
571.18	33363.78
571.542	33563.55
571.903	33549.32
572.265	33688.52
572.626	33815.75
572.987	33981.85
573.349	33898.46
573.71	34211.9
574.071	34225.46
574.432	34283.76
574.794	34435.17
575.155	34465.45
575.516	34305.45
575.877	34542.06
576.238	34506.58
576.599	34635.16
576.96	34811.66
577.32	34802.84
577.681	34763.97
578.042	35022.72
578.403	34850.98
578.763	34901.82
579.124	34962.61
579.485	35213.68
579.845	35459.32
580.206	35074.47
580.566	35109.95
580.927	35325.09
581.287	35375.03
581.648	35267.01
582.008	35371.64
582.368	35243.96
582.728	35468.81
583.089	35335.94
583.449	35393.79
583.809	35432.43
584.169	35438.53
584.529	35327.57
584.889	35598.3
585.249	35278.76
585.609	35346.33
585.969	35478.76
586.329	35377.29
586.688	35582.26
587.048	35415.93
587.408	35331.19
587.768	35488.93
588.127	35451.41
588.487	35440.57
588.846	35655.02
589.206	35432.2
589.565	35466.33
589.925	35617.06
590.284	35547
590.643	35601.01
591.003	35622.93
591.362	35636.72
591.721	35464.97
592.08	35504.07
592.44	35694.57
592.799	35704.74
593.158	35524.18
593.517	35502.03
593.876	35520.11
594.235	35588.13
594.593	35519.43
594.952	35633.33
595.311	35587.68
595.67	35521.02
596.029	35859.09
596.387	35709.26
596.746	35835.58
597.104	35652.09
597.463	35669.49
597.822	35834.45
598.18	35683.95
598.538	35608.47
598.897	35874.68
599.255	35486.21
599.613	35970.49
599.972	35717.85
600.33	35970.04
600.688	35644.85
601.046	35915.13
601.404	36021.12
601.762	35972.53
602.12	36040.32
602.478	35942.7
602.836	35993.32
603.194	35819.54
603.552	35850.95
603.91	35844.17
604.268	35972.3
604.625	35782.48
604.983	36079.87
605.341	35866.09
605.698	36055.24
606.056	36022.7
606.413	36136.82
606.771	36243.93
607.128	36173.65
607.485	36145.41
607.843	36262.46
608.2	36234.67
608.557	36310.15
608.914	36066.54
609.272	36501.55
609.629	36408.45
609.986	36558.5
610.343	36371.16
610.7	36630.36
611.057	36626.97
611.414	36639.86
611.771	36585.17
612.127	36716.24
612.484	36641.89
612.841	36779.74
613.198	36836.01
613.554	36767.08
613.911	36936.57
614.267	36913.75
614.624	36888.66
614.98	37065.16
615.337	37043.91
615.693	37041.2
616.05	36994.65
616.406	37249.33
616.762	37106.96
617.118	37156.23
617.475	37164.81
617.831	37257.01
618.187	37346.05
618.543	37275.32
618.899	37540.85
619.255	37428.76
619.611	37473.73
619.967	37511.92
620.323	37499.27
620.678	37525.48
621.034	37398.71
621.39	37391.93
621.746	37299.27
622.101	37776.55
622.457	37477.35
622.812	37511.02
623.168	37676.66
623.523	37512.83
623.879	37684.35
624.234	37431.47
624.589	37564.35
624.945	37703.56
625.3	37792.82
625.655	37680.28
626.01	37566.39
626.365	37739.26
626.72	37582.66
627.075	37572.26
627.43	37557.35
627.785	37584.01
628.14	37563.67
628.495	37568.87
628.85	37553.96
629.205	37465.82
629.559	37659.72
629.914	37334.07
630.269	37335.88
630.623	37406.16
630.978	37303.79
631.332	37331.59
631.687	37445.03
632.041	37167.53
632.396	37311.48
632.75	37093.86
633.104	37199.62
633.459	37075.78
633.813	37078.94
634.167	37047.75
634.521	36935.44
634.875	37036.23
635.229	36951.49
635.583	36754.66
635.937	36864.48
636.291	36733.19
636.645	36731.83
636.999	36669.01
637.352	36747.42
637.706	36513.98
638.06	36474.21
638.413	36584.72
638.767	36440.09
639.121	36585.39
639.474	36293.65
639.828	36212.97
640.181	36416.36
640.534	36220.43
640.888	36303.14
641.241	36141.56
641.594	36139.08
641.947	36313.54
642.301	36098.63
642.654	36103.6
643.007	36032.87
643.36	35918.52
643.713	35808.69
644.066	35973.66
644.419	35667
644.771	35505.65
645.124	35248.03
645.477	35047.13
645.83	34788.61
646.182	34652.56
646.535	34650.53
646.888	34692.79
647.24	34589.74
647.593	34744.99
647.945	34558.55
648.298	34505.22
648.65	34388.39
649.002	34393.14
649.355	34531.89
649.707	34329.41
650.059	34404.89
650.411	35005.77
650.763	34835.16
651.115	35188.37
651.467	35119.67
651.819	35153.34
652.171	35056.39
652.523	35036.96
652.875	34989.05
653.227	34769.4
653.578	35036.96
653.93	34860.24
654.282	34744.09
654.633	34752
654.985	34750.19
655.337	34834.71
655.688	34811.66
656.039	34842.84
656.391	34592.9
656.742	34606.91
657.094	34559.46
657.445	34752.22
657.796	34620.93
658.147	34528.95
658.498	34386.36
658.849	34599.46
659.2	34361.95
659.551	34271.1
659.902	34448.73
660.253	34286.47
660.604	34326.02
660.955	34029.3
661.306	34271.56
661.656	34123.31
662.007	34067.27
662.358	34108.17
662.708	33998.8
663.059	33881.74
663.409	33834.05
663.76	34017.1
664.11	33911.34
664.461	33961.96
664.811	33854.39
665.161	33824.34
665.511	33655.08
665.862	33712.25
666.212	33670.67
666.562	33704.11
666.912	33498.92
667.262	33359.94
667.612	33295.99
667.962	33218.02
668.312	33124.69
668.662	33199.95
669.011	33019.61
669.361	33011.25
669.711	33011.02
670.06	32810.13
670.41	32803.35
670.76	32622.11
671.109	32789.34
671.459	32539.85
671.808	32646.51
672.157	32611.04
672.507	32211.05
672.856	32422.79
673.205	32449.68
673.554	32247.43
673.904	32313.19
674.253	32270.48
674.602	32202.46
674.951	31690.61
675.3	31480.67
675.649	31945.52
675.998	31809.47
676.346	31945.06
676.695	32113.87
677.044	31679.53
677.393	31931.73
677.741	32011.5
678.09	31778.51
678.438	31582.14
678.787	31694.45
679.135	31695.35
679.484	31591.85
679.832	31658.07
680.181	31632.76
680.529	31635.24
680.877	31527.22
681.225	31569.93
681.573	31691.51
681.922	31672.08
682.27	31494
682.618	31584.85
682.966	31592.98
683.314	31572.19
683.661	31458.07
684.009	31509.82
684.357	31433.44
684.705	31303.27
685.053	31495.36
685.4	31443.83
685.748	31380.33
686.095	31408.58
686.443	31243.16
686.79	31312.54
687.138	31495.36
687.485	31425.76
687.832	31280.22
688.18	31358.19
688.527	31255.82
688.874	31367.68
689.221	31188.02
689.568	31160.9
689.915	31237.51
690.262	30908.93
690.609	31137.63
690.956	31007.01
691.303	31152.77
691.65	30877.3
691.997	30977.18
692.344	30825.55
692.69	30833.91
693.037	30891.31
693.383	30678.2
693.73	30747.13
694.077	30688.37
694.423	30640.01
694.769	30518.89
695.116	30513.46
695.462	30486.12
695.808	30534.48
696.155	30507.14
696.501	30267.37
696.847	30271.44
697.193	30171.33
697.539	30226.92
697.885	29977.21
698.231	30035.51
698.577	30033.48
698.923	30124.55
699.269	29871.67
699.614	29669.19
699.96	29648.4
700.306	29679.13
700.651	29489.76
700.997	29481.63
701.342	29352.82
701.688	29399.82
702.033	29283.44
702.379	29196.89
702.724	29199.15
703.069	29202.54
703.415	28934.52
703.76	28995.31
704.105	28820.4
704.45	28814.07
704.795	28598.94
705.14	28557.13
705.485	28636.45
705.83	28433.29
706.175	28510.35
706.52	28399.17
706.865	28335.22
707.209	28407.3
707.554	28260.64
707.899	28263.58
708.243	28003.25
708.588	28049.8
708.932	27787.21
709.277	27843.25
709.621	27842.12
709.966	27696.36
710.31	27708.11
710.654	27528.68
710.998	27519.87
711.342	27600.55
711.687	27483.26
712.031	27278.07
712.375	27172.53
712.719	27362.13
713.063	27224.51
713.407	27347.67
713.75	27145.64
714.094	27099.32
714.438	26945.65
714.782	27099.32
715.125	26969.83
715.469	26921.92
715.812	26758.53
716.156	26635.83
716.499	26724.18
716.843	26781.58
717.186	26596.05
717.53	26682.15
717.873	26575.04
718.216	26556.28
718.559	26380.46
718.902	26167.36
719.246	26316.29
719.589	26186.35
719.932	26083.75
720.275	26054.82
720.617	26041.94
720.96	25991.77
721.303	25975.73
721.646	26042.62
721.989	25819.58
722.331	25872
722.674	25830.87
723.016	25853.92
723.359	25822.51
723.701	25669.3
724.044	25578.68
724.386	25487.15
724.729	25662.52
725.071	25585.23
725.413	25524.67
725.755	25597.43
726.097	25389.3
726.439	25318.57
726.782	25377.33
727.124	25400.6
727.465	25417.55
727.807	25127.16
728.149	25150.67
728.491	25142.08
728.833	25008.52
729.175	25066.15
729.516	24963.33
729.858	24933.27
730.199	24987.05
730.541	24766.27
730.882	24781.86
731.224	24940.05
731.565	24669.55
731.906	24678.14
732.248	24723.78
732.589	24562.66
732.93	24495.99
733.271	24490.12
733.612	24552.26
733.953	24624.35
734.294	24519.95
734.635	24365.83
734.976	24371.25
735.317	24182.56
735.658	24152.05
735.999	24268.88
736.339	24137.81
736.68	24216.68
737.021	24160.41
737.361	23985.95
737.702	24039.06
738.042	23931.04
738.383	24016.01
738.723	24027.31
739.063	23943.24
739.404	23943.01
739.744	23731.04
740.084	23830.93
740.424	23826.63
740.764	23795.45
741.104	23820.31
741.444	23637.26
741.784	23620.99
742.124	23722.46
742.464	23631.38
742.804	23554.78
743.143	23482.69
743.483	23472.52
743.823	23366.98
744.162	23304.16
744.502	23458.73
744.841	23266.65
745.181	23383.26
745.52	23237.04
745.86	23235.69
746.199	23145.07
746.538	23057.84
746.877	23133.09
747.216	23119.53
747.556	22941.01
747.895	22945.53
748.234	23011.06
748.573	22939.2
748.911	22870.73
749.25	22844.51
749.589	22672.99
749.928	22835.02
750.267	22799.09
750.605	22736.27
750.944	22630.96
751.283	22527.46
751.621	22470.74
751.96	22423.51
752.298	22501.47
752.636	22375.82
752.975	22253.12
753.313	22268.93
