Data from white_poster_card_FLMS001491_00083.txt Node
Date: Wed Feb 08 11:52:07 GMT 2017
User: dcchb
Spectrometer: FLMS00149
Trigger mode: 0
Integration Time (sec): 2.000000E-2
Scans to average: 10
Electric dark correction enabled: true
Nonlinearity correction enabled: false
Boxcar width: 0
XAxis mode: Wavelengths
Number of Pixels in Spectrum: 2048
>>>>>Begin Spectral Data<<<<<
341.393	-14.25
341.776	-14.25
342.16	-14.25
342.543	-57.87
342.927	-81.59
343.31	-72.78
343.693	-83.18
344.077	-47.47
344.46	-59.45
344.843	-59.9
345.226	-36.4
345.61	-39.34
345.993	-30.07
346.376	-0.24
346.759	15.35
347.142	46.09
347.525	45.41
347.908	45.86
348.291	68.68
348.674	92.19
349.057	115.24
349.44	121.56
349.823	141
350.206	166.08
350.588	174.9
350.971	209.7
351.354	219.64
351.737	251.5
352.119	246.08
352.502	260.77
352.884	287.89
353.267	289.24
353.65	298.74
354.032	296.93
354.414	313.88
354.797	310.71
355.179	325.63
355.562	320.43
355.944	329.69
356.326	325.4
356.709	334.21
357.091	330.82
357.473	347.1
357.855	357.26
358.238	350.94
358.62	339.86
359.002	333.31
359.384	345.97
359.766	339.41
360.148	347.55
360.53	363.82
360.912	339.19
361.294	303.71
361.676	321.33
362.057	322.92
362.439	350.94
362.821	350.71
363.203	347.1
363.584	297.83
363.966	327.21
364.348	321.56
364.729	321.33
365.111	329.02
365.493	334.89
365.874	313.88
366.256	332.41
366.637	291.96
367.019	298.96
367.4	305.29
367.781	309.81
368.163	310.26
368.544	323.14
368.925	284.72
369.306	304.16
369.688	328.79
370.069	304.38
370.45	315.23
370.831	311.39
371.212	315.23
371.593	302.8
371.974	324.95
372.355	311.16
372.736	318.17
373.117	321.56
373.498	325.18
373.879	313.65
374.26	307.32
374.641	314.1
375.021	312.07
375.402	340.09
375.783	336.93
376.163	322.69
376.544	318.4
376.925	329.47
377.305	324.05
377.686	323.14
378.066	319.53
378.447	339.41
378.827	331.28
379.208	321.79
379.588	345.06
379.968	341.67
380.349	366.76
380.729	333.76
381.109	343.71
381.489	340.32
381.87	343.25
382.25	365.4
382.63	342.12
383.01	347.1
383.39	339.41
383.77	358.39
384.15	359.3
384.53	353.87
384.91	370.82
385.29	343.93
385.67	359.98
386.049	353.42
386.429	365.85
386.809	366.3
387.189	360.88
387.568	344.16
387.948	380.99
388.328	378.96
388.707	403.59
389.087	367.66
389.466	396.81
389.846	384.61
390.225	362.24
390.605	386.64
390.984	387.55
391.363	389.13
391.743	382.35
392.122	406.53
392.501	390.71
392.881	429.58
393.26	396.36
393.639	383.48
394.018	399.52
394.397	432.06
394.776	408.11
395.155	421.9
395.534	395
395.913	414.66
396.292	427.09
396.671	420.09
397.05	413.99
397.429	456.02
397.808	434.78
398.186	421.9
398.565	436.81
398.944	438.39
399.323	418.51
399.701	440.2
400.08	434.78
400.458	417.38
400.837	442.91
401.215	451.5
401.594	443.36
401.972	450.37
402.351	469.58
402.729	466.64
403.107	477.26
403.486	458.28
403.864	482.01
404.242	477.26
404.62	480.43
404.999	498.96
405.377	489.01
405.755	472.52
406.133	493.53
406.511	505.74
406.889	506.64
407.267	515
407.645	513.42
408.023	546.86
408.401	517.71
408.779	551.84
409.156	558.39
409.534	562.46
409.912	566.75
410.29	605.62
410.667	595
411.045	591.16
411.422	595.22
411.8	595.45
412.178	652.4
412.555	649.23
412.933	675.9
413.31	669.35
413.687	699.4
414.065	716.8
414.442	714.32
414.819	717.03
415.197	773.75
415.574	771.49
415.951	778.5
416.328	782.56
416.705	794.77
417.082	802
417.46	811.72
417.837	822.34
418.214	844.94
418.591	876.35
418.967	882.45
419.344	870.7
419.721	898.72
420.098	900.08
420.475	925.16
420.852	923.8
421.228	957.93
421.605	966.29
421.982	1000.41
422.358	1007.87
422.735	1060.3
423.111	997.25
423.488	1047.87
423.864	1028.21
424.241	1065.95
424.617	1080.18
424.994	1077.02
425.37	1118.37
425.746	1093.29
426.123	1112.5
426.499	1149.11
426.875	1139.62
427.251	1143.68
427.627	1208.32
428.003	1208.99
428.379	1231.37
428.756	1238.37
429.132	1269.11
429.507	1269.33
429.883	1299.61
430.259	1305.71
430.635	1317.47
431.011	1348.88
431.387	1393.17
431.763	1416.45
432.138	1411.7
432.514	1404.02
432.89	1426.39
433.265	1465.03
433.641	1492.15
434.016	1517.91
434.392	1529.44
434.767	1555.43
435.143	1564.69
435.518	1581.19
435.894	1619.15
436.269	1599.94
436.644	1652.15
437.02	1660.06
437.395	1677.91
437.77	1686.5
438.145	1696.66
438.52	1718.13
438.895	1702.99
439.271	1752.93
439.646	1789.77
440.021	1808.53
440.395	1808.07
440.77	1810.79
441.145	1820.73
441.52	1859.6
441.895	1891.69
442.27	1902.76
442.645	1877.45
443.019	1901.18
443.394	1882.42
443.769	1918.58
444.143	1909.31
444.518	1949.54
444.892	1953.61
445.267	1942.53
445.641	1983.21
446.016	2013.27
446.39	1984.79
446.764	2021.85
447.139	2013.49
447.513	2033.38
447.887	2084.9
448.262	2051.91
448.636	2057.56
449.01	2102.08
449.384	2088.29
449.758	2106.82
450.132	2171.45
450.506	2159.48
450.88	2176.65
451.254	2165.58
451.628	2197.67
452.002	2236.09
452.376	2258.68
452.75	2261.17
453.123	2282.86
453.497	2344.78
453.871	2341.17
454.244	2416.42
454.618	2408.51
454.992	2436.08
455.365	2444.67
455.739	2484.44
456.112	2457.77
456.486	2512.24
456.859	2546.81
457.232	2607.6
457.606	2624.55
457.979	2620.26
458.352	2705
458.725	2743.42
459.099	2712.23
459.472	2768.05
459.845	2784.55
460.218	2804.88
460.591	2853.47
460.964	2844.2
461.337	2916.52
461.71	2958.55
462.083	3006.23
462.456	3004.65
462.829	3024.31
463.201	3081.26
463.574	3075.16
463.947	3142.73
464.32	3182.05
464.692	3239.67
465.065	3230.86
465.438	3292.1
465.81	3315.6
466.183	3332.33
466.555	3446.67
466.928	3449.61
467.3	3454.81
467.672	3486.45
468.045	3554.02
468.417	3591.98
468.789	3634.92
469.161	3692.32
469.534	3719.44
469.906	3799.66
470.278	3819.09
470.65	3877.62
471.022	3922.14
471.394	3987.9
471.766	4023.61
472.138	4065.64
472.51	4151.52
472.882	4200.78
473.253	4232.42
473.625	4351.51
473.997	4409.14
474.369	4426.54
474.74	4489.59
475.112	4541.34
475.484	4673.08
475.855	4699.3
476.227	4761.22
476.598	4882.12
476.97	4884.38
477.341	5028.33
477.713	5078.5
478.084	5096.35
478.455	5234.2
478.827	5267.87
479.198	5399.39
479.569	5442.55
479.94	5620.86
480.311	5640.06
480.682	5730.68
481.053	5828.31
481.424	5985.14
481.795	6006.61
482.166	6102.2
482.537	6179.26
482.908	6301.74
483.279	6367.73
483.65	6425.58
484.021	6615.18
484.391	6754.16
484.762	6706.7
485.133	6809.3
485.503	6884.1
485.874	7003.64
486.244	7110.53
486.615	7258.55
486.985	7324.77
487.356	7466.91
487.726	7472.56
488.097	7661.93
488.467	7725.88
488.837	7868.71
489.207	7934.92
489.578	8091.98
489.948	8190.5
490.318	8219.66
490.688	8285.87
491.058	8402.25
491.428	8516.37
491.798	8625.52
492.168	8754.11
492.538	8832.52
492.908	8889.92
493.278	9098.5
493.648	9064.61
494.017	9178.73
494.387	9251.27
494.757	9344.82
495.126	9467.76
495.496	9466.86
495.866	9583.46
496.235	9658.26
496.605	9775.77
496.974	9858.71
497.344	9957.01
497.713	9992.72
498.082	10033.39
498.452	10216.44
498.821	10166.72
499.19	10241.98
499.559	10368.98
499.928	10457.11
500.298	10498.24
500.667	10632.47
501.036	10616.43
501.405	10727.61
501.774	10686.26
502.143	10857.78
502.512	10919.25
502.88	11002.86
503.249	11134.16
503.618	11179.58
503.987	11185.91
504.356	11300.48
504.724	11437.88
505.093	11433.13
505.462	11495.05
505.83	11586.35
506.199	11624.09
506.567	11803.74
506.936	11819.56
507.304	11948.6
507.672	12032.21
508.041	12155.15
508.409	12188.37
508.777	12282.37
509.145	12338.19
509.514	12361.69
509.882	12466.32
510.25	12568.92
510.618	12726.2
510.986	12739.54
511.354	12835.81
511.722	12856.37
512.09	13026.31
512.458	13056.59
512.826	13203.71
513.193	13227.89
513.561	13338.84
513.929	13443.25
514.297	13596.01
514.664	13631.94
515.032	13767.53
515.4	13793.3
515.767	13923.24
516.135	14018.6
516.502	14008.21
516.869	14284.81
517.237	14342.89
517.604	14306.95
517.972	14479.38
518.339	14552.37
518.706	14556.44
519.073	14689.77
519.44	14867.84
519.808	15018.57
520.175	14958.69
520.542	15153.94
520.909	15410.2
521.276	15371.11
521.643	15437.32
522.009	15578.56
522.376	15762.28
522.743	15827.37
523.11	16084.08
523.477	16076.4
523.843	16252.67
524.21	16433.45
524.577	16591.64
524.943	16602.71
525.31	16732.65
525.676	16777.62
526.043	17030.95
526.409	17112.76
526.776	17336.25
527.142	17345.07
527.508	17432.97
527.874	17647.43
528.241	17749.35
528.607	17828.44
528.973	17947.08
529.339	18015.33
529.705	18121.32
530.071	18283.35
530.437	18336.23
530.803	18486.05
531.169	18675.2
531.535	18644.24
531.901	18774.41
532.267	18848.98
532.632	18918.13
532.998	18963.56
533.364	19099.37
533.73	19236.54
534.095	19398.35
534.461	19385.01
534.826	19544.56
535.192	19618.23
535.557	19720.6
535.923	19792.01
536.288	19792.46
536.653	19918.78
537.019	19892.57
537.384	20054.15
537.749	20132.56
538.114	20075.16
538.479	20236.97
538.845	20448.94
539.21	20382.5
539.575	20462.27
539.94	20534.36
540.305	20760.12
540.67	20729.61
541.034	20713.11
541.399	20917.18
541.764	20925.54
542.129	21092.99
542.494	21115.59
542.858	21188.13
543.223	21182.71
543.587	21399.65
543.952	21558.74
544.316	21415.02
544.681	21522.13
545.045	21552.41
545.41	21705.86
545.774	21858.62
546.138	21856.81
546.503	21893.2
546.867	21955.79
547.231	22112.62
547.595	22161.21
547.959	22260.87
548.324	22333.41
548.688	22326.18
549.052	22496.57
549.416	22522.78
549.779	22571.14
550.143	22548.55
550.507	22827.18
550.871	22916.67
551.235	22790.8
551.599	22998.7
551.962	23176.1
552.326	23071.24
552.689	23352.82
553.053	23234.86
553.417	23275.76
553.78	23709.19
554.143	23583.09
554.507	23757.1
554.87	23876.19
555.234	23938.57
555.597	23931.79
555.96	24029.41
556.323	24180.14
556.686	24218.33
557.05	24369.51
557.413	24448.38
557.776	24580.81
558.139	24636.4
558.502	24684.08
558.865	24837.75
559.228	24892.66
559.59	25062.83
559.953	25092.43
560.316	25407.68
560.679	25437.06
561.041	25526.32
561.404	25708.24
561.767	25885.86
562.129	25770.16
562.492	26003.6
562.854	26075.23
563.217	26106.87
563.579	26244.27
563.941	26358.84
564.304	26542.56
564.666	26725.84
565.028	26696.69
565.39	26875.66
565.753	26985.72
566.115	27077.24
566.477	27085.38
566.839	27343.9
567.201	27520.39
567.563	27477
567.925	27771.01
568.287	27592.93
568.648	27774.85
569.01	27858.46
569.372	28146.82
569.734	28010.77
570.095	28297.55
570.457	28324.66
570.819	28483.98
571.18	28433.36
571.542	28698.89
571.903	28560.59
572.265	28700.47
572.626	28848.04
572.987	28865.67
573.349	28942.28
573.71	29143.85
574.071	29197.18
574.432	29260.01
574.794	29526.44
575.155	29501.13
575.516	29318.54
575.877	29515.37
576.238	29616.83
576.599	29623.84
576.96	29671.52
577.32	29749.26
577.681	29918.97
578.042	29968.01
578.403	29949.48
578.763	30094.79
579.124	30056.14
579.485	30098.86
579.845	30256.37
580.206	30180.21
580.566	30187.89
580.927	30338.85
581.287	30432.86
581.648	30305.63
582.008	30405.06
582.368	30371.39
582.728	30409.13
583.089	30388.79
583.449	30414.55
583.809	30505.4
584.169	30529.58
584.529	30409.13
584.889	30692.06
585.249	30370.49
585.609	30511.5
585.969	30582.91
586.329	30459.07
586.688	30553.53
587.048	30601.89
587.408	30597.6
587.768	30437.6
588.127	30570.03
588.487	30451.39
588.846	30650.48
589.206	30500.2
589.565	30556.92
589.925	30629.24
590.284	30552.18
590.643	30662.91
591.003	30624.49
591.362	30730.93
591.721	30756.01
592.08	30673.53
592.44	30756.92
592.799	30756.92
593.158	30660.2
593.517	30726.41
593.876	30804.6
594.235	30815.22
594.593	30800.76
594.952	30808.44
595.311	30731.83
595.67	30716.92
596.029	31006.18
596.387	30979.96
596.746	30984.26
597.104	30884.15
597.463	31003.46
597.822	30933.64
598.18	30799.4
598.538	30814.09
598.897	31206.4
599.255	30894.54
599.613	31300.63
599.972	31038.27
600.33	31177.02
600.688	31018.15
601.046	31167.53
601.404	31262.89
601.762	31235.32
602.12	31377.47
602.478	31241.65
602.836	31430.57
603.194	31365.49
603.552	31393.96
603.91	31289.56
604.268	31431.25
604.625	31329.33
604.983	31360.74
605.341	31324.59
605.698	31501.3
606.056	31605.03
606.413	31471.47
606.771	31646.16
607.128	31659.72
607.485	31539.04
607.843	31649.55
608.2	31789.66
608.557	31757.57
608.914	31639.15
609.272	31967.73
609.629	31942.65
609.986	31963.44
610.343	32038.69
610.7	32032.82
611.057	32012.7
611.414	32038.24
611.771	31963.67
612.127	32212.92
612.484	32103.77
612.841	32197.11
613.198	32238.46
613.554	32185.35
613.911	32344.45
614.267	32333.37
614.624	32389.19
614.98	32280.49
615.337	32531.56
615.693	32329.98
616.05	32385.12
616.406	32549.64
616.762	32450.43
617.118	32441.39
617.475	32532.01
617.831	32533.37
618.187	32590.09
618.543	32523.88
618.899	32764.55
619.255	32636.19
619.611	32652.01
619.967	32732.46
620.323	32724.32
620.678	32645.91
621.034	32606.59
621.39	32579.47
621.746	32555.74
622.101	32884.77
622.457	32621.28
622.812	32747.6
623.168	32725.45
623.523	32846.81
623.879	32904.88
624.234	32713.93
624.589	32820.37
624.945	32922.51
625.3	32807.48
625.655	32746.7
626.01	32813.36
626.365	32778.11
626.72	32742.63
627.075	32775.85
627.43	32800.03
627.785	32652.91
628.14	32678.22
628.495	32799.58
628.85	32673.48
629.205	32619.69
629.559	32726.81
629.914	32639.58
630.269	32696.08
630.623	32466.48
630.978	32560.49
631.332	32621.28
631.687	32491.11
632.041	32451.56
632.396	32485.46
632.75	32427.38
633.104	32450.43
633.459	32276.88
633.813	32278.01
634.167	32191
634.521	32260.15
634.875	32285.01
635.229	32193.49
635.583	32219.7
635.937	32082.08
636.291	32078.46
636.645	32061.06
636.999	31950.78
637.352	32009.77
637.706	31889.09
638.06	32105.13
638.413	31886.38
638.767	31746.72
639.121	31887.51
639.474	31682.77
639.828	31626.05
640.181	31715.31
640.534	31673.05
640.888	31549.89
641.241	31424.24
641.594	31372.27
641.947	31728.64
642.301	31381.99
642.654	31403
643.007	31422.89
643.36	31367.3
643.713	31339.05
644.066	31359.16
644.419	31199.84
644.771	30935.22
645.124	30719.4
645.477	30683.02
645.83	30504.95
646.182	30328
646.535	30195.58
646.888	30282.58
647.24	29982.02
647.593	30278.29
647.945	30059.53
648.298	30012.76
648.65	29828.81
649.002	29807.79
649.355	29985.19
649.707	29889.37
650.059	30085.52
650.411	30405.74
650.763	30422.24
651.115	30681.21
651.467	30585.4
651.819	30557.15
652.171	30516.7
652.523	30382.46
652.875	30556.02
653.227	30391.05
653.578	30512.86
653.93	30368.23
654.282	30292.97
654.633	30180.66
654.985	30332.3
655.337	30249.36
655.688	30186.31
656.039	30299.08
656.391	29945.87
656.742	30015.69
657.094	30144.5
657.445	30270.15
657.796	30081.91
658.147	30022.7
658.498	30065.41
658.849	30029.7
659.2	29960.78
659.551	29833.78
659.902	29960.1
660.253	29840.33
660.604	30051.63
660.955	29818.18
661.306	29903.38
661.656	29863.16
662.007	29848.47
662.358	29796.94
662.708	29759.2
663.059	29812.99
663.409	29556.27
663.76	29764.63
664.11	29728.47
664.461	29734.35
664.811	29718.3
665.161	29668.81
665.511	29560.79
665.862	29635.36
666.212	29672.65
666.562	29678.75
666.912	29738.64
667.262	29444.18
667.612	29532.99
667.962	29525.99
668.312	29476.95
668.662	29642.37
669.011	29549.04
669.361	29500.91
669.711	29438.53
670.06	29494.8
670.41	29388.82
670.76	29378.65
671.109	29378.2
671.459	29268.14
671.808	29365.77
672.157	29302.49
672.507	29205.55
672.856	29228.82
673.205	29173.68
673.554	29343.85
673.904	29109.28
674.253	29241.02
674.602	29173
674.951	28933.91
675.3	28605.34
675.649	29086.68
675.998	29025.66
676.346	29124.87
676.695	29100.92
677.044	28836.06
677.393	28954.93
677.741	28966.23
678.09	29020.47
678.438	28792
678.787	28914.71
679.135	28979.34
679.484	28728.27
679.832	28795.16
680.181	28620.25
680.529	28770.08
680.877	28579.8
681.225	28604.21
681.573	28745.9
681.922	28414.38
682.27	28392.69
682.618	28439.69
682.966	28380.71
683.314	28475.85
683.661	28329.41
684.009	28242.41
684.357	28132.58
684.705	28083.77
685.053	28150.43
685.4	28153.14
685.748	28069.53
686.095	27933.71
686.443	27730.1
686.79	27772.14
687.138	27827.73
687.485	27822.53
687.832	27710.9
688.18	27667.06
688.527	27546.83
688.874	27559.94
689.221	27512.48
689.568	27346.39
689.915	27391.13
690.262	27357.46
690.609	27142.78
690.956	27164.24
691.303	27212.15
691.65	27067.97
691.997	26995.43
692.344	26851.26
692.69	26803.8
693.037	26782.11
693.383	26659.17
693.73	26675.44
694.077	26605.16
694.423	26487.65
694.769	26406.07
695.116	26325.17
695.462	26330.14
695.808	26254.21
696.155	26181.22
696.501	26028
696.847	26028.91
697.193	25809.02
697.539	25837.05
697.885	25743.26
698.231	25688.8
698.577	25598.18
698.923	25633.66
699.269	25412.2
699.614	25300.11
699.96	25301.92
700.306	25437.96
700.651	25190.96
700.997	25181.47
701.342	25056.73
701.688	25069.61
702.033	24984.19
702.379	24992.55
702.724	24860.35
703.069	24906.9
703.415	24684.76
703.76	24542.62
704.105	24655.61
704.45	24572.9
704.795	24394.82
705.14	24274.6
705.485	24378.78
705.83	24307.82
706.175	24388.5
706.52	24175.62
706.865	24089.07
707.209	24020.6
707.554	24028.96
707.899	24060.6
708.243	23931.11
708.588	23852.47
708.932	23697.44
709.277	23620.16
709.621	23694.73
709.966	23584.68
710.31	23499.71
710.654	23304.01
710.998	23473.94
711.342	23361.86
711.687	23292.25
712.031	23299.26
712.375	23089.32
712.719	23212.71
713.063	23043.9
713.407	23168.19
713.75	23065.82
714.094	23046.61
714.438	22893.62
714.782	22901.76
715.125	22718.03
715.469	22882.77
715.812	22731.82
716.156	22569.79
716.499	22638.94
716.843	22645.94
717.186	22425.84
717.53	22541.77
717.873	22570.24
718.216	22390.81
718.559	22381.09
718.902	22269.46
719.246	22337.7
719.589	22177.03
719.932	22094.09
720.275	22160.53
720.617	22192.17
720.96	22057.71
721.303	22010.03
721.646	22064.26
721.989	21865.17
722.331	21965.28
722.674	21857.72
723.016	21971.16
723.359	21859.98
723.701	21825.63
724.044	21715.57
724.386	21637.16
724.729	21721
725.071	21558.06
725.413	21583.15
725.755	21553.77
726.097	21431.29
726.439	21372.98
726.782	21363.49
727.124	21434.45
727.465	21327.11
727.807	21324.85
728.149	21268.58
728.491	21131.18
728.833	21159.88
729.175	21036.49
729.516	21145.42
729.858	21135.48
730.199	21121.92
730.541	21021.81
730.882	20895.48
731.224	21038.3
731.565	20940.45
731.906	20872.88
732.248	20891.19
732.589	20831.08
732.93	20690.06
733.271	20689.39
733.612	20787.24
733.953	20742.27
734.294	20597.18
734.635	20636.51
734.976	20737.52
735.317	20607.81
735.658	20438.54
735.999	20522.84
736.339	20531.2
736.68	20471.31
737.021	20354.25
737.361	20275.84
737.702	20394.7
738.042	20280.13
738.383	20252.79
738.723	20290.3
739.063	20235.16
739.404	20218.44
739.744	20124.65
740.084	20160.59
740.424	20028.84
740.764	19960.14
741.104	20098.21
741.444	19956.07
741.784	19827.94
742.124	19917.65
742.464	19892.8
742.804	19819.13
743.143	19805.79
743.483	19738.45
743.823	19651.9
744.162	19673.59
744.502	19724.44
744.841	19632.69
745.181	19664.55
745.52	19601.5
745.86	19558.12
746.199	19506.59
746.538	19493.26
746.877	19436.08
747.216	19481.51
747.556	19409.87
747.895	19395.18
748.234	19331.23
748.573	19333.04
748.911	19267.95
749.25	19175.98
749.589	19205.36
749.928	19177.56
750.267	19116.32
750.605	19042.65
750.944	19037.23
751.283	18943.89
751.621	18989.32
751.96	18844.46
752.298	18832.49
752.636	18909.09
752.975	18761.3
753.313	18712.04
753.651	18818.02
753.989	18643.56
754.327	18640.63
754.666	18476.79
