Data from white_steel_sheet_FLMS001491_065.txt Node
Date: Tue Feb 07 10:58:16 GMT 2017
User: dcchb
Spectrometer: FLMS00149
Trigger mode: 0
Integration Time (sec): 2.000000E-2
Scans to average: 10
Electric dark correction enabled: true
Nonlinearity correction enabled: false
Boxcar width: 0
XAxis mode: Wavelengths
Number of Pixels in Spectrum: 2048
>>>>>Begin Spectral Data<<<<<
341.393	5.31
341.776	5.31
342.16	5.31
342.543	-78.08
342.927	-60.22
343.31	-62.26
343.693	-85.53
344.077	-70.17
344.46	-50.96
344.843	-41.92
345.226	-26.33
345.61	-29.94
345.993	-12.99
346.376	2.37
346.759	21.36
347.142	10.73
347.525	22.71
347.908	47.8
348.291	72.65
348.674	76.27
349.057	126.21
349.44	107.45
349.823	123.73
350.206	160.33
350.588	217.06
350.971	218.64
351.354	215.7
351.737	234.91
352.119	260.67
352.502	270.84
352.884	276.72
353.267	285.98
353.65	298.86
354.032	309.48
354.414	301.12
354.797	321.69
355.179	327.56
355.562	309.03
355.944	327.79
356.326	332.99
356.709	337.28
357.091	328.92
357.473	330.73
357.855	336.38
358.238	354.91
358.62	343.38
359.002	354.68
359.384	347.67
359.766	349.71
360.148	347.9
360.53	337.28
360.912	342.25
361.294	350.16
361.676	349.03
362.057	341.8
362.439	337.51
362.821	336.15
363.203	330.73
363.584	342.7
363.966	332.99
364.348	339.77
364.729	342.25
365.111	341.57
365.493	320.33
365.874	325.98
366.256	322.82
366.637	317.17
367.019	321.01
367.4	328.47
367.781	330.05
368.163	336.83
368.544	316.94
368.925	340.89
369.306	317.62
369.688	326.43
370.069	326.43
370.45	318.3
370.831	321.01
371.212	329.82
371.593	315.36
371.974	338.86
372.355	317.84
372.736	334.57
373.117	334.57
373.498	332.76
373.879	331.4
374.26	321.46
374.641	325.75
375.021	337.28
375.402	318.3
375.783	310.39
376.163	338.41
376.544	350.39
376.925	341.57
377.305	348.58
377.686	314.46
378.066	346.77
378.447	323.72
378.827	362.36
379.208	349.03
379.588	357.39
379.968	354.68
380.349	355.58
380.729	332.08
381.109	361.01
381.489	350.16
381.87	348.13
382.25	355.81
382.63	367.56
383.01	379.54
383.39	354.45
383.77	371.63
384.15	376.15
384.53	345.19
384.91	373.89
385.29	382.93
385.67	365.08
386.049	361.01
386.429	364.62
386.809	408.69
387.189	378.41
387.568	389.71
387.948	387.67
388.328	389.71
388.707	408.92
389.087	401.01
389.466	410.05
389.846	402.81
390.225	422.02
390.605	419.31
390.984	417.05
391.363	427.45
391.743	414.57
392.122	419.99
392.501	422.47
392.881	454.11
393.26	445.75
393.639	471.06
394.018	463.38
394.397	448.24
394.776	443.27
395.155	459.08
395.534	466.77
395.913	475.35
396.292	475.81
396.671	476.48
397.05	517.39
397.429	496.15
397.808	502.25
398.186	504.73
398.565	527.33
398.944	520.55
399.323	508.35
399.701	534.34
400.08	539.99
400.458	530.49
400.837	530.72
401.215	566.2
401.594	565.52
401.972	566.2
402.351	581.57
402.729	580.21
403.107	601
403.486	603.71
403.864	630.6
404.242	607.1
404.62	609.81
404.999	641.68
405.377	626.09
405.755	640.1
406.133	637.38
406.511	669.47
406.889	678.51
407.267	682.81
407.645	698.4
408.023	699.53
408.401	713.31
408.779	709.7
409.156	748.12
409.534	744.05
409.912	734.78
410.29	779.08
410.667	800.54
411.045	795.8
411.422	810.49
411.8	818.17
412.178	826.53
412.555	867.21
412.933	869.02
413.31	863.59
413.687	885.97
414.065	865.63
414.442	867.66
414.819	927.55
415.197	940.2
415.574	953.53
415.951	943.37
416.328	951.27
416.705	956.7
417.082	993.53
417.46	972.06
417.837	1006.64
418.214	992.86
418.591	1018.17
418.967	1037.37
419.344	1027.88
419.721	1045.74
420.098	1052.74
420.475	1033.76
420.852	1093.19
421.228	1066.53
421.605	1108.33
421.982	1090.93
422.358	1113.53
422.735	1124.6
423.111	1111.04
423.488	1151.72
423.864	1149.01
424.241	1166.18
424.617	1204.38
424.994	1210.48
425.37	1222.68
425.746	1220.87
426.123	1225.17
426.499	1264.03
426.875	1268.78
427.251	1291.83
427.627	1284.37
428.003	1333.41
428.379	1358.72
428.756	1335.22
429.132	1385.39
429.507	1385.16
429.883	1396.69
430.259	1389.91
430.635	1444.14
431.011	1420.64
431.387	1440.3
431.763	1501.77
432.138	1508.32
432.514	1527.76
432.89	1549.68
433.265	1575.66
433.641	1596.46
434.016	1581.77
434.392	1631.93
434.767	1663.12
435.143	1652.05
435.518	1670.35
435.894	1699.05
436.269	1717.13
436.644	1761.42
437.02	1767.52
437.395	1737.47
437.77	1790.57
438.145	1827.86
438.52	1845.04
438.895	1889.55
439.271	1893.4
439.646	1880.97
440.021	1943.34
440.395	1935.43
440.77	1913.06
441.145	1977.91
441.52	1987.86
441.895	2014.98
442.27	2021.75
442.645	1993.05
443.019	2028.31
443.394	2048.65
443.769	2045.26
444.143	2062.21
444.518	2104.01
444.892	2085.71
445.267	2118.7
445.641	2124.35
446.016	2144.01
446.39	2178.36
446.764	2207.96
447.139	2184.46
447.513	2193.5
447.887	2202.31
448.262	2234.18
448.636	2243.67
449.01	2301.52
449.384	2291.8
449.758	2335.42
450.132	2374.06
450.506	2360.28
450.88	2376.77
451.254	2365.02
451.628	2414.74
452.002	2497
452.376	2476.43
452.75	2492.93
453.123	2507.84
453.497	2539.26
453.871	2578.12
454.244	2635.07
454.618	2641.4
454.992	2674.84
455.365	2700.83
455.739	2737.89
456.112	2778.12
456.486	2794.62
456.859	2847.95
457.232	2873.03
457.606	2869.87
457.979	2932.01
458.352	2973.37
458.725	3003.2
459.099	3005.91
459.472	3094.27
459.845	3100.37
460.218	3147.6
460.591	3153.25
460.964	3173.81
461.337	3239.8
461.71	3299.46
462.083	3322.29
462.456	3366.13
462.829	3366.8
463.201	3413.81
463.574	3452.9
463.947	3514.37
464.32	3535.61
464.692	3574.48
465.065	3595.27
465.438	3660.13
465.81	3723.63
466.183	3764.53
466.555	3857.64
466.928	3838.2
467.3	3877.75
467.672	3909.84
468.045	4000.91
468.417	4005.21
468.789	4018.76
469.161	4138.99
469.534	4170.85
469.906	4255.14
470.278	4262.37
470.65	4337.85
471.022	4394.12
471.394	4515.02
471.766	4530.16
472.138	4557.06
472.51	4675.47
472.882	4770.16
473.253	4822.59
473.625	4885.63
473.997	4945.52
474.369	5017.16
474.74	5053.54
475.112	5118.85
475.484	5211.5
475.855	5371.5
476.227	5436.81
476.598	5509.12
476.97	5603.13
477.341	5650.81
477.713	5724.03
478.084	5764.48
478.455	5921.77
478.827	5973.97
479.198	6227.97
479.569	6190.68
479.94	6392.49
480.311	6372.6
480.682	6545.03
481.053	6757.45
481.424	6774.4
481.795	6853.72
482.166	6970.33
482.537	7070.89
482.908	7233.6
483.279	7295.06
483.65	7467.49
484.021	7617.77
484.391	7695.05
484.762	7761.94
485.133	7830.19
485.503	7870.41
485.874	8092.78
486.244	8209.61
486.615	8317.41
486.985	8428.82
487.356	8598.08
487.726	8685.99
488.097	8847.79
488.467	8857.73
488.837	9070.16
489.207	9165.75
489.578	9265.41
489.948	9330.94
490.318	9467.43
490.688	9506.3
491.058	9699.52
491.428	9807.99
491.798	9877.14
492.168	10118.27
492.538	10211.37
492.908	10311.93
493.278	10394.87
493.648	10464.02
494.017	10577.01
494.387	10657.23
494.757	10806.16
495.126	10945.14
495.496	10944.23
495.866	11064.91
496.235	11146.94
496.605	11237.11
496.974	11359.81
497.344	11432.35
497.713	11612.46
498.082	11653.59
498.452	11693.14
498.821	11822.63
499.19	11846.81
499.559	11947.14
499.928	12087.25
500.298	12187.59
500.667	12343.52
501.036	12232.11
501.405	12411.99
501.774	12403.4
502.143	12625.09
502.512	12632.32
502.88	12806.1
503.249	12859.21
503.618	12941.24
503.987	13013.33
504.356	13025.53
504.724	13149.15
505.093	13225.75
505.462	13312.53
505.83	13424.17
506.199	13492.64
506.567	13730.83
506.936	13704.16
507.304	13895.11
507.672	13982.12
508.041	14001.78
508.409	14138.05
508.777	14214.88
509.145	14315.44
509.514	14399.96
509.882	14456.91
510.25	14581.2
510.618	14803.57
510.986	14783
511.354	14919.49
511.722	15038.59
512.09	15212.14
512.458	15281.07
512.826	15348.86
513.193	15449.2
513.561	15524.22
513.929	15713.82
514.297	15803.77
514.664	15979.13
515.032	16101.16
515.4	16245.34
515.767	16116.3
516.135	16376.86
516.502	16294.15
516.869	16543.41
517.237	16684.87
517.604	16780.91
517.972	16885.32
518.339	16981.81
518.706	17059.1
519.073	17118.53
519.44	17298.87
519.808	17591.51
520.175	17613.89
520.542	17741.57
520.909	17955.57
521.276	17965.52
521.643	18130.71
522.009	18229.92
522.376	18317.6
522.743	18531.83
523.11	18706.97
523.477	18899.96
523.843	19013.17
524.21	19268.76
524.577	19350.11
524.943	19473.95
525.31	19606.15
525.676	19792.13
526.043	19970.89
526.409	19990.1
526.776	20298.11
527.142	20359.35
527.508	20516.41
527.874	20626.01
528.241	20706.46
528.607	20791.2
528.973	20920.92
529.339	21041.82
529.705	21247.46
530.071	21410.17
530.437	21479.77
530.803	21659.88
531.169	21785.53
531.535	21844.28
531.901	21847.67
532.267	22106.65
532.632	22215.12
532.998	22195.46
533.364	22406.98
533.73	22488.11
534.095	22638.39
534.461	22787.08
534.826	22806.97
535.192	23043.8
535.557	23110.24
535.923	23084.03
536.288	23234.3
536.653	23262.78
537.019	23415.32
537.384	23557.46
537.749	23685.59
538.114	23731.69
538.479	23772.6
538.845	23926.49
539.21	23878.58
539.575	24059.82
539.94	24064.79
540.305	24227.05
540.67	24199.48
541.034	24380.71
541.399	24601.27
541.764	24505.23
542.129	24680.59
542.494	24714.49
542.858	24724.21
543.223	24867.71
543.587	25139.79
543.952	25041.26
544.316	25095.72
544.681	25116.51
545.045	25254.59
545.41	25340.01
545.774	25464.08
546.138	25560.12
546.503	25662.72
546.867	25658.65
547.231	25863.84
547.595	25966.21
547.959	26078.98
548.324	26075.81
548.688	26248.46
549.052	26226.32
549.416	26261.57
549.779	26268.12
550.143	26381.57
550.507	26611.62
550.871	26711.95
551.235	26704.5
551.599	26958.5
551.962	27012.06
552.326	27044.15
552.689	27289.11
553.053	27118.95
553.417	27168.89
553.78	27566.39
554.143	27454.31
554.507	27637.8
554.87	27742.89
555.234	27959.15
555.597	27986.5
555.96	28024.69
556.323	28169.77
556.686	28186.72
557.05	28361.85
557.413	28504.67
557.776	28525.69
558.139	28752.13
558.502	28803.65
558.865	28911.9
559.228	29121.38
559.59	29165.67
559.953	29182.62
560.316	29613.12
560.679	29514.14
561.041	29686.79
561.404	29729.05
561.767	29905.09
562.129	29964.97
562.492	30413.55
562.854	30378.75
563.217	30472.08
563.579	30499.42
563.941	30578.97
564.304	30870.71
564.666	31004.04
565.028	31026.64
565.39	31136.47
565.753	31312.74
566.115	31363.58
566.477	31511.83
566.839	31534.43
567.201	31810.35
567.563	31861.42
567.925	32074.3
568.287	32103.22
568.648	32152.04
569.01	32281.07
569.372	32534.17
569.734	32472.48
570.095	32703.66
570.457	32934.16
570.819	32973.26
571.18	33048.74
571.542	33078.11
571.903	33123.31
572.265	33341.16
572.626	33242.4
572.987	33340.03
573.349	33502.06
573.71	33591.55
574.071	33556.97
574.432	33850.3
574.794	33900.92
575.155	33900.46
575.516	34005.32
575.877	34084.41
576.238	34220.23
576.599	34191.3
576.96	34336.61
577.32	34333.9
577.681	34458.87
578.042	34535.7
578.403	34431.75
578.763	34538.87
579.124	34561.24
579.485	34739.31
579.845	34810.05
580.206	34589.94
580.566	34800.33
580.927	34734.79
581.287	34887.33
581.648	34793.1
582.008	34850.27
582.368	34795.81
582.728	34797.62
583.089	34898.18
583.449	34952.41
583.809	34819.99
584.169	35147.44
584.529	34846.88
584.889	35172.97
585.249	34917.84
585.609	34919.42
585.969	35095.91
586.329	35049.36
586.688	35010.27
587.048	34940.89
587.408	34983.37
587.768	35057.27
588.127	34981.57
588.487	35010.72
588.846	35277.6
589.206	34811.85
589.565	35066.76
589.925	35142.01
590.284	35082.35
590.643	35106.08
591.003	35195.57
591.362	35246.42
591.721	35193.09
592.08	35109.47
592.44	35197.61
592.799	35133.65
593.158	35051.85
593.517	35132.52
593.876	35053.88
594.235	35080.32
594.593	34944.28
594.952	35146.31
595.311	35066.31
595.67	35046.42
596.029	35232.18
596.387	35199.87
596.746	35468.33
597.104	35175.91
597.463	35138.17
597.822	35276.93
598.18	35200.77
598.538	35151.73
598.897	35439.41
599.255	35146.76
599.613	35624.26
599.972	35362.12
600.33	35357.83
600.688	35282.12
601.046	35473.3
601.404	35553.08
601.762	35327.77
602.12	35557.14
602.478	35593.08
602.836	35529.8
603.194	35380.43
603.552	35544.94
603.91	35318.96
604.268	35513.08
604.625	35390.14
604.983	35531.61
605.341	35350.37
605.698	35588.1
606.056	35534.09
606.413	35596.47
606.771	35596.69
607.128	35721.89
607.485	35611.15
607.843	35654.77
608.2	35827.87
608.557	35884.82
608.914	35652.96
609.272	35956.23
609.629	35928.21
609.986	36052.27
610.343	35894.99
610.7	36280.29
611.057	36010.92
611.414	36107.86
611.771	36034.65
612.127	36283.23
612.484	36260.63
612.841	36175.66
613.198	36094.53
613.554	36179.95
613.911	36355.54
614.267	36501.07
614.624	36373.39
614.98	36523.22
615.337	36636.21
615.693	36503.79
616.05	36562.54
616.406	36691.8
616.762	36768.41
617.118	36568.19
617.475	36611.13
617.831	36746.94
618.187	36802.54
618.543	36757.11
618.899	36949.42
619.255	36784.68
619.611	36892.02
619.967	37015.86
620.323	37085.24
620.678	36888.63
621.034	36960.72
621.39	36794.4
621.746	36823.55
622.101	37192.13
622.457	36880.95
622.812	37060.83
623.168	37083.88
623.523	37096.76
623.879	37282.3
624.234	36957.79
624.589	37071.91
624.945	37072.36
625.3	37056.09
625.655	37176.31
626.01	37170.89
626.365	37171.56
626.72	37089.76
627.075	37013.6
627.43	37029.87
627.785	36863.78
628.14	37075.3
628.495	37139.7
628.85	36942.87
629.205	36855.87
629.559	37045.01
629.914	36886.83
630.269	36943.55
630.623	36784.68
630.978	36788.98
631.332	36798.92
631.687	37133.6
632.041	36797.34
632.396	36729.09
632.75	36624.01
633.104	36826.94
633.459	36537.46
633.813	36634.63
634.167	36488.42
634.521	36516.44
634.875	36478.25
635.229	36569.77
635.583	36349.44
635.937	36275.54
636.291	36210.69
636.645	36278.93
636.999	36205.04
637.352	36334.3
637.706	35993.74
638.06	36201.2
638.413	36074.64
638.767	35851.6
639.121	36050.24
639.474	35839.17
639.828	35811.83
640.181	35817.25
640.534	35814.09
640.888	35721.43
641.241	35456.81
641.594	35616.13
641.947	35597.82
642.301	35449.35
642.654	35551.27
643.007	35591.95
643.36	35467.43
643.713	35316.47
644.066	35514.43
644.419	35172.07
644.771	35007.1
645.124	34625.42
645.477	34639.65
645.83	34384.52
646.182	34263.84
646.535	34230.4
646.888	34280.79
647.24	34074.25
647.593	34305.65
647.945	34149.05
648.298	34094.36
648.65	33973.01
649.002	33881.93
649.355	34062.49
649.707	33837.19
650.059	33952.44
650.411	34315.82
650.763	34454.8
651.115	34745.87
651.467	34763.27
651.819	34686.43
652.171	34578.41
652.523	34580.22
652.875	34500.45
653.227	34263.62
653.578	34548.13
653.93	34406.44
654.282	34229.04
654.633	34276.95
654.985	34229.95
655.337	34170.29
655.688	34210.51
656.039	34344.29
656.391	33991.08
656.742	34015.94
657.094	34064.53
657.445	34236.27
657.796	34065.21
658.147	33858.43
658.498	34068.6
658.849	34108.37
659.2	34118.99
659.551	33991.76
659.902	33903.63
660.253	33742.5
660.604	33810.98
660.955	33713.8
661.306	33684.65
661.656	33521.04
662.007	33518.1
662.358	33580.25
662.708	33527.59
663.059	33573.02
663.409	33212.8
663.76	33508.38
664.11	33387.03
664.461	33512.23
664.811	33443.3
665.161	33269.07
665.511	33075.85
665.862	33067.27
666.212	33137.32
666.562	33216.64
666.912	33053.48
667.262	32917.21
667.612	32887.84
667.962	32785.24
668.312	32645.58
668.662	32828.18
669.011	32665.02
669.361	32521.52
669.711	32399.71
670.06	32510.44
670.41	32357.45
670.76	32150.45
671.109	32396.1
671.459	32170.34
671.808	32098.48
672.157	32207.85
672.507	31786.85
672.856	31907.52
673.205	31982.32
673.554	31948.65
673.904	31805.15
674.253	31832.72
674.602	31764.48
674.951	31329.91
675.3	31124.94
675.649	31543.46
675.998	31561.77
676.346	31524.26
676.695	31673.4
677.044	31336.01
677.393	31426.63
677.741	31518.38
678.09	31253.98
678.438	31144.38
678.787	31348.89
679.135	31335.33
679.484	31056.92
679.832	31305.28
680.181	31175.11
680.529	31202.68
680.877	31028
681.225	31093.53
681.573	31277.71
681.922	31064.61
682.27	30954.1
682.618	31106.41
682.966	30981.45
683.314	31169.91
683.661	31112.52
684.009	30940.54
684.357	31005.17
684.705	30990.26
685.053	31009.02
685.4	31055.12
685.748	30853.31
686.095	30910.71
686.443	30790.72
686.79	30894.22
687.138	30855.57
687.485	30976.7
687.832	30861.9
688.18	31114.1
688.527	30789.59
688.874	30867.32
689.221	30698.97
689.568	30808.34
689.915	30682.92
690.262	30712.98
690.609	30646.54
690.956	30560.89
691.303	30585.75
691.65	30466.43
691.997	30472.31
692.344	30389.14
692.69	30393.66
693.037	30419.88
693.383	30129.94
693.73	30210.17
694.077	30171.07
694.423	30228.7
694.769	30197.29
695.116	30041.13
695.462	30126.55
695.808	30008.36
696.155	30036.39
696.501	29701.48
696.847	29832.32
697.193	29666.9
697.539	29773.34
697.885	29551.43
698.231	29484.99
698.577	29437.08
698.923	29351.43
699.269	29297.2
699.614	29207.03
699.96	29214.71
700.306	29220.14
700.651	29066.92
700.997	28951.44
701.342	28808.4
701.688	28825.34
702.033	28692.01
702.379	28739.92
702.724	28728.62
703.069	28714.84
703.415	28396.65
703.76	28475.97
704.105	28471.91
704.45	28357.56
704.795	28128.86
705.14	28091.13
705.485	28104.01
705.83	27953.5
706.175	28026.49
706.52	27902.88
706.865	27848.19
707.209	27765.71
707.554	27706.73
707.899	27803
708.243	27563.23
708.588	27440.52
708.932	27349
709.277	27351.94
709.621	27344.03
709.966	27201.88
710.31	27260.41
710.654	27013.87
710.998	27258.38
711.342	27024.49
711.687	26950.59
712.031	26915.34
712.375	26940.87
712.719	26704.72
713.063	26708.56
713.407	26957.6
713.75	26525.07
714.094	26718.05
714.438	26569.81
714.782	26556.25
715.125	26384.5
715.469	26480.32
715.812	26268.35
716.156	26312.64
716.499	26219.76
716.843	26228.35
717.186	26052.99
717.53	26157.84
717.873	26216.6
718.216	25988.36
718.559	25872.43
718.902	25641.02
719.246	25915.82
719.589	25772.99
719.932	25731.41
720.275	25725.99
720.617	25664.3
720.96	25664.97
721.303	25644.86
721.646	25634.24
721.989	25414.59
722.331	25505.88
722.674	25486.9
723.016	25363.06
723.359	25282.16
723.701	25404.19
724.044	25264.76
724.386	25047.36
724.729	25111.54
725.071	25147.93
725.413	25083.3
725.755	25047.14
726.097	24936.18
726.439	24846.69
726.782	24913.58
727.124	25015.05
727.465	24866.8
727.807	24828.39
728.149	24820.48
728.491	24656.19
728.833	24751.33
729.175	24535.74
729.516	24513.82
729.858	24469.3
730.199	24523.76
730.541	24440.15
730.882	24422.07
731.224	24452.35
731.565	24182.3
731.906	24368.06
732.248	24261.85
732.589	24165.13
732.93	23995.64
733.271	24128.52
733.612	24116.32
733.953	24076.09
734.294	24014.62
734.635	23923.78
734.976	23960.39
735.317	23848.75
735.658	23808.53
735.999	23891.01
736.339	23786.83
736.68	23869.32
737.021	23735.53
737.361	23589.1
737.702	23737.57
738.042	23601.3
738.383	23535.54
738.723	23536.67
739.063	23447.41
739.404	23507.07
739.744	23453.73
740.084	23299.39
740.424	23326.96
740.764	23181.42
741.104	23304.81
741.444	23148.88
741.784	23109.11
742.124	23225.72
742.464	23052.16
742.804	23075.66
743.143	23173.74
743.483	23074.53
743.823	22958.15
744.162	22848.1
744.502	22900.75
744.841	22861.66
745.181	22854.43
745.52	22794.09
745.86	22877.48
746.199	22692.62
746.538	22682.68
746.877	22742.57
747.216	22786.18
747.556	22528.56
747.895	22481.56
748.234	22421.44
748.573	22543.7
748.911	22413.99
749.25	22444.72
749.589	22344.84
749.928	22272.07
750.267	22199.76
750.605	22210.15
750.944	22179.19
751.283	21991.85
751.621	22027.78
751.96	21974.9
752.298	21897.16
752.636	21948.46
752.975	21936.26
753.313	21830.05
753.651	21890.16
753.989	21819.43
