Data from whiteboard_FLMS001491_00043.txt Node
Date: Wed Feb 08 11:26:39 GMT 2017
User: dcchb
Spectrometer: FLMS00149
Trigger mode: 0
Integration Time (sec): 2.000000E-2
Scans to average: 10
Electric dark correction enabled: true
Nonlinearity correction enabled: false
Boxcar width: 0
XAxis mode: Wavelengths
Number of Pixels in Spectrum: 2048
>>>>>Begin Spectral Data<<<<<
341.393	1.84
341.776	1.84
342.16	1.84
342.543	-53.53
342.927	-66.41
343.31	-63.02
343.693	-89.46
344.077	-74.55
344.46	-59.18
344.843	-67.99
345.226	-49.24
345.61	-33.19
345.993	-12.85
346.376	-16.02
346.759	30.31
347.142	21.95
347.525	47.48
347.908	62.17
348.291	82.51
348.674	111.89
349.057	109.18
349.44	133.36
349.823	148.27
350.206	156.63
350.588	214.03
350.971	236.18
351.354	238.67
351.737	282.05
352.119	275.5
352.502	288.38
352.884	294.94
353.267	328.38
353.65	319.57
354.032	333.8
354.414	346.23
354.797	335.61
355.179	351.88
355.562	374.26
355.944	389.85
356.326	361.83
356.709	374.71
357.091	364.99
357.473	365.67
357.855	411.54
358.238	393.92
358.62	379.68
359.002	365.44
359.384	367.25
359.766	388.49
360.148	372.22
360.53	375.61
360.912	379.68
361.294	378.1
361.676	362.96
362.057	383.3
362.439	382.84
362.821	387.59
363.203	371.32
363.584	375.16
363.966	373.8
364.348	371.09
364.729	359.79
365.111	345.33
365.493	363.86
365.874	366.35
366.256	375.84
366.637	366.57
367.019	344.43
367.4	362.05
367.781	361.15
368.163	357.31
368.544	380.13
368.925	348.27
369.306	377.19
369.688	348.04
370.069	366.57
370.45	374.71
370.831	369.06
371.212	374.48
371.593	377.65
371.974	372.45
372.355	370.87
372.736	369.96
373.117	383.3
373.498	392.79
373.879	371.09
374.26	393.01
374.641	406.57
375.021	369.74
375.402	386.68
375.783	393.01
376.163	422.62
376.544	416.51
376.925	399.11
377.305	402.5
377.686	414.48
378.066	389.62
378.447	397.98
378.827	413.8
379.208	406.57
379.588	419.68
379.968	432.33
380.349	407.48
380.729	440.69
381.109	437.53
381.489	444.76
381.87	421.03
382.25	442.28
382.63	447.25
383.01	447.7
383.39	450.64
383.77	478.21
384.15	446.57
384.53	466.91
384.91	460.13
385.29	485.21
385.67	482.95
386.049	489.73
386.429	510.3
386.809	489.96
387.189	505.1
387.568	502.39
387.948	490.41
388.328	501.71
388.707	515.27
389.087	535.83
389.466	529.05
389.846	547.13
390.225	554.82
390.605	549.39
390.984	542.16
391.363	578.09
391.743	595.04
392.122	561.14
392.501	580.13
392.881	590.75
393.26	612.89
393.639	603.63
394.018	618.54
394.397	632.1
394.776	621.25
395.155	637.98
395.534	636.4
395.913	651.54
396.292	650.86
396.671	668.71
397.05	668.71
397.429	694.02
397.808	710.74
398.186	714.36
398.565	715.49
398.944	720.01
399.323	725.43
399.701	778.09
400.08	753.45
400.458	790.06
400.837	788.03
401.215	805.2
401.594	788.93
401.972	824.87
402.351	842.27
402.729	872.1
403.107	854.24
403.486	841.14
403.864	880.68
404.242	891.76
404.62	920
404.999	908.7
405.377	946.44
405.755	968.82
406.133	993.9
406.511	996.61
406.889	1000.91
407.267	1056.5
407.645	1061.47
408.023	1089.04
408.401	1083.84
408.779	1119.09
409.156	1125.42
409.534	1162.26
409.912	1175.36
410.29	1209.71
410.667	1228.92
411.045	1279.99
411.422	1278.19
411.8	1297.4
412.178	1345.53
412.555	1359.09
412.933	1367
413.31	1409.26
413.687	1440.44
414.065	1431.4
414.442	1473.21
414.819	1488.35
415.197	1538.52
415.574	1550.5
415.951	1565.41
416.328	1566.09
416.705	1563.6
417.082	1600.21
417.46	1641.79
417.837	1710.49
418.214	1673.88
418.591	1715.01
418.967	1753.43
419.344	1734.45
419.721	1757.95
420.098	1825.29
420.475	1831.39
420.852	1832.3
421.228	1863.03
421.605	1886.53
421.982	1895.57
422.358	1903.03
422.735	1950.03
423.111	1981.45
423.488	2016.7
423.864	2023.03
424.241	2046.75
424.617	2089.92
424.994	2096.7
425.37	2111.61
425.746	2134.44
426.123	2171.27
426.499	2189.8
426.875	2244.94
427.251	2273.87
427.627	2332.62
428.003	2378.72
428.379	2362
428.756	2410.59
429.132	2443.58
429.507	2466.63
429.883	2515.22
430.259	2569
430.635	2604.48
431.011	2598.6
431.387	2641.77
431.763	2728.32
432.138	2720.18
432.514	2804.25
432.89	2820.29
433.265	2880.4
433.641	2882.44
434.016	2936.67
434.392	2995.66
434.767	3045.37
435.143	3067.74
435.518	3080.63
435.894	3098.7
436.269	3190
436.644	3227.51
437.02	3242.2
437.395	3287.85
437.77	3376.89
438.145	3380.96
438.52	3423.89
438.895	3480.61
439.271	3478.58
439.646	3535.3
440.021	3608.07
440.395	3634.73
440.77	3656.2
441.145	3648.97
441.52	3731.23
441.895	3761.74
442.27	3769.65
442.645	3749.08
443.019	3834.28
443.394	3821.85
443.769	3884.22
444.143	3882.86
444.518	4004.67
444.892	3938
445.267	3993.82
445.641	4036.76
446.016	4034.95
446.39	4051.45
446.764	4107.04
447.139	4092.35
447.513	4140.03
447.887	4184.55
448.262	4203.76
448.636	4234.72
449.01	4342.29
449.384	4270.88
449.758	4350.42
450.132	4455.28
450.506	4483.53
450.88	4500.47
451.254	4503.64
451.628	4586.8
452.002	4620.02
452.376	4698.44
452.75	4751.32
453.123	4815.27
453.497	4913.12
453.871	4903.85
454.244	5040.12
454.618	5055.04
454.992	5134.13
455.365	5156.5
455.739	5304.75
456.112	5373.67
456.486	5388.59
456.859	5457.29
457.232	5589.49
457.606	5574.8
457.979	5690.73
458.352	5792.87
458.725	5830.61
459.099	5944.28
459.472	6025.18
459.845	6059.76
460.218	6115.35
460.591	6205.06
460.964	6188.34
461.337	6393.53
461.71	6473.53
462.083	6526.64
462.456	6585.39
462.829	6586.97
463.201	6749.91
463.574	6752.62
463.947	6860.19
464.32	7017.24
464.692	7057.7
465.065	7138.6
465.438	7219.95
465.81	7366.16
466.183	7411.58
466.555	7550.11
466.928	7611.13
467.3	7673.95
467.672	7818.58
468.045	8060.83
468.417	8042.53
468.789	8156.2
469.161	8239.59
469.534	8428.06
469.906	8621.72
470.278	8663.08
470.65	8816.29
471.022	8940.36
471.394	9129.28
471.766	9248.15
472.138	9361.36
472.51	9546.22
472.882	9728.59
473.253	9889.03
473.625	9977.84
473.997	10217.84
474.369	10272.75
474.74	10352.07
475.112	10617.6
475.484	10850.59
475.855	10933.07
476.227	10965.16
476.598	11396.56
476.97	11469.56
477.341	11699.83
477.713	11954.52
478.084	11879.49
478.455	12316.99
478.827	12405.13
479.198	12727.38
479.569	12812.12
479.94	13098.67
480.311	13246.91
480.682	13471.09
481.053	13827.46
481.424	13990.85
481.795	14166.44
482.166	14375.47
482.537	14562.36
482.908	14873.76
483.279	15025.4
483.65	15320.08
484.021	15600.75
484.391	15796.68
484.762	16035.31
485.133	16115.31
485.503	16384
485.874	16758.23
486.244	16986.7
486.615	17237.77
486.985	17563.41
487.356	17872.1
487.726	18041.81
488.097	18447.23
488.467	18430.96
488.837	18963.6
489.207	19150.03
489.578	19420.08
489.948	19652.62
490.318	19925.15
490.688	20124.92
491.058	20399.04
491.428	20625.47
491.798	20980.04
492.168	21381.39
492.538	21429.75
492.908	21653.02
493.278	22008.72
493.648	22012.78
494.017	22324.19
494.387	22482.6
494.757	22634.46
495.126	22843.04
495.496	23048.91
495.866	23067.9
496.235	23385.4
496.605	23616.81
496.974	23737.94
497.344	23955.1
497.713	24047.53
498.082	24162.78
498.452	24491.14
498.821	24572.26
499.19	24608.42
499.559	24913.5
499.928	25021.29
500.298	25071.69
500.667	25332.02
501.036	25348.51
501.405	25659.92
501.774	25589.86
502.143	25915.28
502.512	26050.64
502.88	26298.77
503.249	26289.05
503.618	26576.05
503.987	26690.85
504.356	27011.75
504.724	27209.93
505.093	27240.22
505.462	27422.81
505.83	27648.57
506.199	28049.01
506.567	28283.58
506.936	28481.99
507.304	28767.63
507.672	28869.1
508.041	29120.84
508.409	29453.27
508.777	29665.24
509.145	29945.91
509.514	29998.56
509.882	30235.84
510.25	30442.62
510.618	30648.49
510.986	30751.99
511.354	31079.89
511.722	31391.52
512.09	31669.48
512.458	31518.75
512.826	31929.36
513.193	32139.97
513.561	32198.73
513.929	32687.3
514.297	32830.58
514.664	32977.92
515.032	33040.52
515.4	33370.45
515.767	33452.93
516.135	33527.06
516.502	33470.79
516.869	34064.44
517.237	34225.34
517.604	34311.22
517.972	34519.12
518.339	34777.87
518.706	34785.55
519.073	34929.73
519.44	35255.15
519.808	35521.81
520.175	35572.43
520.542	35996.37
520.909	36141.45
521.276	36232.75
521.643	36618.05
522.009	36889
522.376	37067.53
522.743	37372.6
523.11	37764.68
523.477	38208.97
523.843	38472.69
524.21	38720.59
524.577	38947.25
524.943	39239.67
525.31	39486.45
525.676	39777.29
526.043	40047.34
526.409	40296.14
526.776	40613.42
527.142	40850.71
527.508	41145.16
527.874	41519.84
528.241	41654.53
528.607	41872.37
528.973	42292.25
529.339	42317.11
529.705	42772.46
530.071	43205.67
530.437	43310.98
530.803	43628.94
531.169	43759.56
531.535	43771.76
531.901	44047.68
532.267	44424.62
532.632	44567.22
532.998	44892.86
533.364	45035
533.73	45242.91
534.095	45512.5
534.461	45641.09
534.826	45792.27
535.192	45880.63
535.557	46256.67
535.923	46347.06
536.288	46388.19
536.653	46599.03
537.019	46543.89
537.384	46627.95
537.749	46900.72
538.114	46865.69
538.479	46961.05
538.845	47182.97
539.21	47043.54
539.575	47241.95
539.94	47355.39
540.305	47633.8
540.67	47512.45
541.034	47618.66
541.399	47721.49
541.764	47879
542.129	48042.15
542.494	48227.91
542.858	48170.74
543.223	48295.48
543.587	48497.74
543.952	48463.16
544.316	48568.69
544.681	48690.5
545.045	48929.14
545.41	49158.74
545.774	49109.92
546.138	49182.92
546.503	49271.5
546.867	49401.89
547.231	49795.1
547.595	49833.97
547.959	49902.67
548.324	50059.73
548.688	50115.55
549.052	50292.27
549.416	50397.8
549.779	50500.4
550.143	50556.44
550.507	50896.54
550.871	50962.53
551.235	51071
551.599	51291.33
551.962	51416.53
552.326	51504.89
552.689	51762.06
553.053	51594.15
553.417	51829.4
553.78	52204.76
554.143	52127.7
554.507	52266.9
554.87	52444.3
555.234	52781.24
555.597	52581.02
555.96	52828.92
556.323	52887.9
556.686	52933.33
557.05	53223.94
557.413	53249.7
557.776	53465.52
558.139	53534.21
558.502	53623.7
558.865	53642.69
559.228	53927.42
559.59	53857.37
559.953	53965.39
560.316	54220.98
560.679	54177.81
561.041	54353.85
561.404	54479.5
561.767	54602.66
562.129	54544.81
562.492	54884.46
562.854	54747.52
563.217	54749.78
563.579	54930.11
563.941	55160.61
564.304	55146.6
564.666	55280.61
565.028	55317.44
565.39	55454.16
565.753	55460.49
566.115	55554.5
566.477	55693.25
566.839	55658.68
567.201	55800.59
567.563	55944.32
567.925	55994.94
568.287	56114.94
568.648	56090.76
569.01	56244.65
569.372	56412.56
569.734	56356.06
570.095	56526.23
570.457	56708.14
570.819	56655.49
571.18	56707.92
571.542	56899.32
571.903	56930.06
572.265	57078.3
572.626	57078.53
572.987	57136.61
573.349	57279.65
573.71	57354.45
574.071	57458.63
574.432	57497.73
574.794	57701.34
575.155	57678.74
575.516	57674.22
575.877	57800.09
576.238	57911.95
576.599	57959.18
576.96	58006.86
577.32	58058.39
577.681	58209.57
578.042	58224.94
578.403	58252.51
578.763	58331.83
579.124	58395.33
579.485	58480.3
579.845	58561.88
580.206	58522.11
580.566	58558.26
580.927	58567.53
581.287	58717.81
581.648	58619.28
582.008	58763.91
582.368	58661.31
582.728	58813.17
583.089	58744.25
583.449	58745.83
583.809	58783.34
584.169	58847.75
584.529	58740.4
584.889	58869.67
585.249	58735.21
585.609	58753.29
585.969	58869.21
586.329	58686.17
586.688	58841.64
587.048	58808.43
587.408	58741.99
587.768	58687.3
588.127	58669.45
588.487	58664.02
588.846	58798.71
589.206	58558.94
589.565	58699.95
589.925	58744.02
590.284	58628.54
590.643	58686.39
591.003	58727.3
591.362	58733.85
591.721	58595.1
592.08	58589.67
592.44	58682.33
592.799	58579.28
593.158	58666.96
593.517	58692.95
593.876	58610.46
594.235	58570.01
594.593	58580.41
594.952	58616.11
595.311	58556
595.67	58549.22
596.029	58719.61
596.387	58674.42
596.746	58721.42
597.104	58654.08
597.463	58646.4
597.822	58794.41
598.18	58668.32
598.538	58603.23
598.897	58810.69
599.255	58641.2
599.613	59011.81
599.972	58825.83
600.33	58885.71
600.688	58802.55
601.046	58913.73
601.404	58978.59
601.762	58929.1
602.12	59143.11
602.478	59105.82
602.836	59124.58
603.194	59048.87
603.552	59159.15
603.91	59101.75
604.268	59287.96
604.625	59123.9
604.983	59259.49
605.341	59177.23
605.698	59301.29
606.056	59410.67
606.413	59384.91
606.771	59459.71
607.128	59499.93
607.485	59446.15
607.843	59459.93
608.2	59626.03
608.557	59686.59
608.914	59633.04
609.272	59773.6
609.629	59844.33
609.986	59871.67
610.343	59730.21
610.7	59901.05
611.057	59845.91
611.414	59851.11
611.771	59887.04
612.127	59967.27
612.484	59964.1
612.841	60045
613.198	59945.57
613.554	59977.89
613.911	60114.83
614.267	60025.34
614.624	59940.37
614.98	60076.87
615.337	60061.95
615.693	60071.44
616.05	60043.2
616.406	60142.18
616.762	60065.34
617.118	60048.84
617.475	59914.39
617.831	60073.02
618.187	60035.06
618.543	60080.03
618.899	60151.67
619.255	60088.17
619.611	60079.35
619.967	60119.35
620.323	60152.12
620.678	60104.44
621.034	59926.59
621.39	59989.64
621.746	59892.46
622.101	60168.16
622.457	59898.57
622.812	59882.3
623.168	59960.03
623.523	59930.66
623.879	60021.27
624.234	59850.43
624.589	59895.18
624.945	59904.22
625.3	60003.87
625.655	59896.76
626.01	59845.46
626.365	59899.7
626.72	59879.13
627.075	59869.41
627.43	59822.86
627.785	59745.58
628.14	59791.22
628.495	59835.97
628.85	59771.79
629.205	59746.93
629.559	59805.46
629.914	59740.6
630.269	59739.7
630.623	59702.64
630.978	59680.04
631.332	59745.8
631.687	59749.64
632.041	59741.51
632.396	59711.23
632.75	59597.56
633.104	59725.69
633.459	59572.02
633.813	59643.66
634.167	59630.78
634.521	59566.82
634.875	59680.27
635.229	59711.9
635.583	59539.48
635.937	59605.69
636.291	59594.85
636.645	59588.97
636.999	59551
637.352	59616.77
637.706	59492.25
638.06	59677.1
638.413	59593.72
638.767	59502.19
639.121	59510.55
639.474	59358.92
639.828	59418.13
640.181	59511.01
640.534	59472.59
640.888	59390.11
641.241	59320.05
641.594	59377
641.947	59455.64
642.301	59325.25
642.654	59320.95
643.007	59321.63
643.36	59205.03
643.713	59221.07
644.066	59261.29
644.419	59156.66
644.771	59005.03
645.124	58821.31
645.477	58727.98
645.83	58549
646.182	58344.71
646.535	58264.26
646.888	58285.73
647.24	58109.91
647.593	58238.95
647.945	58168.89
648.298	58009.12
648.65	57986.3
649.002	57834.67
649.355	57946.3
649.707	57888.22
650.059	58012.74
650.411	58312.62
650.763	58296.57
651.115	58448.21
651.467	58349.68
651.819	58336.35
652.171	58203.24
652.523	58160.76
652.875	58159.18
653.227	57990.59
653.578	58250.25
653.93	58063.36
654.282	58035.56
654.633	57829.69
654.985	57968
655.337	57918.96
655.688	57837.38
656.039	57989.46
656.391	57732.3
656.742	57798.06
657.094	57688
657.445	57733.65
657.796	57665.4
658.147	57615.46
658.498	57623.6
658.849	57641.68
659.2	57617.5
659.551	57518.06
659.902	57576.82
660.253	57555.58
660.604	57602.58
660.955	57524.17
661.306	57519.87
661.656	57491.85
662.007	57502.92
662.358	57488.01
662.708	57519.42
663.059	57481.91
663.409	57321.46
663.76	57513.32
664.11	57525.3
664.461	57545.63
664.811	57497.27
665.161	57482.81
665.511	57471.29
665.862	57488.91
666.212	57532.3
666.562	57530.49
666.912	57389.93
667.262	57362.36
667.612	57391.74
667.962	57422.7
668.312	57420.44
668.662	57494.34
669.011	57457.05
669.361	57491.85
669.711	57437.61
670.06	57378.63
670.41	57336.83
670.76	57328.01
671.109	57339.76
671.459	57324.85
671.808	57276.26
672.157	57348.12
672.507	57224.06
672.856	57190.39
673.205	57249.37
673.554	57335.7
673.904	57210.5
674.253	57347.22
674.602	57229.71
674.951	56855.48
675.3	56728.93
675.649	57107.45
675.998	57122.37
676.346	57066.55
676.695	57326.43
677.044	56996.04
677.393	57178.41
677.741	57203.72
678.09	57161.01
678.438	57034.23
678.787	56963.5
679.135	56956.95
679.484	56882.83
679.832	56932.99
680.181	56802.15
680.529	56966.21
680.877	56783.85
681.225	56697.29
681.573	56843.96
681.922	56647.35
682.27	56496.4
682.618	56627.92
682.966	56412.56
683.314	56501.37
683.661	56302.05
684.009	56231.32
684.357	56164.2
684.705	56148.38
685.053	56171.43
685.4	56104.09
685.748	55943.42
686.095	55920.82
686.443	55817.09
686.79	55780.03
687.138	55820.03
687.485	55687.83
687.832	55546.82
688.18	55594.72
688.527	55414.62
688.874	55475.63
689.221	55319.03
689.568	55233.38
689.915	55213.27
690.262	55172.81
690.609	55090.33
690.956	54935.98
691.303	54845.14
691.65	54694.18
691.997	54686.95
692.344	54516.11
692.69	54459.39
693.037	54460.52
693.383	54144.37
693.73	54262.33
694.077	54033.86
694.423	54130.36
694.769	53983.24
695.116	53902.79
695.462	53825.96
695.808	53700.99
696.155	53710.48
696.501	53441.56
696.847	53404.73
697.193	53252.41
697.539	53371.05
697.885	53094
698.231	52938.07
698.577	53037.5
698.923	52969.03
699.269	52843.61
699.614	52668.47
699.96	52623.28
700.306	52582.37
700.651	52381.02
700.997	52341.02
701.342	52381.93
701.688	52261.7
702.033	52194.81
702.379	52205.89
702.724	52129.28
703.069	52183.74
703.415	51735.84
703.76	51791.89
704.105	51710.98
704.45	51661.72
704.795	51525.68
705.14	51495.62
705.485	51399.13
705.83	51307.38
706.175	51379.47
706.52	51277.1
706.865	51314.39
707.209	51204.78
707.554	51129.08
707.899	51162.98
708.243	50873.27
708.588	50967.05
708.932	50821.97
709.277	50768.41
709.621	50907.84
709.966	50585.59
710.31	50763.89
710.654	50384.92
710.998	50527.97
711.342	50336.56
711.687	50272.15
712.031	50156.9
712.375	50044.81
712.719	50130.01
713.063	50043.01
713.407	50188.99
713.75	49989.67
714.094	49867.19
714.438	49663.58
714.782	49829.9
715.125	49616.58
715.469	49744.71
715.812	49446.64
716.156	49322.8
716.499	49303.82
716.843	49327.09
717.186	49181.11
717.53	49296.36
717.873	49185.63
718.216	49124.61
718.559	48965.29
718.902	48631.74
719.246	48839.65
719.589	48650.5
719.932	48383.61
720.275	48447.79
720.617	48351.75
720.96	48415.03
721.303	48434.23
721.646	48249.61
721.989	48018.88
722.331	48160.8
722.674	47905.89
723.016	47813.69
723.359	47732.56
723.701	47780.92
724.044	47485.11
724.386	47290.31
724.729	47383.87
725.071	47208.5
725.413	47170.31
725.755	47074.04
726.097	46898.91
726.439	46786.82
726.782	46732.58
727.124	46808.06
727.465	46510.44
727.807	46637.9
728.149	46437.68
728.491	46335.31
728.833	46292.6
729.175	46216.21
729.516	45948.42
729.858	45865.04
730.199	45986.39
730.541	45769.67
730.882	45839.5
731.224	45829.56
731.565	45429.79
731.906	45547.53
732.248	45466.63
732.589	45209.24
732.93	45118.16
733.271	45094.21
733.612	45136.92
733.953	45086.53
734.294	44851.5
734.635	44580.1
734.976	44919.75
735.317	44455.13
735.658	44544.62
735.999	44508.91
736.339	44389.37
736.68	44441.35
737.021	44165.19
737.361	44055.82
737.702	44270.73
738.042	44037.97
738.383	43929.49
738.723	44171.52
739.063	43936.05
739.404	43887.69
739.744	43807.69
740.084	43467.81
740.424	43639.56
740.764	43584.42
741.104	43527.02
741.444	43282.05
741.784	43250.42
742.124	43257.2
742.464	43332.22
742.804	43213.36
743.143	43125.45
743.483	43081.83
743.823	42892.69
744.162	42888.62
744.502	43018.33
744.841	42739.7
745.181	42872.35
745.52	42712.35
745.86	42768.85
746.199	42648.62
746.538	42640.04
746.877	42559.59
747.216	42535.86
747.556	42572.02
747.895	42448.18
748.234	42336.54
748.573	42438.23
748.911	42252.02
749.25	42304
749.589	42101.52
749.928	42173.83
750.267	42193.27
750.605	41944.91
750.944	41920.73
751.283	41811.13
751.621	41918.02
751.96	41485.72
752.298	41522.33
752.636	41615.66
752.975	41311.94
753.313	41251.6
