Data from white_wall_FLMS001491_042.txt Node
Date: Tue Feb 07 11:04:34 GMT 2017
User: dcchb
Spectrometer: FLMS00149
Trigger mode: 0
Integration Time (sec): 2.000000E-2
Scans to average: 10
Electric dark correction enabled: true
Nonlinearity correction enabled: false
Boxcar width: 0
XAxis mode: Wavelengths
Number of Pixels in Spectrum: 2048
>>>>>Begin Spectral Data<<<<<
341.393	7.7
341.776	7.7
342.16	7.7
342.543	-54.67
342.927	-55.58
343.31	-89.02
343.693	-46.99
344.077	-68.46
344.46	-54.9
344.843	-55.8
345.226	-36.37
345.61	-40.44
345.993	-18.06
346.376	-7.9
346.759	11.99
347.142	27.36
347.525	49.5
347.908	60.35
348.291	70.29
348.674	94.25
349.057	104.19
349.44	118.66
349.823	151.65
350.206	170.86
350.588	231.87
350.971	239.1
351.354	252.89
351.737	260.35
352.119	273
352.502	275.04
352.884	296.28
353.267	294.92
353.65	309.16
354.032	315.49
354.414	309.38
354.797	310.97
355.179	326.33
355.562	360.46
355.944	337.18
356.326	357.07
356.709	368.82
357.091	346.67
357.473	373.34
357.855	365.2
358.238	347.12
358.62	350.51
359.002	345.99
359.384	365.43
359.766	371.3
360.148	349.84
360.53	365.65
360.912	357.52
361.294	355.94
361.676	365.43
362.057	358.65
362.439	362.72
362.821	350.74
363.203	355.26
363.584	358.87
363.966	347.12
364.348	320.46
364.729	357.97
365.111	326.56
365.493	332.66
365.874	345.32
366.256	327.24
366.637	337.63
367.019	340.12
367.4	317.52
367.781	357.74
368.163	328.14
368.544	330.17
368.925	348.71
369.306	360.46
369.688	338.31
370.069	347.35
370.45	353.23
370.831	356.61
371.212	338.31
371.593	333.79
371.974	331.53
372.355	338.99
372.736	335.37
373.117	345.32
373.498	341.02
373.879	328.14
374.26	311.87
374.641	331.08
375.021	342.6
375.402	342.38
375.783	332.89
376.163	353.68
376.544	336.05
376.925	353
377.305	346.22
377.686	331.98
378.066	351.19
378.447	347.58
378.827	362.04
379.208	371.3
379.588	373.79
379.968	367.01
380.349	355.03
380.729	362.72
381.109	374.47
381.489	358.65
381.87	368.14
382.25	368.37
382.63	362.04
383.01	372.89
383.39	372.43
383.77	377.18
384.15	382.83
384.53	382.6
384.91	400
385.29	393.45
385.67	393.9
386.049	415.37
386.429	412.21
386.809	383.28
387.189	400.68
387.568	401.59
387.948	407.24
388.328	409.95
388.707	420.79
389.087	402.04
389.466	436.39
389.846	430.29
390.225	440.23
390.605	426.44
390.984	422.83
391.363	438.19
391.743	444.75
392.122	463.05
392.501	463.28
392.881	468.02
393.26	476.16
393.639	470.28
394.018	469.61
394.397	499.89
394.776	516.84
395.155	504.18
395.534	497.4
395.913	523.62
396.292	520.23
396.671	513.67
397.05	517.74
397.429	529.49
397.808	528.14
398.186	551.41
398.565	573.33
398.944	573.56
399.323	589.15
399.701	559.32
400.08	577.85
400.458	601.13
400.837	608.13
401.215	617.63
401.594	626.44
401.972	632.54
402.351	642.03
402.729	651.97
403.107	658.98
403.486	661.47
403.864	680.9
404.242	700.11
404.62	717.06
404.999	722.26
405.377	731.75
405.755	746.44
406.133	772.42
406.511	769.49
406.889	772.88
407.267	800.67
407.645	810.16
408.023	822.14
408.401	826.43
408.779	841.8
409.156	879.54
409.534	896.71
409.912	879.54
410.29	923.38
410.667	927
411.045	937.16
411.422	968.35
411.8	975.81
412.178	980.78
412.555	990.72
412.933	998.86
413.31	1040.21
413.687	1035.02
414.065	1057.61
414.442	1090.15
414.819	1086.77
415.197	1104.39
415.574	1128.8
415.951	1131.74
416.328	1166.09
416.705	1139.42
417.082	1148.01
417.46	1151.62
417.837	1191.62
418.214	1198.4
418.591	1200.89
418.967	1226.65
419.344	1239.53
419.721	1259.87
420.098	1256.93
420.475	1271.62
420.852	1305.97
421.228	1300.77
421.605	1311.39
421.982	1335.12
422.358	1341.45
422.735	1351.17
423.111	1391.84
423.488	1355.23
423.864	1392.75
424.241	1423.93
424.617	1432.97
424.994	1411.73
425.37	1471.16
425.746	1471.61
426.123	1491.27
426.499	1526.98
426.875	1515.45
427.251	1530.14
427.627	1569.69
428.003	1576.24
428.379	1606.75
428.756	1631.16
429.132	1658.28
429.507	1679.97
429.883	1695.34
430.259	1710.93
430.635	1736.92
431.011	1736.92
431.387	1806.29
431.763	1802.23
432.138	1821.89
432.514	1877.48
432.89	1863.47
433.265	1895.11
433.641	1932.84
434.016	1926.07
434.392	1963.8
434.767	2032.28
435.143	2007.19
435.518	2059.17
435.894	2047.19
436.269	2089.68
436.644	2133.97
437.02	2145.95
437.395	2150.24
437.77	2175.32
438.145	2209.67
438.52	2241.54
438.895	2268.88
439.271	2278.82
439.646	2328.54
440.021	2326.05
440.395	2357.92
440.77	2340.52
441.145	2389.78
441.52	2419.84
441.895	2375.77
442.27	2459.84
442.645	2424.36
443.019	2475.43
443.394	2453.06
443.769	2509.78
444.143	2525.6
444.518	2542.55
444.892	2548.42
445.267	2580.51
445.641	2627.74
446.016	2635.65
446.39	2649.44
446.764	2676.55
447.139	2653.96
447.513	2703.67
447.887	2712.49
448.262	2726.95
448.636	2758.81
449.01	2797.91
449.384	2821.63
449.758	2836.1
450.132	2875.42
450.506	2902.54
450.88	2901.63
451.254	2909.99
451.628	2924.68
452.002	2999.26
452.376	3040.39
452.75	3074.74
453.123	3092.14
453.497	3136.43
453.871	3134.62
454.244	3195.41
454.618	3275.63
454.992	3310.21
455.365	3280.61
455.739	3378.91
456.112	3403.99
456.486	3419.36
456.859	3471.56
457.232	3552.01
457.606	3549.07
457.979	3624.33
458.352	3682.86
458.725	3734.61
459.099	3691.67
459.472	3848.73
459.845	3845.34
460.218	3871.55
460.591	3937.76
460.964	3913.13
461.337	4052.11
461.71	4093.69
462.083	4167.81
462.456	4188.15
462.829	4217.76
463.201	4242.39
463.574	4293.01
463.947	4331.43
464.32	4420.46
464.692	4482.61
465.065	4513.79
465.438	4645.09
465.81	4615.49
466.183	4712.21
466.555	4806.44
466.928	4903.16
467.3	4886.21
467.672	4948.13
468.045	5101.35
468.417	5115.81
468.789	5081.91
469.161	5186.77
469.534	5274.68
469.906	5398.74
470.278	5436.03
470.65	5498.17
471.022	5568
471.394	5687.1
471.766	5763.48
472.138	5818.84
472.51	5969.12
472.882	6057.93
473.253	6161.89
473.625	6195.56
473.997	6309
474.369	6387.19
474.74	6526.4
475.112	6523.91
475.484	6676
475.855	6842.09
476.227	6931.13
476.598	7134.74
476.97	7182.65
477.341	7326.38
477.713	7412.02
478.084	7447.5
478.455	7662.86
478.827	7777.21
479.198	8013.59
479.569	8021.27
479.94	8325.67
480.311	8369.51
480.682	8527.25
481.053	8668.03
481.424	8886.11
481.795	8990.96
482.166	9052.66
482.537	9175.59
482.908	9364.74
483.279	9486.54
483.65	9680.21
484.021	9924.05
484.391	9937.38
484.762	10051.28
485.133	10197.03
485.503	10352.96
485.874	10585.72
486.244	10644.71
486.615	10904.81
486.985	11069.55
487.356	11308.87
487.726	11367.4
488.097	11556.09
488.467	11620.73
488.837	11845.8
489.207	11983.2
489.578	12185.91
489.948	12345.45
490.318	12510.87
490.688	12502.96
491.058	12764.88
491.428	12936.62
491.798	13127.13
492.168	13332.77
492.538	13428.59
492.908	13486.67
493.278	13794.45
493.648	13803.72
494.017	14083.94
494.387	14136.82
494.757	14205.74
495.126	14472.63
495.496	14451.39
495.866	14604.15
496.235	14721.66
496.605	14857.93
496.974	14995.1
497.344	15235.32
497.713	15231.93
498.082	15387.86
498.452	15541.98
498.821	15624.69
499.19	15668.75
499.559	15894.74
499.928	16011.34
500.298	16106.03
500.667	16242.98
501.036	16309.87
501.405	16407.04
501.774	16459.24
502.143	16687.26
502.512	16789.86
502.88	16934.94
503.249	17007.48
503.618	17098.32
503.987	17226.91
504.356	17373.57
504.724	17467.35
505.093	17581.92
505.462	17716.38
505.83	17858.3
506.199	18006.77
506.567	18256.03
506.936	18220.55
507.304	18471.17
507.672	18571.5
508.041	18733.31
508.409	18885.17
508.777	19025.73
509.145	19125.61
509.514	19267.3
509.882	19299.17
510.25	19430.46
510.618	19628.88
510.986	19710
511.354	19931.47
511.722	20164.23
512.09	20145.93
512.458	20255.3
512.826	20574.61
513.193	20552.92
513.561	20620.26
513.929	20847.38
514.297	21042.62
514.664	21217.08
515.032	21378.21
515.4	21539.11
515.767	21645.55
516.135	21827.46
516.502	21732.78
516.869	22219.09
517.237	22121.01
517.604	22222.93
517.972	22399.88
518.339	22614.79
518.706	22774.1
519.073	22940.43
519.44	22970.03
519.808	23293.64
520.175	23439.17
520.542	23552.16
520.909	23670.8
521.276	23831.48
521.643	24003.22
522.009	24358.92
522.376	24291.13
522.743	24507.17
523.11	24800.49
523.477	25034.16
523.843	25113.93
524.21	25436.63
524.577	25669.62
524.943	25791.88
525.31	25947.58
525.676	26144.19
526.043	26294.46
526.409	26381.47
526.776	26734.9
527.142	26825.98
527.508	26996.37
527.874	27060.77
528.241	27411.04
528.607	27388.22
528.973	27641.55
529.339	27538.27
529.705	27979.84
530.071	28119.27
530.437	28278.59
530.803	28496.44
531.169	28564.69
531.535	28679.03
531.901	28781.86
532.267	28876.32
532.632	29082.19
532.998	29222.3
533.364	29446.25
533.73	29525.11
534.095	29821.6
534.461	29845.11
534.826	30081.94
535.192	30226.56
535.557	30307.69
535.923	30363.96
536.288	30417.97
536.653	30597.63
537.019	30519.44
537.384	30719.88
537.749	31111.96
538.114	31048.24
538.479	31110.16
538.845	31302.24
539.21	31288.01
539.575	31417.95
539.94	31629.69
540.305	31843.92
540.67	31656.13
541.034	31884.6
541.399	32106.29
541.764	32254.99
542.129	32274.42
542.494	32344.7
542.858	32549.21
543.223	32533.85
543.587	32815.2
543.952	32790.11
544.316	32899.71
544.681	33015.87
545.045	33284.56
545.41	33313.49
545.774	33501.51
546.138	33554.39
546.503	33765.68
546.867	33741.95
547.231	33955.05
547.595	34060.59
547.959	34220.36
548.324	34325.89
548.688	34381.48
549.052	34608.37
549.416	34654.24
549.779	34717.75
550.143	35016.27
550.507	35159.99
550.871	35199.09
551.235	35283.61
551.599	35521.79
551.962	35682.69
552.326	35825.29
552.689	35983.7
553.053	35965.17
553.417	36129.91
553.78	36599.96
554.143	36443.8
554.507	36745.94
554.87	36814.87
555.234	37261.18
555.597	37043.33
555.96	37349.77
556.323	37426.6
556.686	37538.46
557.05	37894.84
557.413	38016.42
557.776	38107.94
558.139	38377.54
558.502	38468.61
558.865	38665.21
559.228	38912.66
559.59	39034.24
559.953	39123.51
560.316	39604.62
560.679	39471.07
561.041	39772.53
561.404	39970.49
561.767	40125.29
562.129	40090.71
562.492	40605.05
562.854	40459.29
563.217	40598.49
563.579	40663.8
563.941	41032.83
564.304	41116.67
564.666	41353.28
565.028	41498.13
565.39	41564.57
565.753	41797.33
566.115	42086.14
566.477	42101.28
566.839	42120.49
567.201	42466.24
567.563	42469.63
567.925	42694.03
568.287	42948.49
568.648	42981.26
569.01	43126.56
569.372	43455.82
569.734	43330.63
570.095	43580.34
570.457	43814.91
570.819	43866.88
571.18	43875.7
571.542	44173.32
571.903	44289.92
572.265	44343.03
572.626	44484.04
572.987	44463.7
573.349	44871.15
573.71	44832.51
574.071	44911.83
574.432	45064.37
574.794	45248.99
575.155	45350.69
575.516	45211.93
575.877	45398.14
576.238	45438.37
576.599	45680.17
576.96	45653.05
577.32	45716.55
577.681	45895.76
578.042	45955.42
578.403	45945.25
578.763	45975.53
579.124	46039.71
579.485	46186.37
579.845	46263.66
580.206	46180.95
580.566	46252.58
580.927	46288.74
581.287	46493.48
581.648	46394.27
582.008	46549.52
582.368	46455.06
582.728	46579.81
583.089	46474.27
583.449	46473.59
583.809	46577.77
584.169	46674.95
584.529	46501.39
584.889	46993.58
585.249	46750.65
585.609	46543.42
585.969	46716.53
586.329	46662.29
586.688	46810.76
587.048	46773.25
587.408	46592.91
587.768	46828.39
588.127	46698.67
588.487	46639.92
588.846	46877.2
589.206	46580.26
589.565	46629.97
589.925	46977.76
590.284	46712.01
590.643	46804.43
591.003	46788.16
591.362	46999
591.721	46916.07
592.08	46888.27
592.44	47001.04
592.799	46992.22
593.158	46784.55
593.517	46833.13
593.876	46912.23
594.235	46882.17
594.593	46975.28
594.952	47037.65
595.311	46972.56
595.67	47055.5
596.029	47263.4
596.387	47262.05
596.746	47190.19
597.104	47064.54
597.463	47032.45
597.822	47335.49
598.18	47076.06
598.538	46981.38
598.897	47443.06
599.255	47106.57
599.613	47517.86
599.972	47326.91
600.33	47421.82
600.688	47434.02
601.046	47487.81
601.404	47709.72
601.762	47446.9
602.12	47591.53
602.478	47696.61
602.836	47795.14
603.194	47580.23
603.552	47607.58
603.91	47492.78
604.268	47740.45
604.625	47650.29
604.983	47782.71
605.341	47698.65
605.698	47923.05
606.056	47989.03
606.413	47952.2
606.771	48161.46
607.128	48092.99
607.485	47984.74
607.843	47933.22
608.2	48068.58
608.557	48320.78
608.914	48173.21
609.272	48435.35
609.629	48396.71
609.986	48512.41
610.343	48296.15
610.7	48533.65
611.057	48521.22
611.414	48495.91
611.771	48496.37
612.127	48675.57
612.484	48612.75
612.841	48684.16
613.198	48640.32
613.554	48642.12
613.911	49024.49
614.267	48923.93
614.624	48795.79
614.98	48851.61
615.337	49038.72
615.693	49010.7
616.05	49045.96
616.406	49300.19
616.762	49065.39
617.118	49049.8
617.475	49056.8
617.831	49268.55
618.187	49287.76
618.543	49222.67
618.899	49444.36
619.255	49305.38
619.611	49376.57
619.967	49522.55
620.323	49532.05
620.678	49357.13
621.034	49347.42
621.39	49337.93
621.746	49299.51
622.101	49650.91
622.457	49326.63
622.812	49566.39
623.168	49634.42
623.523	49623.79
623.879	49644.81
624.234	49365.72
624.589	49552.61
624.945	49602.55
625.3	49410.92
625.655	49510.35
626.01	49512.61
626.365	49636.22
626.72	49588.77
627.075	49538.6
627.43	49506.74
627.785	49507.86
628.14	49569.11
628.495	49624.92
628.85	49464.7
629.205	49433.52
629.559	49643.23
629.914	49452.05
630.269	49468.54
630.623	49385.16
630.978	49224.71
631.332	49469.67
631.687	49433.97
632.041	49344.48
632.396	49396.91
632.75	49198.49
633.104	49176.12
633.459	49055.67
633.813	49110.59
634.167	49093.19
634.521	49025.84
634.875	49110.81
635.229	49088.67
635.583	48794.21
635.937	48942.23
636.291	48789.01
636.645	48835.11
636.999	48664.05
637.352	48797.15
637.706	48649.58
638.06	48893.87
638.413	48663.59
638.767	48548.79
639.121	48596.48
639.474	48378.86
639.828	48477.84
640.181	48496.37
640.534	48383.37
640.888	48368.69
641.241	48170.5
641.594	48338.86
641.947	48350.61
642.301	48263.6
642.654	48210.5
643.007	48189.48
643.36	48166.21
643.713	48085.98
644.066	48152.42
644.419	47919.43
644.771	47849.38
645.124	47345.66
645.477	47391.08
645.83	47027.25
646.182	47000.59
646.535	46844.88
646.888	46885.56
647.24	46642.4
647.593	46864.32
647.945	46746.58
648.298	46504.1
648.65	46441.96
649.002	46387.95
649.355	46557.21
649.707	46369.87
650.059	46600.37
650.411	46883.75
650.763	46933.7
651.115	47463.85
651.467	47275.38
651.819	47297.3
652.171	47215.04
652.523	46986.12
652.875	47000.81
653.227	46834.04
653.578	47193.35
653.93	47054.37
654.282	46841.49
654.633	46739.8
654.985	46846.92
655.337	46879.23
655.688	46832.46
656.039	46925.79
656.391	46636.75
656.742	46683.31
657.094	46775.96
657.445	46836.52
657.796	46683.98
658.147	46472.24
658.498	46520.6
658.849	46573.48
659.2	46530.54
659.551	46442.41
659.902	46608.28
660.253	46438.57
660.604	46351.34
660.955	46277.67
661.306	46422.07
661.656	46258.01
662.007	46321.28
662.358	46294.16
662.708	46336.87
663.059	46365.57
663.409	46127.61
663.76	46239.93
664.11	46194.73
664.461	46209.87
664.811	46183.43
665.161	46107.73
665.511	46163.09
665.862	46156.09
666.212	46303.43
666.562	46190.66
666.912	46103.21
667.262	46013.27
667.612	46140.72
667.962	46207.39
668.312	46074.06
668.662	46213.71
669.011	46023.44
669.361	45987.73
669.711	45812.82
670.06	45895.76
670.41	45803.78
670.76	45758.81
671.109	45885.59
671.459	45778.47
671.808	45748.87
672.157	45785.48
672.507	45501.19
672.856	45544.35
673.205	45743.22
673.554	45567.86
673.904	45428.88
674.253	45655.31
674.602	45466.39
674.951	44789.34
675.3	44683.36
675.649	45369.44
675.998	45179.62
676.346	45368.54
676.695	45387.3
677.044	45026.63
677.393	45083.57
677.741	45223.46
678.09	44991.37
678.438	44958.15
678.787	45072.95
679.135	45104.36
679.484	44743.24
679.832	44959.51
680.181	44593.87
680.529	44781.44
680.877	44618.73
681.225	44591.16
681.573	44837.03
681.922	44471.39
682.27	44336.7
682.618	44470.26
682.966	44178.97
683.314	44493.99
683.661	44308.23
684.009	44055.8
684.357	43888.8
684.705	43952.53
685.053	43937.16
685.4	43799.31
685.748	43704.18
686.095	43576.95
686.443	43484.07
686.79	43356.16
687.138	43593.22
687.485	43455.59
687.832	43275.03
688.18	43316.62
688.527	43042.95
688.874	43082.72
689.221	43016.28
689.568	42863.97
689.915	42812.45
690.262	42699.23
690.609	42610.87
690.956	42516.86
691.303	42446.13
691.65	42238.23
691.997	42146.25
692.344	42040.04
692.69	41980.61
693.037	41998.91
693.383	41663.78
693.73	41874.17
694.077	41515.53
694.423	41527.51
694.769	41348.53
695.116	41305.14
695.462	41197.8
695.808	41030.8
696.155	41201.64
696.501	40853.4
696.847	40881.43
697.193	40701.32
697.539	40742.45
697.885	40428.56
698.231	40400.76
698.577	40380.87
698.923	40154.44
699.269	40163.7
699.614	39882.36
699.96	39895.69
700.306	39811.85
700.651	39649.59
700.997	39488.92
701.342	39602.81
701.688	39431.07
702.033	39359.21
702.379	39284.4
702.724	39185.2
703.069	39134.13
703.415	38805.77
703.76	38779.11
704.105	38949.5
704.45	38778.43
704.795	38651.2
705.14	38477.87
705.485	38430.19
705.83	38280.14
706.175	38208.28
706.52	38198.11
706.865	38059.35
707.209	38018
707.554	37987.04
707.899	37951.33
708.243	37760.38
708.588	37663.2
708.932	37455.53
709.277	37358.35
709.621	37565.58
709.966	37218.24
710.31	37414.62
710.654	36891.25
710.998	37170.11
711.342	37184.8
711.687	36940.29
712.031	36793.85
712.375	36723.12
712.719	36622.55
713.063	36631.14
713.407	36736.22
713.75	36538.94
714.094	36521.77
714.438	36374.42
714.782	36450.13
715.125	36251.26
715.469	36256.69
715.812	36046.07
716.156	35829.81
716.499	35743.26
716.843	35917.04
717.186	35615.35
717.53	35897.83
717.873	35727.66
718.216	35697.61
718.559	35539.64
718.902	35319.09
719.246	35393.21
719.589	35234.12
719.932	35207.45
720.275	35228.47
720.617	35232.53
720.96	35188.69
721.303	35040.45
721.646	35096.49
721.989	34749.16
722.331	34930.4
722.674	34896.95
723.016	34841.36
723.359	34695.6
723.701	34892.88
724.044	34673.45
724.386	34411.99
724.729	34497.41
725.071	34466
725.413	34339.45
725.755	34358.43
726.097	34193.24
726.439	34019.91
726.782	34129.51
727.124	34268.49
727.465	33917.31
727.807	33995.73
728.149	33808.62
728.491	33843.42
728.833	33842.74
729.175	33725.68
729.516	33609.75
729.858	33674.38
730.199	33671.67
730.541	33511.9
730.882	33406.82
731.224	33507.38
731.565	33254.06
731.906	33193.49
732.248	33186.03
732.589	33185.13
732.93	33005.02
733.271	33075.98
733.612	33140.61
733.953	33085.7
734.294	32902.88
734.635	32833.28
734.976	32997.11
735.317	32746.27
735.658	32813.84
735.999	32705.82
736.339	32686.39
736.68	32668.76
737.021	32579.95
737.361	32462.21
737.702	32655.2
738.042	32434.19
738.383	32392.38
738.723	32498.37
739.063	32234.42
739.404	32342.21
739.744	32236
740.084	32101.09
740.424	32152.39
740.764	32062.67
741.104	32103.35
741.444	31922.11
741.784	31859.06
742.124	31905.62
742.464	31892.51
742.804	31706.07
743.143	31696.81
743.483	31608.45
743.823	31470.6
744.162	31534.55
744.502	31451.62
744.841	31361
745.181	31442.8
745.52	31360.77
745.86	31339.53
746.199	31383.14
746.538	31241.23
746.877	31219.08
747.216	31169.59
747.556	31130.95
747.895	31125.98
748.234	30991.06
748.573	31032.87
748.911	30991.52
749.25	30814.8
749.589	30673.33
749.928	30728.02
750.267	30737.06
750.605	30651.86
750.944	30537.29
751.283	30537.52
751.621	30550.17
751.96	30302.95
752.298	30317.64
752.636	30313.34
752.975	30195.83
753.313	30053.69
