Data from white_wall_FLMS001491_062.txt Node
Date: Tue Feb 07 11:05:23 GMT 2017
User: dcchb
Spectrometer: FLMS00149
Trigger mode: 0
Integration Time (sec): 2.000000E-2
Scans to average: 10
Electric dark correction enabled: true
Nonlinearity correction enabled: false
Boxcar width: 0
XAxis mode: Wavelengths
Number of Pixels in Spectrum: 2048
>>>>>Begin Spectral Data<<<<<
341.393	-14.48
341.776	-14.48
342.16	-14.48
342.543	-54.02
342.927	-75.94
343.31	-64.65
343.693	-73.23
344.077	-62.16
344.46	-61.71
344.843	-52.89
345.226	-38.43
345.61	-36.85
345.993	-21.26
346.376	8.12
346.759	-0.24
347.142	14.22
347.525	28.46
347.908	79.31
348.291	83.6
348.674	75.24
349.057	122.47
349.44	138.74
349.823	155.69
350.206	179.87
350.588	212.64
350.971	227.78
351.354	237.95
351.737	248.79
352.119	264.84
352.502	267.1
352.884	286.53
353.267	317.04
353.65	305.97
354.032	322.92
354.414	324.72
354.797	330.15
355.179	327.89
355.562	338.96
355.944	354.55
356.326	328.79
356.709	352.52
357.091	357.04
357.473	372.41
357.855	368.11
358.238	349.58
358.62	369.47
359.002	360.65
359.384	364.27
359.766	371.05
360.148	364.95
360.53	353.2
360.912	375.12
361.294	367.43
361.676	357.04
362.057	355.46
362.439	390.94
362.821	373.99
363.203	356.59
363.584	342.8
363.966	340.32
364.348	346.87
364.729	329.24
365.111	369.02
365.493	363.82
365.874	333.08
366.256	342.12
366.637	355.23
367.019	328.11
367.4	343.93
367.781	341.22
368.163	337.6
368.544	331.28
368.925	348.9
369.306	333.31
369.688	335.34
370.069	342.12
370.45	343.93
370.831	336.93
371.212	350.71
371.593	344.84
371.974	341.22
372.355	349.81
372.736	360.2
373.117	345.06
373.498	338.06
373.879	361.11
374.26	344.38
374.641	351.16
375.021	340.54
375.402	335.12
375.783	346.42
376.163	373.54
376.544	365.4
376.925	352.29
377.305	371.73
377.686	360.65
378.066	348.23
378.447	359.98
378.827	374.21
379.208	371.5
379.588	346.87
379.968	348.23
380.349	359.75
380.729	390.26
381.109	387.09
381.489	366.53
381.87	380.31
382.25	382.57
382.63	403.14
383.01	411.5
383.39	388.68
383.77	393.65
384.15	399.07
384.53	406.08
384.91	406.53
385.29	419.64
385.67	395.68
386.049	406.3
386.429	417.83
386.809	421.44
387.189	410.14
387.568	418.51
387.948	397.49
388.328	438.39
388.707	432.74
389.087	444.49
389.466	459.86
389.846	469.8
390.225	455.79
390.605	447.66
390.984	472.97
391.363	489.24
391.743	467.77
392.122	490.14
392.501	499.41
392.881	493.53
393.26	509.35
393.639	512.97
394.018	508.67
394.397	503.02
394.776	505.06
395.155	521.33
395.534	533.76
395.913	557.26
396.292	560.2
396.671	566.75
397.05	570.82
397.429	591.38
397.808	604.26
398.186	617.6
398.565	604.04
398.944	612.63
399.323	618.05
399.701	641.55
400.08	650.36
400.458	656.47
400.837	690.14
401.215	687.2
401.594	701.89
401.972	704.37
402.351	722.23
402.729	711.61
403.107	748.89
403.486	759.51
403.864	764.03
404.242	794.09
404.62	778.04
404.999	806.97
405.377	818.27
405.755	827.76
406.133	853.97
406.511	860.08
406.889	867.99
407.267	907.08
407.645	929.45
408.023	923.13
408.401	936.01
408.779	974.2
409.156	1002.45
409.534	1009.68
409.912	1040.41
410.29	1039.96
410.667	1076.12
411.045	1078.38
411.422	1056.23
411.8	1110.92
412.178	1120.63
412.555	1164.02
412.933	1189.79
413.31	1176.23
413.687	1206.28
414.065	1204.25
414.442	1228.2
414.819	1234.3
415.197	1247.64
415.574	1315.21
415.951	1294.42
416.328	1326.28
416.705	1332.61
417.082	1317.24
417.46	1364.92
417.837	1361.53
418.214	1376.67
418.591	1391.36
418.967	1437.01
419.344	1411.25
419.721	1459.61
420.098	1438.37
420.475	1482.43
420.852	1465.26
421.228	1513.62
421.605	1511.58
421.982	1554.3
422.358	1574.41
422.735	1577.57
423.111	1612.37
423.488	1645.37
423.864	1622.99
424.241	1653.5
424.617	1674.29
424.994	1721.07
425.37	1700.28
425.746	1708.42
426.123	1734.4
426.499	1731.47
426.875	1765.36
427.251	1835.19
427.627	1862.99
428.003	1874.96
428.379	1869.54
428.756	1908.64
429.132	1934.85
429.507	1968.75
429.883	1970.56
430.259	2016.43
430.635	2001.29
431.011	2021.4
431.387	2084.45
431.763	2123.09
432.138	2155.86
432.514	2183.21
432.89	2168.74
433.265	2228.4
433.641	2234.96
434.016	2312.69
434.392	2326.25
434.767	2393.37
435.143	2378.45
435.518	2417.32
435.894	2454.84
436.269	2450.09
436.644	2467.04
437.02	2557.88
437.395	2552.24
437.77	2572.57
438.145	2584.1
438.52	2610.99
438.895	2693.47
439.271	2672.91
439.646	2743.42
440.021	2778.22
440.395	2771.44
440.77	2766.92
441.145	2792.45
441.52	2875.84
441.895	2873.13
442.27	2887.59
442.645	2941.83
443.019	2967.59
443.394	2976.18
443.769	2969.85
444.143	2962.39
444.518	3031.32
444.892	3037.87
445.267	3081.26
445.641	3077.19
446.016	3111.77
446.39	3148.15
446.764	3183.4
447.139	3180.92
447.513	3217.98
447.887	3270.18
448.262	3197.19
448.636	3274.25
449.01	3327.13
449.384	3314.7
449.758	3367.81
450.132	3424.75
450.506	3466.56
450.88	3476.73
451.254	3480.35
451.628	3580.68
452.002	3611.42
452.376	3581.36
452.75	3638.53
453.123	3696.61
453.497	3749.72
453.871	3786.1
454.244	3818.64
454.618	3886.21
454.992	3928.7
455.365	3934.57
455.739	4073.1
456.112	4102.25
456.486	4154.23
456.859	4154.45
457.232	4235.13
457.606	4273.55
457.979	4305.18
458.352	4382.92
458.725	4429.93
459.099	4479.64
459.472	4547.44
459.845	4601.45
460.218	4672.63
460.591	4693.2
460.964	4673.99
461.337	4856.81
461.71	4929.57
462.083	4980.19
462.456	5026.52
462.829	5033.75
463.201	5096.8
463.574	5112.17
463.947	5200.3
464.32	5314.42
464.692	5406.17
465.065	5440.97
465.438	5498.82
465.81	5605.04
466.183	5677.58
466.555	5766.84
466.928	5848.19
467.3	5775.43
467.672	5945.82
468.045	6156.21
468.417	6096.77
468.789	6129.09
469.161	6213.16
469.534	6390.78
469.906	6518.01
470.278	6530.89
470.65	6636.65
471.022	6798
471.394	6804.55
471.766	6914.15
472.138	7055.17
472.51	7162.74
472.882	7282.96
473.253	7348.04
473.625	7559.34
473.997	7667.35
474.369	7700.12
474.74	7851.76
475.112	7996.39
475.484	8104.63
475.855	8217.4
476.227	8388.47
476.598	8599.76
476.97	8607.22
477.341	8800.43
477.713	8975.57
478.084	9081.78
478.455	9303.02
478.827	9407.42
479.198	9708.66
479.569	9709.56
479.94	10002.21
480.311	10093.96
480.682	10267.74
481.053	10574.85
481.424	10662.98
481.795	10839.93
482.166	11033.37
482.537	11161.5
482.908	11385.22
483.279	11445.33
483.65	11706.12
484.021	11989.5
484.391	12170.97
484.762	12246.44
485.133	12385.65
485.503	12539.77
485.874	12825.86
486.244	12985.18
486.615	13235.57
486.985	13435.11
487.356	13664.03
487.726	13765.5
488.097	14076.23
488.467	14128.43
488.837	14420.17
489.207	14544.01
489.578	14774.51
489.948	14878.46
490.318	15146.71
490.688	15280.71
491.058	15535.85
491.428	15711.66
491.798	15872.34
492.168	16243.4
492.538	16249.95
492.908	16459.21
493.278	16673.45
493.648	16731.98
494.017	16951.18
494.387	17172.42
494.757	17251.96
495.126	17469.13
495.496	17551.84
495.866	17740.08
496.235	17917.71
496.605	18080.41
496.974	18190.24
497.344	18350.46
497.713	18556.79
498.082	18605.82
498.452	18942.31
498.821	18943.89
499.19	19075.19
499.559	19164.91
499.928	19431.57
500.298	19584.56
500.667	19748.39
501.036	19805.57
501.405	19937.54
501.774	20001.72
502.143	20201.49
502.512	20305.67
502.88	20607.81
503.249	20581.37
503.618	20776.39
503.987	20946.55
504.356	21035.82
504.724	21276.71
505.093	21372.76
505.462	21544.73
505.83	21616.37
506.199	21805.06
506.567	22096.13
506.936	22061.78
507.304	22380.41
507.672	22537.7
508.041	22662.21
508.409	22823.57
508.777	23068.98
509.145	23264.91
509.514	23330.67
509.882	23524.34
510.25	23511.91
510.618	23767.95
510.986	23796.2
511.354	24247.94
511.722	24315.73
512.09	24603.18
512.458	24590.98
512.826	24732.67
513.193	24904.87
513.561	24978.54
513.929	25228.7
514.297	25572.65
514.664	25646.09
515.032	25867.33
515.4	26099.86
515.767	26197.94
516.135	26295.34
516.502	26238.39
516.869	26755.44
517.237	26922.22
517.604	26875.44
517.972	27187.52
518.339	27441.07
518.706	27476.33
519.073	27684.23
519.44	27891.68
519.808	28265.23
520.175	28270.43
520.542	28577.54
520.909	28684.88
521.276	28734.15
521.643	29150.41
522.009	29285.09
522.376	29587
522.743	29792.87
523.11	29996.26
523.477	30202.58
523.843	30408.9
524.21	30779.97
524.577	30961.43
524.943	31232.16
525.31	31328.65
525.676	31678.25
526.043	31803.22
526.409	31924.8
526.776	32274.84
527.142	32593.71
527.508	32556.64
527.874	32888.61
528.241	32961.15
528.607	33221.26
528.973	33512.78
529.339	33645.88
529.705	33813.33
530.071	34238.86
530.437	34332.42
530.803	34549.13
531.169	34582.58
531.535	34787.09
531.901	34783.48
532.267	35004.94
532.632	35225.05
532.998	35483.35
533.364	35691.48
533.73	35639.5
534.095	35910.91
534.461	36089.21
534.826	36233.38
535.192	36402.87
535.557	36832.24
535.923	36706.14
536.288	36834.95
536.653	37052.12
537.019	37122.85
537.384	37296.41
537.749	37505.21
538.114	37635.15
538.479	37628.6
538.845	37922.83
539.21	37733.68
539.575	38146.55
539.94	38164.86
540.305	38430.16
540.67	38372.08
541.034	38601.91
541.399	38851.17
541.764	38885.97
542.129	38956.02
542.494	39210.48
542.858	39405.73
543.223	39414.99
543.587	39742.9
543.952	39498.83
544.316	39812.05
544.681	39861.08
545.045	40046.62
545.41	40288.42
545.774	40510.11
546.138	40459.04
546.503	40714.62
546.867	40643.66
547.231	41043.2
547.595	41110.54
547.959	41439.35
548.324	41357.77
548.688	41418.33
549.052	41694.03
549.416	41798.21
549.779	41868.94
550.143	42035.49
550.507	42305.99
550.871	42624.63
551.235	42502.82
551.599	42849.71
551.962	42904.85
552.326	43031.17
552.689	43327.21
553.053	43259.19
553.417	43422.8
553.78	44055.1
554.143	43873.63
554.507	44140.52
554.87	44393.39
555.234	44778.47
555.597	44611.47
555.96	44834.97
556.323	45033.6
556.686	44948.63
557.05	45298.23
557.413	45568.51
557.776	45562.86
558.139	45927.37
558.502	46041.26
558.865	46094.37
559.228	46424.75
559.59	46598.31
559.953	46669.72
560.316	47149.25
560.679	47108.35
561.041	47326.88
561.404	47543.59
561.767	47807.99
562.129	47648
562.492	48143.13
562.854	48130.7
563.217	48101.55
563.579	48359.17
563.941	48605.49
564.304	48752.15
564.666	49014.06
565.028	49122.99
565.39	49167.05
565.753	49519.81
566.115	49499.02
566.477	49671.22
566.839	49704.22
567.201	49957.54
567.563	49982.85
567.925	50338.78
568.287	50328.38
568.648	50316.4
569.01	50631.65
569.372	50786
569.734	50661.93
570.095	51012.88
570.457	51096.5
570.819	51154.12
571.18	51157.51
571.542	51379.2
571.903	51495.13
572.265	51548.91
572.626	51654.9
572.987	51741.68
573.349	51893.99
573.71	51969.01
574.071	51986.19
574.432	52150.93
574.794	52314.77
575.155	52237.26
575.516	52239.97
575.877	52431.83
576.238	52517.02
576.599	52649.67
576.96	52605.83
577.32	52601.99
577.681	52733.06
578.042	52831.14
578.403	52834.53
578.763	52875.66
579.124	52940.74
579.485	53012.83
579.845	53122.2
580.206	53012.6
580.566	53026.61
580.927	53050.34
581.287	53235.65
581.648	53076.78
582.008	53262.99
582.368	53151.58
582.728	53267.51
583.089	53248.76
583.449	53194.29
583.809	53357.45
584.169	53420.73
584.529	53314.74
584.889	53488.07
585.249	53312.71
585.609	53267.29
585.969	53483.78
586.329	53359.49
586.688	53491.46
587.048	53353.16
587.408	53339.15
587.768	53462.99
588.127	53427.51
588.487	53357.23
588.846	53544.11
589.206	53404.23
589.565	53352.48
589.925	53529.88
590.284	53415.76
590.643	53450.56
591.003	53492.82
591.362	53635.64
591.721	53577.56
592.08	53471.12
592.44	53692.13
592.799	53599.25
593.158	53578.46
593.517	53640.38
593.876	53590.89
594.235	53455.76
594.593	53637.22
594.952	53679.25
595.311	53562.19
595.67	53695.98
596.029	53863.43
596.387	53837.44
596.746	53853.03
597.104	53741.85
597.463	53711.57
597.822	53758.12
598.18	53678.12
598.538	53691
598.897	53890.77
599.255	53648.29
599.613	54024.1
599.972	53824.79
600.33	53924.22
600.688	53747.5
601.046	53979.13
601.404	54104.33
601.762	54007.61
602.12	54195.62
602.478	54079.24
602.836	54121.5
603.194	54020.26
603.552	54129.86
603.91	54007.15
604.268	54138
604.625	54062.29
604.983	54203.08
605.341	54033.82
605.698	54160.14
606.056	54319.24
606.413	54289.63
606.771	54390.87
607.128	54418.22
607.485	54202.63
607.843	54288.05
608.2	54525.56
608.557	54615.72
608.914	54474.94
609.272	54596.06
609.629	54671.99
609.986	54702.95
610.343	54615.05
610.7	54883.29
611.057	54725.1
611.414	54700.69
611.771	54785.66
612.127	54766.46
612.484	54803.52
612.841	54830.18
613.198	54776.85
613.554	54888.49
613.911	54986.79
614.267	54977.75
614.624	54940.01
614.98	55026.11
615.337	55155.15
615.693	55090.51
616.05	55043.96
616.406	55283.73
616.762	55057.97
617.118	55168.48
617.475	55110.85
617.831	55245.99
618.187	55214.58
618.543	55298.42
618.899	55429.26
619.255	55357.17
619.611	55344.75
619.967	55407.34
620.323	55476.04
620.678	55313.33
621.034	55377.29
621.39	55375.48
621.746	55359.89
622.101	55700.22
622.457	55421.13
622.812	55513.78
623.168	55548.81
623.523	55593.33
623.879	55604.85
624.234	55362.15
624.589	55517.85
624.945	55518.98
625.3	55516.72
625.655	55488.47
626.01	55538.64
626.365	55471.75
626.72	55448.47
627.075	55472.88
627.43	55504.52
627.785	55421.81
628.14	55425.2
628.495	55507.23
628.85	55449.83
629.205	55325.99
629.559	55500.67
629.914	55401.47
630.269	55293.22
630.623	55361.24
630.978	55307.23
631.332	55445.99
631.687	55396.04
632.041	55359.21
632.396	55275.14
632.75	55235.37
633.104	55289.15
633.459	55149.04
633.813	55139.78
634.167	55124.41
634.521	55077.86
634.875	55076.5
635.229	55105.88
635.583	54928.94
635.937	54975.72
636.291	55009.39
636.645	54995.83
636.999	54884.42
637.352	54956.73
637.706	54807.81
638.06	54924.64
638.413	54864.08
638.767	54830.63
639.121	54764.42
639.474	54714.25
639.828	54715.16
640.181	54730.07
640.534	54743.41
640.888	54637.42
641.241	54425
641.594	54548.61
641.947	54581.15
642.301	54460.93
642.654	54436.29
643.007	54464.32
643.36	54389.97
643.713	54344.55
644.066	54587.48
644.419	54202.63
644.771	54083.31
645.124	53887.38
645.477	53742.53
645.83	53538.69
646.182	53414.4
646.535	53319.26
646.888	53409.65
647.24	53132.15
647.593	53465.7
647.945	53338.02
648.298	53087.4
648.65	53092.6
649.002	53072.71
649.355	53140.06
649.707	53119.49
650.059	53297.12
650.411	53617.56
650.763	53634.73
651.115	53876.76
651.467	53810.77
651.819	53801.51
652.171	53661.85
652.523	53662.08
652.875	53703.66
653.227	53437
653.578	53692.81
653.93	53517.67
654.282	53438.58
654.633	53401.97
654.985	53543.44
655.337	53520.16
655.688	53579.59
656.039	53526.04
656.391	53344.57
656.742	53310.9
657.094	53387.06
657.445	53371.24
657.796	53390.67
658.147	53262.77
658.498	53271.58
658.849	53246.95
659.2	53249.21
659.551	53120.62
659.902	53352.71
660.253	53144.13
660.604	53214.86
660.955	53085.6
661.306	53118.36
661.656	53010.12
662.007	53053.96
662.358	52859.16
662.708	52883.34
663.059	52903.45
663.409	52845.38
663.76	53051.25
664.11	52979.84
664.461	52918.82
664.811	52947.29
665.161	52979.16
665.511	52816.68
665.862	52896
666.212	52924.24
666.562	52959.27
666.912	52851.7
667.262	52820.07
667.612	52864.81
667.962	52776
668.312	52839.27
668.662	52908.65
669.011	52824.13
669.361	52676.79
669.711	52704.81
670.06	52637.25
670.41	52578.49
670.76	52536.68
671.109	52694.19
671.459	52564.03
671.808	52537.59
672.157	52603.8
672.507	52367.65
672.856	52447.42
673.205	52619.85
673.554	52547.3
673.904	52347.54
674.253	52525.61
674.602	52429.57
674.951	51931.28
675.3	51698.74
675.649	52272.06
675.998	52232.28
676.346	52194.55
676.695	52353.41
677.044	52187.09
677.393	52190.93
677.741	52192.96
678.09	52089.92
678.438	52105.96
678.787	52016.02
679.135	51995.68
679.484	51861.9
679.832	51982.12
680.181	51830.94
680.529	51857.15
680.877	51887.89
681.225	51797.49
681.573	52091.05
681.922	51633.88
682.27	51504.17
682.618	51661.68
682.966	51455.36
683.314	51518.63
683.661	51469.14
684.009	51218.3
684.357	51133.33
684.705	51153.22
685.053	51110.28
685.4	51003.16
685.748	50931.3
686.095	50872.09
686.443	50930.17
686.79	50755.71
687.138	50661.48
687.485	50703.06
687.832	50586.68
688.18	50523.4
688.527	50371.09
688.874	50424.65
689.221	50284.77
689.568	50119.12
689.915	50103.3
690.262	50066.24
690.609	49958.22
690.956	49872.8
691.303	49773.37
691.65	49623.09
691.997	49705.8
692.344	49348.97
692.69	49409.53
693.037	49338.12
693.383	48995.53
693.73	49200.27
694.077	48798.7
694.423	48867.85
694.769	48846.84
695.116	48786.95
695.462	48699.5
695.808	48477.36
696.155	48672.6
696.501	48319.62
696.847	48372.73
697.193	48069.23
697.539	48341.09
697.885	47969.8
698.231	47746.3
698.577	47754.44
698.923	47656.36
699.269	47488.45
699.614	47367.78
699.96	47407.78
700.306	47300.89
700.651	47064.96
700.997	46927.79
701.342	47022.7
701.688	46801.92
702.033	46791.52
702.379	46667.46
702.724	46585.65
703.069	46682.15
703.415	46145.67
703.76	46260.24
704.105	46238.32
704.45	46019.11
704.795	45836.29
705.14	45788.16
705.485	45883.53
705.83	45647.15
706.175	45660.03
706.52	45597.43
706.865	45329.87
707.209	45349.3
707.554	45195.86
707.899	45220.27
708.243	45075.64
708.588	45012.36
708.932	44820.95
709.277	44844.68
709.621	44749.09
709.966	44631.35
710.31	44622.09
710.654	44197.47
710.998	44476.1
711.342	44357.46
711.687	44205.6
712.031	44041.99
712.375	43881.54
712.719	44089
713.063	43928.1
713.407	44014.65
713.75	43608.78
714.094	43691.27
714.438	43488.79
714.782	43579.4
715.125	43305.51
715.469	43392.74
715.812	43140.55
716.156	42957.73
716.499	43018.52
716.843	42961.34
717.186	42701.69
717.53	42907.33
717.873	42737.39
718.216	42786.66
718.559	42569.71
718.902	42431.41
719.246	42416.27
719.589	42235.26
719.932	42156.39
720.275	42168.59
720.617	42008.15
720.96	41923.86
721.303	41857.42
721.646	41908.71
721.989	41582.17
722.331	41910.97
722.674	41753.01
723.016	41750.3
723.359	41445.9
723.701	41682.51
724.044	41250.65
724.386	41227.38
724.729	41398.22
725.071	41296.75
725.413	41155.06
725.755	41143.99
726.097	40929.76
726.439	40843.43
726.782	40856.31
727.124	40955.07
727.465	40681.4
727.807	40699.71
728.149	40494.29
728.491	40597.34
728.833	40650.22
729.175	40460.16
729.516	40430.79
729.858	40308.08
730.199	40236.67
730.541	40197.12
730.882	40229.21
731.224	40258.14
731.565	39946.05
731.906	39905.38
732.248	39888.88
732.589	39664.25
732.93	39623.12
733.271	39724.59
733.612	39526.86
733.953	39686.17
734.294	39471.49
734.635	39343.36
734.976	39438.95
735.317	39254.09
735.658	39368.44
735.999	39271.5
736.339	39291.61
736.68	39264.49
737.021	39042.12
737.361	38844.39
737.702	39166.41
738.042	38969.58
738.383	38933.65
738.723	38971.16
739.063	38793.09
739.404	38789.47
739.744	38724.17
740.084	38420.67
740.424	38568.92
740.764	38433.78
741.104	38591.29
741.444	38302.26
741.784	38279.43
742.124	38424.51
742.464	38211.64
742.804	38175.48
743.143	38069.04
743.483	38245.76
743.823	37867.69
744.162	37945.43
744.502	37801.93
744.841	37788.82
745.181	37851.87
745.52	37726
745.86	37839.44
746.199	37587.02
746.538	37528.04
746.877	37689.62
747.216	37502.28
747.556	37455.5
747.895	37477.19
748.234	37164.21
748.573	37170.53
748.911	37033.81
749.25	37072.01
749.589	36899.58
749.928	36897.09
750.267	37031.55
750.605	36821.16
750.944	36735.29
751.283	36689.87
751.621	36827.04
751.96	36556.99
752.298	36421.63
752.636	36530.32
752.975	36285.36
