Data from white_wall_FLMS001491_089.txt Node
Date: Tue Feb 07 11:06:03 GMT 2017
User: dcchb
Spectrometer: FLMS00149
Trigger mode: 0
Integration Time (sec): 2.000000E-2
Scans to average: 10
Electric dark correction enabled: true
Nonlinearity correction enabled: false
Boxcar width: 0
XAxis mode: Wavelengths
Number of Pixels in Spectrum: 2048
>>>>>Begin Spectral Data<<<<<
341.393	-23.93
341.776	-23.93
342.16	-23.93
342.543	-53.53
342.927	-49.91
343.31	-77.94
343.693	-71.61
344.077	-73.87
344.46	-42.91
344.843	-55.34
345.226	-55.79
345.61	-36.58
345.993	-16.02
346.376	-1.78
346.759	14.94
347.142	40.48
347.525	42.29
347.908	54.94
348.291	72.79
348.674	92
349.057	114.38
349.44	125
349.823	136.07
350.206	173.58
350.588	221.04
350.971	240.7
351.354	244.32
351.737	267.59
352.119	283.41
352.502	287.93
352.884	303.52
353.267	307.36
353.65	319.57
354.032	332.22
354.414	313.69
354.797	328.38
355.179	331.32
355.562	345.33
355.944	369.96
356.326	354.6
356.709	370.87
357.091	385.1
357.473	362.28
357.855	346.46
358.238	377.65
358.62	353.92
359.002	378.55
359.384	374.03
359.766	362.73
360.148	359.34
360.53	371.77
360.912	349.17
361.294	360.02
361.676	369.74
362.057	361.15
362.439	343.75
362.821	361.15
363.203	366.35
363.584	363.86
363.966	350.3
364.348	371.54
364.729	365.44
365.111	348.72
365.493	351.88
365.874	357.53
366.256	335.39
366.637	325.22
367.019	355.05
367.4	349.4
367.781	358.89
368.163	341.94
368.544	344.2
368.925	330.87
369.306	348.49
369.688	347.36
370.069	345.1
370.45	362.73
370.831	359.34
371.212	348.49
371.593	331.54
371.974	350.53
372.355	341.26
372.736	348.72
373.117	372.22
373.498	361.37
373.879	342.84
374.26	346.91
374.641	369.51
375.021	345.78
375.402	338.32
375.783	370.64
376.163	386.23
376.544	369.74
376.925	364.54
377.305	364.31
377.686	360.92
378.066	374.71
378.447	370.87
378.827	368.61
379.208	375.84
379.588	380.36
379.968	385.55
380.349	379
380.729	379.23
381.109	384.65
381.489	372.45
381.87	389.4
382.25	403.18
382.63	385.1
383.01	386.01
383.39	429.17
383.77	417.19
384.15	421.49
384.53	432.33
384.91	439.11
385.29	428.27
385.67	414.25
386.049	403.86
386.429	410.19
386.809	435.95
387.189	426.68
387.568	444.08
387.948	441.15
388.328	444.54
388.707	441.6
389.087	434.59
389.466	475.04
389.846	466.68
390.225	457.64
390.605	479.11
390.984	482.28
391.363	489.28
391.743	501.03
392.122	500.35
392.501	526.79
392.881	530.64
393.26	524.99
393.639	517.98
394.018	555.04
394.397	536.06
394.776	540.58
395.155	569.96
395.534	556.17
395.913	563.63
396.292	603.63
396.671	590.97
397.05	590.07
397.429	597.3
397.808	609.96
398.186	614.48
398.565	623.74
398.944	615.61
399.323	637.98
399.701	663.06
400.08	679.11
400.458	700.57
400.837	713.68
401.215	701.25
401.594	712.1
401.972	727.47
402.351	741.7
402.729	726.11
403.107	770.63
403.486	809.95
403.864	797.07
404.242	807.69
404.62	805.2
404.999	823.96
405.377	846.33
405.755	895.37
406.133	887.24
406.511	902.15
406.889	922.72
407.267	936.73
407.645	956.84
408.023	981.7
408.401	981.02
408.779	1020.34
409.156	1030.51
409.534	1055.82
409.912	1070.96
410.29	1101.69
410.667	1093.56
411.045	1131.75
411.422	1145.08
411.8	1174.69
412.178	1164.29
412.555	1208.13
412.933	1208.81
413.31	1234.57
413.687	1254.91
414.065	1286.55
414.442	1281.8
414.819	1339.43
415.197	1305.53
415.574	1342.14
415.951	1367.22
416.328	1383.72
416.705	1388.92
417.082	1434.34
417.46	1433.66
417.837	1447.9
418.214	1446.32
418.591	1488.12
418.967	1493.1
419.344	1510.72
419.721	1508.69
420.098	1518.41
420.475	1562.93
420.852	1592.08
421.228	1581.23
421.605	1586.65
421.982	1654.9
422.358	1621.68
422.735	1661.68
423.111	1678.18
423.488	1712.53
423.864	1717.72
424.241	1726.76
424.617	1751.85
424.994	1766.99
425.37	1758.85
425.746	1801.79
426.123	1838.4
426.499	1835.23
426.875	1863.71
427.251	1879.75
427.627	1951.84
428.003	1953.2
428.379	1981.9
428.756	2036.81
429.132	2042.69
429.507	2085.4
429.883	2091.05
430.259	2115.68
430.635	2149.8
431.011	2154.55
431.387	2221.66
431.763	2266.18
432.138	2248.1
432.514	2296.24
432.89	2330.81
433.265	2366.07
433.641	2393.19
434.016	2406.97
434.392	2456.46
434.767	2525.16
435.143	2508.89
435.518	2534.42
435.894	2583.92
436.269	2618.72
436.644	2639.96
437.02	2688.32
437.395	2666.17
437.77	2743.91
438.145	2734.42
438.52	2785.72
438.895	2847.19
439.271	2848.09
439.646	2891.03
440.021	2900.97
440.395	2909.33
440.77	2934.64
441.145	2976.22
441.52	3027.75
441.895	3014.86
442.27	3025.71
442.645	3072.94
443.019	3147.97
443.394	3154.07
443.769	3175.31
444.143	3155.65
444.518	3205.82
444.892	3184.8
445.267	3265.03
445.641	3272.26
446.016	3283.56
446.39	3313.39
446.764	3342.09
447.139	3341.18
447.513	3392.26
447.887	3412.37
448.262	3434.51
448.636	3426.6
449.01	3515.19
449.384	3544.57
449.758	3566.04
450.132	3615.53
450.506	3622.76
450.88	3669.99
451.254	3714.51
451.628	3761.29
452.002	3747.95
452.376	3829.08
452.75	3838.35
453.123	3880.6
453.497	3968.74
453.871	3966.03
454.244	4050.77
454.618	4066.81
454.992	4127.15
455.365	4174.61
455.739	4276.75
456.112	4319.69
456.486	4349.97
456.859	4373.25
457.232	4499.57
457.606	4434.49
457.979	4556.97
458.352	4661.6
458.725	4690.07
459.099	4761.48
459.472	4841.93
459.845	4905.89
460.218	4902.27
460.591	4983.17
460.964	5029.27
461.337	5133.68
461.71	5204.41
462.083	5277.4
462.456	5333
462.829	5304.75
463.201	5435.14
463.574	5486.89
463.947	5537.74
464.32	5697.96
464.692	5734.11
465.065	5737.96
465.438	5824.51
465.81	5921.68
466.183	6006.42
466.555	6118.06
466.928	6192.18
467.3	6202.13
467.672	6280.99
468.045	6439.86
468.417	6466.52
468.789	6554.66
469.161	6676.91
469.534	6752.85
469.906	6886.85
470.278	7023.57
470.65	7023.12
471.022	7184.02
471.394	7279.84
471.766	7410.23
472.138	7478.93
472.51	7655.65
472.882	7799.6
473.253	7925.7
473.625	7996.65
473.997	8172.92
474.369	8252.01
474.74	8320.04
475.112	8477.32
475.484	8634.83
475.855	8858.33
476.227	8906.46
476.598	9141.48
476.97	9192.33
477.341	9435.03
477.713	9534.01
478.084	9645.42
478.455	9915.7
478.827	10034.11
479.198	10309.59
479.569	10337.38
479.94	10616.92
480.311	10670.71
480.682	11028.66
481.053	11235.21
481.424	11415.55
481.795	11531.25
482.166	11746.61
482.537	11852.82
482.908	12190.67
483.279	12259.37
483.65	12497.33
484.021	12789.3
484.391	12897.09
484.762	13008.05
485.133	13170.3
485.503	13407.36
485.874	13693.91
486.244	13788.37
486.615	14130.5
486.985	14309.48
487.356	14470.83
487.726	14588.57
488.097	14933.65
488.467	15063.59
488.837	15374.31
489.207	15521.43
489.578	15857.69
489.948	16006.39
490.318	16186.95
490.688	16212.26
491.058	16502.19
491.428	16788.51
491.798	16949.19
492.168	17218.33
492.538	17305.79
492.908	17548.49
493.278	17816.06
493.648	17797.98
494.017	18042.72
494.387	18194.58
494.757	18405.87
495.126	18607.45
495.496	18720.89
495.866	18843.15
496.235	19101.9
496.605	19303.7
496.974	19360.65
497.344	19604.26
497.713	19803.8
498.082	19879.05
498.452	20084.7
498.821	20161.53
499.19	20188.88
499.559	20585.25
499.928	20700.27
500.298	20920.38
500.667	21148.62
501.036	21027.72
501.405	21418
501.774	21340.03
502.143	21544.09
502.512	21753.35
502.88	21957.42
503.249	22009.17
503.618	22206.22
503.987	22464.3
504.356	22507.91
504.724	22687.12
505.093	22611.86
505.462	22886.88
505.83	23083.04
506.199	23217.5
506.567	23536.13
506.936	23559.41
507.304	23850.02
507.672	23958.49
508.041	24156.68
508.409	24260.86
508.777	24468.76
509.145	24781.07
509.514	24778.59
509.882	25150.78
510.25	25125.92
510.618	25313.26
510.986	25516.19
511.354	25814.94
511.722	25883.19
512.09	26182.16
512.458	26254.03
512.826	26414.7
513.193	26690.17
513.561	26762.49
513.929	27025.76
514.297	27178.97
514.664	27332.42
515.032	27640.43
515.4	27797.94
515.767	27959.75
516.135	28105.73
516.502	27892.63
516.869	28453.52
517.237	28729.89
517.604	28620.07
517.972	28966.05
518.339	29111.58
518.706	29272.03
519.073	29503.21
519.44	29783.43
519.808	30023.19
520.175	30155.85
520.542	30560.81
520.909	30676.28
521.276	30571.88
521.643	31036.5
522.009	31271.52
522.376	31424.96
522.743	31577.5
523.11	31951.73
523.477	32215.45
523.843	32411.38
524.21	32758.71
524.577	33024.92
524.943	33139.27
525.31	33318.93
525.676	33710.55
526.043	33812.02
526.409	34096.98
526.776	34375.4
527.142	34425.56
527.508	34762.28
527.874	34883.63
528.241	35138.99
528.607	35257.86
528.973	35649.71
529.339	35675.25
529.705	35995.24
530.071	36148.68
530.437	36538.95
530.803	36655.34
531.169	36952.73
531.535	36762.9
531.901	37121.31
532.267	37243.12
532.632	37609.89
532.998	37647.17
533.364	37903.44
533.73	37978.69
534.095	38334.61
534.461	38230.66
534.826	38456.87
535.192	38765.34
535.557	38969.85
535.923	38989.51
536.288	39126.91
536.653	39360.58
537.019	39376.62
537.384	39527.8
537.749	39806.21
538.114	39986.32
538.479	39986.77
538.845	40119.88
539.21	40121.46
539.575	40456.59
539.94	40539.08
540.305	40869.24
540.67	40910.14
541.034	41111.49
541.399	41171.38
541.764	41285.27
542.129	41494.98
542.494	41648.2
542.858	41843
543.223	41910.34
543.587	42190.33
543.952	42051.13
544.316	42182.87
544.681	42312.36
545.045	42649.98
545.41	42770.88
545.774	42988.28
546.138	43014.94
546.503	43186.46
546.867	43287.03
547.231	43574.93
547.595	43817.41
547.959	43793.45
548.324	43990.06
548.688	44096.72
549.052	44122.48
549.416	44340.78
549.779	44437.73
550.143	44713.2
550.507	44821.45
550.871	45101.67
551.235	45181.67
551.599	45352.73
551.962	45453.07
552.326	45548.66
552.689	45902.55
553.053	45784.14
553.417	45994.75
553.78	46503.89
554.143	46380.5
554.507	46598.35
554.87	46799.25
555.234	47153.14
555.597	47008.51
555.96	47297.99
556.323	47436.3
556.686	47524.2
557.05	47781.37
557.413	47980.69
557.776	48046.9
558.139	48379.32
558.502	48494.8
558.865	48670.84
559.228	48877.61
559.59	48850.5
559.953	49077.38
560.316	49410.71
560.679	49607.54
561.041	49684.37
561.404	49772.73
561.767	50159.84
562.129	50058.6
562.492	50449.55
562.854	50418.36
563.217	50493.39
563.579	50543.11
563.941	50886.15
564.304	51062.41
564.666	51211.34
565.028	51354.84
565.39	51338.11
565.753	51626.47
566.115	51654.26
566.477	51753.02
566.839	51878.66
567.201	52176.06
567.563	52170.41
567.925	52416.5
568.287	52448.59
568.648	52515.71
569.01	52691.07
569.372	52959.54
569.734	52762.03
570.095	53032.76
570.457	53192.08
570.819	53280.44
571.18	53157.05
571.542	53425.06
571.903	53457.15
572.265	53564.27
572.626	53619.64
572.987	53740.54
573.349	53854.43
573.71	53916.12
574.071	53994.77
574.432	54007.2
574.794	54237.25
575.155	54215.33
575.516	54229.34
575.877	54415.32
576.238	54351.14
576.599	54476.79
576.96	54497.8
577.32	54528.09
577.681	54594.75
578.042	54629.1
578.403	54654.18
578.763	54705.48
579.124	54767.4
579.485	54883.33
579.845	54972.59
580.206	54849.66
580.566	54902.31
580.927	54893.5
581.287	55072.03
581.648	54873.61
582.008	55032.93
582.368	54954.06
582.728	55024.34
583.089	55044.91
583.449	55105.7
583.809	55075.19
584.169	55185.24
584.529	55024.8
584.889	55288.29
585.249	55196.09
585.609	55084.23
585.969	55223.66
586.329	55199.93
586.688	55266.82
587.048	55217.56
587.408	55113.61
587.768	55245.13
588.127	55150.22
588.487	55145.24
588.846	55324.22
589.206	55234.28
589.565	55204.23
589.925	55321.29
590.284	55222.53
590.643	55320.83
591.003	55387.27
591.362	55459.59
591.721	55293.26
592.08	55354.28
592.44	55387.05
592.799	55452.36
593.158	55422.75
593.517	55481.73
593.876	55467.04
594.235	55471.34
594.593	55402.87
594.952	55545.46
595.311	55428.18
595.67	55442.64
596.029	55607.15
596.387	55547.49
596.746	55637.89
597.104	55494.61
597.463	55511.11
597.822	55618.23
598.18	55498.23
598.538	55532.58
598.897	55789.3
599.255	55516.53
599.613	55896.41
599.972	55716.08
600.33	55745.68
600.688	55723.31
601.046	55735.74
601.404	55899.35
601.762	55747.49
602.12	55903.87
602.478	55904.32
602.836	55960.36
603.194	55757.88
603.552	55894.15
603.91	55850.54
604.268	55883.76
604.625	55846.7
604.983	56003.98
605.341	55907.03
605.698	55993.81
606.056	56055.96
606.413	56038.1
606.771	56197.65
607.128	56178.21
607.485	56066.35
607.843	56107.93
608.2	56237.65
608.557	56347.02
608.914	56322.39
609.272	56325.33
609.629	56413.23
609.986	56508.37
610.343	56422.5
610.7	56600.12
611.057	56522.84
611.414	56436.28
611.771	56554.93
612.127	56608.48
612.484	56548.15
612.841	56634.7
613.198	56624.75
613.554	56640.57
613.911	56765.54
614.267	56783.62
614.624	56749.27
614.98	56804.18
615.337	56842.6
615.693	56846.67
616.05	56803.28
616.406	56946.78
616.762	56796.95
617.118	56825.65
617.475	56879.21
617.831	56888.7
618.187	56998.76
618.543	56984.52
618.899	57103.61
619.255	57047.34
619.611	57094.57
619.967	57171.63
620.323	57243.95
620.678	57152.2
621.034	57038.08
621.39	57033.78
621.746	57063.61
622.101	57326.2
622.457	57163.04
622.812	57157.62
623.168	57265.64
623.523	57219.54
623.879	57313.78
624.234	57118.3
624.589	57274
624.945	57203.72
625.3	57294.57
625.655	57248.24
626.01	57252.31
626.365	57288.01
626.72	57185.19
627.075	57221.35
627.43	57243.49
627.785	57135.48
628.14	57170.05
628.495	57286.88
628.85	57227.22
629.205	57118.07
629.559	57282.59
629.914	57122.82
630.269	57107.23
630.623	57091.86
630.978	57064.29
631.332	57137.06
631.687	57124.18
632.041	57041.69
632.396	57089.83
632.75	56967.34
633.104	56990.17
633.459	56785.43
633.813	56877.85
634.167	56910.4
634.521	56888.25
634.875	56809.16
635.229	56922.15
635.583	56723.96
635.937	56708.82
636.291	56718.08
636.645	56696.84
636.999	56678.76
637.352	56709.27
637.706	56559.9
638.06	56749.27
638.413	56641.7
638.767	56567.35
639.121	56606.9
639.474	56457.98
639.828	56444.65
640.181	56491.42
640.534	56424.76
640.888	56346.12
641.241	56302.5
641.594	56356.96
641.947	56384.76
642.301	56237.42
642.654	56321.26
643.007	56256.18
643.36	56144.31
643.713	56151.77
644.066	56170.08
644.419	56056.41
644.771	55935.96
645.124	55646.7
645.477	55575.52
645.83	55500.94
646.182	55387.72
646.535	55281.96
646.888	55361.28
647.24	55114.74
647.593	55347.5
647.945	55267.95
648.298	55027.51
648.65	54999.26
649.002	54985.25
649.355	55114.06
649.707	55010.79
650.059	55213.49
650.411	55459.81
650.763	55445.58
651.115	55676.76
651.467	55662.75
651.819	55620.03
652.171	55577.55
652.523	55478.57
652.875	55553.37
653.227	55440.38
653.578	55627.72
653.93	55382.98
654.282	55338.91
654.633	55265.92
654.985	55347.73
655.337	55339.14
655.688	55397.67
656.039	55398.8
656.391	55141.86
656.742	55256.65
657.094	55253.04
657.445	55245.36
657.796	55246.03
658.147	55172.81
658.498	55195.41
658.849	55175.07
659.2	55125.36
659.551	55028.19
659.902	55140.05
660.253	55142.31
660.604	55136.43
660.955	55061.86
661.306	55126.71
661.656	55034.06
662.007	55038.36
662.358	55014.4
662.708	55008.75
663.059	54976.44
663.409	54762.2
663.76	55038.13
664.11	54949.77
664.461	54964.46
664.811	54922.2
665.161	54872.26
665.511	54741.87
665.862	54791.13
666.212	54876.1
666.562	54858.7
666.912	54828.42
667.262	54813.95
667.612	54757.23
667.962	54768.08
668.312	54742.77
668.662	54884.01
669.011	54808.76
669.361	54692.15
669.711	54759.27
670.06	54722.88
670.41	54652.15
670.76	54597.46
671.109	54702.32
671.459	54680.62
671.808	54537.8
672.157	54644.24
672.507	54376.68
672.856	54417.35
673.205	54395.66
673.554	54545.03
673.904	54352.27
674.253	54457.58
674.602	54419.61
674.951	54044.93
675.3	53845.17
675.649	54222.11
675.998	54307.98
676.346	54342.78
676.695	54291.93
677.044	54055.1
677.393	54154.99
677.741	54151.82
678.09	54009.23
678.438	54012.17
678.787	54042.68
679.135	54004.94
679.484	53749.58
679.832	53967.2
680.181	53801.33
680.529	54002.9
680.877	53838.16
681.225	53795
681.573	54019.85
681.922	53680.42
682.27	53585.29
682.618	53683.14
682.966	53522.69
683.314	53576.47
683.661	53466.65
684.009	53277.27
684.357	53241.34
684.705	53282.02
685.053	53202.92
685.4	53256.03
685.748	53039.76
686.095	53023.27
686.443	52978.75
686.79	52910.05
687.138	52810.39
687.485	52898.98
687.832	52721.13
688.18	52748.7
688.527	52501.02
688.874	52557.29
689.221	52447.24
689.568	52325.43
689.915	52249.05
690.262	52277.52
690.609	52141.48
690.956	52052.67
691.303	52023.52
691.65	51905.1
691.997	51817.2
692.344	51648.16
692.69	51648.16
693.037	51677.54
693.383	51487.49
693.73	51525.68
694.077	51214.27
694.423	51289.53
694.769	51156.65
695.116	51049.76
695.462	51076.65
695.808	50931.34
696.155	50999.14
696.501	50680.05
696.847	50754.85
697.193	50484.35
697.539	50692.48
697.885	50443.22
698.231	50262.66
698.577	50268.76
698.923	50189.9
699.269	49986.06
699.614	49831.49
699.96	49718.27
700.306	49703.35
700.651	49556.69
700.997	49444.83
701.342	49409.35
701.688	49402.57
702.033	49310.82
702.379	49230.6
702.724	49084.84
703.069	49205.97
703.415	48742.02
703.76	48717.84
704.105	48657.96
704.45	48571.63
704.795	48348.14
705.14	48353.33
705.485	48371.86
705.83	48160.34
706.175	48313.11
706.52	48155.82
706.865	47907.47
707.209	47910.41
707.554	47754.93
707.899	47815.95
708.243	47690.07
708.588	47549.06
708.932	47355.85
709.277	47336.18
709.621	47344.09
709.966	47146.13
710.31	47052.35
710.654	46838.57
710.998	47047.38
711.342	46809.19
711.687	46657.56
712.031	46642.87
712.375	46586.37
712.719	46547.5
713.063	46482.87
713.407	46654.85
713.75	46331.92
714.094	46206.27
714.438	46068.65
714.782	46185.48
715.125	46006.05
715.469	46021.19
715.812	45735.55
716.156	45508.21
716.499	45619.62
716.843	45595.67
717.186	45360.42
717.53	45437.48
717.873	45408.55
718.216	45275.9
718.559	45003.36
718.902	44816.48
719.246	45002.46
719.589	44826.42
719.932	44651.51
720.275	44768.34
720.617	44588.69
720.96	44703.26
721.303	44557.95
721.646	44622.58
721.989	44322.48
722.331	44417.84
722.674	44274.12
723.016	44359.54
723.359	44202.48
723.701	44331.74
724.044	43990.96
724.386	43808.82
724.729	43989.83
725.071	43970.4
725.413	43936.05
725.755	43812.21
726.097	43689.5
726.439	43432.11
726.782	43569.05
727.124	43770.85
727.465	43446.12
727.807	43396.85
728.149	43297.87
728.491	43319.34
728.833	43237.54
729.175	43077.77
729.516	42967.26
729.858	42995.51
730.199	42843.65
730.541	42873.48
730.882	42870.09
731.224	42767.49
731.565	42561.85
731.906	42597.78
732.248	42580.83
732.589	42294.74
732.93	42240.95
733.271	42242.08
733.612	42325.02
733.953	42256.54
734.294	42086.61
734.635	41962.31
734.976	41961.41
735.317	41744.92
735.658	41713.96
735.999	41714.86
736.339	41591.48
736.68	41800.51
737.021	41679.84
737.361	41441.88
737.702	41600.74
738.042	41440.52
738.383	41359.62
738.723	41455.44
739.063	41303.12
739.404	41344.25
739.744	41304.7
740.084	41004.15
740.424	41071.72
740.764	41004.83
741.104	41090.47
741.444	40905.85
741.784	40671.05
742.124	40720.54
742.464	40709.01
742.804	40738.39
743.143	40421.79
743.483	40523.93
743.823	40320.1
744.162	40370.72
744.502	40491.84
744.841	40094.79
745.181	40283.26
745.52	40081.46
745.86	40233.09
746.199	40177.28
746.538	39993.1
746.877	40059.54
747.216	40081.91
747.556	39822.94
747.895	39744.52
748.234	39689.15
748.573	39603.05
748.911	39466.56
749.25	39456.39
749.589	39361.93
749.928	39380.91
750.267	39384.3
750.605	39266.79
750.944	39125.55
751.283	39111.54
751.621	39059.34
751.96	38836.52
752.298	38736.86
752.636	38857.09
752.975	38610.09
