Data from White_reflection_standard_FLMS001491_098.txt Node
Date: Tue Feb 07 10:32:14 GMT 2017
User: dcchb
Spectrometer: FLMS00149
Trigger mode: 0
Integration Time (sec): 2.000000E-2
Scans to average: 10
Electric dark correction enabled: true
Nonlinearity correction enabled: false
Boxcar width: 0
XAxis mode: Wavelengths
Number of Pixels in Spectrum: 2048
>>>>>Begin Spectral Data<<<<<
341.393	-6.65
341.776	-6.65
342.16	-6.65
342.543	-45.97
342.927	-60.21
343.31	-58.18
343.693	-68.57
344.077	-82.81
344.46	-68.57
344.843	-64.28
345.226	-36.03
345.61	-36.71
345.993	-33.09
346.376	-5.52
346.759	17.98
347.142	36.51
347.525	39
347.908	69.28
348.291	80.13
348.674	93.68
349.057	117.19
349.44	105.66
349.823	160.8
350.206	182.72
350.588	214.81
350.971	239.22
351.354	267.69
351.737	276.96
352.119	275.37
352.502	297.52
352.884	311.53
353.267	337.52
353.65	347.91
354.032	345.65
354.414	351.76
354.797	362.38
355.179	377.07
355.562	357.18
355.944	379.1
356.326	380
356.709	394.92
357.091	380.23
357.473	388.37
357.855	382.26
358.238	397.63
358.62	386.56
359.002	381.36
359.384	413.9
359.766	417.29
360.148	417.07
360.53	393.79
360.912	384.75
361.294	413.45
361.676	413
362.057	407.12
362.439	403.05
362.821	405.77
363.203	393.79
363.584	417.52
363.966	408.7
364.348	406.44
364.729	421.58
365.111	400.79
365.493	401.25
365.874	409.38
366.256	423.62
366.637	430.62
367.019	425.43
367.4	418.2
367.781	408.7
368.163	431.3
368.544	418.2
368.925	424.3
369.306	415.94
369.688	420.46
370.069	433.34
370.45	431.08
370.831	415.94
371.212	428.59
371.593	443.73
371.974	427.69
372.355	442.38
372.736	448.02
373.117	449.38
373.498	457.29
373.879	449.61
374.26	420.91
374.641	445.99
375.021	468.82
375.402	463.17
375.783	483.73
376.163	492.54
376.544	501.81
376.925	500.45
377.305	473.56
377.686	493.67
378.066	486.89
378.447	486.44
378.827	521.92
379.208	527.12
379.588	534.58
379.968	520.79
380.349	528.47
380.729	519.21
381.109	526.89
381.489	560.56
381.87	536.16
382.25	566.21
382.63	530.28
383.01	556.95
383.39	540.9
383.77	551.75
384.15	573.45
384.53	580.22
384.91	577.51
385.29	596.27
385.67	613.9
386.049	617.06
386.429	603.95
386.809	620.9
387.189	634.01
387.568	637.4
387.948	623.16
388.328	653.9
388.707	650.96
389.087	664.52
389.466	686.89
389.846	661.35
390.225	716.27
390.605	674.91
390.984	704.74
391.363	705.19
391.743	725.08
392.122	704.52
392.501	731.63
392.881	731.86
393.26	764.85
393.639	761.91
394.018	771.86
394.397	775.47
394.776	793.33
395.155	765.08
395.534	795.36
395.913	803.27
396.292	794.23
396.671	819.99
397.05	827.22
397.429	827.9
397.808	833.1
398.186	835.36
398.565	841.91
398.944	864.51
399.323	870.61
399.701	882.59
400.08	885.53
400.458	905.64
400.837	910.16
401.215	923.49
401.594	939.99
401.972	944.28
402.351	932.31
402.729	938.18
403.107	958.52
403.486	972.3
403.864	997.62
404.242	1018.41
404.62	1025.86
404.999	1041.68
405.377	1020.67
405.755	1038.52
406.133	1068.12
406.511	1051.4
406.889	1096.6
407.267	1122.58
407.645	1110.15
408.023	1133.66
408.401	1155.12
408.779	1183.6
409.156	1191.51
409.534	1211.85
409.912	1206.42
410.29	1241
410.667	1281.22
411.045	1297.27
411.422	1291.62
411.8	1270.38
412.178	1311.51
412.555	1368
412.933	1364.84
413.31	1377.94
413.687	1383.59
414.065	1406.64
414.442	1431.73
414.819	1446.87
415.197	1442.58
415.574	1459.3
415.951	1508.34
416.328	1493.87
416.705	1516.02
417.082	1535.68
417.46	1539.07
417.837	1537.49
418.214	1582.23
418.591	1598.96
418.967	1617.03
419.344	1619.52
419.721	1657.48
420.098	1672.85
420.475	1688.9
420.852	1721.21
421.228	1712.17
421.605	1730.7
421.982	1765.28
422.358	1808.67
422.735	1791.27
423.111	1832.85
423.488	1854.32
423.864	1861.77
424.241	1882.11
424.617	1899.06
424.994	1924.82
425.37	1932.05
425.746	1952.62
426.123	1943.8
426.499	1976.57
426.875	2023.35
427.251	2037.14
427.627	2087.53
428.003	2119.17
428.379	2158.04
428.756	2145.83
429.132	2222.89
429.507	2242.33
429.883	2249.79
430.259	2292.72
430.635	2346.51
431.011	2354.87
431.387	2382.21
431.763	2441.19
432.138	2487.75
432.514	2500.4
432.89	2454.75
433.265	2541.76
433.641	2591.02
434.016	2642.09
434.392	2704.69
434.767	2720.28
435.143	2751.02
435.518	2748.76
435.894	2786.27
436.269	2818.58
436.644	2886.15
437.02	2886.83
437.395	2926.83
437.77	2956.21
438.145	3017.9
438.52	3028.52
438.895	3071.01
439.271	3068.75
439.646	3144.9
440.021	3123.43
440.395	3180.16
440.77	3181.29
441.145	3162.53
441.52	3267.16
441.895	3248.63
442.27	3312.81
442.645	3308.74
443.019	3342.86
443.394	3372.69
443.769	3427.16
444.143	3388.96
444.518	3494.05
444.892	3492.46
445.267	3477.78
445.641	3584.44
446.016	3546.25
446.39	3570.65
446.764	3610.88
447.139	3625.79
447.513	3669.86
447.887	3719.58
448.262	3708.5
448.636	3723.65
449.01	3753.93
449.384	3814.94
449.758	3854.26
450.132	3904.21
450.506	3924.32
450.88	3934.03
451.254	3945.56
451.628	4016.97
452.002	4058.78
452.376	4066.01
452.75	4166.12
453.123	4184.65
453.497	4206.34
453.871	4288.38
454.244	4341.71
454.618	4386.68
454.992	4515.04
455.365	4498.99
455.739	4619.89
456.112	4640.23
456.486	4697.4
456.859	4712.77
457.232	4800.9
457.606	4808.36
457.979	4847.91
458.352	4954.8
458.725	4995.7
459.099	5079.54
459.472	5198.86
459.845	5228.92
460.218	5307.11
460.591	5317.28
460.964	5314.79
461.337	5499.42
461.71	5597.04
462.083	5611.96
462.456	5635.46
462.829	5675.46
463.201	5802.69
463.574	5868.9
463.947	5915.45
464.32	6064.15
464.692	6079.06
465.065	6136.24
465.438	6231.6
465.81	6303.46
466.183	6421.2
466.555	6568.77
466.928	6575.1
467.3	6630.69
467.672	6703.23
468.045	6851.47
468.417	6907.74
468.789	6994.29
469.161	7036.33
469.534	7159.94
469.906	7310.22
470.278	7309.09
470.65	7458.46
471.022	7667.04
471.394	7728.29
471.766	7832.46
472.138	7904.55
472.51	8068.84
472.882	8266.12
473.253	8309.74
473.625	8464.76
473.997	8596.29
474.369	8641.93
474.74	8821.14
475.112	8997.86
475.484	9111.98
475.855	9254.8
476.227	9295.02
476.598	9618.86
476.97	9690.72
477.341	9919.41
477.713	10020.65
478.084	10163.93
478.455	10388.33
478.827	10507.65
479.198	10820.86
479.569	10753.06
479.94	11168.42
480.311	11228.53
480.682	11478.47
481.053	11722.53
481.424	11859.48
481.795	11949.19
482.166	12201.61
482.537	12371.78
482.908	12660.81
483.279	12874.14
483.65	13105.32
484.021	13267.35
484.391	13395.26
484.762	13546.66
485.133	13728.35
485.503	13901
485.874	14139.87
486.244	14364.04
486.615	14718.61
486.985	14748.44
487.356	15053.52
487.726	15193.4
488.097	15533.28
488.467	15549.55
488.837	15887.17
489.207	16014.62
489.578	16331
489.948	16432.01
490.318	16762.62
490.688	16834.26
491.058	17036.74
491.428	17322.16
491.798	17475.37
492.168	17857.74
492.538	17876.27
492.908	18091.18
493.278	18269.93
493.648	18310.15
494.017	18618.17
494.387	18821.55
494.757	18918.95
495.126	19209.34
495.496	19153.3
495.866	19425.38
496.235	19664.92
496.605	19823.11
496.974	19923.67
497.344	20105.36
497.713	20161.86
498.082	20411.12
498.452	20497.67
498.821	20658.34
499.19	20777.43
499.559	20977.2
499.928	21161.38
500.298	21199.8
500.667	21527.24
501.036	21429.39
501.405	21668.26
501.774	21839.1
502.143	21977.85
502.512	22079.32
502.88	22315.02
503.249	22339.43
503.618	22651.28
503.987	22712.52
504.356	22821.67
504.724	22973.99
505.093	22990.48
505.462	23164.04
505.83	23490.36
506.199	23650.35
506.567	23887.41
506.936	23953.17
507.304	24196.78
507.672	24274.74
508.041	24453.27
508.409	24509.09
508.777	24832.47
509.145	24988.4
509.514	24997.21
509.882	25338.22
510.25	25271.1
510.618	25449.63
510.986	25570.98
511.354	25895.94
511.722	26201.25
512.09	26372.54
512.458	26405.31
512.826	26674.23
513.193	26803.94
513.561	26979.98
513.929	27138.17
514.297	27363.02
514.664	27589.68
515.032	27632.39
515.4	27911.26
515.767	28171.59
516.135	28241.87
516.502	28085.72
516.869	28674.63
517.237	28850.89
517.604	28783.1
517.972	29189.42
518.339	29389.86
518.706	29483.19
519.073	29623.3
519.44	29915.95
519.808	30298.99
520.175	30166.79
520.542	30769.04
520.909	30846.55
521.276	30828.47
521.643	31148.46
522.009	31525.4
522.376	31662.12
522.743	31979.85
523.11	32162.67
523.477	32566.95
523.843	32717.23
524.21	32995.64
524.577	33278.35
524.943	33521.51
525.31	33650.09
525.676	33892.57
526.043	34131.21
526.409	34249.85
526.776	34686.67
527.142	34753.56
527.508	35030.62
527.874	35314
528.241	35488.69
528.607	35517.61
528.973	35962.35
529.339	35989.24
529.705	36338.38
530.071	36572.72
530.437	36739.27
530.803	37096.33
531.169	37229.88
531.535	37248.41
531.901	37523.43
532.267	37571.12
532.632	37826.93
532.998	38089.75
533.364	38257.65
533.73	38453.81
534.095	38594.37
534.461	38762.95
534.826	38946.45
535.192	38853.34
535.557	39473.21
535.923	39382.59
536.288	39554.12
536.653	39744.39
537.019	39700.1
537.384	39983.03
537.749	40060.09
538.114	40289.01
538.479	40333.3
538.845	40617.36
539.21	40404.94
539.575	40776.23
539.94	40756.57
540.305	41139.38
540.67	41021.87
541.034	41252.83
541.399	41441.75
541.764	41569.66
542.129	41760.61
542.494	41876.54
542.858	42058.68
543.223	41990.89
543.587	42271.33
543.952	42392.68
544.316	42383.87
544.681	42447.37
545.045	42668.16
545.41	42963.97
545.774	43064.08
546.138	43180.01
546.503	43184.08
546.867	43286.22
547.231	43803.95
547.595	43675.36
547.959	43877.39
548.324	43954.23
548.688	44104.05
549.052	44312.63
549.416	44243.94
549.779	44458.62
550.143	44647.77
550.507	44834.2
550.871	45003.24
551.235	44985.38
551.599	45213.18
551.962	45396
552.326	45621.3
552.689	45870.79
553.053	45565.71
553.417	45764.12
553.78	46315.07
554.143	46156.88
554.507	46378.57
554.87	46508.96
555.234	46799.12
555.597	46658.34
555.96	46960.25
556.323	47122.73
556.686	47167.47
557.05	47512.1
557.413	47546.45
557.776	47642.04
558.139	47971.52
558.502	48083.83
558.865	48167.9
559.228	48443.15
559.59	48638.62
559.953	48564.73
560.316	49006.75
560.679	48993.64
561.041	49281.77
561.404	49462.78
561.767	49696.9
562.129	49634.53
562.492	49964.69
562.854	49989.32
563.217	49804.02
563.579	50225.25
563.941	50425.69
564.304	50564.67
564.666	50842.41
565.028	50775.74
565.39	50893.93
565.753	51102.06
566.115	51333.69
566.477	51441.49
566.839	51438.1
567.201	51743.17
567.563	51796.96
567.925	51971.64
568.287	51918.31
568.648	52096.61
569.01	52215.03
569.372	52467.9
569.734	52330.5
570.095	52632.19
570.457	52716.26
570.819	52725.07
571.18	52768.01
571.542	53048.9
571.903	52955.8
572.265	53216.81
572.626	53247.31
572.987	53257.71
573.349	53389.68
573.71	53536.57
574.071	53560.53
574.432	53680.3
574.794	53859.73
575.155	53830.58
575.516	53833.51
575.877	53988.99
576.238	53942.89
576.599	54045.26
576.96	54120.51
577.32	54022.66
577.681	54288.64
578.042	54306.5
578.403	54307.63
578.763	54311.92
579.124	54477.11
579.485	54414.52
579.845	54616.32
580.206	54504.91
580.566	54494.51
580.927	54588.07
581.287	54707.16
581.648	54529.77
582.008	54726.82
582.368	54643.21
582.728	54753.94
583.089	54713.49
583.449	54691.12
583.809	54708.75
584.169	54752.36
584.529	54760.5
584.889	54948.29
585.249	54826.93
585.609	54686.37
585.969	54892.02
586.329	54744.22
586.688	54791.23
587.048	54759.14
587.408	54751
587.768	54825.13
588.127	54864.45
588.487	54716.88
588.846	54936.76
589.206	54783.55
589.565	54762.53
589.925	55004.33
590.284	54773.6
590.643	54880.49
591.003	54943.99
591.362	54945.58
591.721	54955.07
592.08	54903.09
592.44	54983.31
592.799	55030.54
593.158	54956.87
593.517	54941.96
593.876	55005.46
594.235	54824.45
594.593	55001.17
594.952	55059.92
595.311	55030.09
595.67	55018.79
596.029	55181.95
596.387	55195.74
596.746	55223.08
597.104	55121.84
597.463	55119.58
597.822	55184.89
598.18	55144.44
598.538	55085.23
598.897	55303.76
599.255	55054.27
599.613	55473.47
599.972	55261.72
600.33	55272.12
600.688	55241.16
601.046	55364.1
601.404	55468.73
601.762	55405
602.12	55500.59
602.478	55534.94
602.836	55438.9
603.194	55366.35
603.552	55462.17
603.91	55338.33
604.268	55454.71
604.625	55538.55
604.983	55580.13
605.341	55479.12
605.698	55627.82
606.056	55652.45
606.413	55625.78
606.771	55726.57
607.128	55777.42
607.485	55639.34
607.843	55695.84
608.2	55830.52
608.557	55916.85
608.914	55745.33
609.272	55880.24
609.629	55955.49
609.986	56080.91
610.343	55910.3
610.7	56101.25
611.057	56005.43
611.414	55963.85
611.771	56082.95
612.127	56177.86
612.484	56114.81
612.841	56200.23
613.198	56197.07
613.554	56128.14
613.911	56291.08
614.267	56209.04
614.624	56188.71
614.98	56298.99
615.337	56401.36
615.693	56394.12
616.05	56370.85
616.406	56440.68
616.762	56382.15
617.118	56387.35
617.475	56457.17
617.831	56472.09
618.187	56485.2
618.543	56466.21
618.899	56630.5
619.255	56587.34
619.611	56562.48
619.967	56661.91
620.323	56654.91
620.678	56544.4
621.034	56519.54
621.39	56547.57
621.746	56484.52
622.101	56780.33
622.457	56493.1
622.812	56554.8
623.168	56590.05
623.523	56665.08
623.879	56719.09
624.234	56529.26
624.589	56679.09
624.945	56666.89
625.3	56680.9
625.655	56634.12
626.01	56653.78
626.365	56654
626.72	56530.84
627.075	56640.9
627.43	56574.46
627.785	56552.54
628.14	56576.04
628.495	56650.39
628.85	56635.47
629.205	56472.54
629.559	56635.25
629.914	56433.9
630.269	56468.92
630.623	56363.16
630.978	56382.37
631.332	56487
631.687	56567.91
632.041	56317.06
632.396	56390.51
632.75	56375.37
633.104	56335.59
633.459	56248.82
633.813	56205.65
634.167	56233
634.521	56108.71
634.875	56195.03
635.229	56161.81
635.583	55944.87
635.937	55990.29
636.291	55878.43
636.645	56018.32
636.999	55921.37
637.352	55946.45
637.706	55806.12
638.06	55884.76
638.413	55861.26
638.767	55712.56
639.121	55788.49
639.474	55676.86
639.828	55617.42
640.181	55649.06
640.534	55607.7
640.888	55548.05
641.241	55415.85
641.594	55526.58
641.947	55481.61
642.301	55449.97
642.654	55483.64
643.007	55415.85
643.36	55395.51
643.713	55320.71
644.066	55409.74
644.419	55229.18
644.771	55000.04
645.124	54698.58
645.477	54725.24
645.83	54508.07
646.182	54358.7
646.535	54325.48
646.888	54425.81
647.24	54154.18
647.593	54315.76
647.945	54336.55
648.298	54133.39
648.65	54081.19
649.002	54008.2
649.355	54200.51
649.707	53937.24
650.059	54128.2
650.411	54489.99
650.763	54540.39
651.115	54746.48
651.467	54548.52
651.819	54608.63
652.171	54580.39
652.523	54607.73
652.875	54468.98
653.227	54391.01
653.578	54527.28
653.93	54480.05
654.282	54320.73
654.633	54257.23
654.985	54318.02
655.337	54238.93
655.688	54287.74
656.039	54331.35
656.391	54104.02
656.742	54188.31
657.094	54185.14
657.445	54256.55
657.796	54114.18
658.147	54069.44
658.498	54089.33
658.849	54120.74
659.2	54017.92
659.551	53956.67
659.902	54078.03
660.253	54000.06
660.604	53950.35
660.955	53816.57
661.306	53959.84
661.656	53902.66
662.007	53899.95
662.358	53834.42
662.708	53908.99
663.059	53857.69
663.409	53651.82
663.76	53878.26
664.11	53843.01
664.461	53871.7
664.811	53817.24
665.161	53739.51
665.511	53686.85
665.862	53656.12
666.212	53724.82
666.562	53762.1
666.912	53638.49
667.262	53636.91
667.612	53587.19
667.962	53605.27
668.312	53584.71
668.662	53640.98
669.011	53652.5
669.361	53537.02
669.711	53521.21
670.06	53458.38
670.41	53431.94
670.76	53307.43
671.109	53503.35
671.459	53389.01
671.808	53283.02
672.157	53389.23
672.507	53193.3
672.856	53214.1
673.205	53251.61
673.554	53301.1
673.904	53155.11
674.253	53297.93
674.602	53149.01
674.951	52787.67
675.3	52696.14
675.649	53109.92
675.998	53016.36
676.346	53040.99
676.695	53119.41
677.044	52833.31
677.393	52998.51
677.741	53008.22
678.09	52826.99
678.438	52907.66
678.787	52870.83
679.135	52952.86
679.484	52643.26
679.832	52786.31
680.181	52575.02
680.529	52690.49
680.877	52532.31
681.225	52525.98
681.573	52789.93
681.922	52423.83
682.27	52393.55
682.618	52416.38
682.966	52282.37
683.314	52291.86
683.661	52196.72
684.009	52123.95
684.357	51991.08
684.705	51976.61
685.053	51962.6
685.4	51922.83
685.748	51851.42
686.095	51704.98
686.443	51680.12
686.79	51579.11
687.138	51695.94
687.485	51553.12
687.832	51445.1
688.18	51504.54
688.527	51245.33
688.874	51362.17
689.221	51263.86
689.568	50957.88
689.915	50948.84
690.262	51016.86
690.609	50856.64
690.956	50753.14
691.303	50727.83
691.65	50608.29
691.997	50521.06
692.344	50384.79
692.69	50287.62
693.037	50358.58
693.383	50046.27
693.73	50159.26
694.077	49874.07
694.423	49902.32
694.769	49690.57
695.116	49707.75
695.462	49643.79
695.808	49478.37
696.155	49443.35
696.501	49235.22
696.847	49291.26
697.193	48929.91
697.539	49086.07
697.885	48813.53
698.231	48686.3
698.577	48717.49
698.923	48646.31
699.269	48490.83
699.614	48343.04
699.96	48198.18
700.306	48228.24
700.651	48086.77
700.997	47863.28
701.342	47864.18
701.688	47706.9
702.033	47649.27
702.379	47541.48
702.724	47428.94
703.069	47617.41
703.415	47146.68
703.76	47094.93
704.105	47077.76
704.45	46952.11
704.795	46760.03
705.14	46644.78
705.485	46649.75
705.83	46363.2
706.175	46427.15
706.52	46394.84
706.865	46225.13
707.209	46133.83
707.554	45945.36
707.899	46085.7
708.243	45974.96
708.588	45711.47
708.932	45578.82
709.277	45546.27
709.621	45522.77
709.966	45230.12
710.31	45316.45
710.654	45099.28
710.998	45080.3
711.342	45014.54
711.687	45017.25
712.031	44739.97
712.375	44496.13
712.719	44608.67
713.063	44537.71
713.407	44655.22
713.75	44362.12
714.094	44337.04
714.438	44144.28
714.782	44225.86
715.125	43993.32
715.469	44150.15
715.812	43852.31
716.156	43603.27
716.499	43726.66
716.843	43664.74
717.186	43512.88
717.53	43657.06
717.873	43512.88
718.216	43435.37
718.559	43197.86
718.902	43027.24
719.246	43015.27
719.589	42926
719.932	42715.84
720.275	42834.26
720.617	42775.27
720.96	42522.85
721.303	42545.22
721.646	42692.79
721.989	42252.8
722.331	42325.57
722.674	42374.38
723.016	42387.26
723.359	42183.65
723.701	42186.14
724.044	42042.86
724.386	41782.53
724.729	42078.12
725.071	41833.15
725.413	41728.75
725.755	41780.5
726.097	41553.84
726.439	41431.13
726.782	41473.16
727.124	41544.12
727.465	41313.84
727.807	41290.11
728.149	41246.27
728.491	41088.31
728.833	41156.33
729.175	40958.82
729.516	40801.54
729.858	40845.15
730.199	40844.48
730.541	40825.49
730.882	40612.39
731.224	40811.03
731.565	40506.18
731.906	40613.07
732.248	40451.49
732.589	40281.55
732.93	40163.14
733.271	40327.88
733.612	40196.58
733.953	40228.45
734.294	40136.02
734.635	39965.4
734.976	40049.02
735.317	39748.23
735.658	39812.87
735.999	39745.97
736.339	39659.2
736.68	39702.13
737.021	39555.02
737.361	39345.76
737.702	39438.64
738.042	39342.37
738.383	39163.84
738.723	39286.78
739.063	38941.25
739.404	39346.66
739.744	39070.06
740.084	38922.04
740.424	38857.18
740.764	38892.44
741.104	38863.29
741.444	38769.5
741.784	38622.16
742.124	38769.96
742.464	38608.83
742.804	38518.44
743.143	38479.79
743.483	38397.99
743.823	38195.28
744.162	38188.05
744.502	38327.03
744.841	38017.88
745.181	38256.75
745.52	38052.69
745.86	38115.96
746.199	37917.77
746.538	37818.12
746.877	37901.28
747.216	37904.44
747.556	37580.38
747.895	37707.61
748.234	37559.82
748.573	37369.54
748.911	37436.88
749.25	37448.63
749.589	37242.76
749.928	37285.25
750.267	37302.88
750.605	37174.29
750.944	37028.98
751.283	36928.42
751.621	36953.05
751.96	36626.96
752.298	36757.8
752.636	36688.43
