Data from White_reflection_standard_FLMS001491_002.txt Node
Date: Tue Feb 07 10:31:55 GMT 2017
User: dcchb
Spectrometer: FLMS00149
Trigger mode: 0
Integration Time (sec): 2.000000E-2
Scans to average: 10
Electric dark correction enabled: true
Nonlinearity correction enabled: false
Boxcar width: 0
XAxis mode: Wavelengths
Number of Pixels in Spectrum: 2048
>>>>>Begin Spectral Data<<<<<
341.393	-5.31
341.776	-5.31
342.16	-5.31
342.543	-58.19
342.927	-35.59
343.31	-54.57
343.693	-55.48
344.077	-88.02
344.46	-59.09
344.843	-56.61
345.226	-44.18
345.61	-28.81
345.993	-32.2
346.376	0.11
346.759	30.62
347.142	20
347.525	53.22
347.908	39.89
348.291	77.17
348.674	104.07
349.057	93.9
349.44	129.15
349.823	141.58
350.206	168.7
350.588	246.66
350.971	266.77
351.354	281.91
351.737	280.78
352.119	284.85
352.502	321.01
352.884	321.46
353.267	329.82
353.65	319.65
354.032	361.69
354.414	358.07
354.797	369.82
355.179	396.71
355.562	375.92
355.944	397.62
356.326	380.44
356.709	387.67
357.091	390.39
357.473	398.52
357.855	420.89
358.238	395.58
358.62	433.32
359.002	403.27
359.384	402.81
359.766	409.37
360.148	410.27
360.53	414.57
360.912	395.36
361.294	418.18
361.676	418.86
362.057	406.43
362.439	420.44
362.821	420.21
363.203	410.05
363.584	431.51
363.966	395.36
364.348	401.68
364.729	412.31
365.111	411.4
365.493	418.18
365.874	424.96
366.256	404.4
366.637	388.13
367.019	401.91
367.4	429.48
367.781	411.4
368.163	437.62
368.544	432.42
368.925	431.74
369.306	414.11
369.688	429.71
370.069	423.83
370.45	426.99
370.831	440.33
371.212	434.9
371.593	428.58
371.974	446.43
372.355	438.07
372.736	454.56
373.117	458.18
373.498	474.45
373.879	457.73
374.26	449.82
374.641	455.02
375.021	428.35
375.402	478.29
375.783	484.85
376.163	520.55
376.544	520.78
376.925	512.42
377.305	490.95
377.686	511.74
378.066	511.74
378.447	506.54
378.827	524.17
379.208	527.33
379.588	522.81
379.968	544.96
380.349	539.99
380.729	515.81
381.109	552.64
381.489	567.78
381.87	561.23
382.25	554.67
382.63	566.65
383.01	562.81
383.39	560.1
383.77	589.93
384.15	550.16
384.53	598.06
384.91	600.78
385.29	579.53
385.67	609.14
386.049	621.11
386.429	621.79
386.809	624.96
387.189	626.76
387.568	658.4
387.948	629.7
388.328	656.37
388.707	644.16
389.087	635.35
389.466	675.35
389.846	665.18
390.225	697.72
390.605	705.86
390.984	709.02
391.363	699.98
391.743	721.45
392.122	751.05
392.501	741.79
392.881	754.9
393.26	778.4
393.639	758.51
394.018	764.16
394.397	775.23
394.776	795.35
395.155	796.48
395.534	789.47
395.913	798.28
396.292	806.19
396.671	830.6
397.05	853.65
397.429	853.65
397.808	854.78
398.186	843.25
398.565	845.29
398.944	842.35
399.323	857.49
399.701	891.39
400.08	910.15
400.458	920.77
400.837	908.34
401.215	956.92
401.594	936.36
401.972	943.37
402.351	930.94
402.729	964.61
403.107	1001.44
403.486	982.46
403.864	983.82
404.242	1021.78
404.62	1019.97
404.999	1058.16
405.377	1058.39
405.755	1036.92
406.133	1068.33
406.511	1069.01
406.889	1101.78
407.267	1101.78
407.645	1132.51
408.023	1128.67
408.401	1165.28
408.779	1189.23
409.156	1194.43
409.534	1204.83
409.912	1218.84
410.29	1255
410.667	1251.38
411.045	1283.92
411.422	1295.67
411.8	1294.09
412.178	1330.47
412.555	1368.66
412.933	1334.32
413.31	1390.13
413.687	1385.84
414.065	1428.1
414.442	1407.31
414.819	1460.19
415.197	1467.87
415.574	1511.49
415.951	1523.46
416.328	1508.1
416.705	1526.63
417.082	1541.99
417.46	1566.85
417.837	1582.22
418.214	1598.04
418.591	1596
418.967	1607.75
419.344	1634.42
419.721	1683.68
420.098	1664.02
420.475	1718.49
420.852	1698.83
421.228	1724.36
421.605	1743.34
421.982	1753.29
422.358	1790.57
422.735	1776.34
423.111	1828.09
423.488	1844.58
423.864	1863.34
424.241	1910.12
424.617	1922.77
424.994	1931.59
425.37	1951.7
425.746	1953.06
426.123	2005.94
426.499	1993.28
426.875	2057.23
427.251	2086.16
427.627	2113.73
428.003	2143.33
428.379	2173.39
428.756	2197.57
429.132	2209.55
429.507	2265.14
429.883	2270.34
430.259	2302.2
430.635	2325.25
431.011	2356.66
431.387	2376.77
431.763	2428.3
432.138	2465.36
432.514	2482.99
432.89	2551.01
433.265	2589.88
433.641	2620.16
434.016	2630.1
434.392	2658.8
434.767	2724.11
435.143	2708.97
435.518	2753.71
435.894	2809.76
436.269	2853.15
436.644	2899.02
437.02	2883.88
437.395	2889.3
437.77	2936.98
438.145	3004.33
438.52	3025.12
438.895	3062.63
439.271	3077.09
439.646	3174.27
440.021	3136.3
440.395	3188.96
440.77	3150.31
441.145	3188.96
441.52	3259.91
441.895	3275.73
442.27	3316.64
442.645	3300.14
443.019	3392.57
443.394	3356.63
443.769	3391.66
444.143	3428.5
444.518	3460.81
444.892	3472.79
445.267	3496.52
445.641	3518.21
446.016	3563.86
446.39	3604.76
446.764	3628.27
447.139	3598.66
447.513	3662.39
447.887	3643.41
448.262	3732.9
448.636	3750.3
449.01	3780.8
449.384	3845.66
449.758	3861.25
450.132	3902.16
450.506	3929.73
450.88	3961.59
451.254	3933.34
451.628	4027.35
452.002	4069.84
452.376	4100.57
452.75	4118.65
453.123	4173.79
453.497	4234.8
453.871	4281.13
454.244	4389.83
454.618	4405.19
454.992	4490.16
455.365	4465.98
455.739	4592.31
456.112	4626.66
456.486	4671.63
456.859	4717.96
457.232	4803.6
457.606	4804.28
457.979	4850.83
458.352	5009.47
458.725	5039.98
459.099	5067.55
459.472	5166.08
459.845	5197.26
460.218	5277.04
460.591	5346.41
460.964	5372.63
461.337	5465.73
461.71	5571.04
462.083	5635.9
462.456	5665.5
462.829	5707.08
463.201	5805.38
463.574	5857.36
463.947	5907.75
464.32	6036.56
464.692	6060.07
465.065	6085.38
465.438	6221.19
465.81	6341.42
466.183	6401.3
466.555	6517.23
466.928	6538.02
467.3	6580.5
467.672	6726.04
468.045	6843.77
468.417	6920.38
468.789	6941.4
469.161	7050.32
469.534	7124.67
469.906	7350.43
470.278	7398.56
470.65	7489.63
471.022	7580.03
471.394	7740.93
471.766	7834.71
472.138	7929.4
472.51	8123.06
472.882	8183.63
473.253	8332.55
473.625	8449.83
473.997	8591.75
474.369	8683.27
474.74	8787.23
475.112	8980.22
475.484	9094.34
475.855	9284.84
476.227	9332.07
476.598	9584.95
476.97	9706.3
477.341	9904.03
477.713	10093.41
478.084	10138.6
478.455	10406.85
478.827	10560.51
479.198	10770.9
479.569	10840.28
479.94	11117.33
480.311	11178.58
480.682	11496.08
481.053	11709.64
481.424	11937.43
481.795	12078.89
482.166	12195.5
482.537	12438.66
482.908	12677.97
483.279	12832.54
483.65	13035.02
484.021	13261.23
484.391	13475.69
484.762	13626.65
485.133	13707.1
485.503	13880.2
485.874	14171.94
486.244	14428.43
486.615	14622.78
486.985	14820.74
487.356	15066.38
487.726	15135.53
488.097	15599.7
488.467	15596.99
488.837	15947.26
489.207	16055.06
489.578	16286.69
489.948	16419.34
490.318	16813.23
490.688	16864.3
491.058	17020.91
491.428	17247.34
491.798	17440.33
492.168	17810.04
492.538	17805.29
492.908	18020.88
493.278	18237.15
493.648	18373.87
494.017	18600.53
494.387	18751.26
494.757	18898.6
495.126	19168.2
495.496	19227.4
495.866	19426.72
496.235	19552.37
496.605	19715.75
496.974	19938.57
497.344	20141.28
497.713	20170.88
498.082	20332.01
498.452	20650.19
498.821	20657.2
499.19	20791.88
499.559	20974.7
499.928	21141.03
500.298	21300.8
500.667	21502.6
501.036	21479.1
501.405	21680.9
501.774	21673.67
502.143	21943.26
502.512	22112.3
502.88	22343.93
503.249	22385.97
503.618	22503.25
503.987	22617.15
504.356	22866.86
504.724	22853.98
505.093	23093.52
505.462	23187.3
505.83	23376.22
506.199	23683.78
506.567	23862.08
506.936	23881.52
507.304	24183.66
507.672	24227.72
508.041	24437.21
508.409	24517.89
508.777	24864.09
509.145	25089.62
509.514	24996.97
509.882	25244.87
510.25	25358.99
510.618	25586.56
510.986	25684.86
511.354	25847.34
511.722	26117.84
512.09	26438.51
512.458	26352.41
512.826	26565.74
513.193	26784.04
513.561	26916.02
513.929	27132.28
514.297	27389.68
514.664	27570.46
515.032	27812.26
515.4	28013.39
515.767	28107.4
516.135	28268.07
516.502	28208.41
516.869	28636.2
517.237	28769.75
517.604	28760.03
517.972	29234.82
518.339	29404.99
518.706	29491.54
519.073	29559.34
519.44	29881.14
519.808	30255.36
520.175	30292.42
520.542	30663.04
520.909	30853.99
521.276	30936.47
521.643	31212.85
522.009	31380.3
522.376	31677.02
522.743	31926.51
523.11	32341.64
523.477	32445.36
523.843	32760.38
524.21	33190.43
524.577	33257.77
524.943	33463.64
525.31	33577.99
525.676	34024.76
526.043	34069.95
526.409	34345.65
526.776	34671.97
527.142	34920.32
527.508	35093.2
527.874	35305.85
528.241	35585.17
528.607	35728.89
528.973	35934.31
529.339	35964.37
529.705	36402.55
530.071	36653.39
530.437	36727.96
530.803	37064.9
531.169	37265.57
531.535	37256.53
531.901	37430.09
532.267	37527.26
532.632	37796.41
532.998	38019.9
533.364	38229.39
533.73	38258.09
534.095	38625.76
534.461	38733.78
534.826	38940.56
535.192	39092.19
535.557	39334.67
535.923	39342.13
536.288	39462.13
536.653	39678.39
537.019	39688.33
537.384	39790.71
537.749	40218.94
538.114	40272.05
538.479	40330.58
538.845	40540.74
539.21	40573.74
539.575	40916.33
539.94	40921.97
540.305	41099.15
540.67	41080.39
541.034	41277.22
541.399	41539.59
541.764	41504.78
542.129	41669.75
542.494	41745.91
542.858	42076.29
543.223	42103.86
543.587	42260.47
543.952	42384.76
544.316	42510.41
544.681	42546.56
545.045	42662.49
545.41	43036.27
545.774	43033.56
546.138	43070.84
546.503	43248.92
546.867	43389.71
547.231	43685.97
547.595	43719.19
547.959	43992.4
548.324	43908.34
548.688	44150.82
549.052	44120.99
549.416	44235.56
549.779	44450.92
550.143	44619.73
550.507	44815.88
550.871	44911.25
551.235	44954.19
551.599	45390.78
551.962	45321.18
552.326	45501.52
552.689	45745.8
553.053	45631.23
553.417	45680.04
553.78	46310.08
554.143	46056.08
554.507	46372.45
554.87	46524.54
555.234	46812.44
555.597	46720.92
555.96	46930.18
556.323	47187.57
556.686	47299.66
557.05	47492.88
557.413	47555.47
557.776	47656.26
558.139	47942.13
558.502	48016.03
558.865	48037.04
559.228	48462.57
559.59	48577.37
559.953	48594.54
560.316	48999.5
560.679	48973.06
561.041	49274.75
561.404	49442.88
561.767	49686.26
562.129	49523.78
562.492	49956.31
562.854	49871.12
563.217	50007.16
563.579	50193.6
563.941	50394.49
564.304	50555.17
564.666	50775.95
565.028	50843.97
565.39	50929.4
565.753	51063.63
566.115	51213.68
566.477	51509.27
566.839	51490.06
567.201	51663.16
567.563	51812.54
567.925	51955.58
568.287	52006.43
568.648	51983.15
569.01	52232.41
569.372	52396.02
569.734	52354.44
570.095	52642.8
570.457	52733.64
570.819	52814.54
571.18	52818.84
571.542	52879.63
571.903	52980.41
572.265	53143.35
572.626	53215.21
572.987	53315.1
573.349	53436
573.71	53508.08
574.071	53509.67
574.432	53683.22
574.794	53797.79
575.155	53779.26
575.516	53760.96
575.877	53926.38
576.238	53941.07
576.599	54051.8
576.96	54097
577.32	54210.21
577.681	54262.42
578.042	54343.99
578.403	54245.92
578.763	54278.46
579.124	54436.42
579.485	54480.94
579.845	54581.28
580.206	54547.38
580.566	54570.2
580.927	54602.29
581.287	54725.23
581.648	54595.29
582.008	54677.32
582.368	54645.46
582.728	54735.85
583.089	54698.56
583.449	54678.45
583.809	54757.77
584.169	54765.68
584.529	54722.06
584.889	54867.14
585.249	54787.6
585.609	54635.06
585.969	54854.94
586.329	54739.46
586.688	54808.84
587.048	54812.91
587.408	54722.74
587.768	54805
588.127	54743.31
588.487	54752.35
588.846	54924.54
589.206	54743.76
589.565	54784.44
589.925	54917.09
590.284	54841.83
590.643	54911.66
591.003	54942.85
591.362	54969.97
591.721	54865.79
592.08	54923.64
592.44	54963.41
592.799	55044.54
593.158	54899.69
593.517	54957.54
593.876	55041.83
594.235	55009.97
594.593	55029.85
594.952	55060.36
595.311	54956.86
595.67	55042.51
596.029	55167.93
596.387	55171.32
596.746	55197.98
597.104	55066.24
597.463	55014.26
597.822	55192.56
598.18	55104.2
598.538	55140.58
598.897	55269.62
599.255	55047.48
599.613	55437.07
599.972	55163.18
600.33	55404.53
600.688	55258.1
601.046	55393.46
601.404	55463.51
601.762	55330.64
602.12	55463.97
602.478	55494.7
602.836	55484.3
603.194	55316.4
603.552	55469.39
603.91	55393.01
604.268	55549.61
604.625	55433.68
604.983	55623.06
605.341	55353.46
605.698	55644.3
606.056	55623.51
606.413	55585.77
606.771	55697.41
607.128	55754.81
607.485	55614.47
607.843	55696.05
608.2	55744.64
608.557	55863.5
608.914	55792.77
609.272	55842.03
609.629	55936.5
609.986	56034.35
610.343	55847.68
610.7	56105.3
611.057	56093.78
611.414	56071.86
611.771	56093.1
612.127	56102.59
612.484	56139.2
612.841	56269.82
613.198	56072.76
613.554	56191.63
613.911	56246.77
614.267	56259.42
614.624	56240.67
614.98	56268.69
615.337	56372.19
615.693	56319.08
616.05	56363.15
616.406	56519.3
616.762	56311.4
617.118	56420.1
617.475	56378.97
617.831	56442.24
618.187	56499.64
618.543	56437.27
618.899	56574.22
619.255	56602.47
619.611	56533.77
619.967	56606.76
620.323	56654.44
620.678	56596.59
621.034	56517.05
621.39	56542.36
621.746	56462.81
622.101	56781.9
622.457	56545.74
622.812	56621.22
623.168	56652.41
623.523	56624.39
623.879	56764.72
624.234	56449.93
624.589	56628.68
624.945	56660.32
625.3	56700.77
625.655	56618.51
626.01	56639.53
626.365	56681.56
626.72	56637.27
627.075	56581.9
627.43	56549.36
627.785	56539.64
628.14	56633.65
628.495	56597.49
628.85	56568.8
629.205	56451.96
629.559	56547.33
629.914	56507.1
630.269	56436.82
630.623	56431.4
630.978	56408.8
631.332	56412.64
631.687	56464.39
632.041	56333.1
632.396	56364.05
632.75	56260.33
633.104	56332.64
633.459	56164.29
633.813	56226.43
634.167	56182.82
634.521	56147.56
634.875	56128.13
635.229	56148.47
635.583	55975.59
635.937	55951.41
636.291	55983.05
636.645	55966.78
636.999	55858.98
637.352	55923.61
637.706	55835.71
638.06	55897.17
638.413	55879.55
638.767	55753
639.121	55738.08
639.474	55605.88
639.828	55626
640.181	55673.9
640.534	55665.77
640.888	55507.35
641.241	55433.23
641.594	55447.69
641.947	55597.52
642.301	55487.47
642.654	55456.96
643.007	55435.04
643.36	55355.72
643.713	55317.98
644.066	55402.95
644.419	55163.18
644.771	55036.18
645.124	54719.8
645.477	54635.51
645.83	54544.89
646.182	54446.37
646.535	54377.44
646.888	54404.56
647.24	54205.47
647.593	54272.13
647.945	54367.95
648.298	54145.36
648.65	54088.41
649.002	54020.61
649.355	54034.62
649.707	53983.1
650.059	54202.53
650.411	54472.58
650.763	54561.62
651.115	54782.63
651.467	54624.44
651.819	54613.82
652.171	54561.84
652.523	54459.92
652.875	54476.65
653.227	54360.04
653.578	54505.8
653.93	54424.44
654.282	54327.72
654.633	54245.69
654.985	54346.71
655.337	54361.17
655.688	54262.64
656.039	54414.95
656.391	54103.78
656.742	54214.51
657.094	54120.27
657.445	54261.74
657.796	54094.28
658.147	54062.42
658.498	54119.37
658.849	54105.58
659.2	53992.37
659.551	53971.35
659.902	54125.92
660.253	54023.1
660.604	54023.78
660.955	53896.32
661.306	54053.16
661.656	53901.29
662.007	53925.25
662.358	53854.29
662.708	53888.41
663.059	53874.4
663.409	53674.41
663.76	53868.53
664.11	53864.69
664.461	53843.44
664.811	53797.12
665.161	53716.89
665.511	53672.37
665.862	53669.66
666.212	53779.04
666.562	53751.47
666.912	53720.73
667.262	53659.49
667.612	53614.97
667.962	53626.27
668.312	53566.16
668.662	53692.71
669.011	53588.99
669.361	53582.43
669.711	53481.64
670.06	53481.64
670.41	53391.03
670.76	53329.56
671.109	53470.8
671.459	53388.54
671.808	53363.46
672.157	53418.37
672.507	53149.9
672.856	53273.74
673.205	53337.69
673.554	53323
673.904	53136.57
674.253	53439.16
674.602	53221.76
674.951	52825.16
675.3	52578.17
675.649	53043.69
675.998	53070.13
676.346	53086.63
676.695	53208.88
677.044	52898.61
677.393	52998.95
677.741	53018.61
678.09	52932.28
678.438	52817.03
678.787	52928.44
679.135	52966.18
679.484	52682.57
679.832	52744.49
680.181	52610.26
680.529	52684.15
680.877	52601.89
681.225	52527.55
681.573	52706.75
681.922	52457.72
682.27	52404.16
682.618	52347.66
682.966	52312.86
683.314	52334.1
683.661	52220.21
684.009	52077.39
684.357	52038.29
684.705	51994.9
685.053	52018.18
685.4	51973.44
685.748	51838.98
686.095	51763.95
686.443	51550.62
686.79	51569.38
687.138	51655.93
687.485	51598.3
687.832	51366.22
688.18	51434.01
688.527	51309.72
688.874	51370.97
689.221	51113.35
689.568	51063.63
689.915	50921.71
690.262	50981.15
690.609	50833.8
690.956	50676.75
691.303	50638.33
691.65	50549.74
691.997	50476.75
692.344	50321.28
692.69	50328.28
693.037	50155.86
693.383	50067.05
693.73	50121.51
694.077	49892.36
694.423	49857.56
694.769	49808.97
695.116	49602.2
695.462	49625.7
695.808	49399.94
696.155	49495.08
696.501	49166.5
696.847	49209.89
697.193	48906.62
697.539	49101.65
697.885	48748.89
698.231	48750.7
698.577	48730.13
698.923	48620.08
699.269	48470.02
699.614	48219.64
699.96	48262.57
700.306	48212.18
700.651	48096.93
700.997	47922.69
701.342	47924.5
701.688	47689.25
702.033	47796.14
702.379	47708.92
702.724	47439.32
703.069	47494.91
703.415	47128.82
703.76	47249.04
704.105	47186.22
704.45	46946.45
704.795	46816.51
705.14	46712.78
705.485	46684.54
705.83	46411.55
706.175	46392.11
706.52	46315.73
706.865	46237.09
707.209	46260.82
707.554	45995.29
707.899	46030.32
708.243	45899.7
708.588	45749.87
708.932	45554.85
709.277	45480.5
709.621	45522.08
709.966	45319.15
710.31	45262.2
710.654	44893.62
710.998	45067.63
711.342	45000.96
711.687	44983.79
712.031	44751.7
712.375	44630.35
712.719	44717.81
713.063	44566.85
713.407	44701.31
713.75	44291.6
714.094	44266.07
714.438	44221.32
714.782	44304.71
715.125	44011.16
715.469	44032.63
715.812	43823.59
716.156	43628.34
716.499	43707.89
716.843	43749.25
717.186	43439.42
717.53	43507.44
717.873	43677.61
718.216	43371.85
718.559	43356.04
718.902	43051.18
719.246	43114.69
719.589	42992.88
719.932	42712.66
720.275	42735.03
720.617	42756.05
720.96	42727.13
721.303	42726.67
721.646	42604.87
721.989	42328.49
722.331	42522.84
722.674	42417.08
723.016	42344.54
723.359	42246.91
723.701	42277.87
724.044	41984.32
724.386	41820.71
724.729	42077.2
725.071	41823.42
725.413	41859.13
725.755	41745.23
726.097	41462.98
726.439	41448.06
726.782	41363.09
727.124	41657.55
727.465	41217.56
727.807	41237.45
728.149	41101.41
728.491	41141.18
728.833	41140.95
729.175	41075.87
729.516	40750.23
729.858	40820.28
730.199	40787.52
730.541	40632.49
730.882	40712.94
731.224	40602.44
731.565	40441.54
731.906	40543.23
732.248	40552.27
732.589	40249.9
732.93	40166.29
733.271	40247.42
733.612	40190.02
733.953	40281.77
734.294	40023.69
734.635	39930.14
734.976	40033.41
735.317	39772.63
735.658	39813.98
735.999	39691.27
736.339	39621.9
736.68	39668.9
737.021	39500.54
737.361	39353.88
737.702	39554.78
738.042	39390.49
738.383	39344.39
738.723	39250.83
739.063	39018.07
739.404	39051.06
739.744	39107.79
740.084	38931.07
740.424	38965.87
740.764	38760.9
741.104	38895.14
741.444	38843.61
741.784	38599.78
742.124	38762.03
742.464	38636.16
742.804	38571.53
743.143	38620.57
743.483	38369.27
743.823	38248.37
744.162	38231.88
744.502	38303.29
744.841	38033.46
745.181	38135.83
745.52	38109.62
745.86	38018.1
746.199	37896.29
746.538	37796.63
746.877	37817.88
747.216	37824.88
747.556	37778.78
747.895	37600.71
748.234	37511.67
748.573	37485.91
748.911	37537.43
749.25	37390.99
749.589	37166.82
749.928	37231.22
750.267	37390.54
750.605	37250.21
750.944	37075.07
751.283	36824.91
751.621	36969.99
751.96	36712.37
752.298	36780.84
752.636	36630.79
