Data from whiteboard_FLMS001491_00084.txt Node
Date: Wed Feb 08 11:28:29 GMT 2017
User: dcchb
Spectrometer: FLMS00149
Trigger mode: 0
Integration Time (sec): 2.000000E-2
Scans to average: 10
Electric dark correction enabled: true
Nonlinearity correction enabled: false
Boxcar width: 0
XAxis mode: Wavelengths
Number of Pixels in Spectrum: 2048
>>>>>Begin Spectral Data<<<<<
341.393	0.18
341.776	0.18
342.16	0.18
342.543	-43.66
342.927	-66.48
343.31	-76.42
343.693	-70.1
344.077	-73.49
344.46	-63.77
344.843	-47.27
345.226	-33.94
345.61	-48.63
345.993	-35.3
346.376	-10.89
346.759	20.75
347.142	23.23
347.525	43.57
347.908	71.37
348.291	91.25
348.674	95.32
349.057	114.3
349.44	141.2
349.823	134.87
350.206	166.28
350.588	225.49
350.971	239.5
351.354	260.74
351.737	276.79
352.119	274.07
352.502	294.41
352.884	301.42
353.267	307.52
353.65	316.11
354.032	327.86
354.414	332.83
354.797	348.42
355.179	364.92
355.562	348.2
355.944	355.43
356.326	360.17
356.709	393.85
357.091	373.06
357.473	379.16
357.855	375.31
358.238	391.59
358.62	376.9
359.002	371.7
359.384	373.06
359.766	388.65
360.148	370.8
360.53	394.3
360.912	380.29
361.294	378.48
361.676	378.25
362.057	371.47
362.439	367.18
362.821	387.29
363.203	386.61
363.584	355.65
363.966	365.6
364.348	364.02
364.729	363.56
365.111	345.71
365.493	347.52
365.874	345.26
366.256	372.38
366.637	368.31
367.019	361.53
367.4	368.31
367.781	368.31
368.163	362.43
368.544	371.47
368.925	361.98
369.306	346.39
369.688	338.03
370.069	357.69
370.45	368.54
370.831	372.38
371.212	342.1
371.593	362.66
371.974	361.76
372.355	362.43
372.736	356.56
373.117	374.41
373.498	374.19
373.879	368.99
374.26	363.11
374.641	382.77
375.021	371.93
375.402	373.28
375.783	393.62
376.163	393.62
376.544	385.03
376.925	381.87
377.305	400.4
377.686	399.27
378.066	387.74
378.447	395.2
378.827	414.41
379.208	378.25
379.588	425.48
379.968	403.56
380.349	414.64
380.729	417.12
381.109	413.73
381.489	404.92
381.87	415.77
382.25	408.76
382.63	434.3
383.01	422.55
383.39	422.77
383.77	435.43
384.15	424.35
384.53	452.83
384.91	430.68
385.29	437.46
385.67	468.19
386.049	472.94
386.429	454.18
386.809	444.01
387.189	472.04
387.568	455.99
387.948	442.88
388.328	472.26
388.707	495.54
389.087	484.69
389.466	477.01
389.846	486.5
390.225	490.79
390.605	508.87
390.984	503.45
391.363	497.57
391.743	515.2
392.122	525.37
392.501	550
392.881	541.19
393.26	569.21
393.639	557.68
394.018	574.41
394.397	576.44
394.776	578.47
395.155	572.37
395.534	594.29
395.913	603.33
396.292	613.95
396.671	603.56
397.05	641.07
397.429	634.74
397.808	646.49
398.186	671.58
398.565	657.34
398.944	645.14
399.323	661.86
399.701	670.22
400.08	725.36
400.458	718.81
400.837	717.23
401.215	726.94
401.594	742.54
401.972	739.83
402.351	733.72
402.729	769.65
403.107	789.09
403.486	803.33
403.864	808.3
404.242	829.31
404.62	833.38
404.999	858.47
405.377	885.13
405.755	865.92
406.133	908.41
406.511	925.36
406.889	921.06
407.267	988.86
407.645	980.5
408.023	985.02
408.401	1007.16
408.779	1036.31
409.156	1068.4
409.534	1088.52
409.912	1105.24
410.29	1127.61
410.667	1128.06
411.045	1168.29
411.422	1182.75
411.8	1216.2
412.178	1247.16
412.555	1256.87
412.933	1287.38
413.31	1319.7
413.687	1313.14
414.065	1356.76
414.442	1335.74
414.819	1354.95
415.197	1398.79
415.574	1420.94
415.951	1448.96
416.328	1471.33
416.705	1498.45
417.082	1506.58
417.46	1513.82
417.837	1564.66
418.214	1539.58
418.591	1568.28
418.967	1618.67
419.344	1610.54
419.721	1677.2
420.098	1640.14
420.475	1674.26
420.852	1688.05
421.228	1719.46
421.605	1710.87
421.982	1796.29
422.358	1773.7
422.735	1816.63
423.111	1828.84
423.488	1867.03
423.864	1860.47
424.241	1908.61
424.617	1928.27
424.994	1934.6
425.37	1953.13
425.746	1961.49
426.123	1997.87
426.499	2019.34
426.875	2014.59
427.251	2064.76
427.627	2081.26
428.003	2123.74
428.379	2175.04
428.756	2218.2
429.132	2209.62
429.507	2220.24
429.883	2288.26
430.259	2323.29
430.635	2359.67
431.011	2403.06
431.387	2475.82
431.763	2493.23
432.138	2500.68
432.514	2546.56
432.89	2565.99
433.265	2633.11
433.641	2663.16
434.016	2623.84
434.392	2712.2
434.767	2783.39
435.143	2766.66
435.518	2787.23
435.894	2831.52
436.269	2867
436.644	2894.8
437.02	2933.67
437.395	2957.17
437.77	2998.75
438.145	3032.19
438.52	3095.24
438.895	3120.55
439.271	3122.14
439.646	3209.59
440.021	3237.61
440.395	3197.61
440.77	3205.07
441.145	3281.68
441.52	3335.92
441.895	3302.47
442.27	3344.95
442.645	3372.98
443.019	3397.83
443.394	3396.03
443.769	3467.89
444.143	3455.01
444.518	3516.7
444.892	3502.69
445.267	3516.25
445.641	3587.43
446.016	3626.08
446.39	3632.86
446.764	3669.24
447.139	3642.12
447.513	3737.26
447.887	3708.79
448.262	3713.76
448.636	3773.42
449.01	3838.95
449.384	3867.65
449.758	3898.16
450.132	3916.01
450.506	3962.79
450.88	3976.8
451.254	4031.94
451.628	4057.7
452.002	4142.22
452.376	4146.97
452.75	4185.16
453.123	4199.17
453.497	4281.2
453.871	4317.36
454.244	4399.84
454.618	4483
454.992	4524.13
455.365	4521.65
455.739	4657.01
456.112	4698.82
456.486	4722.77
456.859	4795.76
457.232	4897.46
457.606	4862.43
457.979	4975.65
458.352	5067.17
458.725	5092.48
459.099	5109.88
459.472	5285.47
459.845	5247.73
460.218	5314.17
460.591	5375.41
460.964	5444.33
461.337	5520.26
461.71	5614.27
462.083	5650.66
462.456	5714.16
462.829	5731.11
463.201	5837.32
463.574	5867.6
463.947	5974.49
464.32	6099.91
464.692	6158.44
465.065	6222.17
465.438	6323.63
465.81	6411.54
466.183	6402.5
466.555	6559.11
466.928	6638.88
467.3	6618.54
467.672	6766.79
468.045	6936.05
468.417	6918.65
468.789	6991.41
469.161	7115.25
469.534	7196.6
469.906	7375.36
470.278	7431.4
470.65	7456.48
471.022	7625.75
471.394	7804.5
471.766	7868.45
472.138	7984.15
472.51	8144.83
472.882	8279.74
473.253	8345.95
473.625	8462.56
473.997	8677.24
474.369	8676.34
474.74	8806.51
475.112	8978.25
475.484	9123.79
475.855	9245.59
476.227	9387.51
476.598	9704.11
476.97	9644.9
477.341	9979.13
477.713	10068.39
478.084	10093.48
478.455	10494.37
478.827	10465.67
479.198	10875.6
479.569	10819.33
479.94	11154.24
480.311	11238.08
480.682	11564.4
481.053	11719.88
481.424	11858.4
481.795	12049.36
482.166	12225.85
482.537	12338.16
482.908	12678.95
483.279	12772.05
483.65	13046.39
484.021	13276.67
484.391	13467.85
484.762	13481.19
485.133	13714.17
485.503	13865.36
485.874	14235.06
486.244	14287.72
486.615	14553.7
486.985	14805.9
487.356	14997.3
487.726	15271.87
488.097	15460.57
488.467	15519.55
488.837	15858.3
489.207	16020.55
489.578	16240.21
489.948	16379.64
490.318	16660.99
490.688	16717.94
491.058	17016.01
491.428	17208.32
491.798	17371.25
492.168	17733.5
492.538	17796.78
492.908	17954.29
493.278	18226.82
493.648	18267.73
494.017	18524.67
494.387	18619.58
494.757	18860.93
495.126	18992.45
495.496	19110.42
495.866	19248.27
496.235	19375.49
496.605	19650.74
496.974	19728.93
497.344	19858.87
497.713	20106.77
498.082	20145.64
498.452	20330.72
498.821	20517.38
499.19	20548.12
499.559	20824.72
499.928	20790.6
500.298	21085.73
500.667	21340.41
501.036	21239.63
501.405	21525.49
501.774	21622.89
502.143	21722.78
502.512	21855.65
502.88	22131.58
503.249	22115.53
503.618	22268.3
503.987	22467.62
504.356	22575.41
504.724	22635.07
505.093	22860.6
505.462	23005.23
505.83	23125.68
506.199	23372
506.567	23586.68
506.936	23581.94
507.304	23934.47
507.672	23946.45
508.041	23970.63
508.409	24239.55
508.777	24399.32
509.145	24664.39
509.514	24571.51
509.882	24829.14
510.25	24946.19
510.618	25176.47
510.986	25180.54
511.354	25422.11
511.722	25686.51
512.09	25887.86
512.458	25935.32
512.826	26253.05
513.193	26274.3
513.561	26420.51
513.929	26690.1
514.297	26810.33
514.664	26969.87
515.032	27236.53
515.4	27534.37
515.767	27465.45
516.135	27616.41
516.502	27535.05
516.869	28124.87
517.237	28222.94
517.604	28219.1
517.972	28605.76
518.339	28688.69
518.706	28921.46
519.073	29113.99
519.44	29392.18
519.808	29559.18
520.175	29605.51
520.542	30034.2
520.909	30157.58
521.276	30217.47
521.643	30626.27
522.009	30714.63
522.376	30910.78
522.743	31231.9
523.11	31487.49
523.477	31794.38
523.843	31867.82
524.21	32260.58
524.577	32447.69
524.943	32498.54
525.31	32660.79
525.676	32943.95
526.043	33187.79
526.409	33400.89
526.776	33652.41
527.142	33768.79
527.508	34089.68
527.874	34204.71
528.241	34323.35
528.607	34508.65
528.973	34915.65
529.339	34853.28
529.705	35280.39
530.071	35563.09
530.437	35764.44
530.803	35871.1
531.169	36046.92
531.535	36145
531.901	36375.95
532.267	36661.37
532.632	36818.65
532.998	36966.44
533.364	37225.87
533.73	37311.52
534.095	37524.39
534.461	37626.31
534.826	37892.07
535.192	38029.47
535.557	38303.58
535.923	38300.87
536.288	38324.37
536.653	38593.75
537.019	38664.25
537.384	38628.77
537.749	38984.92
538.114	38994.86
538.479	39191.7
538.845	39541.97
539.21	39373.61
539.575	39517.56
539.94	39701.06
540.305	40000.94
540.67	39867.16
541.034	40095.85
541.399	40173.82
541.764	40429.86
542.129	40365.22
542.494	40506.92
542.858	40560.47
543.223	40720.02
543.587	41033.23
543.952	40945.1
544.316	41167.01
544.681	41153.68
545.045	41513.89
545.41	41677.28
545.774	41853.55
546.138	41754.57
546.503	41958.85
546.867	41900.1
547.231	42392.52
547.595	42395.23
547.959	42559.74
548.324	42740.08
548.688	42757.93
549.052	42953.18
549.416	43001.99
549.779	43098.94
550.143	43283.34
550.507	43655.76
550.871	43736.66
551.235	43677.45
551.599	44153.6
551.962	44161.51
552.326	44175.97
552.689	44513.36
553.053	44356.08
553.417	44514.95
553.78	44938.21
554.143	44731.66
554.507	44987.7
554.87	45220.92
555.234	45498.65
555.597	45428.14
555.96	45534.35
556.323	45697.29
556.686	45808.24
557.05	46053.21
557.413	46129.14
557.776	46274.67
558.139	46495.68
558.502	46633.08
558.865	46720.99
559.228	46904.94
559.59	46996.01
559.953	47163.46
560.316	47525.94
560.679	47529.1
561.041	47772.03
561.404	47965.25
561.767	48084.57
562.129	48091.35
562.492	48552.81
562.854	48573.82
563.217	48554.61
563.579	48642.52
563.941	48990.53
564.304	49245.44
564.666	49350.98
565.028	49435.49
565.39	49464.65
565.753	49701.25
566.115	49855.82
566.477	49987.8
566.839	50045.42
567.201	50412.87
567.563	50451.51
567.925	50682.92
568.287	50709.13
568.648	50780.77
569.01	50956.58
569.372	51173.75
569.734	51049.91
570.095	51306.86
570.457	51395.22
570.819	51489.9
571.18	51474.76
571.542	51643.57
571.903	51797.92
572.265	51899.38
572.626	51958.14
572.987	52069.77
573.349	52148.64
573.71	52104.35
574.071	52304.57
574.432	52470.22
574.794	52630.66
575.155	52582.76
575.516	52555.86
575.877	52620.72
576.238	52766.71
576.599	52904.56
576.96	52876.99
577.32	52914.72
577.681	53051.9
578.042	53107.71
578.403	53160.59
578.763	53220.93
579.124	53288.73
579.485	53253.92
579.845	53479
580.206	53322.17
580.566	53340.93
580.927	53476.74
581.287	53564.42
581.648	53413.47
582.008	53537.76
582.368	53485.78
582.728	53671.99
583.089	53500.7
583.449	53569.85
583.809	53606.23
584.169	53684.42
584.529	53569.4
584.889	53848.03
585.249	53661.15
585.609	53589.51
585.969	53790.86
586.329	53752.67
586.688	53725.55
587.048	53711.77
587.408	53641.71
587.768	53681.26
588.127	53693.01
588.487	53649.85
588.846	53836.73
589.206	53556.52
589.565	53694.14
589.925	53750.86
590.284	53663.63
590.643	53828.15
591.003	53912.66
591.362	53930.29
591.721	53952.66
592.08	53821.59
592.44	53918.54
592.799	53984.07
593.158	53873.12
593.517	53987.46
593.876	53975.26
594.235	53801.25
594.593	53798.77
594.952	53874.25
595.311	53903.4
595.67	53933.45
596.029	54035.82
596.387	54051.42
596.746	54100.68
597.104	53939.33
597.463	54016.16
597.822	54072.21
598.18	53989.95
598.538	54051.19
598.897	54195.59
599.255	54004.87
599.613	54300.68
599.972	54251.41
600.33	54324.4
600.688	54221.58
601.046	54275.14
601.404	54357.17
601.762	54367.12
602.12	54446.89
602.478	54451.18
602.836	54439.43
603.194	54352.43
603.552	54314.01
603.91	54242.37
604.268	54409.6
604.625	54314.91
604.983	54464.74
605.341	54258.42
605.698	54387.23
606.056	54360.56
606.413	54397.85
606.771	54464.97
607.128	54481.24
607.485	54418.87
607.843	54470.16
608.2	54556.26
608.557	54651.63
608.914	54572.76
609.272	54753.09
609.629	54674.23
609.986	54830.61
610.343	54685.53
610.7	54851.4
611.057	54737.5
611.414	54702.93
611.771	54794
612.127	54953.31
612.484	54893.43
612.841	54958.51
613.198	54818.63
613.554	54915.58
613.911	55067.66
614.267	55013.43
614.624	54987.44
614.98	55017.27
615.337	55170.71
615.693	55150.37
616.05	55144.72
616.406	55318.28
616.762	55222.91
617.118	55183.82
617.475	55141.11
617.831	55249.8
618.187	55300.42
618.543	55230.14
618.899	55464.71
619.255	55417.48
619.611	55330.48
619.967	55434.66
620.323	55512.85
620.678	55388.78
621.034	55328.67
621.39	55304.72
621.746	55212.74
622.101	55515.33
622.457	55344.04
622.812	55272.85
623.168	55338.62
623.523	55391.72
623.879	55472.4
624.234	55284.15
624.589	55337.94
624.945	55360.99
625.3	55382
625.655	55305.85
626.01	55406.41
626.365	55359.41
626.72	55308.56
627.075	55245.96
627.43	55273.98
627.785	55114.21
628.14	55262.23
628.495	55271.27
628.85	55231.27
629.205	55109.24
629.559	55210.48
629.914	55099.07
630.269	55054.33
630.623	55019.98
630.978	54916.93
631.332	55055.91
631.687	55076.7
632.041	54871.51
632.396	54935.91
632.75	54886.88
633.104	54932.07
633.459	54757.39
633.813	54811.4
634.167	54894.33
634.521	54859.08
634.875	54818.4
635.229	54734.34
635.583	54578.86
635.937	54653.44
636.291	54663.83
636.645	54575.7
636.999	54527.56
637.352	54692.08
637.706	54442.14
638.06	54584.96
638.413	54494.12
638.767	54322.15
639.121	54471.07
639.474	54263.16
639.828	54334.57
640.181	54337.29
640.534	54256.16
640.888	54183.39
641.241	54083.96
641.594	54138.65
641.947	54241.02
642.301	54113.34
642.654	54112.21
643.007	54089.38
643.36	54121.92
643.713	53942.04
644.066	54109.72
644.419	53911.76
644.771	53728.04
645.124	53264.77
645.477	53246.24
645.83	53081.5
646.182	53001.05
646.535	52881.96
646.888	53000.15
647.24	52837.44
647.593	52983.2
647.945	52964.44
648.298	52702.98
648.65	52709.76
649.002	52610.33
649.355	52625.47
649.707	52551.57
650.059	52642.19
650.411	52991.33
650.763	53089.41
651.115	53379.8
651.467	53191.1
651.819	53198.56
652.171	53064.78
652.523	53089.41
652.875	53077.66
653.227	52888.28
653.578	53107.49
653.93	53018.9
654.282	52921.5
654.633	52868.17
654.985	52898
655.337	52863.2
655.688	52868.62
656.039	52902.3
656.391	52727.16
656.742	52659.14
657.094	52668.63
657.445	52692.81
657.796	52666.82
658.147	52564.68
658.498	52649.42
658.849	52666.14
659.2	52564
659.551	52515.41
659.902	52573.04
660.253	52518.35
660.604	52530.33
660.955	52349.54
661.306	52497.11
661.656	52418.47
662.007	52392.03
662.358	52430.9
662.708	52443.1
663.059	52314.97
663.409	52170.34
663.76	52446.71
664.11	52426.15
664.461	52345.02
664.811	52444.23
665.161	52401.29
665.511	52205.59
665.862	52224.57
666.212	52347.96
666.562	52293.05
666.912	52211.24
667.262	52215.76
667.612	52137.8
667.962	52184.8
668.312	52087.18
668.662	52378.02
669.011	52117.91
669.361	52063.45
669.711	52017.57
670.06	52009.66
670.41	51895.77
670.76	51871.36
671.109	51886.73
671.459	51898.71
671.808	51780.74
672.157	51919.27
672.507	51642.22
672.856	51622.56
673.205	51658.94
673.554	51750.46
673.904	51585.04
674.253	51770.12
674.602	51629.11
674.951	51100.76
675.3	50954.78
675.649	51420.3
675.998	51382.34
676.346	51479.06
676.695	51429.11
677.044	51174.88
677.393	51234.99
677.741	51297.82
678.09	51207.2
678.438	51001.33
678.787	51219.4
679.135	51208.78
679.484	50905.51
679.832	51037.71
680.181	50783.48
680.529	50973.53
680.877	50825.74
681.225	50779.87
681.573	50945.51
681.922	50680.66
682.27	50557.95
682.618	50587.78
682.966	50370.61
683.314	50466.43
683.661	50370.16
684.009	50257.62
684.357	50075.7
684.705	50020.34
685.053	50103.5
685.4	50048.13
685.748	49932.43
686.095	49869.38
686.443	49894.01
686.79	49717.75
687.138	49834.58
687.485	49815.6
687.832	49529.5
688.18	49525.66
688.527	49477.07
688.874	49465.32
689.221	49231.66
689.568	49096.07
689.915	49023.75
690.262	48946.69
690.609	48902.63
690.956	48778.11
691.303	48734.27
691.65	48591.67
691.997	48597.78
692.344	48313.72
692.69	48292.47
693.037	48358.91
693.383	47886.38
693.73	48025.81
694.077	47929.54
694.423	47763.67
694.769	47615.88
695.116	47505.38
695.462	47496.34
695.808	47390.58
696.155	47544.47
696.501	47228.09
696.847	47240.07
697.193	46930.7
697.539	46982.23
697.885	46850.48
698.231	46659.52
698.577	46634.44
698.923	46477.83
699.269	46348.57
699.614	46143.83
699.96	45997.17
700.306	46078.75
700.651	45884.17
700.997	45677.17
701.342	45606.44
701.688	45488.93
702.033	45406.45
702.379	45332.1
702.724	45160.13
703.069	45268.6
703.415	44720.36
703.76	44803.98
704.105	44872.68
704.45	44875.16
704.795	44453.48
705.14	44384.33
705.485	44271.79
705.83	44107.27
706.175	44316.31
706.52	44049.19
706.865	43872.25
707.209	43861.18
707.554	43706.15
707.899	43813.95
708.243	43644.69
708.588	43494.86
708.932	43214.64
709.277	43190.91
709.621	43185.71
709.966	43087.64
710.31	42962.22
710.654	42627.54
710.998	42767.42
711.342	42764.03
711.687	42544.38
712.031	42356.58
712.375	42235.46
712.719	42399.97
713.063	42133.09
713.407	42310.71
713.75	42090.38
714.094	42005.41
714.438	41854.22
714.782	41862.81
715.125	41695.58
715.469	41668.47
715.812	41366.1
716.156	41209.95
716.499	41414.91
716.843	41326.78
717.186	41045.21
717.53	41157.29
717.873	40947.58
718.216	41089.05
718.559	40775.61
718.902	40634.14
719.246	40630.75
719.589	40517.31
719.932	40293.81
720.275	40352.12
720.617	40330.87
720.96	40185.79
721.303	40132.69
721.646	40279.8
721.989	40131.78
722.331	40079.58
722.674	39887.95
723.016	39794.62
723.359	39610.22
723.701	39888.4
724.044	39617
724.386	39396.89
724.729	39539.03
725.071	39402.76
725.413	39368.87
725.755	39333.61
726.097	39093.84
726.439	38938.82
726.782	38976.11
727.124	39107.86
727.465	38816.11
727.807	38817.69
728.149	38722.78
728.491	38757.36
728.833	38691.14
729.175	38486.63
729.516	38527.08
729.858	38359.85
730.199	38376.35
730.541	38252.06
730.882	38259.06
731.224	38351.04
731.565	37904.95
731.906	37987.21
732.248	38061.33
732.589	37888.68
732.93	37691.62
733.271	37674.22
733.612	37867.66
733.953	37728.91
734.294	37649.59
734.635	37532.98
734.976	37527.33
735.317	37433.32
735.658	37345.87
735.999	37368.01
736.339	37205.76
736.68	37181.58
737.021	37130.51
737.361	36933.68
737.702	37096.84
738.042	37033.33
738.383	36853.23
738.723	36956.73
739.063	36731.65
739.404	36737.3
739.744	36689.16
740.084	36400.36
740.424	36468.15
740.764	36475.61
741.104	36558.77
741.444	36395.16
741.784	36137.99
742.124	36276.29
742.464	36187.48
742.804	36028.16
743.143	36042.4
743.483	36064.32
743.823	35810.77
744.162	35700.94
744.502	35798.56
744.841	35587.27
745.181	35692.8
745.52	35591.79
745.86	35598.12
746.199	35453.04
746.538	35325.81
746.877	35420.27
747.216	35306.6
747.556	35192.25
747.895	35231.35
748.234	34949.77
748.573	34945.25
748.911	35005.36
749.25	34919.27
749.589	34814.41
749.928	34604.47
750.267	34748.87
750.605	34634.75
750.944	34411.48
751.283	34356.57
751.621	34341.88
751.96	34154.99
752.298	34251.49
752.636	34132.39
752.975	33983.02
