Data from White_paper_FLMS001491_011.txt Node
Date: Tue Feb 07 10:34:43 GMT 2017
User: dcchb
Spectrometer: FLMS00149
Trigger mode: 0
Integration Time (sec): 2.000000E-2
Scans to average: 10
Electric dark correction enabled: true
Nonlinearity correction enabled: false
Boxcar width: 0
XAxis mode: Wavelengths
Number of Pixels in Spectrum: 2048
>>>>>Begin Spectral Data<<<<<
341.393	-9.52
341.776	-9.52
342.16	-9.52
342.543	-56.52
342.927	-49.07
343.31	-56.52
343.693	-69.63
344.077	-73.92
344.46	-68.95
344.843	-51.1
345.226	-28.95
345.61	-24.43
345.993	-9.75
346.376	4.49
346.759	14.21
347.142	30.93
347.525	51.04
347.908	53.08
348.291	66.64
348.674	77.03
349.057	85.85
349.44	135.11
349.823	138.05
350.206	171.72
350.588	218.05
350.971	234.99
351.354	245.39
351.737	264.37
352.119	269.8
352.502	303.69
352.884	292.62
353.267	313.18
353.65	311.15
354.032	335.1
354.414	326.97
354.797	350.25
355.179	346.4
355.562	359.28
355.944	364.26
356.326	354.76
356.709	342.56
357.091	362.67
357.473	371.71
357.855	374.88
358.238	379.62
358.62	371.49
359.002	369.91
359.384	379.4
359.766	381.88
360.148	365.84
360.53	377.36
360.912	361.54
361.294	359.06
361.676	355.67
362.057	360.41
362.439	356.12
362.821	345.5
363.203	373.97
363.584	366.52
363.966	350.92
364.348	365.61
364.729	347.31
365.111	346.63
365.493	359.96
365.874	392.05
366.256	363.13
366.637	351.83
367.019	345.95
367.4	356.12
367.781	366.74
368.163	345.27
368.544	366.52
368.925	357.25
369.306	373.3
369.688	363.8
370.069	381.88
370.45	366.29
370.831	363.58
371.212	377.59
371.593	349.79
371.974	359.74
372.355	365.61
372.736	372.17
373.117	376.23
373.498	366.74
373.879	371.26
374.26	359.74
374.641	359.06
375.021	373.3
375.402	378.72
375.783	384.37
376.163	386.85
376.544	401.54
376.925	390.47
377.305	399.51
377.686	390.47
378.066	395.44
378.447	384.37
378.827	394.31
379.208	382.56
379.588	396.12
379.968	414.2
380.349	424.59
380.729	413.29
381.109	388.89
381.489	428.21
381.87	396.57
382.25	418.94
382.63	419.17
383.01	422.56
383.39	437.7
383.77	433.86
384.15	430.69
384.53	433.86
384.91	454.88
385.29	444.48
385.67	432.95
386.049	452.62
386.429	449.23
386.809	454.42
387.189	460.75
387.568	458.04
387.948	471.82
388.328	453.29
388.707	463.24
389.087	468.21
389.466	459.17
389.846	479.96
390.225	508.43
390.605	480.19
390.984	492.61
391.363	501.43
391.743	501.88
392.122	508.66
392.501	512.5
392.881	499.17
393.26	533.52
393.639	533.52
394.018	544.14
394.397	534.65
394.776	539.39
395.155	555.66
395.534	547.3
395.913	535.78
396.292	570.58
396.671	558.38
397.05	581.43
397.429	572.61
397.808	567.19
398.186	597.02
398.565	569.9
398.944	576.91
399.323	585.27
399.701	617.58
400.08	639.05
400.458	633.4
400.837	632.5
401.215	631.37
401.594	661.65
401.972	663.68
402.351	641.99
402.729	676.34
403.107	661.65
403.486	698.03
403.864	714.98
404.242	715.89
404.62	743.46
404.999	731.03
405.377	762.89
405.755	754.98
406.133	785.71
406.511	792.49
406.889	829.33
407.267	839.95
407.645	840.63
408.023	877.01
408.401	917.69
408.779	910
409.156	952.72
409.534	963.11
409.912	984.13
410.29	985.71
410.667	998.14
411.045	1038.81
411.422	1079.04
411.8	1093.28
412.178	1119.26
412.555	1160.17
412.933	1171.24
413.31	1229.54
413.687	1220.28
414.065	1271.12
414.442	1277.68
414.819	1319.94
415.197	1330.78
415.574	1369.43
415.951	1433.83
416.328	1430.22
416.705	1439.48
417.082	1470.44
417.46	1507.05
417.837	1550.89
418.214	1537.11
418.591	1586.82
418.967	1620.49
419.344	1622.98
419.721	1665.24
420.098	1707.72
420.475	1721.96
420.852	1729.87
421.228	1753.82
421.605	1815.07
421.982	1806.48
422.358	1844.89
422.735	1875.4
423.111	1893.03
423.488	1902.75
423.864	1930.77
424.241	2004.44
424.617	2002.18
424.994	2046.02
425.37	2049.18
425.746	2052.35
426.123	2143.87
426.499	2155.62
426.875	2133.47
427.251	2203.76
427.627	2262.51
428.003	2288.05
428.379	2305
428.756	2348.38
429.132	2394.03
429.507	2373.24
429.883	2466.8
430.259	2478.78
430.635	2512.22
431.011	2526.23
431.387	2597.19
431.763	2640.81
432.138	2674.48
432.514	2745.44
432.89	2740.24
433.265	2804.87
433.641	2812.55
434.016	2831.54
434.392	2926.22
434.767	2950.63
435.143	2965.09
435.518	3034.69
435.894	3047.8
436.269	3085.09
436.644	3149.27
437.02	3160.57
437.395	3218.64
437.77	3233.79
438.145	3283.05
438.52	3341.13
438.895	3343.84
439.271	3349.71
439.646	3458.86
440.021	3452.76
440.395	3453.89
440.77	3467.9
441.145	3509.48
441.52	3591.06
441.895	3587
442.27	3652.76
442.645	3610.05
443.019	3676.03
443.394	3685.07
443.769	3731.85
444.143	3721.46
444.518	3797.61
444.892	3779.53
445.267	3805.75
445.641	3792.19
446.016	3823.6
446.39	3912.19
446.764	3894.11
447.139	3887.1
447.513	3967.55
447.887	3975.69
448.262	3966.87
448.636	4009.58
449.01	4041
449.384	4136.59
449.758	4090.03
450.132	4152.86
450.506	4168
450.88	4224.04
451.254	4206.41
451.628	4254.1
452.002	4336.35
452.376	4359.41
452.75	4418.84
453.123	4469.23
453.497	4471.49
453.871	4567.54
454.244	4626.52
454.618	4652.73
454.992	4692.5
455.365	4711.94
455.739	4823.57
456.112	4901.76
456.486	4917.13
456.859	4942.67
457.232	5083.45
457.606	5036.9
457.979	5093.62
458.352	5226.73
458.725	5275.54
459.099	5309.89
459.472	5465.82
459.845	5459.04
460.218	5535.87
460.591	5561.18
460.964	5599.6
461.337	5713.72
461.71	5759.82
462.083	5861.96
462.456	5818.12
462.829	5937.89
463.201	6040.72
463.574	6026.93
463.947	6093.82
464.32	6302.18
464.692	6317.09
465.065	6406.81
465.438	6484.77
465.81	6567.03
466.183	6656.07
466.555	6822.39
466.928	6823.3
467.3	6863.29
467.672	6924.08
468.045	7117.98
468.417	7084.08
468.789	7230.06
469.161	7277.52
469.534	7398.42
469.906	7561.13
470.278	7665.98
470.65	7680.67
471.022	7840.22
471.394	8034.79
471.766	8030.5
472.138	8160.21
472.51	8351.16
472.882	8504.15
473.253	8498.05
473.625	8704.83
473.997	8870.25
474.369	8852.85
474.74	8995.44
475.112	9212.84
475.484	9390.23
475.855	9525.15
476.227	9574.86
476.598	9865.25
476.97	9909.77
477.341	10098.24
477.713	10314.95
478.084	10375.52
478.455	10619.13
478.827	10723.08
479.198	11029.51
479.569	10973.24
479.94	11364.64
480.311	11379.56
480.682	11742.94
481.053	11954.01
481.424	12043.27
481.795	12212.31
482.166	12392.87
482.537	12525.74
482.908	12858.84
483.279	12914.89
483.65	13176.12
484.021	13445.49
484.391	13625.83
484.762	13669.22
485.133	13853.17
485.503	14066.95
485.874	14366.15
486.244	14406.15
486.615	14697.66
486.985	14864.67
487.356	15051.78
487.726	15213.36
488.097	15581.26
488.467	15605.21
488.837	15953.9
489.207	16112.99
489.578	16251.97
489.948	16403.38
490.318	16730.38
490.688	16782.58
491.058	17079.52
491.428	17237.48
491.798	17438.16
492.168	17760.86
492.538	17762.67
492.908	17951.14
493.278	18204.24
493.648	18197.91
494.017	18508.86
494.387	18639.26
494.757	18819.59
495.126	18958.57
495.496	19083.09
495.866	19231.56
496.235	19393.59
496.605	19491.21
496.974	19677.42
497.344	19921.03
497.713	19952.44
498.082	20098.65
498.452	20321.7
498.821	20400.79
499.19	20502.48
499.559	20622.25
499.928	20757.62
500.298	20918.07
500.667	21089.13
501.036	21181.34
501.405	21381.56
501.774	21371.16
502.143	21622
502.512	21602.79
502.88	21843.24
503.249	21883.69
503.618	22130.92
503.987	22202.1
504.356	22266.73
504.724	22495.2
505.093	22583.11
505.462	22739.26
505.83	22795.08
506.199	23085.01
506.567	23358.23
506.936	23391.9
507.304	23569.75
507.672	23692.91
508.041	23713.47
508.409	23994.6
508.777	24074.37
509.145	24230.52
509.514	24329.05
509.882	24528.59
510.25	24559.78
510.618	24814.91
510.986	24802.26
511.354	25174.9
511.722	25359.08
512.09	25597.94
512.458	25512.3
512.826	25817.15
513.193	25898.05
513.561	26071.38
513.929	26235.89
514.297	26439.73
514.664	26632.72
515.032	26702.77
515.4	26951.35
515.767	26980.73
516.135	27246.94
516.502	27052.82
516.869	27551.79
517.237	27601.96
517.604	27612.35
517.972	28007.82
518.339	28077.2
518.706	28293.47
519.073	28200.59
519.44	28595.83
519.808	28930.74
520.175	28836.5
520.542	29202.59
520.909	29415.92
521.276	29452.3
521.643	29721.22
522.009	29900.88
522.376	30158.95
522.743	30376.12
523.11	30487.31
523.477	30885.49
523.843	31012.94
524.21	31253.84
524.577	31550.55
524.943	31614.28
525.31	31894.5
525.676	32203.87
526.043	32283.87
526.409	32438.21
526.776	32770.18
527.142	32836.85
527.508	33024.87
527.874	33361.81
528.241	33454.91
528.607	33471.41
528.973	33864.62
529.339	34022.35
529.705	34225.74
530.071	34480.42
530.437	34619.4
530.803	34931.48
531.169	35132.83
531.535	35090.35
531.901	35274.07
532.267	35315.2
532.632	35638.58
532.998	35693.72
533.364	35933.72
533.73	35846.94
534.095	36308.4
534.461	36371.44
534.826	36597.88
535.192	36710.64
535.557	36864.54
535.923	36887.14
536.288	37026.57
536.653	37248.26
537.019	37303.17
537.384	37490.29
537.749	37591.75
538.114	37745.19
538.479	37801.92
538.845	38147.9
539.21	38003.72
539.575	38262.47
539.94	38360.55
540.305	38672.63
540.67	38503.82
541.034	38731.83
541.399	38857.48
541.764	38957.59
542.129	39148.77
542.494	39305.83
542.858	39517.8
543.223	39625.14
543.587	39867.4
543.952	39731.81
544.316	39962.31
544.681	39872.82
545.045	40191.23
545.41	40350.1
545.774	40371.79
546.138	40418.8
546.503	40728.17
546.867	40701.5
547.231	41081.38
547.595	41106.24
547.959	41207.25
548.324	41386.91
548.688	41377.41
549.052	41671.87
549.416	41699.21
549.779	41662.61
550.143	41888.36
550.507	42174.23
550.871	42183.5
551.235	42321.57
551.599	42524.28
551.962	42547.33
552.326	42760.43
552.689	43062.34
553.053	42892.63
553.417	42896.92
553.78	43414.42
554.143	43287.65
554.507	43599.5
554.87	43747.75
555.234	44045.82
555.597	43894.64
555.96	44049.89
556.323	44285.36
556.686	44368.52
557.05	44647.84
557.413	44796.99
557.776	44779.81
558.139	45049.18
558.502	45122.4
558.865	45228.39
559.228	45448.95
559.59	45591.77
559.953	45588.83
560.316	46089.16
560.679	46039.21
561.041	46280.79
561.404	46325.08
561.767	46664.51
562.129	46496.38
562.492	46919.19
562.854	46913.31
563.217	47063.82
563.579	47377.26
563.941	47452.51
564.304	47536.35
564.666	47816.34
565.028	47931.82
565.39	48080.52
565.753	48219.27
566.115	48364.35
566.477	48560.05
566.839	48677.79
567.201	48963.88
567.563	48928.63
567.925	49072.81
568.287	49306.92
568.648	49315.74
569.01	49507.37
569.372	49757.76
569.734	49649.51
570.095	49906.46
570.457	49997.98
570.819	50123.63
571.18	50174.25
571.542	50468.48
571.903	50555.48
572.265	50686.77
572.626	50750.5
572.987	50801.12
573.349	50956.82
573.71	50985.98
574.071	51139.42
574.432	51244.27
574.794	51434.78
575.155	51467.77
575.516	51348.9
575.877	51608.56
576.238	51571.05
576.599	51763.36
576.96	51827.99
577.32	51869.12
577.681	52035.89
578.042	52014.88
578.403	52028.66
578.763	52054.2
579.124	52162.89
579.485	52389.55
579.845	52498.7
580.206	52258.94
580.566	52431.14
580.927	52535.77
581.287	52600.4
581.648	52502.55
582.008	52701.18
582.368	52600.17
582.728	52834.29
583.089	52724.24
583.449	52622.99
583.809	52792.93
584.169	52900.5
584.529	52837.9
584.889	53035.64
585.249	52895.98
585.609	52832.48
585.969	53014.85
586.329	52862.31
586.688	53053.27
587.048	52989.99
587.408	52947.96
587.768	53070.89
588.127	53082.64
588.487	53025.47
588.846	53197.22
589.206	52948.86
589.565	52927.39
589.925	53194.05
590.284	53123.32
590.643	53187.27
591.003	53307.04
591.362	53436.53
591.721	53291.45
592.08	53402.86
592.44	53497.55
592.799	53404.22
593.158	53401.51
593.517	53349.08
593.876	53476.08
594.235	53427.49
594.593	53415.74
594.952	53531.67
595.311	53395.4
595.67	53495.97
596.029	53700.25
596.387	53669.3
596.746	53733.02
597.104	53591.33
597.463	53557.43
597.822	53704.77
598.18	53617.09
598.538	53554.72
598.897	53759.46
599.255	53609.41
599.613	53940.02
599.972	53788.84
600.33	53989.51
600.688	53747.49
601.046	53958.78
601.404	54034.03
601.762	54046.91
602.12	54163.75
602.478	54144.31
602.836	54041.94
603.194	53997.65
603.552	54022.28
603.91	53961.49
604.268	54177.53
604.625	54125.78
604.983	54177.98
605.341	54070.64
605.698	54137.98
606.056	54206.91
606.413	54190.64
606.771	54361.03
607.128	54336.62
607.485	54160.13
607.843	54196.06
608.2	54431.53
608.557	54453.23
608.914	54364.19
609.272	54467.01
609.629	54569.16
609.986	54654.58
610.343	54548.14
610.7	54763.73
611.057	54602.15
611.414	54648.03
611.771	54669.27
612.127	54741.13
612.484	54675.6
612.841	54845.99
613.198	54688.48
613.554	54771.41
613.911	54910.62
614.267	54929.37
614.624	54871.98
614.98	54898.87
615.337	54998.07
615.693	54951.3
616.05	54972.99
616.406	55008.47
616.762	55012.31
617.118	54953.78
617.475	54979.09
617.831	55072.65
618.187	54988.58
618.543	54999.88
618.899	55241.91
619.255	55181.8
619.611	55146.09
619.967	55289.59
620.323	55229.71
620.678	55233.77
621.034	55125.98
621.39	55152.42
621.746	55111.74
622.101	55381.57
622.457	55169.37
622.812	55247.78
623.168	55277.61
623.523	55273.32
623.879	55418.18
624.234	55236.49
624.589	55331.85
624.945	55305.86
625.3	55342.25
625.655	55372.3
626.01	55360.32
626.365	55409.14
626.72	55276.94
627.075	55333.88
627.43	55344.73
627.785	55258.86
628.14	55363.49
628.495	55314.68
628.85	55274.45
629.205	55278.07
629.559	55390.61
629.914	55227.22
630.269	55298.18
630.623	55200.33
630.978	55124.85
631.332	55270.38
631.687	55422.7
632.041	55201.23
632.396	55318.07
632.75	55219.99
633.104	55251.4
633.459	55102.93
633.813	55130.05
634.167	55126.66
634.521	55114
634.875	55079.43
635.229	55196.03
635.583	54956.27
635.937	55014.34
636.291	55006.21
636.645	54939.32
636.999	54979.32
637.352	55060.67
637.706	54840.79
638.06	55024.74
638.413	54922.82
638.767	54848.02
639.121	54978.64
639.474	54808.47
639.828	54767.8
640.181	54786.1
640.534	54889.6
640.888	54754.69
641.241	54667.91
641.594	54704.97
641.947	54868.13
642.301	54748.59
642.654	54736.16
643.007	54726.89
643.36	54722.15
643.713	54697.29
644.066	54683.73
644.419	54591.3
644.771	54400.12
645.124	54095.5
645.477	54056.4
645.83	53888.5
646.182	53891.44
646.535	53810.08
646.888	53840.36
647.24	53689.86
647.593	53951.32
647.945	53823.64
648.298	53717.2
648.65	53619.8
649.002	53544.1
649.355	53692.8
649.707	53723.3
650.059	53746.58
650.411	54137.76
650.763	54165.55
651.115	54430.86
651.467	54295.95
651.819	54288.49
652.171	54250.52
652.523	54206.23
652.875	54161.03
653.227	54064.76
653.578	54337.53
653.93	54249.62
654.282	54122.84
654.633	54108.15
654.985	54078.55
655.337	54108.61
655.688	54116.06
656.039	54204.42
656.391	53926.46
656.742	53996.07
657.094	54020.25
657.445	54100.7
657.796	54096.63
658.147	53996.97
658.498	54028.16
658.849	54007.59
659.2	54064.09
659.551	53950.64
659.902	54016.63
660.253	53880.81
660.604	53989.06
660.955	53777.99
661.306	53928.27
661.656	53816.41
662.007	53905.22
662.358	53864.09
662.708	53727.6
663.059	53819.8
663.409	53651.67
663.76	53862.28
664.11	53802.4
664.461	53823.42
664.811	53826.58
665.161	53708.16
665.511	53634.95
665.862	53750.2
666.212	53795.85
666.562	53798.33
666.912	53677.88
667.262	53668.39
667.612	53696.64
667.962	53691.89
668.312	53632.91
668.662	53806.47
669.011	53707.03
669.361	53587.26
669.711	53588.85
670.06	53488.73
670.41	53429.75
670.76	53523.99
671.109	53634.27
671.459	53513.59
671.808	53398.57
672.157	53439.47
672.507	53241.06
672.856	53300.94
673.205	53331.9
673.554	53417.32
673.904	53279.47
674.253	53432.47
674.602	53308.4
674.951	52815.76
675.3	52625.48
675.649	53237.44
675.998	53078.58
676.346	53141.63
676.695	53223.21
677.044	53015.07
677.393	53102.98
677.741	53024.11
678.09	52894.63
678.438	52852.59
678.787	53006.49
679.135	52964.23
679.484	52538.93
679.832	52826.15
680.181	52613.73
680.529	52719.04
680.877	52582.54
681.225	52646.72
681.573	52824.12
681.922	52568.76
682.27	52415.77
682.618	52438.82
682.966	52291.7
683.314	52449.67
683.661	52269.56
684.009	52187.53
684.357	52086.06
684.705	51961.77
685.053	52079.28
685.4	51874.54
685.748	51798.61
686.095	51783.02
686.443	51696.69
686.79	51625.73
687.138	51625.28
687.485	51595.45
687.832	51529.24
688.18	51449.69
688.527	51262.8
688.874	51314.78
689.221	51219.19
689.568	51085.41
689.915	50993.89
690.262	50979.65
690.609	50860.1
690.956	50693.78
691.303	50782.14
691.65	50543.05
691.997	50551.64
692.344	50331.3
692.69	50337.41
693.037	50291.53
693.383	49945.33
693.73	50226.22
694.077	49882.73
694.423	50005.21
694.769	49834.14
695.116	49610.42
695.462	49613.36
695.808	49539.23
696.155	49619.91
696.501	49268.05
696.847	49336.53
697.193	48994.62
697.539	49028.29
697.885	48938.35
698.231	48771.34
698.577	48734.51
698.923	48784.68
699.269	48553.5
699.614	48286.84
699.96	48316.67
700.306	48407.29
700.651	48063.11
700.997	48005.94
701.342	47976.56
701.688	47952.84
702.033	47700.64
702.379	47660.41
702.724	47608.89
703.069	47650.24
703.415	47154.66
703.76	47224.04
704.105	47219.97
704.45	47105.4
704.795	47023.14
705.14	46793.54
705.485	46881.9
705.83	46594.9
706.175	46817.72
706.52	46609.82
706.865	46469.71
707.209	46403.05
707.554	46182.94
707.899	46304.97
708.243	46168.25
708.588	46115.6
708.932	45822.04
709.277	45769.16
709.621	45878.31
709.966	45586.8
710.31	45672.44
710.654	45336.86
710.998	45433.35
711.342	45387.48
711.687	45020.71
712.031	45067.71
712.375	44900.26
712.719	45039.92
713.063	44847.83
713.407	44979.35
713.75	44846.48
714.094	44799.25
714.438	44380.27
714.782	44753.82
715.125	44398.58
715.469	44489.42
715.812	44294.63
716.156	44102.77
716.499	44133.27
716.843	44113.16
717.186	43845.15
717.53	43967.86
717.873	44015.09
718.216	43855.09
718.559	43663.68
718.902	43450.81
719.246	43522.67
719.589	43346.63
719.932	43302.79
720.275	43158.38
720.617	43114.09
720.96	43195.67
721.303	43225.95
721.646	43154.77
721.989	42908.45
722.331	43006.75
722.674	42907.09
723.016	42886.3
723.359	42745.51
723.701	42799.98
724.044	42633.88
724.386	42285.19
724.729	42470.27
725.071	42422.81
725.413	42314.79
725.755	42304.4
726.097	42049.94
726.439	42089.94
726.782	42048.81
727.124	42110.73
727.465	41915.48
727.807	41856.05
728.149	41741.02
728.491	41662.61
728.833	41854.92
729.175	41714.13
729.516	41584.19
729.858	41401.82
730.199	41550.52
730.541	41405.44
730.882	41405.89
731.224	41480.01
731.565	41265.1
731.906	41365.44
732.248	41322.95
732.589	41036.63
732.93	40892.68
733.271	40969.29
733.612	41088.16
733.953	40951.44
734.294	40840.71
734.635	40628.28
734.976	40880.25
735.317	40642.29
735.658	40563.88
735.999	40468.29
736.339	40458.34
736.68	40580.83
737.021	40359.81
737.361	40282.98
737.702	40411.56
738.042	40254.96
738.383	40259.25
738.723	40153.04
739.063	40071.01
739.404	40105.36
739.744	40024.46
740.084	39865.82
740.424	39947.85
740.764	39938.58
741.104	39860.62
741.444	39671.7
741.784	39666.05
742.124	39652.49
742.464	39698.14
742.804	39639.16
743.143	39440.97
743.483	39387.18
743.823	39301.09
744.162	39148.09
744.502	39306.06
744.841	39254.08
745.181	39137.7
745.52	39129.34
745.86	39308.54
746.199	39060.64
746.538	39018.15
746.877	39022.45
747.216	39050.47
747.556	38761.44
747.895	38865.62
748.234	38650.71
748.573	38599.86
748.911	38550.82
749.25	38691.84
749.589	38255.01
749.928	38424.95
750.267	38521.22
750.605	38438.28
750.944	38110.16
751.283	38180.66
751.621	38131.85
751.96	37878.52
752.298	37921.23
752.636	37981.8
752.975	37703.84
