Data from White_paper_FLMS001491_056.txt Node
Date: Tue Feb 07 10:35:16 GMT 2017
User: dcchb
Spectrometer: FLMS00149
Trigger mode: 0
Integration Time (sec): 2.000000E-2
Scans to average: 10
Electric dark correction enabled: true
Nonlinearity correction enabled: false
Boxcar width: 0
XAxis mode: Wavelengths
Number of Pixels in Spectrum: 2048
>>>>>Begin Spectral Data<<<<<
341.393	-1.71
341.776	-1.71
342.16	-1.71
342.543	-52.78
342.927	-79.9
343.31	-70.86
343.693	-71.99
344.077	-55.72
344.46	-65.44
344.843	-63.18
345.226	-35.83
345.61	-29.5
345.993	-18.88
346.376	-9.84
346.759	18.63
347.142	19.31
347.525	50.04
347.908	47.1
348.291	69.7
348.674	102.7
349.057	113.77
349.44	108.34
349.823	156.48
350.206	167.78
350.588	235.57
350.971	237.15
351.354	247.55
351.737	257.27
352.119	280.32
352.502	284.84
352.884	284.16
353.267	316.93
353.65	297.72
354.032	333.65
354.414	335.68
354.797	339.52
355.179	355.34
355.562	352.18
355.944	358.51
356.326	367.77
356.709	375.68
357.091	384.72
357.473	365.29
357.855	362.58
358.238	389.02
358.62	377.04
359.002	368
359.384	371.61
359.766	377.04
360.148	366.87
360.53	369.81
360.912	357.6
361.294	344.5
361.676	378.62
362.057	382.46
362.439	368.45
362.821	374.33
363.203	364.84
363.584	364.61
363.966	362.58
364.348	362.35
364.729	370.71
365.111	351.5
365.493	361.45
365.874	387.43
366.256	364.16
366.637	372.97
367.019	368.68
367.4	350.15
367.781	363.48
368.163	368.68
368.544	372.07
368.925	368.68
369.306	360.09
369.688	365.74
370.069	345.85
370.45	348.34
370.831	358.73
371.212	364.84
371.593	361.9
371.974	377.04
372.355	365.06
372.736	370.26
373.117	386.08
373.498	371.61
373.879	378.17
374.26	372.74
374.641	377.72
375.021	368.45
375.402	359.86
375.783	383.59
376.163	388.56
376.544	402.57
376.925	394.66
377.305	381.11
377.686	389.02
378.066	411.16
378.447	398.28
378.827	390.37
379.208	409.13
379.588	396.25
379.968	422.46
380.349	404.16
380.729	396.47
381.109	399.18
381.489	425.17
381.87	419.52
382.25	414.1
382.63	434.44
383.01	424.49
383.39	440.77
383.77	437.15
384.15	426.98
384.53	446.64
384.91	446.19
385.29	458.84
385.67	469.24
386.049	465.4
386.429	466.08
386.809	455.91
387.189	450.03
387.568	466.08
387.948	461.56
388.328	482.12
388.707	478.5
389.087	480.54
389.466	487.32
389.846	487.77
390.225	481.67
390.605	508.33
390.984	499.97
391.363	505.62
391.743	507.88
392.122	535.45
392.501	499.07
392.881	539.52
393.26	525.06
393.639	528.45
394.018	545.85
394.397	556.92
394.776	565.73
395.155	550.14
395.534	563.47
395.913	596.47
396.292	570.48
396.671	586.98
397.05	598.5
397.429	587.43
397.808	585.85
398.186	614.32
398.565	624.26
398.944	587.2
399.323	616.35
399.701	631.27
400.08	647.99
400.458	651.83
400.837	656.35
401.215	646.64
401.594	671.95
401.972	706.29
402.351	679.18
402.729	685.28
403.107	709.23
403.486	715.11
403.864	707.88
404.242	730.7
404.62	765.5
404.999	760.08
405.377	782.45
405.755	805.95
406.133	832.17
406.511	818.38
406.889	847.53
407.267	871.71
407.645	900.41
408.023	905.84
408.401	917.59
408.779	949.23
409.156	947.42
409.534	998.26
409.912	1008.43
410.29	1060.86
410.667	1037.59
411.045	1074.42
411.422	1101.54
411.8	1130.92
412.178	1145.15
412.555	1181.99
412.933	1208.65
413.31	1265.15
413.687	1278.26
414.065	1299.5
414.442	1338.82
414.819	1360.97
415.197	1391.93
415.574	1392.6
415.951	1448.2
416.328	1471.92
416.705	1487.07
417.082	1512.6
417.46	1538.36
417.837	1597.8
418.214	1599.83
418.591	1634.63
418.967	1644.12
419.344	1653.16
419.721	1730
420.098	1741.52
420.475	1784.91
420.852	1797.79
421.228	1797.79
421.605	1842.76
421.982	1854.29
422.358	1901.29
422.735	1901.29
423.111	1924.79
423.488	1982.87
423.864	1985.81
424.241	2036.88
424.617	2068.97
424.994	2070.78
425.37	2122.08
425.746	2122.3
426.123	2168.4
426.499	2137.22
426.875	2202.3
427.251	2262.64
427.627	2276.42
428.003	2304.9
428.379	2366.59
428.756	2366.14
429.132	2416.98
429.507	2475.51
429.883	2449.98
430.259	2521.39
430.635	2540.82
431.011	2569.97
431.387	2637.09
431.763	2721.38
432.138	2699.46
432.514	2762.29
432.89	2803.19
433.265	2884.32
433.641	2880.93
434.016	2926.8
434.392	2957.54
434.767	2999.34
435.143	3017.19
435.518	3121.37
435.894	3117.98
436.269	3175.83
436.644	3176.29
437.02	3236.62
437.395	3239.11
437.77	3309.62
438.145	3394.36
438.52	3369.73
438.895	3442.72
439.271	3439.56
439.646	3518.42
440.021	3524.98
440.395	3558.42
440.77	3561.36
441.145	3576.28
441.52	3637.74
441.895	3661.02
442.27	3687.69
442.645	3686.56
443.019	3712.32
443.394	3751.19
443.769	3790.28
444.143	3777.17
444.518	3858.75
444.892	3849.49
445.267	3860.34
445.641	3921.58
446.016	3922.93
446.39	3969.49
446.764	3995.25
447.139	4013.55
447.513	4040.44
447.887	4033.67
448.262	4045.42
448.636	4126.32
449.01	4099.2
449.384	4173.1
449.758	4193.43
450.132	4260.33
450.506	4267.11
450.88	4327.89
451.254	4324.5
451.628	4385.52
452.002	4428.91
452.376	4451.96
452.75	4486.99
453.123	4549.81
453.497	4604.05
453.871	4680.88
454.244	4768.34
454.618	4746.19
454.992	4776.24
455.365	4817.15
455.739	4891.5
456.112	5009.46
456.486	4962.68
456.859	5087.2
457.232	5192.96
457.606	5180.08
457.979	5257.81
458.352	5378.94
458.725	5394.08
459.099	5426.85
459.472	5568.99
459.845	5582.1
460.218	5612.61
460.591	5677.46
460.964	5725.6
461.337	5854.41
461.71	5920.85
462.083	6021.41
462.456	6043.78
462.829	6106.6
463.201	6206.26
463.574	6231.12
463.947	6360.61
464.32	6420.5
464.692	6489.65
465.065	6455.3
465.438	6648.74
465.81	6729.64
466.183	6747.04
466.555	6924.66
466.928	7030.42
467.3	6998.11
467.672	7133.02
468.045	7280.59
468.417	7333.01
468.789	7405.78
469.161	7504.08
469.534	7573.01
469.906	7868.82
470.278	7838.08
470.65	7900.68
471.022	8103.61
471.394	8217.06
471.766	8278.75
472.138	8415.92
472.51	8599.42
472.882	8691.17
473.253	8845.97
473.625	8932.07
473.997	9127.32
474.369	9178.16
474.74	9281.21
475.112	9450.7
475.484	9574.99
475.855	9721.65
476.227	9835.32
476.598	10132.04
476.97	10227.17
477.341	10412.48
477.713	10543.32
478.084	10661.06
478.455	10964.1
478.827	11043.2
479.198	11361.61
479.569	11344.89
479.94	11738.55
480.311	11786.23
480.682	12046.56
481.053	12319.77
481.424	12470.73
481.795	12582.14
482.166	12802.7
482.537	12939.19
482.908	13232.75
483.279	13365.62
483.65	13629.8
484.021	13759.74
484.391	14011.71
484.762	14178.26
485.133	14298.03
485.503	14379.16
485.874	14847.84
486.244	14860.5
486.615	15180.72
486.985	15333.26
487.356	15622.51
487.726	15723.98
488.097	16119.45
488.467	16105.89
488.837	16528.48
489.207	16587.91
489.578	16781.13
489.948	16871.75
490.318	17180.21
490.688	17279.64
491.058	17602.35
491.428	17841.44
491.798	17923.92
492.168	18371.37
492.538	18438.94
492.908	18564.58
493.278	18958.92
493.648	18851.35
494.017	19157.11
494.387	19274.17
494.757	19462.19
495.126	19604.78
495.496	19654.5
495.866	19848.39
496.235	20061.94
496.605	20188.04
496.974	20360.92
497.344	20479.11
497.713	20590.07
498.082	20815.82
498.452	21042.26
498.821	21105.31
499.19	21187.34
499.559	21360.67
499.928	21516.37
500.298	21645.63
500.667	21792.75
501.036	21776.7
501.405	22124.04
501.774	22095.34
502.143	22270.47
502.512	22477.7
502.88	22695.55
503.249	22706.39
503.618	22774.64
503.987	22907.07
504.356	23142.54
504.724	23154.29
505.093	23381.86
505.462	23477.22
505.83	23760.38
506.199	23854.84
506.567	24167.82
506.936	24081.05
507.304	24430.42
507.672	24569.4
508.041	24597.42
508.409	24725.1
508.777	24960.57
509.145	24978.65
509.514	25223.39
509.882	25395.14
510.25	25452.54
510.618	25678.97
510.986	25642.14
511.354	25956.03
511.722	26181.33
512.09	26484.15
512.458	26370.7
512.826	26621.09
513.193	26708.1
513.561	26839.62
513.929	27067.64
514.297	27483.22
514.664	27569.77
515.032	27686.6
515.4	27955.97
515.767	28012.47
516.135	28156.65
516.502	28028.06
516.869	28594.15
517.237	28658.33
517.604	28618.1
517.972	28986
518.339	29097.19
518.706	29187.81
519.073	29413.56
519.44	29688.13
519.808	29795.47
520.175	29942.59
520.542	30297.16
520.909	30492.18
521.276	30457.6
521.643	30757.26
522.009	30976.69
522.376	31263.68
522.743	31431.14
523.11	31741.19
523.477	31901.86
523.843	32156.09
524.21	32299.59
524.577	32633.82
524.943	32758.33
525.31	32993.81
525.676	33335.27
526.043	33454.36
526.409	33565.54
526.776	33900.68
527.142	33948.81
527.508	34270.84
527.874	34404.17
528.241	34667.66
528.607	34806.87
528.973	35098.39
529.339	34956.92
529.705	35513.97
530.071	35715.54
530.437	35918.7
530.803	36076.21
531.169	36268.98
531.535	36261.07
531.901	36506.48
532.267	36774.27
532.632	36960.48
532.998	36963.19
533.364	37143.3
533.73	37362.51
534.095	37621.93
534.461	37682.05
534.826	37939.21
535.192	37898.54
535.557	38324.06
535.923	38326.55
536.288	38433.44
536.653	38702.13
537.019	38576.03
537.384	38748.23
537.749	39066.64
538.114	39200.42
538.479	39247.65
538.845	39490.36
539.21	39400.64
539.575	39614.42
539.94	39717.25
540.305	39932.83
540.67	39872.95
541.034	39957.47
541.399	40299.15
541.764	40460.5
542.129	40695.53
542.494	40712.47
542.858	40856.65
543.223	40818.23
543.587	41195.85
543.952	41191.11
544.316	41417.31
544.681	41264.55
545.045	41453.25
545.41	41817.3
545.774	41996.73
546.138	41919.45
546.503	42096.39
546.867	42191.53
547.231	42448.47
547.595	42591.97
547.959	42733.66
548.324	42686.43
548.688	42800.56
549.052	43066.54
549.416	43051.62
549.779	43173.43
550.143	43315.8
550.507	43641.89
550.871	43705.16
551.235	43599.4
551.599	44147.64
551.962	44068.32
552.326	44218.6
552.689	44398.25
553.053	44311.02
553.417	44454.75
553.78	45039.14
554.143	44783.1
554.507	44920.95
554.87	45161.17
555.234	45448.4
555.597	45230.55
555.96	45432.58
556.323	45752.12
556.686	45706.47
557.05	46061.71
557.413	46161.82
557.776	46208.83
558.139	46416.96
558.502	46580.79
558.865	46665.09
559.228	46959.32
559.59	47125.87
559.953	47154.11
560.316	47512.75
560.679	47497.61
561.041	47776.7
561.404	47865.06
561.767	48129.23
562.129	48184.14
562.492	48378.94
562.854	48359.28
563.217	48556.34
563.579	48701.87
563.941	48996.78
564.304	49025.48
564.666	49170.11
565.028	49276.32
565.39	49384.11
565.753	49683.76
566.115	49798.34
566.477	49970.08
566.839	50009.18
567.201	50219.12
567.563	50232.68
567.925	50597.86
568.287	50507.7
568.648	50598.99
569.01	50805.54
569.372	50950.17
569.734	50920.79
570.095	51132.77
570.457	51389.26
570.819	51407.79
571.18	51375.02
571.542	51608.69
571.903	51609.59
572.265	51855.68
572.626	51910.82
572.987	51945.4
573.349	52092.29
573.71	52198.95
574.071	52315.79
574.432	52474.2
574.794	52645.27
575.155	52614.53
575.516	52582.45
575.877	52677.58
576.238	52772.04
576.599	52894.53
576.96	52929.78
577.32	52946.73
577.681	53139.72
578.042	53185.82
578.403	53192.37
578.763	53229.43
579.124	53388.75
579.485	53369.54
579.845	53601.85
580.206	53505.13
580.566	53590.1
580.927	53609.76
581.287	53754.17
581.648	53558.01
582.008	53749.19
582.368	53727.73
582.728	53826.93
583.089	53867.84
583.449	53785.8
583.809	53790.32
584.169	53991.9
584.529	53973.82
584.889	54157.54
585.249	53914.61
585.609	53906.03
585.969	54049.75
586.329	53951.67
586.688	54066.93
587.048	54087.49
587.408	54160.26
587.768	54178.79
588.127	54129.3
588.487	54101.5
588.846	54301.95
589.206	54130.43
589.565	54099.69
589.925	54291.1
590.284	54187.6
590.643	54267.82
591.003	54373.36
591.362	54405.9
591.721	54301.72
592.08	54414.49
592.44	54465.79
592.799	54423.07
593.158	54411.55
593.517	54395.28
593.876	54407.71
594.235	54414.26
594.593	54502.39
594.952	54592.56
595.311	54454.26
595.67	54515.28
596.029	54736.74
596.387	54738.77
596.746	54735.83
597.104	54673.46
597.463	54653.8
597.822	54784.87
598.18	54731.77
598.538	54640.24
598.897	54811.09
599.255	54673.69
599.613	55035.26
599.972	54857.19
600.33	54962.27
600.688	54819.9
601.046	54951.42
601.404	54993.68
601.762	54952.1
602.12	55080.46
602.478	55122.49
602.836	55100.34
603.194	54981.7
603.552	55053.11
603.91	54987.81
604.268	55188.7
604.625	55079.1
604.983	55122.94
605.341	55067.35
605.698	55208.59
606.056	55298.31
606.413	55155.48
606.771	55268.93
607.128	55402.94
607.485	55294.24
607.843	55260.79
608.2	55394.8
608.557	55485.65
608.914	55394.35
609.272	55485.19
609.629	55505.98
609.986	55590.5
610.343	55512.54
610.7	55666.66
611.057	55600.9
611.414	55623.04
611.771	55615.13
612.127	55726.77
612.484	55789.37
612.841	55795.02
613.198	55729.26
613.554	55771.74
613.911	55814.9
614.267	55877.27
614.624	55902.81
614.98	55902.81
615.337	56017.38
615.693	55856.48
616.05	55886.76
616.406	56115.23
616.762	55934.45
617.118	55952.75
617.475	55978.51
617.831	56028.68
618.187	56064.16
618.543	56096.7
618.899	56231.61
619.255	56120.21
619.611	56137.61
619.967	56307.32
620.323	56283.59
620.678	56180.99
621.034	56140.09
621.39	56139.41
621.746	56120.43
622.101	56378.28
622.457	56137.15
622.812	56209.24
623.168	56329.24
623.523	56346.19
623.879	56353.42
624.234	56196.14
624.589	56272.97
624.945	56378.96
625.3	56296.02
625.655	56292.86
626.01	56337.15
626.365	56373.31
626.72	56329.69
627.075	56234.33
627.43	56269.35
627.785	56269.81
628.14	56267.09
628.495	56312.97
628.85	56364.49
629.205	56199.07
629.559	56384.38
629.914	56230.71
630.269	56280.43
630.623	56220.54
630.978	56155.91
631.332	56307.32
631.687	56295.79
632.041	56202.46
632.396	56253.31
632.75	56192.07
633.104	56218.51
633.459	56147.1
633.813	56117.49
634.167	56059.87
634.521	56106.19
634.875	56169.92
635.229	56098.28
635.583	55940.77
635.937	56019.42
636.291	55965.63
636.645	55985.07
636.999	55904.17
637.352	56036.82
637.706	55823.49
638.06	55939.64
638.413	55941.23
638.767	55830.95
639.121	55917.27
639.474	55777.16
639.828	55794.11
640.181	55783.49
640.534	55863.49
640.888	55765.41
641.241	55677.5
641.594	55747.11
641.947	55709.14
642.301	55676.83
642.654	55781.91
643.007	55771.51
643.36	55677.05
643.713	55590.28
644.066	55723.38
644.419	55531.97
644.771	55376.04
645.124	55163.39
645.477	55034.58
645.83	54891.31
646.182	54826.23
646.535	54736.74
646.888	54852.44
647.24	54705.33
647.593	54767.02
647.945	54780.35
648.298	54723.86
648.65	54710.07
649.002	54609.74
649.355	54701.03
649.707	54661.26
650.059	54710.98
650.411	55106.67
650.763	55193
651.115	55466.66
651.467	55322.26
651.819	55338.76
652.171	55238.19
652.523	55170.4
652.875	55186.67
653.227	55032.78
653.578	55276.84
653.93	55134.69
654.282	55150.51
654.633	55033
654.985	55196.84
655.337	55037.07
655.688	55121.81
656.039	55259.89
656.391	54874.81
656.742	55049.5
657.094	55049.05
657.445	55089.5
657.796	55042.95
658.147	54962.27
658.498	55009.73
658.849	55106.22
659.2	54967.92
659.551	54896.28
659.902	54986.68
660.253	54910.97
660.604	54909.39
660.955	54854.25
661.306	54969.95
661.656	54956.62
662.007	54877.75
662.358	54890.41
662.708	54918.88
663.059	54852.22
663.409	54638.21
663.76	54911.2
664.11	54875.27
664.461	54877.07
664.811	54834.36
665.161	54820.13
665.511	54704.2
665.862	54760.01
666.212	54809.96
666.562	54811.99
666.912	54799.56
667.262	54703.07
667.612	54659
667.962	54723.86
668.312	54678.21
668.662	54831.88
669.011	54697.87
669.361	54667.59
669.711	54581.94
670.06	54614.93
670.41	54422.17
670.76	54476.41
671.109	54607.7
671.459	54493.36
671.808	54494.71
672.157	54527.93
672.507	54237.99
672.856	54290.87
673.205	54401.38
673.554	54367.93
673.904	54261.27
674.253	54478.67
674.602	54387.82
674.951	53846.82
675.3	53685.01
675.649	54248.62
675.998	54163.87
676.346	54117.55
676.695	54273.93
677.044	54067.83
677.393	54176.08
677.741	54155.06
678.09	54013.82
678.438	53966.59
678.787	54041.39
679.135	54000.49
679.484	53785.8
679.832	53868.96
680.181	53696.09
680.529	53777.89
680.877	53700.61
681.225	53736.54
681.573	53815.63
681.922	53556.88
682.27	53557.33
682.618	53565.92
682.966	53466.49
683.314	53442.54
683.661	53347.85
684.009	53272.14
684.357	53216.1
684.705	53121.41
685.053	53106.5
685.4	53017.24
685.748	52894.08
686.095	52912.15
686.443	52766.62
686.79	52748.99
687.138	52708.09
687.485	52673.06
687.832	52546.51
688.18	52632.39
688.527	52500.87
688.874	52436.69
689.221	52312.85
689.568	52238.95
689.915	52215.68
690.262	52207.09
690.609	52026.98
690.956	51964.16
691.303	51980.2
691.65	51761.68
691.997	51789.7
692.344	51531.63
692.69	51503.38
693.037	51644.16
693.383	51242.82
693.73	51436.71
694.077	51212.76
694.423	51103.61
694.769	51019.32
695.116	50977.52
695.462	50867.24
695.808	50784.3
696.155	50824.75
696.501	50518.32
696.847	50561.26
697.193	50333.24
697.539	50526
697.885	50128.27
698.231	50127.37
698.577	50127.14
698.923	49956.07
699.269	49801.95
699.614	49638.79
699.96	49648.06
700.306	49614.16
700.651	49552.47
700.997	49277.67
701.342	49169.43
701.688	49308.18
702.033	49053.95
702.379	49091.69
702.724	49038.81
703.069	49011.92
703.415	48684.69
703.76	48639.95
704.105	48539.61
704.45	48511.37
704.795	48232.95
705.14	48264.82
705.485	48239.51
705.83	48043.58
706.175	48072.96
706.52	47924.04
706.865	47912.74
707.209	47753.87
707.554	47707.77
707.899	47637.72
708.243	47501
708.588	47472.75
708.932	47179.65
709.277	47262.58
709.621	47270.49
709.966	46963.61
710.31	47087
710.654	46710.96
710.998	46811.07
711.342	46808.36
711.687	46651.75
712.031	46452.66
712.375	46330.18
712.719	46444.3
713.063	46405.21
713.407	46460.57
713.75	46173.8
714.094	46273.01
714.438	46052.67
714.782	45913.24
715.125	45867.37
715.469	45955.05
715.812	45600.26
716.156	45511.44
716.499	45652.68
716.843	45598
717.186	45318.23
717.53	45572.46
717.873	45466.02
718.216	45238.01
718.559	45198.01
718.902	44958.01
719.246	45077.56
719.589	44890.9
719.932	44725.02
720.275	44714.63
720.617	44654.07
720.96	44694.06
721.303	44512.83
721.646	44509.66
721.989	44275.54
722.331	44442.77
722.674	44337.46
723.016	44209.33
723.359	44179.28
723.701	44151.71
724.044	43799.4
724.386	43750.59
724.729	43866.52
725.071	43895.44
725.413	43864.48
725.755	43778.38
726.097	43604.38
726.439	43438.28
726.782	43412.97
727.124	43700.64
727.465	43348.56
727.807	43378.62
728.149	43193.77
728.491	43181.79
728.833	43226.98
729.175	43150.15
729.516	42840.78
729.858	42870.16
730.199	42857.5
730.541	42784.51
730.882	42740.9
731.224	42806.88
731.565	42634.23
731.906	42614.12
732.248	42781.57
732.589	42412.09
732.93	42401.47
733.271	42336.39
733.612	42421.36
733.953	42379.78
734.294	42214.58
734.635	42152.89
734.976	42205.09
735.317	41914.25
735.658	41974.14
735.999	41866.79
736.339	41841.71
736.68	41977.3
737.021	41827.7
737.361	41641.94
737.702	41862.5
738.042	41738.66
738.383	41634.48
738.723	41528.27
739.063	41435.39
739.404	41495.05
739.744	41488.5
740.084	41332.35
740.424	41337.32
740.764	41200.15
741.104	41218
741.444	41005.8
741.784	41001.51
742.124	41136.42
742.464	41025.91
742.804	40957.21
743.143	40961.73
743.483	40904.79
743.823	40672.02
744.162	40636.09
744.502	40677
744.841	40513.16
745.181	40600.84
745.52	40449.88
745.86	40383.67
746.199	40380.96
746.538	40468.87
746.877	40391.35
747.216	40302.09
747.556	40183.68
747.895	40245.59
748.234	40099.16
748.573	39924.25
748.911	39893.74
749.25	39871.59
749.589	39769.9
749.928	39720.18
750.267	39745.27
750.605	39778.94
750.944	39581.66
751.283	39401.77
751.621	39403.81
751.96	39296.01
752.298	39148
752.636	39202.91
752.975	38986.64
753.313	38885.86
