Data from white_wall_FLMS001491_071.txt Node
Date: Tue Feb 07 11:05:45 GMT 2017
User: dcchb
Spectrometer: FLMS00149
Trigger mode: 0
Integration Time (sec): 2.000000E-2
Scans to average: 10
Electric dark correction enabled: true
Nonlinearity correction enabled: false
Boxcar width: 0
XAxis mode: Wavelengths
Number of Pixels in Spectrum: 2048
>>>>>Begin Spectral Data<<<<<
341.393	-14.84
341.776	-14.84
342.16	-14.84
342.543	-63.43
342.927	-64.33
343.31	-79.02
343.693	-70.66
344.077	-57.33
344.46	-41.51
344.843	-60.27
345.226	-27.95
345.61	-30.44
345.993	-11
346.376	-14.39
346.759	1.2
347.142	38.49
347.525	44.59
347.908	41.88
348.291	73.52
348.674	77.81
349.057	115.1
349.44	94.08
349.823	165.94
350.206	158.71
350.588	211.14
350.971	239.84
351.354	224.92
351.737	238.71
352.119	243.68
352.502	291.81
352.884	288.88
353.267	299.72
353.65	314.19
354.032	324.81
354.414	311.93
354.797	336.33
355.179	337.69
355.562	338.37
355.944	340.63
356.326	351.7
356.709	360.06
357.091	361.42
357.473	354.41
357.855	381.3
358.238	329.1
358.62	355.09
359.002	354.41
359.384	375.88
359.766	348.76
360.148	338.59
360.53	355.99
360.912	350.8
361.294	371.59
361.676	332.72
362.057	361.42
362.439	346.05
362.821	322.32
363.203	348.99
363.584	334.75
363.966	338.37
364.348	345.6
364.729	363
365.111	339.95
365.493	348.54
365.874	326.39
366.256	331.81
366.637	332.49
367.019	333.85
367.4	318.03
367.781	349.67
368.163	316.45
368.544	325.03
368.925	330.91
369.306	333.85
369.688	325.94
370.069	332.49
370.45	338.37
370.831	326.62
371.212	327.75
371.593	331.14
371.974	345.37
372.355	337.91
372.736	327.07
373.117	351.47
373.498	360.97
373.879	359.16
374.26	325.94
374.641	351.25
375.021	336.56
375.402	357.8
375.783	366.84
376.163	361.19
376.544	342.89
376.925	360.97
377.305	371.36
377.686	368.2
378.066	344.92
378.447	376.78
378.827	349.44
379.208	350.57
379.588	348.76
379.968	352.6
380.349	352.38
380.729	354.64
381.109	389.21
381.489	347.41
381.87	358.48
382.25	363.45
382.63	359.16
383.01	379.5
383.39	400.51
383.77	385.37
384.15	380.85
384.53	372.72
384.91	405.03
385.29	392.38
385.67	388.53
386.049	404.13
386.429	419.27
386.809	416.78
387.189	412.49
387.568	391.25
387.948	403.68
388.328	398.25
388.707	414.52
389.087	410.46
389.466	417.23
389.846	432.6
390.225	422.88
390.605	431.7
390.984	447.97
391.363	461.75
391.743	452.04
392.122	451.13
392.501	471.92
392.881	471.7
393.26	470.79
393.639	470.79
394.018	485.48
394.397	513.5
394.776	503.79
395.155	506.5
395.534	521.41
395.913	541.07
396.292	525.71
396.671	536.78
397.05	548.08
397.429	555.08
397.808	560.96
398.186	571.36
398.565	572.94
398.944	602.99
399.323	593.05
399.701	583.56
400.08	612.48
400.458	629.66
400.837	647.96
401.215	634.86
401.594	638.02
401.972	685.02
402.351	678.7
402.729	692.71
403.107	715.53
403.486	686.38
403.864	711.69
404.242	727.51
404.62	745.59
404.999	758.92
405.377	767.73
405.755	799.15
406.133	786.26
406.511	818.81
406.889	817.45
407.267	859.26
407.645	827.62
408.023	855.42
408.401	878.69
408.779	888.18
409.156	925.02
409.534	926.37
409.912	933.61
410.29	958.69
410.667	951.01
411.045	979.03
411.422	993.26
411.8	1018.8
412.178	1039.59
412.555	1038.46
412.933	1076.2
413.31	1072.36
413.687	1078.91
414.065	1098.57
414.442	1117.1
414.819	1146.26
415.197	1122.53
415.574	1168.63
415.951	1189.42
416.328	1183.77
416.705	1214.05
417.082	1234.39
417.46	1231.22
417.837	1258.12
418.214	1228.29
418.591	1279.81
418.967	1270.32
419.344	1278.46
419.721	1317.78
420.098	1334.27
420.475	1353.71
420.852	1337.44
421.228	1360.94
421.605	1380.6
421.982	1395.06
422.358	1413.59
422.735	1445.46
423.111	1453.14
423.488	1459.02
423.864	1485.68
424.241	1468.28
424.617	1519.35
424.994	1516.19
425.37	1527.94
425.746	1552.12
426.123	1546.02
426.499	1608.84
426.875	1622.4
427.251	1638.45
427.627	1663.76
428.003	1680.03
428.379	1721.83
428.756	1699.23
429.132	1736.3
429.507	1754.15
429.883	1772.45
430.259	1810.87
430.635	1837.54
431.011	1841.15
431.387	1892.68
431.763	1935.16
432.138	1916.4
432.514	1990.75
432.89	1948.72
433.265	2028.72
433.641	2049.28
434.016	2071.65
434.392	2098.09
434.767	2155.49
435.143	2079.79
435.518	2151.65
435.894	2160.24
436.269	2194.14
436.644	2236.17
437.02	2293.12
437.395	2271.42
437.77	2297.19
438.145	2354.36
438.52	2385.09
438.895	2413.79
439.271	2421.25
439.646	2454.7
440.021	2465.09
440.395	2508.25
440.77	2492.66
441.145	2521.13
441.52	2529.5
441.895	2538.08
442.27	2585.77
442.645	2585.54
443.019	2629.15
443.394	2630.51
443.769	2637.52
444.143	2661.02
444.518	2697.4
444.892	2724.07
445.267	2711.86
445.641	2770.17
446.016	2774.23
446.39	2807.45
446.764	2824.18
447.139	2819.88
447.513	2874.57
447.887	2903.5
448.262	2938.98
448.636	2943.04
449.01	3010.16
449.384	2983.95
449.758	3001.57
450.132	3060.1
450.506	3085.19
450.88	3116.37
451.254	3129.71
451.628	3151.63
452.002	3206.31
452.376	3196.14
452.75	3282.7
453.123	3287.89
453.497	3297.39
453.871	3369.47
454.244	3430.04
454.618	3442.47
454.992	3529.7
455.365	3500.54
455.739	3638.62
456.112	3653.53
456.486	3635.91
456.859	3683.36
457.232	3747.77
457.606	3772.85
457.979	3830.25
458.352	3897.14
458.725	3964.26
459.099	3968.33
459.472	4077.25
459.845	4119.28
460.218	4172.62
460.591	4150.92
460.964	4199.28
461.337	4270.47
461.71	4338.49
462.083	4429.33
462.456	4438.6
462.829	4471.37
463.201	4566.05
463.574	4575.32
463.947	4636.78
464.32	4708.2
464.692	4780.28
465.065	4775.99
465.438	4905.48
465.81	4924.23
466.183	5016.44
466.555	5129.2
466.928	5122.87
467.3	5139.6
467.672	5268.41
468.045	5382.08
468.417	5389.76
468.789	5429.53
469.161	5477.89
469.534	5605.57
469.906	5747.26
470.278	5733.71
470.65	5855.28
471.022	5990.42
471.394	6108.61
471.766	6077.42
472.138	6238.1
472.51	6341.82
472.882	6417.3
473.253	6514.25
473.625	6637.86
473.997	6797.86
474.369	6852.77
474.74	6937.29
475.112	7003.05
475.484	7154.46
475.855	7283.49
476.227	7367.33
476.598	7608.23
476.97	7608.23
477.341	7843.03
477.713	7927.32
478.084	8012.97
478.455	8244.83
478.827	8299.29
479.198	8550.35
479.569	8545.16
479.94	8771.14
480.311	8882.1
480.682	9041.64
481.053	9287.51
481.424	9431.24
481.795	9494.96
482.166	9676.65
482.537	9839.81
482.908	10042.07
483.279	10176.98
483.65	10364.77
484.021	10559.79
484.391	10596.85
484.762	10755.95
485.133	10928.37
485.503	11004.3
485.874	11305.08
486.244	11389.38
486.615	11689.71
486.985	11783.72
487.356	12005.63
487.726	12085.4
488.097	12301.22
488.467	12368.56
488.837	12648.1
489.207	12798.6
489.578	12962.89
489.948	13137.8
490.318	13344.8
490.688	13391.81
491.058	13641.07
491.428	13835.64
491.798	13981.4
492.168	14284.21
492.538	14290.77
492.908	14484.89
493.278	14656.18
493.648	14704.99
494.017	14815.05
494.387	15064.08
494.757	15176.85
495.126	15344.75
495.496	15426.33
495.866	15496.39
496.235	15682.82
496.605	15870.84
496.974	16001.46
497.344	16211.85
497.713	16286.2
498.082	16407.55
498.452	16488.9
498.821	16703.81
499.19	16657.03
499.559	16983.58
499.928	17069.23
500.298	17233.52
500.667	17439.61
501.036	17384.47
501.405	17610.91
501.774	17629.21
502.143	17728.19
502.512	17850.22
502.88	18188.52
503.249	18165.92
503.618	18306.26
503.987	18359.81
504.356	18551.9
504.724	18689.07
505.093	18741.95
505.462	18905.56
505.83	19087.48
506.199	19275.72
506.567	19505.09
506.936	19460.35
507.304	19727.01
507.672	19773.79
508.041	19981.24
508.409	20065.31
508.777	20272.98
509.145	20425.07
509.514	20428.01
509.882	20671.84
510.25	20769.02
510.618	20898.73
510.986	21042.46
511.354	21280.64
511.722	21395.67
512.09	21588.2
512.458	21674.08
512.826	21947.06
513.193	22025.93
513.561	22121.3
513.929	22280.84
514.297	22456.43
514.664	22679.02
515.032	22686.93
515.4	22982.29
515.767	23114.27
516.135	23242.62
516.502	23131.44
516.869	23639
517.237	23769.84
517.604	23732.1
517.972	24002.38
518.339	24152.66
518.706	24170.96
519.073	24417.96
519.44	24573.44
519.808	24899.53
520.175	24913.54
520.542	25243.93
520.909	25440.31
521.276	25487.54
521.643	25693.18
522.009	25828.77
522.376	26039.84
522.743	26247.52
523.11	26554.17
523.477	26701.52
523.843	26940.83
524.21	27156.19
524.577	27334.04
524.943	27423.53
525.31	27665.56
525.676	27908.49
526.043	28030.52
526.409	28185.54
526.776	28503.73
527.142	28598.41
527.508	28876.6
527.874	29047.44
528.241	29223.03
528.607	29297.15
528.973	29463.48
529.339	29506.19
529.705	29868.66
530.071	30042.9
530.437	30173.74
530.803	30369.67
531.169	30592.26
531.535	30355.43
531.901	30781.18
532.267	30815.08
532.632	31124.45
532.998	31145.01
533.364	31403.54
533.73	31397.21
534.095	31665.68
534.461	31868.39
534.826	32078.32
535.192	32168.04
535.557	32297.98
535.923	32303.4
536.288	32538.88
536.653	32637.18
537.019	32662.94
537.384	32874.91
537.749	33093.66
538.114	33182.47
538.479	33217.28
538.845	33358.52
539.21	33384.28
539.575	33589.7
539.94	33722.8
540.305	33896.58
540.67	33865.62
541.034	34074.2
541.399	34213.86
541.764	34331.6
542.129	34423.12
542.494	34586.51
542.858	34799.16
543.223	34739.72
543.587	35048.41
543.952	35073.05
544.316	35235.08
544.681	35112.14
545.045	35461.96
545.41	35543.32
545.774	35654.27
546.138	35875.96
546.503	36067.6
546.867	36074.15
547.231	36340.58
547.595	36407.7
547.959	36405.44
548.324	36495.16
548.688	36639.33
549.052	36851.31
549.416	36974.92
549.779	36968.14
550.143	37167.45
550.507	37408.58
550.871	37460.55
551.235	37656.26
551.599	38030.26
551.962	38018.05
552.326	38251.27
552.689	38460.08
553.053	38338.27
553.417	38508.89
553.78	39017.12
554.143	38827.98
554.507	39164.69
554.87	39287.63
555.234	39746.82
555.597	39519.71
555.96	39761.29
556.323	39939.36
556.686	39991.56
557.05	40170.99
557.413	40354.49
557.776	40452.11
558.139	40883.29
558.502	40859.34
558.865	41024.3
559.228	41380.45
559.59	41377.29
559.953	41426.55
560.316	41967.1
560.679	42047.78
561.041	42307.88
561.404	42412.06
561.767	42739.06
562.129	42629.23
562.492	43061.54
562.854	43108.77
563.217	42969.79
563.579	43373.17
563.941	43621.07
564.304	43799.6
564.666	44111.45
565.028	44130.21
565.39	44232.35
565.753	44469.41
566.115	44587.82
566.477	44618.56
566.839	44758.22
567.201	45235.04
567.563	45211.99
567.925	45426.22
568.287	45362.49
568.648	45649.72
569.01	45765.19
569.372	46039.31
569.734	45981.01
570.095	46278.63
570.457	46412.41
570.819	46444.95
571.18	46509.36
571.542	46807.2
571.903	46884.94
572.265	46983.24
572.626	47075.22
572.987	47167.87
573.349	47260.97
573.71	47365.6
574.071	47518.6
574.432	47593.17
574.794	47868.19
575.155	47931.47
575.516	47815.76
575.877	47956.78
576.238	48031.8
576.599	48111.57
576.96	48366.26
577.32	48338.01
577.681	48346.37
578.042	48489.19
578.403	48485.8
578.763	48476.31
579.124	48555.86
579.485	48688.73
579.845	48738
580.206	48614.16
580.566	48716.08
580.927	48826.36
581.287	48920.59
581.648	48809.86
582.008	48984.55
582.368	48832.68
582.728	48952
583.089	48982.06
583.449	49059.35
583.809	49003.08
584.169	49072.68
584.529	49014.15
584.889	49261.6
585.249	49010.99
585.609	48948.16
585.969	49210.08
586.329	49097.99
586.688	49136.63
587.048	49150.64
587.408	49066.35
587.768	49125.11
588.127	49083.98
588.487	49048.95
588.846	49454.82
589.206	49143.19
589.565	49138.89
589.925	49304.08
590.284	49313.35
590.643	49321.03
591.003	49387.92
591.362	49489.16
591.721	49323.07
592.08	49347.25
592.44	49392.22
592.799	49333.91
593.158	49315.16
593.517	49288.72
593.876	49446.91
594.235	49343.18
594.593	49426.57
594.952	49432.22
595.311	49250.3
595.67	49474.25
596.029	49655.49
596.387	49667.24
596.746	49619.33
597.104	49555.38
597.463	49511.09
597.822	49735.03
598.18	49445.32
598.538	49523.29
598.897	49714.24
599.255	49449.17
599.613	50015.7
599.972	49727.12
600.33	49870.17
600.688	49653.45
601.046	49863.62
601.404	49976.16
601.762	49962.6
602.12	49992.88
602.478	50137.51
602.836	50174.8
603.194	49909.94
603.552	49982.26
603.91	49869.49
604.268	50102.93
604.625	49960.79
604.983	50100.67
605.341	49961.92
605.698	50205.3
606.056	50319.88
606.413	50281.23
606.771	50399.2
607.128	50445.98
607.485	50229.03
607.843	50399.42
608.2	50517.39
608.557	50600.1
608.914	50402.36
609.272	50546.31
609.629	50678.96
609.986	50753.54
610.343	50688.91
610.7	50902.01
611.057	50740.21
611.414	50792.63
611.771	50789.47
612.127	50859.75
612.484	50857.72
612.841	51023.14
613.198	50949.24
613.554	50895
613.911	51107.43
614.267	50990.59
614.624	51129.12
614.98	51147.2
615.337	51256.35
615.693	51196.24
616.05	51232.62
616.406	51377.7
616.762	51240.98
617.118	51232.17
617.475	51272.62
617.831	51399.4
618.187	51467.87
618.543	51507.19
618.899	51721.42
619.255	51588.09
619.611	51524.59
619.967	51741.31
620.323	51786.73
620.678	51575.66
621.034	51547.64
621.39	51663.57
621.746	51563.23
622.101	51947.41
622.457	51612.27
622.812	51661.99
623.168	51718.48
623.523	51751.25
623.879	51876.67
624.234	51645.04
624.589	51807.07
624.945	51859.05
625.3	51839.39
625.655	51723.68
626.01	51785.6
626.365	51803.91
626.72	51701.54
627.075	51727.98
627.43	51677.58
627.785	51682.33
628.14	51744.47
628.495	51816.56
628.85	51674.42
629.205	51613.4
629.559	51794.64
629.914	51591.26
630.269	51680.75
630.623	51514.42
630.978	51509.9
631.332	51647.75
631.687	51591.93
632.041	51488.66
632.396	51681.65
632.75	51388.1
633.104	51450.92
633.459	51264.94
633.813	51296.12
634.167	51339.51
634.521	51353.75
634.875	51372.96
635.229	51180.42
635.583	51060.2
635.937	51158.73
636.291	51034.89
636.645	51096.35
636.999	50980.43
637.352	51090.03
637.706	50909.47
638.06	51053.64
638.413	50992.18
638.767	50872.41
639.121	50863.82
639.474	50663.82
639.828	50599.42
640.181	50715.12
640.534	50767.1
640.888	50524.17
641.241	50484.17
641.594	50592.86
641.947	50688.68
642.301	50372.76
642.654	50472.42
643.007	50444.85
643.36	50417.5
643.713	50303.83
644.066	50554.67
644.419	50223.38
644.771	50058.19
645.124	49714.92
645.477	49589.95
645.83	49364.65
646.182	49326.01
646.535	49112.45
646.888	49257.98
647.24	48906.13
647.593	49128.27
647.945	49128.72
648.298	48926.02
648.65	48923.76
649.002	48778.9
649.355	48949.52
649.707	48807.37
650.059	48963.08
650.411	49347.25
650.763	49306.12
651.115	49714.47
651.467	49755.15
651.819	49644.87
652.171	49507.24
652.523	49515.38
652.875	49575.26
653.227	49337.76
653.578	49579.11
653.93	49401.94
654.282	49398.32
654.633	49074.03
654.985	49322.16
655.337	49293.69
655.688	49292.33
656.039	49324.88
656.391	48921.95
656.742	49121.49
657.094	49208.72
657.445	49274.03
657.796	49117.2
658.147	49024.77
658.498	49054.83
658.849	49040.36
659.2	48952.23
659.551	48913.81
659.902	49006.47
660.253	48918.33
660.604	48993.58
660.955	48800.6
661.306	48839.92
661.656	48803.53
662.007	48795.17
662.358	48750.2
662.708	48689.19
663.059	48686.02
663.409	48500.04
663.76	48746.36
664.11	48596.53
664.461	48661.39
664.811	48747.72
665.161	48695.74
665.511	48497.1
665.862	48635.18
666.212	48692.58
666.562	48679.92
666.912	48544.56
667.262	48469.76
667.612	48512.69
667.962	48529.42
668.312	48532.35
668.662	48669.75
669.011	48512.92
669.361	48424.33
669.711	48345.92
670.06	48238.58
670.41	48324.22
670.76	48237.22
671.109	48402.64
671.459	48338.46
671.808	48223.89
672.157	48306.6
672.507	48001.07
672.856	48035.19
673.205	48035.19
673.554	48274.06
673.904	47937.34
674.253	48254.4
674.602	48038.36
674.951	47493.51
675.3	47316.34
675.649	47832.71
675.998	47713.39
676.346	47810.11
676.695	47858.93
677.044	47671.13
677.393	47848.98
677.741	47777.35
678.09	47615.77
678.438	47477.01
678.787	47611.47
679.135	47642.89
679.484	47477.47
679.832	47459.39
680.181	47261.88
680.529	47457.13
680.877	47353.18
681.225	47237.7
681.573	47245.16
681.922	47158.15
682.27	46869.57
682.618	47010.81
682.966	46889.46
683.314	46928.1
683.661	46829.8
684.009	46581.67
684.357	46561.56
684.705	46392.3
685.053	46398.4
685.4	46338.06
685.748	46165.86
686.095	46300.32
686.443	45996.15
686.79	46004.74
687.138	46038.18
687.485	46079.09
687.832	45838.41
688.18	45884.51
688.527	45501.25
688.874	45602.26
689.221	45461.93
689.568	45351.87
689.915	45281.37
690.262	45320.69
690.609	45107.36
690.956	45001.15
691.303	45125.44
691.65	44771.77
691.997	44689.97
692.344	44590.54
692.69	44480.93
693.037	44476.87
693.383	44200.94
693.73	44295.4
694.077	44169.53
694.423	44009.08
694.769	43935.64
695.116	43732.03
695.462	43857
695.808	43696.1
696.155	43773.61
696.501	43482.09
696.847	43482.32
697.193	43010.24
697.539	43264.47
697.885	42972.27
698.231	42926.4
698.577	42844.14
698.923	42806.18
699.269	42560.99
699.614	42457.94
699.96	42330.48
700.306	42327.32
700.651	42250.49
700.997	41951.06
701.342	41861.79
701.688	41919.87
702.033	41683.27
702.379	41726.88
702.724	41563.27
703.069	41734.79
703.415	41220.23
703.76	41292.09
704.105	41197.41
704.45	41173.23
704.795	40820.24
705.14	40799.68
705.485	40734.14
705.83	40654.14
706.175	40592.45
706.52	40527.59
706.865	40353.13
707.209	40383.42
707.554	40308.84
707.899	40273.81
708.243	40048.74
708.588	39988.85
708.932	39924.44
709.277	39748.86
709.621	39907.95
709.966	39643.55
710.31	39644.23
710.654	39306.16
710.998	39419.6
711.342	39515.87
711.687	39121.75
712.031	39159.72
712.375	39027.29
712.719	39040.85
713.063	38884.25
713.407	39173.96
713.75	38783.01
714.094	38694.19
714.438	38717.7
714.782	38557.93
715.125	38425.73
715.469	38574.65
715.812	38295.33
716.156	38150.93
716.499	38154.1
716.843	38199.07
717.186	37850.83
717.53	38162.01
717.873	38128.11
718.216	38060.31
718.559	37734.45
718.902	37573.77
719.246	37755.91
719.589	37562.92
719.932	37411.52
720.275	37414.23
720.617	37441.57
720.96	37176.27
721.303	37196.61
721.646	37240
721.989	36998.19
722.331	37193.67
722.674	36952.77
723.016	36999.55
723.359	36973.11
723.701	36938.31
724.044	36752.78
724.386	36585.32
724.729	36863.28
725.071	36617.19
725.413	36667.58
725.755	36573.35
726.097	36458.77
726.439	36334.26
726.782	36434.14
727.124	36398.89
727.465	36280.7
727.807	36244.99
728.149	36057.2
728.491	36021.5
728.833	36120.93
729.175	35812.91
729.516	35786.25
729.858	35774.27
730.199	35780.15
730.541	35796.19
730.882	35691.34
731.224	35735.18
731.565	35426.48
731.906	35470.78
732.248	35539.48
732.589	35198.24
732.93	35253.83
733.271	35207.51
733.612	35267.62
733.953	35212.48
734.294	35040.05
734.635	34837.35
734.976	35040.28
735.317	34830.57
735.658	34866.5
735.999	34946.27
736.339	34786.27
736.68	34808.42
737.021	34670.12
737.361	34577.69
737.702	34763.68
738.042	34503.12
738.383	34546.73
738.723	34650.23
739.063	34405.04
739.404	34495.89
739.744	34430.8
740.084	34202.11
740.424	34208.89
740.764	34056.8
741.104	34213.63
741.444	33936.58
741.784	33861.55
742.124	33993.3
742.464	34061.55
742.804	33966.86
743.143	33734.1
743.483	33819.75
743.823	33653.87
744.162	33738.17
744.502	33651.16
744.841	33451.62
745.181	33633.54
745.52	33405.52
745.86	33504.95
746.199	33411.62
746.538	33200.55
746.877	33363.49
747.216	33247.78
747.556	33285.07
747.895	33103.83
748.234	33148.8
748.573	32929.6
748.911	32940.9
749.25	32956.04
749.589	32751.07
749.928	32794.91
750.267	32776.16
750.605	32731.19
750.944	32609.38
751.283	32367.81
751.621	32519.44
751.96	32344.08
752.298	32336.17
752.636	32427.92
752.975	32216.4
753.313	32014.14
