Data from White_reflection_standard_FLMS001491_056.txt Node
Date: Tue Feb 07 10:32:06 GMT 2017
User: dcchb
Spectrometer: FLMS00149
Trigger mode: 0
Integration Time (sec): 2.000000E-2
Scans to average: 10
Electric dark correction enabled: true
Nonlinearity correction enabled: false
Boxcar width: 0
XAxis mode: Wavelengths
Number of Pixels in Spectrum: 2048
>>>>>Begin Spectral Data<<<<<
341.393	-27.36
341.776	-27.36
342.16	-27.36
342.543	-62.61
342.927	-77.98
343.31	-72.33
343.693	-58.54
344.077	-66.45
344.46	-66
344.843	-50.41
345.226	-61.93
345.61	-36.85
345.993	-25.32
346.376	11.74
346.759	4.28
347.142	25.52
347.525	44.28
347.908	92.64
348.291	60.32
348.674	90.83
349.057	108.23
349.44	131.73
349.823	123.6
350.206	166.54
350.588	251.96
350.971	254.67
351.354	268
351.737	273.88
352.119	295.35
352.502	307.32
352.884	299.41
353.267	318.4
353.65	345.06
354.032	343.48
354.414	370.15
354.797	373.54
355.179	386.19
355.562	369.69
355.944	364.04
356.326	373.76
356.709	382.57
357.091	373.54
357.473	401.78
357.855	420.99
358.238	398.62
358.62	403.82
359.002	400.2
359.384	397.94
359.766	406.3
360.148	400.43
360.53	403.82
360.912	409.69
361.294	389.58
361.676	424.16
362.057	406.3
362.439	423.93
362.821	404.5
363.203	399.75
363.584	399.07
363.966	401.11
364.348	420.99
364.729	413.99
365.111	425.29
365.493	395.68
365.874	444.95
366.256	427.32
366.637	432.52
367.019	420.31
367.4	412.4
367.781	406.3
368.163	413.08
368.544	424.83
368.925	416.02
369.306	429.35
369.688	437.26
370.069	425.96
370.45	407.66
370.831	418.28
371.212	454.21
371.593	420.31
371.974	439.52
372.355	451.05
372.736	440.43
373.117	452.18
373.498	477.71
373.879	450.82
374.26	453.31
374.641	439.3
375.021	432.97
375.402	461.44
375.783	502.8
376.163	510.48
376.544	516.81
376.925	494.89
377.305	508.9
377.686	491.05
378.066	491.27
378.447	491.5
378.827	500.54
379.208	505.51
379.588	514.77
379.968	521.78
380.349	531.72
380.729	539.86
381.109	536.47
381.489	524.94
381.87	553.42
382.25	528.11
382.63	526.53
383.01	544.83
383.39	528.79
383.77	566.52
384.15	576.69
384.53	611.5
384.91	604.26
385.29	609.69
385.67	581.21
386.049	590.93
386.429	630.25
386.809	620.53
387.189	627.09
387.568	611.04
387.948	642.23
388.328	628.9
388.707	639.29
389.087	622.34
389.466	677.03
389.846	678.61
390.225	675.45
390.605	684.26
390.984	709.57
391.363	678.61
391.743	721.32
392.122	715
392.501	728.55
392.881	740.98
393.26	732.62
393.639	768.1
394.018	764.49
394.397	775.56
394.776	765.16
395.155	810.59
395.534	791.6
395.913	796.8
396.292	829.57
396.671	807.87
397.05	827.99
397.429	842.22
397.808	834.77
398.186	849.46
398.565	854.65
398.944	886.06
399.323	851.94
399.701	888.32
400.08	886.97
400.458	904.14
400.837	940.07
401.215	941.43
401.594	927.65
401.972	942.79
402.351	934.88
402.729	977.81
403.107	978.94
403.486	977.81
403.864	975.33
404.242	1002.67
404.62	1023.01
404.999	1044.7
405.377	1021.2
405.755	1055.55
406.133	1063.01
406.511	1082.44
406.889	1079.73
407.267	1099.17
407.645	1119.96
408.023	1147.07
408.401	1177.58
408.779	1161.09
409.156	1251.03
409.534	1201.31
409.912	1216.9
410.29	1217.81
410.667	1238.37
411.045	1277.47
411.422	1281.99
411.8	1315.88
412.178	1359.05
412.555	1352.27
412.933	1316.34
413.31	1370.8
413.687	1381.42
414.065	1403.56
414.442	1414.19
414.819	1420.06
415.197	1455.31
415.574	1498.48
415.951	1482.66
416.328	1522.88
416.705	1520.85
417.082	1543.22
417.46	1556.33
417.837	1562.43
418.214	1594.52
418.591	1605.82
418.967	1630
419.344	1644.01
419.721	1638.59
420.098	1677.23
420.475	1705.25
420.852	1670
421.228	1706.38
421.605	1734.86
421.982	1775.31
422.358	1782.76
422.735	1827.06
423.111	1816.89
423.488	1840.84
423.864	1846.72
424.241	1881.97
424.617	1919.48
424.994	1923.1
425.37	1917
425.746	1964
426.123	1960.39
426.499	1980.95
426.875	2039.71
427.251	2065.92
427.627	2099.82
428.003	2135.07
428.379	2148.18
428.756	2170.32
429.132	2185.69
429.507	2222.3
429.883	2252.58
430.259	2319.25
430.635	2358.57
431.011	2344.56
431.387	2401.96
431.763	2438.34
432.138	2456.87
432.514	2472.92
432.89	2517.21
433.265	2584.1
433.641	2611.44
434.016	2639.01
434.392	2634.04
434.767	2721.27
435.143	2686.02
435.518	2747.94
435.894	2781.16
436.269	2819.57
436.644	2849.85
437.02	2915.39
437.395	2912.23
437.77	2936.18
438.145	2985.9
438.52	2996.52
438.895	3047.59
439.271	3086.91
439.646	3100.7
440.021	3149.28
440.395	3207.59
440.77	3183.4
441.145	3213.91
441.52	3263.18
441.895	3290.29
442.27	3308.37
442.645	3277.19
443.019	3361.03
443.394	3346.56
443.769	3383.63
444.143	3421.82
444.518	3438.54
444.892	3465.21
445.267	3508.37
445.641	3525.09
446.016	3544.53
446.39	3580.23
446.764	3602.6
447.139	3592.66
447.513	3668.59
447.887	3676.73
448.262	3695.03
448.636	3701.36
449.01	3817.96
449.384	3854.12
449.758	3836.95
450.132	3876.04
450.506	3920.56
450.88	3923.72
451.254	3907.23
451.628	4019.32
452.002	4035.13
452.376	4137.28
452.75	4138.63
453.123	4163.49
453.497	4224.96
453.871	4249.37
454.244	4365.52
454.618	4410.04
454.992	4460.43
455.365	4453.2
455.739	4571.62
456.112	4674.89
456.486	4744.72
456.859	4708.11
457.232	4859.97
457.606	4813.19
457.979	4866.52
458.352	4977.03
458.725	5025.16
459.099	5072.17
459.472	5138.61
459.845	5198.49
460.218	5264.48
460.591	5361.88
460.964	5341.09
461.337	5476.68
461.71	5520.97
462.083	5640.29
462.456	5641.19
462.829	5650.01
463.201	5780.4
463.574	5810.23
463.947	5856.1
464.32	6011.58
464.692	6052.48
465.065	6167.73
465.438	6243.44
465.81	6266.49
466.183	6378.58
466.555	6581.28
466.928	6606.59
467.3	6624.67
467.672	6744.22
468.045	6881.16
468.417	6888.84
468.789	6964.55
469.161	7020.37
469.534	7145.56
469.906	7304.43
470.278	7303.07
470.65	7454.03
471.022	7624.64
471.394	7789.39
471.766	7787.13
472.138	7925.43
472.51	8085.2
472.882	8186.66
473.253	8335.13
473.625	8439.31
473.997	8576.48
474.369	8651.51
474.74	8811.05
475.112	8910.49
475.484	9076.36
475.855	9189.8
476.227	9327.2
476.598	9655.78
476.97	9713.18
477.341	9921.76
477.713	10057.8
478.084	10140.06
478.455	10429.09
478.827	10501.86
479.198	10820.04
479.569	10817.55
479.94	11118.56
480.311	11161.73
480.682	11480.36
481.053	11902.27
481.424	11894.81
481.795	12058.88
482.166	12240.57
482.537	12417.51
482.908	12716.94
483.279	12834.68
483.65	13099.98
484.021	13282.57
484.391	13438.05
484.762	13481.89
485.133	13681.21
485.503	13918.26
485.874	14250.46
486.244	14340.85
486.615	14590.34
486.985	14804.12
487.356	15021.06
487.726	15196.87
488.097	15528.62
488.467	15574.94
488.837	15840.02
489.207	16066.23
489.578	16264.64
489.948	16484.75
490.318	16695.59
490.688	16805.87
491.058	17116.6
491.428	17219.87
491.798	17510.71
492.168	17797.48
492.538	17873.19
492.908	18105.05
493.278	18292.16
493.648	18352.05
494.017	18522.44
494.387	18790.45
494.757	18935.31
495.126	19137.79
495.496	19222.76
495.866	19300.95
496.235	19651.22
496.605	19791.56
496.974	19874.94
497.344	20127.82
497.713	20151.09
498.082	20406.68
498.452	20609.16
498.821	20689.61
499.19	20783.39
499.559	20896.39
499.928	21082.82
500.298	21264.51
500.667	21410.5
501.036	21474.45
501.405	21746.31
501.774	21722.8
502.143	22102.91
502.512	22102.46
502.88	22290.93
503.249	22352.84
503.618	22541.31
503.987	22641.42
504.356	22716.45
504.724	22983.34
505.093	23092.94
505.462	23163.67
505.83	23382.87
506.199	23503.1
506.567	23816.99
506.936	23902.63
507.304	24214.49
507.672	24374.94
508.041	24555.5
508.409	24614.03
508.777	24778.09
509.145	24986.45
509.514	25055.82
509.882	25345.08
510.25	25305.99
510.618	25501.91
510.986	25536.26
511.354	25880.66
511.722	26261.22
512.09	26428.67
512.458	26294.89
512.826	26639.06
513.193	26839.73
513.561	26971.48
513.929	27186.84
514.297	27416.67
514.664	27672.48
515.032	27699.37
515.4	28075.86
515.767	28191.34
516.135	28271.78
516.502	28196.08
516.869	28711.32
517.237	28696.63
517.604	28835.39
517.972	29065.89
518.339	29477.4
518.706	29463.84
519.073	29565.99
519.44	29897.5
519.808	30228.12
520.175	30341.79
520.542	30562.35
520.909	30803.47
521.276	30923.92
521.643	31250.46
522.009	31576.33
522.376	31729.77
522.743	31962.31
523.11	32264.22
523.477	32557.32
523.843	32721.61
524.21	32957.31
524.577	33129.28
524.943	33481.14
525.31	33572.21
525.676	33926.33
526.043	34123.38
526.409	34373.77
526.776	34828
527.142	34838.39
527.508	35015.11
527.874	35351.15
528.241	35391.15
528.607	35653.06
528.973	35809.44
529.339	36031.81
529.705	36178.47
530.071	36577.78
530.437	36732.35
530.803	37159.46
531.169	37260.7
531.535	37291.43
531.901	37327.14
532.267	37627.47
532.632	37906.33
532.998	37937.97
533.364	38295.48
533.73	38201.47
534.095	38577.73
534.461	38770.04
534.826	38928.91
535.192	39046.87
535.557	39248.9
535.923	39275.79
536.288	39635.78
536.653	39837.58
537.019	39687.3
537.384	39944.25
537.749	40158.03
538.114	40296.1
538.479	40380.17
538.845	40507.85
539.21	40573.16
539.575	40739.93
539.94	40877.33
540.305	41290.65
540.67	41061.96
541.034	41258.56
541.399	41509.18
541.764	41578.78
542.129	41690.64
542.494	41953.91
542.858	42083.4
543.223	42031.2
543.587	42354.13
543.952	42186.45
544.316	42544.63
544.681	42470.73
545.045	42639.32
545.41	42947.56
545.774	43044.96
546.138	43075.24
546.503	43188.91
546.867	43301.67
547.231	43743.69
547.595	43776.69
547.959	43929.23
548.324	43987.98
548.688	44049.9
549.052	44099.62
549.416	44315.2
549.779	44426.84
550.143	44542.32
550.507	44896.66
550.871	44971.01
551.235	45032.02
551.599	45370.09
551.962	45392.92
552.326	45507.72
552.689	45800.14
553.053	45734.15
553.417	45827.93
553.78	46194.93
554.143	46148.38
554.507	46343.4
554.87	46508.82
555.234	46836.95
555.597	46646.44
555.96	46893.22
556.323	47129.14
556.686	47224.96
557.05	47512.18
557.413	47725.06
557.776	47701.56
558.139	47941.32
558.502	47995.11
558.865	48151.71
559.228	48540.63
559.59	48617.92
559.953	48689.33
560.316	49201.86
560.679	49036.44
561.041	49287.96
561.404	49424.22
561.767	49574.28
562.129	49509.19
562.492	49974.27
562.854	49964.77
563.217	49996.41
563.579	50189.4
563.941	50441.15
564.304	50460.58
564.666	50723.4
565.028	50809.5
565.39	50980.34
565.753	51097.85
566.115	51261.91
566.477	51441.8
566.839	51480.44
567.201	51634.56
567.563	51760.21
567.925	52006.75
568.287	51927.89
568.648	52076.13
569.01	52190.25
569.372	52396.57
569.734	52374.43
570.095	52658.04
570.457	52701.65
570.819	52807.86
571.18	52887.41
571.542	52917.24
571.903	52994.52
572.265	53183.45
572.626	53204.46
572.987	53328.98
573.349	53409.43
573.71	53537.56
574.071	53513.83
574.432	53686.48
574.794	53898.68
575.155	53762.64
575.516	53821.4
575.877	54015.74
576.238	54015.51
576.599	54183.65
576.96	54109.98
577.32	54157.88
577.681	54254.15
578.042	54318.33
578.403	54359.01
578.763	54382.96
579.124	54385
579.485	54524.88
579.845	54545.67
580.206	54617.08
580.566	54560.36
580.927	54618.44
581.287	54673.58
581.648	54560.13
582.008	54807.81
582.368	54660.92
582.728	54656.4
583.089	54668.83
583.449	54732.56
583.809	54791.09
584.169	54769.17
584.529	54718.55
584.889	54963.51
585.249	54711.09
585.609	54696.17
585.969	54882.84
586.329	54719.68
586.688	54817.75
587.048	54842.84
587.408	54819.11
587.768	54829.96
588.127	54753.35
588.487	54709.06
588.846	54981.37
589.206	54725.55
589.565	54788.15
589.925	54870.18
590.284	54786.57
590.643	54797.87
591.003	54925.55
591.362	54977.07
591.721	54888.71
592.08	54839
592.44	55005.32
592.799	55029.5
593.158	55043.96
593.517	54937.3
593.876	54987.01
594.235	54937.07
594.593	55006.68
594.952	54993.79
595.311	54911.76
595.67	55044.64
596.029	55180.68
596.387	55180
596.746	55276.5
597.104	55080.57
597.463	55143.62
597.822	55219.55
598.18	55155.37
598.538	55105.43
598.897	55286.22
599.255	55049.39
599.613	55444.63
599.972	55265.88
600.33	55414.12
600.688	55310.17
601.046	55335.48
601.404	55438.53
601.762	55408.02
602.12	55477.4
602.478	55469.71
602.836	55516.94
603.194	55307.23
603.552	55429.26
603.91	55372.54
604.268	55510.84
604.625	55455.02
604.983	55589.03
605.341	55454.8
605.698	55630.39
606.056	55629.71
606.413	55678.97
606.771	55675.81
607.128	55750.84
607.485	55721.46
607.843	55689.6
608.2	55790.38
608.557	55851.62
608.914	55798.97
609.272	55961.23
609.629	55893.66
609.986	56061.11
610.343	55857.73
610.7	56076.48
611.057	56117.38
611.414	56006.2
611.771	56081.68
612.127	56137.72
612.484	56138.85
612.841	56227.89
613.198	56084.16
613.554	56137.49
613.911	56281.22
614.267	56278.51
614.624	56198.73
614.98	56268.56
615.337	56419.07
615.693	56336.13
616.05	56290.48
616.406	56487.77
616.762	56340.88
617.118	56368
617.475	56376.13
617.831	56398.28
618.187	56495
618.543	56537.71
618.899	56631.72
619.255	56608.21
619.611	56548.1
619.967	56627.42
620.323	56648.89
620.678	56585.16
621.034	56585.16
621.39	56472.85
621.746	56499.52
622.101	56818.15
622.457	56562.11
622.812	56607.54
623.168	56678.95
623.523	56618.38
623.879	56707.65
624.234	56517.6
624.589	56643.02
624.945	56643.02
625.3	56708.33
625.655	56614.77
626.01	56630.59
626.365	56609.57
626.72	56605.96
627.075	56565.73
627.43	56568.67
627.785	56507.43
628.14	56585.84
628.495	56641.89
628.85	56546.3
629.205	56487.54
629.559	56664.71
629.914	56478.95
630.269	56451.38
630.623	56512.62
630.978	56382.46
631.332	56488.9
631.687	56469.46
632.041	56305.17
632.396	56385.4
632.75	56294.78
633.104	56297.04
633.459	56197.38
633.813	56215.91
634.167	56131.39
634.521	56186.53
634.875	56240.32
635.229	56146.76
635.583	55937.72
635.937	56008.91
636.291	55960.32
636.645	55938.18
636.999	55883.26
637.352	55935.69
637.706	55785.86
638.06	55946.31
638.413	55808.69
638.767	55701.12
639.121	55763.27
639.474	55571.86
639.828	55575.25
640.181	55616.38
640.534	55720.55
640.888	55529.6
641.241	55447.34
641.594	55512.2
641.947	55573.21
642.301	55422.94
642.654	55475.36
643.007	55362.82
643.36	55368.02
643.713	55257.97
644.066	55417.74
644.419	55172.55
644.771	55022.04
645.124	54700.92
645.477	54698.89
645.83	54425.67
646.182	54386.13
646.535	54300.48
646.888	54374.83
647.24	54236.07
647.593	54354.26
647.945	54337.31
648.298	54165.57
648.65	54038.56
649.002	54001.05
649.355	54095.96
649.707	54100.26
650.059	54123.53
650.411	54528.72
650.763	54452.79
651.115	54714.93
651.467	54652.79
651.819	54637.65
652.171	54569.4
652.523	54597.19
652.875	54553.81
653.227	54431.77
653.578	54641.26
653.93	54451.44
654.282	54278.33
654.633	54235.85
654.985	54301.16
655.337	54276.75
655.688	54279.46
656.039	54401.04
656.391	54094.83
656.742	54090.54
657.094	54182.29
657.445	54255.73
657.796	54115.85
658.147	54092.57
658.498	54077.89
658.849	54127.38
659.2	54116.98
659.551	53949.98
659.902	54065.23
660.253	53984.78
660.604	54028.85
660.955	53941.62
661.306	53994.5
661.656	53972.8
662.007	53827.72
662.358	53957.21
662.708	53872.92
663.059	53826.82
663.409	53585.47
663.76	53926.93
664.11	53821.85
664.461	53861.39
664.811	53803.99
665.161	53787.27
665.511	53707.27
665.862	53655.98
666.212	53753.15
666.562	53825.01
666.912	53675.64
667.262	53656.65
667.612	53633.83
667.962	53580.95
668.312	53568.75
668.662	53759.02
669.011	53582.76
669.361	53490.78
669.711	53473.61
670.06	53524.45
670.41	53296.89
670.76	53334.4
671.109	53440.39
671.459	53385.7
671.808	53370.56
672.157	53416.43
672.507	53231.35
672.856	53243.78
673.205	53267.51
673.554	53381.63
673.904	53189.1
674.253	53385.25
674.602	53233.84
674.951	52795.43
675.3	52623.91
675.649	53064.35
675.998	53003.79
676.346	52975.09
676.695	53137.35
677.044	52900.29
677.393	52987.52
677.741	52964.24
678.09	52857.58
678.438	52745.49
678.787	52858.48
679.135	52875.88
679.484	52586.4
679.832	52821.87
680.181	52611.03
680.529	52724.48
680.877	52612.84
681.225	52472.73
681.573	52683.12
681.922	52403.58
682.27	52368.1
682.618	52408.78
682.966	52333.53
683.314	52298.5
683.661	52283.13
684.009	52019.64
684.357	52052.4
684.705	51915.23
685.053	51996.36
685.4	51940.54
685.748	51777.61
686.095	51692.19
686.443	51655.35
686.79	51496.48
687.138	51567.22
687.485	51570.83
687.832	51429.37
688.18	51486.99
688.527	51279.54
688.874	51208.36
689.221	51190.5
689.568	51081.81
689.915	51025.54
690.262	50985.09
690.609	50796.62
690.956	50773.11
691.303	50750.52
691.65	50574.02
691.997	50494.48
692.344	50257.42
692.69	50211.1
693.037	50215.61
693.383	49960.25
693.73	50157.54
694.077	49943.76
694.423	49924.32
694.769	49600.49
695.116	49642.3
695.462	49487.5
695.808	49424.68
696.155	49496.09
696.501	49167.73
696.847	49161.86
697.193	48925.71
697.539	49210.44
697.885	48725.48
698.231	48813.39
698.577	48645.49
698.923	48580.63
699.269	48444.36
699.614	48257.25
699.96	48261.54
700.306	48250.24
700.651	48124.14
700.997	48004.15
701.342	47845.06
701.688	47817.94
702.033	47675.12
702.379	47723.93
702.724	47548.79
703.069	47530.04
703.415	47022.25
703.76	47117.84
704.105	47046.88
704.45	46953.33
704.795	46704.52
705.14	46719.21
705.485	46834.91
705.83	46496.39
706.175	46524.64
706.52	46292.55
706.865	46141.6
707.209	46130.52
707.554	46003.07
707.899	46154.7
708.243	45782.74
708.588	45622.74
708.932	45612.35
709.277	45526.92
709.621	45396.53
709.966	45224.33
710.31	45367.38
710.654	44944.11
710.998	45016.66
711.342	45122.87
711.687	45040.84
712.031	44691.24
712.375	44550.68
712.719	44710.9
713.063	44514.75
713.407	44616.21
713.75	44383
714.094	44305.49
714.438	44204.25
714.782	44338.48
715.125	44042.22
715.469	44087.19
715.812	43874.09
716.156	43573.08
716.499	43722.45
716.843	43754.99
717.186	43357.49
717.53	43602.46
717.873	43520.88
718.216	43514.55
718.559	43266.19
718.902	42966.31
719.246	43231.17
719.589	42963.15
719.932	42817.62
720.275	42855.58
720.617	42712.08
720.96	42639.09
721.303	42666.43
721.646	42597.51
721.989	42310.74
722.331	42440.9
722.674	42407.46
723.016	42364.3
723.359	42115.49
723.701	42094.92
724.044	42108.94
724.386	41790.98
724.729	41957.98
725.071	41887.25
725.413	41694.93
725.755	41743.52
726.097	41628.04
726.439	41302.63
726.782	41355.06
727.124	41616.97
727.465	41398.9
727.807	41287.71
728.149	41196.64
728.491	41241.61
728.833	41190.77
729.175	40972.02
729.516	40886.14
729.858	40857.44
730.199	40855.86
730.541	40650.67
730.882	40627.39
731.224	40638.01
731.565	40569.99
731.906	40652.25
732.248	40617
732.589	40313.95
732.93	40131.81
733.271	40326.16
733.612	40225.82
733.953	40260.4
734.294	40132.72
734.635	39933.4
734.976	40003.23
735.317	39785.38
735.658	39790.8
735.999	39545.84
736.339	39629.68
736.68	39688.21
737.021	39513.98
737.361	39436.69
737.702	39506.97
738.042	39379.97
738.383	39280.99
738.723	39314.43
739.063	39132.06
739.404	39274.21
739.744	38989.24
740.084	38900.66
740.424	38989.7
740.764	38939.53
741.104	38876.48
741.444	38873.99
741.784	38654.11
742.124	38827.67
742.464	38683.49
742.804	38441.01
743.143	38458.64
743.483	38514.45
743.823	38256.61
744.162	38178.19
744.502	38253.9
744.841	37974.35
745.181	38215.25
745.52	38022.94
745.86	38076.27
746.199	37947.24
746.538	37902.72
746.877	37850.06
747.216	37810.07
747.556	37681.93
747.895	37660.01
748.234	37525.55
748.573	37460.24
748.911	37466.35
749.25	37323.3
749.589	37059.58
749.928	37204.88
750.267	37239.68
750.605	37140.25
750.944	37000.37
751.283	36975.51
751.621	37025
751.96	36625.46
752.298	36713.6
752.636	36792.46
