Data from white_wall_FLMS001491_052.txt Node
Date: Tue Feb 07 11:04:57 GMT 2017
User: dcchb
Spectrometer: FLMS00149
Trigger mode: 0
Integration Time (sec): 2.000000E-2
Scans to average: 10
Electric dark correction enabled: true
Nonlinearity correction enabled: false
Boxcar width: 0
XAxis mode: Wavelengths
Number of Pixels in Spectrum: 2048
>>>>>Begin Spectral Data<<<<<
341.393	-11.84
341.776	-11.84
342.16	-11.84
342.543	-67.88
342.927	-64.26
343.31	-62.68
343.693	-68.78
344.077	-54.77
344.46	-55.9
344.843	-62.68
345.226	-43.47
345.61	-28.11
345.993	-7.54
346.376	-17.94
346.759	10.99
347.142	18.45
347.525	42.85
347.908	57.31
348.291	75.17
348.674	88.73
349.057	108.39
349.44	121.04
349.823	146.58
350.206	157.88
350.588	205.11
350.971	210.76
351.354	235.16
351.737	236.97
352.119	264.09
352.502	237.42
352.884	282.62
353.267	271.09
353.65	290.76
354.032	294.14
354.414	317.42
354.797	314.48
355.179	315.84
355.562	325.78
355.944	327.14
356.326	342.96
356.709	319
357.091	339.34
357.473	366.69
357.855	328.95
358.238	336.4
358.62	345.67
359.002	339.12
359.384	344.99
359.766	320.58
360.148	337.53
360.53	342.73
360.912	333.24
361.294	336.4
361.676	324.43
362.057	338.21
362.439	333.47
362.821	349.28
363.203	313.58
363.584	320.13
363.966	317.2
364.348	328.72
364.729	313.81
365.111	324.65
365.493	311.09
365.874	315.84
366.256	344.54
366.637	317.2
367.019	309.51
367.4	322.62
367.781	333.69
368.163	315.39
368.544	331.66
368.925	307.48
369.306	336.86
369.688	325.78
370.069	322.62
370.45	308.38
370.831	311.32
371.212	305.22
371.593	313.58
371.974	316.29
372.355	318.32
372.736	303.18
373.117	331.43
373.498	315.84
373.879	318.78
374.26	326.23
374.641	315.16
375.021	307.7
375.402	312.9
375.783	325.78
376.163	348.83
376.544	339.12
376.925	344.09
377.305	331.43
377.686	330.75
378.066	344.99
378.447	342.51
378.827	368.04
379.208	333.24
379.588	353.35
379.968	358.78
380.349	346.35
380.729	328.72
381.109	330.98
381.489	353.35
381.87	352.45
382.25	335.73
382.63	348.83
383.01	354.71
383.39	341.6
383.77	359.23
384.15	352.45
384.53	355.84
384.91	372.11
385.29	359.23
385.67	349.28
386.049	348.38
386.429	355.39
386.809	391.77
387.189	384.99
387.568	367.14
387.948	374.37
388.328	374.14
388.707	369.4
389.087	387.7
389.466	377.31
389.846	387.25
390.225	390.87
390.605	399.9
390.984	397.87
391.363	380.24
391.743	386.12
392.122	427.7
392.501	426.34
392.881	416.63
393.26	419.79
393.639	439
394.018	426.12
394.397	431.99
394.776	449.17
395.155	450.3
395.534	443.97
395.913	475.61
396.292	476.74
396.671	479.68
397.05	467.93
397.429	494.37
397.808	465.21
398.186	497.08
398.565	512.22
398.944	502.73
399.323	507.92
399.701	537.75
400.08	511.54
400.458	523.97
400.837	533.01
401.215	537.3
401.594	548.6
401.972	552.44
402.351	554.7
402.729	585.89
403.107	573.46
403.486	607.81
403.864	591.09
404.242	608.71
404.62	608.26
404.999	632.89
405.377	618.88
405.755	646.45
406.133	655.49
406.511	663.85
406.889	667.47
407.267	676.73
407.645	714.25
408.023	696.39
408.401	690.97
408.779	718.54
409.156	738.88
409.534	739.1
409.912	754.25
410.29	773.91
410.667	793.57
411.045	781.82
411.422	776.39
411.8	795.37
412.178	831.98
412.555	836.73
412.933	844.86
413.31	831.08
413.687	872.66
414.065	909.27
414.442	888.71
414.819	928.25
415.197	914.69
415.574	935.26
415.951	947.23
416.328	942.49
416.705	973.45
417.082	948.59
417.46	969.61
417.837	1015.03
418.214	1013
418.591	1013.22
418.967	1027.23
419.344	1010.74
419.721	1037.63
420.098	1064.97
420.475	1064.52
420.852	1051.64
421.228	1079.21
421.605	1121.92
421.982	1128.93
422.358	1088.25
422.735	1131.18
423.111	1125.99
423.488	1149.49
423.864	1173.44
424.241	1172.99
424.617	1173.22
424.994	1196.27
425.37	1193.78
425.746	1222.26
426.123	1221.35
426.499	1208.47
426.875	1251.41
427.251	1295.02
427.627	1285.08
428.003	1329.82
428.379	1311.07
428.756	1328.92
429.132	1349.71
429.507	1391.97
429.883	1365.53
430.259	1370.5
430.635	1396.26
431.011	1430.39
431.387	1479.65
431.763	1491.4
432.138	1469.26
432.514	1495.7
432.89	1519.42
433.265	1531.17
433.641	1544.06
434.016	1574.56
434.392	1635.58
434.767	1671.74
435.143	1636.48
435.518	1641.23
435.894	1645.52
436.269	1682.13
436.644	1721.9
437.02	1727.1
437.395	1738.4
437.77	1754.22
438.145	1785.86
438.52	1807.55
438.895	1829.47
439.271	1822.69
439.646	1870.15
440.021	1887.32
440.395	1883.93
440.77	1891.84
441.145	1920.54
441.52	1947.21
441.895	1911.96
442.27	1932.75
442.645	1965.29
443.019	2011.61
443.394	2021.78
443.769	2019.3
444.143	2017.72
444.518	2039.41
444.892	2051.84
445.267	2079.41
445.641	2094.32
446.016	2125.96
446.39	2128.45
446.764	2115.34
447.139	2126.86
447.513	2167.09
447.887	2175.68
448.262	2175.9
448.636	2207.31
449.01	2240.99
449.384	2295.9
449.758	2270.36
450.132	2275.11
450.506	2283.92
450.88	2314.66
451.254	2320.76
451.628	2364.82
452.002	2404.82
452.376	2415.67
452.75	2452.96
453.123	2438.95
453.497	2472.17
453.871	2499.28
454.244	2542.45
454.618	2561.2
454.992	2643.46
455.365	2647.3
455.739	2692.27
456.112	2732.5
456.486	2707.19
456.859	2758.94
457.232	2805.72
457.606	2833.74
457.979	2892.49
458.352	2920.06
458.725	2919.61
459.099	2957.35
459.472	3029.67
459.845	3026.95
460.218	3100.4
460.591	3111.47
460.964	3139.04
461.337	3191.24
461.71	3241.64
462.083	3292.94
462.456	3318.47
462.829	3282.31
463.201	3383.1
463.574	3385.36
463.947	3471.69
464.32	3528.18
464.692	3539.26
465.065	3605.24
465.438	3617.67
465.81	3689.54
466.183	3739.93
466.555	3799.82
466.928	3838.68
467.3	3808.18
467.672	3927.04
468.045	4007.49
468.417	4006.59
468.789	4019.02
469.161	4107.15
469.534	4156.87
469.906	4269.41
470.278	4250.65
470.65	4332.91
471.022	4384.66
471.394	4504.66
471.766	4527.93
472.138	4602.51
472.51	4690.64
472.882	4739.23
473.253	4833.69
473.625	4903.52
473.997	4978.32
474.369	5052.66
474.74	5069.39
475.112	5202.26
475.484	5239.33
475.855	5406.33
476.227	5403.61
476.598	5527.23
476.97	5614.68
477.341	5724.51
477.713	5847.45
478.084	5862.13
478.455	6000.66
478.827	6058.96
479.198	6263.48
479.569	6235.46
479.94	6422.35
480.311	6501.21
480.682	6625.73
481.053	6839.96
481.424	6849.45
481.795	6966.74
482.166	7075.21
482.537	7167.64
482.908	7312.49
483.279	7431.58
483.65	7575.54
484.021	7692.37
484.391	7830.22
484.762	7835.42
485.133	7960.61
485.503	8054.62
485.874	8182.75
486.244	8286.25
486.615	8447.83
486.985	8594.27
487.356	8705.45
487.726	8814.6
488.097	8993.35
488.467	9021.82
488.837	9178.43
489.207	9411.42
489.578	9468.59
489.948	9517.86
490.318	9687.8
490.688	9748.59
491.058	9937.51
491.428	9988.35
491.798	10097.73
492.168	10345.41
492.538	10439.19
492.908	10489.36
493.278	10672.18
493.648	10647.32
494.017	10865.62
494.387	10931.61
494.757	11063.81
495.126	11194.2
495.496	11238.04
495.866	11314.87
496.235	11452.95
496.605	11511.7
496.974	11612.49
497.344	11734.07
497.713	11814.29
498.082	11898.13
498.452	12130.67
498.821	12058.81
499.19	12162.76
499.559	12301.74
499.928	12372.02
500.298	12465.58
500.667	12604.78
501.036	12655.4
501.405	12775.4
501.774	12796.41
502.143	12910.76
502.512	12992.79
502.88	13110.08
503.249	13137.42
503.618	13351.65
503.987	13351.88
504.356	13488.83
504.724	13573.34
505.093	13623.06
505.462	13662.61
505.83	13831.42
506.199	13880.91
506.567	14134.68
506.936	14120.9
507.304	14304.17
507.672	14357.5
508.041	14468.46
508.409	14613.09
508.777	14653.09
509.145	14830.94
509.514	14908.9
509.882	15047.43
510.25	15078.61
510.618	15188.89
510.986	15230.93
511.354	15436.8
511.722	15486.74
512.09	15715.43
512.458	15689.9
512.826	15825.49
513.193	15862.32
513.561	16056.89
513.929	16143.45
514.297	16299.15
514.664	16505.24
515.032	16539.14
515.4	16628.18
515.767	16698.01
516.135	16822.75
516.502	16748.4
516.869	17161.27
517.237	17144.55
517.604	17117.66
517.972	17429.97
518.339	17552.22
518.706	17542.5
519.073	17644.88
519.44	17805.55
519.808	17972.55
520.175	18059.78
520.542	18265.42
520.909	18255.71
521.276	18443.95
521.643	18523.04
522.009	18746.09
522.376	18966.2
522.743	19057.72
523.11	19229.24
523.477	19422.46
523.843	19499.97
524.21	19589.91
524.577	19859.05
524.943	19925.94
525.31	20010.01
525.676	20274.86
526.043	20490.22
526.409	20519.38
526.776	20705.13
527.142	20688.64
527.508	20983.77
527.874	21135.63
528.241	21195.52
528.607	21270.77
528.973	21455.17
529.339	21526.81
529.705	21735.61
530.071	21873.46
530.437	21960.02
530.803	22129.73
531.169	22209.73
531.535	22209.95
531.901	22403.39
532.267	22588.47
532.632	22615.14
532.998	22644.29
533.364	22871.63
533.73	22946.43
534.095	23169.02
534.461	23195.46
534.826	23280.89
535.192	23432.29
535.557	23598.84
535.923	23684.72
536.288	23733.53
536.653	23787.54
537.019	23765.84
537.384	23966.06
537.749	24072.05
538.114	24160.64
538.479	24184.59
538.845	24270.69
539.21	24310.46
539.575	24510.23
539.94	24577.35
540.305	24799.49
540.67	24692.6
541.034	24852.37
541.399	24976.89
541.764	25017.79
542.129	25188.18
542.494	25188.86
542.858	25311.57
543.223	25256.2
543.587	25525.57
543.952	25582.97
544.316	25647.15
544.681	25703.65
545.045	25919.23
545.41	26015.95
545.774	26010.53
546.138	26237.42
546.503	26372.1
546.867	26227.02
547.231	26457.07
547.595	26533.91
547.959	26700.23
548.324	26738.42
548.688	26908.59
549.052	26982.71
549.416	26975.93
549.779	27077.17
550.143	27212.08
550.507	27419.53
550.871	27409.59
551.235	27550.38
551.599	27784.72
551.962	27881.67
552.326	27956.02
552.689	28053.64
553.053	28064.04
553.417	28229.91
553.78	28585.15
554.143	28488.43
554.507	28631.7
554.87	28812.49
555.234	29171.8
555.597	28957.57
555.96	29060.62
556.323	29268.3
556.686	29358.01
557.05	29623.32
557.413	29707.61
557.776	29679.81
558.139	29913.7
558.502	29929.98
558.865	29990.09
559.228	30273.47
559.59	30472.56
559.953	30565.44
560.316	30882.72
560.679	30846.34
561.041	31092.88
561.404	31229.15
561.767	31345.76
562.129	31277.06
562.492	31552.76
562.854	31610.61
563.217	31796.82
563.579	31759.31
563.941	32110.03
564.304	32178.96
564.666	32446.75
565.028	32505.95
565.39	32606.74
565.753	32737.81
566.115	32892.61
566.477	32896.9
566.839	32992.49
567.201	33391.81
567.563	33288.08
567.925	33621.86
568.287	33631.8
568.648	33728.07
569.01	33846.03
569.372	34185.68
569.734	34094.16
570.095	34306.36
570.457	34527.59
570.819	34485.56
571.18	34512.68
571.542	34682.17
571.903	34704.77
572.265	34879.9
572.626	35130.97
572.987	35067.24
573.349	35339.55
573.71	35228.14
574.071	35328.25
574.432	35528.25
574.794	35730.95
575.155	35679.88
575.516	35695.7
575.877	35785.19
576.238	35879.88
576.599	35972.3
576.96	36010.04
577.32	36128.68
577.681	36335.46
578.042	36269.7
578.403	36254.33
578.763	36307.89
579.124	36455
579.485	36484.15
579.845	36510.37
580.206	36464.49
580.566	36485.51
580.927	36570.48
581.287	36562.34
581.648	36520.76
582.008	36610.03
582.368	36643.02
582.728	36820.64
583.089	36752.17
583.449	36645.73
583.809	36803.69
584.169	36928.21
584.529	36874.2
584.889	37194.42
585.249	36862.67
585.609	36726.18
585.969	37075.55
586.329	36914.42
586.688	37042.78
587.048	36930.24
587.408	36775.45
587.768	37063.12
588.127	36972.73
588.487	36894.99
588.846	36993.07
589.206	36891.6
589.565	36832.17
589.925	37202.1
590.284	37148.77
590.643	37165.94
591.003	37105.83
591.362	37185.15
591.721	37085.49
592.08	37122.1
592.44	37207.98
592.799	37212.95
593.158	37187.41
593.517	37217.47
593.876	37297.69
594.235	37228.77
594.593	37214.3
594.952	37256.79
595.311	37190.35
595.67	37243.91
596.029	37350.12
596.387	37486.84
596.746	37374.98
597.104	37259.5
597.463	37224.93
597.822	37405.49
598.18	37329.33
598.538	37508.99
598.897	37726.61
599.255	37362.55
599.613	37896.09
599.972	37540.4
600.33	37680.73
600.688	37478.93
601.046	37593.5
601.404	37647.96
601.762	37623.33
602.12	37713.73
602.478	37758.24
602.836	37786.04
603.194	37576.55
603.552	37756.66
603.91	37653.61
604.268	37957.11
604.625	37845.02
604.983	37937.45
605.341	37909.88
605.698	38007.96
606.056	38068.97
606.413	38050.89
606.771	38246.14
607.128	38368.62
607.485	37975.87
607.843	38135.18
608.2	38222.41
608.557	38393.26
608.914	38316.65
609.272	38463.99
609.629	38335.63
609.986	38472.8
610.343	38347.16
610.7	38675.28
611.057	38560.71
611.414	38663.76
611.771	38659.01
612.127	38936.52
612.484	38701.72
612.841	38837.54
613.198	38780.82
613.554	38846.35
613.911	38962.73
614.267	39011.54
614.624	38967.25
614.98	39014.26
615.337	39202.73
615.693	39132.9
616.05	39058.32
616.406	39315.94
616.762	39192.11
617.118	39278.88
617.475	39299.67
617.831	39285.21
618.187	39241.37
618.543	39406.34
618.899	39570.85
619.255	39386.45
619.611	39433.68
619.967	39477.75
620.323	39511.42
620.678	39523.62
621.034	39315.49
621.39	39383.96
621.746	39398.43
622.101	39943.72
622.457	39486.79
622.812	39604.07
623.168	39708.02
623.523	39778.76
623.879	39836.61
624.234	39595.26
624.589	39736.05
624.945	39774.46
625.3	39747.8
625.655	39668.25
626.01	39731.98
626.365	39806.55
626.72	39723.39
627.075	39594.13
627.43	39732.2
627.785	39557.52
628.14	39726.78
628.495	39741.92
628.85	39665.99
629.205	39492.44
629.559	39771.3
629.914	39636.16
630.269	39574.47
630.623	39631.64
630.978	39359.78
631.332	39488.82
631.687	39740.79
632.041	39378.31
632.396	39541.02
632.75	39306
633.104	39369.73
633.459	39251.99
633.813	39200.92
634.167	39231.65
634.521	39257.87
634.875	39388.48
635.229	39136.51
635.583	39066.23
635.937	38969.29
636.291	39004.09
636.645	39105.55
636.999	38930.87
637.352	39067.14
637.706	38819.01
638.06	38792.12
638.413	38818.1
638.767	38713.02
639.121	38783.08
639.474	38546.7
639.828	38550.99
640.181	38642.97
640.534	38650.88
640.888	38466.02
641.241	38397.1
641.594	38342.41
641.947	38587.83
642.301	38360.71
642.654	38436.64
643.007	38343.31
643.36	38257.67
643.713	38122.75
644.066	38381.96
644.419	38126.14
644.771	37867.17
645.124	37508.53
645.477	37488.87
645.83	37159.84
646.182	37135.89
646.535	36996.91
646.888	37127.3
647.24	36842.79
647.593	37071.48
647.945	36930.24
648.298	36902.45
648.65	36776.58
649.002	36522.12
649.355	36709.01
649.707	36770.02
650.059	36861.77
650.411	37193.06
650.763	37165.72
651.115	37581.07
651.467	37422.66
651.819	37452.94
652.171	37383.11
652.523	37324.13
652.875	37297.01
653.227	37103.8
653.578	37380.85
653.93	37320.06
654.282	37129.79
654.633	37011.15
654.985	37135.21
655.337	37222.21
655.688	37249.33
656.039	37310.35
656.391	36883.47
656.742	37036.46
657.094	36926.18
657.445	37084.14
657.796	36917.36
658.147	36857.48
658.498	36919.62
658.849	36900.19
659.2	36865.16
659.551	36844.14
659.902	36914.88
660.253	36712.4
660.604	36866.52
660.955	36668.1
661.306	36765.5
661.656	36663.58
662.007	36684.15
662.358	36767.99
662.708	36603.92
663.059	36704.03
663.409	36434.44
663.76	36629.01
664.11	36609.57
664.461	36623.81
664.811	36530.25
665.161	36543.36
665.511	36357.38
665.862	36377.04
666.212	36552.4
666.562	36533.87
666.912	36511.72
667.262	36424.95
667.612	36382.69
667.962	36390.6
668.312	36403.93
668.662	36503.59
669.011	36364.61
669.361	36390.6
669.711	36222.69
670.06	36224.05
670.41	36268.11
670.76	36126.65
671.109	36224.27
671.459	36090.72
671.808	36124.84
672.157	36140.21
672.507	35986.31
672.856	35934.79
673.205	35997.16
673.554	36099.98
673.904	35920.55
674.253	36087.55
674.602	35980.21
674.951	35456.38
675.3	35183.62
675.649	35892.08
675.998	35838.52
676.346	35749.03
676.695	35848.92
677.044	35656.38
677.393	35590.84
677.741	35739.77
678.09	35627.23
678.438	35443.96
678.787	35641.92
679.135	35565.53
679.484	35307.69
679.832	35416.16
680.181	35239.44
680.529	35260.46
680.877	35048.03
681.225	35151.53
681.573	35314.24
681.922	35050.52
682.27	34966.91
682.618	35003.51
682.966	34864.31
683.314	34910.86
683.661	34831.99
684.009	34595.39
684.357	34667.48
684.705	34558.78
685.053	34523.98
685.4	34578.44
685.748	34297.77
686.095	34369.86
686.443	34231.78
686.79	34079.02
687.138	34234.95
687.485	34267.94
687.832	33996.76
688.18	34006.25
688.527	33894.17
688.874	33798.8
689.221	33709.09
689.568	33711.57
689.915	33655.98
690.262	33589.99
690.609	33315.42
690.956	33275.65
691.303	33288.08
691.65	33315.88
691.997	33146.61
692.344	32999.27
692.69	32903.23
693.037	32947.98
693.383	32606.52
693.73	32779.39
694.077	32485.16
694.423	32655.1
694.769	32472.73
695.116	32407.42
695.462	32365.84
695.808	32175.11
696.155	32216.24
696.501	32078.39
696.847	32016.25
697.193	31764.73
697.539	31931.51
697.885	31782.13
698.231	31597.73
698.577	31661.91
698.923	31520.67
699.269	31423.04
699.614	31387.56
699.96	31221.02
700.306	31242.71
700.651	30960.46
700.997	30944.86
701.342	30841.36
701.688	30926.33
702.033	30935.6
702.379	30714.14
702.724	30745.55
703.069	30764.53
703.415	30356.63
703.76	30424.2
704.105	30321.15
704.45	30255.39
704.795	30153.92
705.14	29959.13
705.485	30048.16
705.83	29904.67
706.175	29892.46
706.52	29910.09
706.865	29717.55
707.209	29617.89
707.554	29528.4
707.899	29694.28
708.243	29297.9
708.588	29508.97
708.932	29209.77
709.277	29198.24
709.621	29203.22
709.966	29028.76
710.31	29066.04
710.654	28846.61
710.998	28894.3
711.342	28946.72
711.687	28742.89
712.031	28686.84
712.375	28605.04
712.719	28633.06
713.063	28524.36
713.407	28589.9
713.75	28587.19
714.094	28421.31
714.438	28363.24
714.782	28326.85
715.125	28248.21
715.469	28232.39
715.812	28123.24
716.156	27982.23
716.499	28087.54
716.843	28077.82
717.186	27939.52
717.53	28004.6
717.873	27876.7
718.216	27786.53
718.559	27713.99
718.902	27443.49
719.246	27652.52
719.589	27494.11
719.932	27402.36
720.275	27543.37
720.617	27404.84
720.96	27474.9
721.303	27221.35
721.646	27424.5
721.989	27176.6
722.331	27271.29
722.674	27133.89
723.016	27114.23
723.359	27003.5
723.701	27101.12
724.044	26928.92
724.386	26731.87
724.729	26928.02
725.071	26825.88
725.413	26869.94
725.755	26718.76
726.097	26699.55
726.439	26556.51
726.782	26497.3
727.124	26574.58
727.465	26450.52
727.807	26443.06
728.149	26362.16
728.491	26327.36
728.833	26262.73
729.175	26267.25
729.516	26230.41
729.858	26153.35
730.199	26111.55
730.541	26095.73
730.882	25971.21
731.224	26180.02
731.565	25855.28
731.906	26027.93
732.248	25916.75
732.589	25808.28
732.93	25709.07
733.271	25760.37
733.612	25786.81
733.953	25785
734.294	25708.84
734.635	25567.6
734.976	25615.51
735.317	25521.28
735.658	25551.56
735.999	25419.36
736.339	25382.07
736.68	25532.13
737.021	25370.1
737.361	25292.58
737.702	25332.58
738.042	25290.32
738.383	25264.56
738.723	25282.87
739.063	24997.45
739.404	25098.01
739.744	25131.46
740.084	25010.11
740.424	25018.92
740.764	25052.59
741.104	25092.59
741.444	24874.52
741.784	24863.67
742.124	24863.22
742.464	24803.1
742.804	24853.73
743.143	24739.15
743.483	24696.44
743.823	24606.5
744.162	24560.4
744.502	24600.17
744.841	24540.51
745.181	24641.08
745.52	24484.24
745.86	24489.44
746.199	24452.83
746.538	24308.65
746.877	24348.65
747.216	24434.3
747.556	24150.47
747.895	24338.48
748.234	24089.68
748.573	23990.24
748.911	24128.55
749.25	23954.77
749.589	23963.58
749.928	23994.99
750.267	23966.52
750.605	23909.8
750.944	23883.81
751.283	23753.19
751.621	23739.4
751.96	23725.62
752.298	23624.83
752.636	23671.61
752.975	23472.74
753.313	23439.98
753.651	23473.2
753.989	23333.99
