Data from White_paper_FLMS001491_071.txt Node
Date: Tue Feb 07 10:35:31 GMT 2017
User: dcchb
Spectrometer: FLMS00149
Trigger mode: 0
Integration Time (sec): 2.000000E-2
Scans to average: 10
Electric dark correction enabled: true
Nonlinearity correction enabled: false
Boxcar width: 0
XAxis mode: Wavelengths
Number of Pixels in Spectrum: 2048
>>>>>Begin Spectral Data<<<<<
341.393	9.59
341.776	9.59
342.16	9.59
342.543	-39.9
342.927	-57.98
343.31	-71.09
343.693	-76.96
344.077	-78.77
344.46	-45.78
344.843	-66.34
345.226	-35.83
345.61	-38.09
345.993	-24.08
346.376	-2.61
346.759	21.79
347.142	36.71
347.525	40.1
347.908	60.21
348.291	71.51
348.674	71.96
349.057	137.27
349.44	112.41
349.823	133.2
350.206	177.04
350.588	219.98
350.971	257.04
351.354	256.59
351.737	262.24
352.119	281.22
352.502	318.73
352.884	305.18
353.267	312.63
353.65	320.54
354.032	321.9
354.414	365.51
354.797	360.99
355.179	353.76
355.562	358.73
355.944	369.13
356.326	365.29
356.709	360.77
357.091	369.58
357.473	370.94
357.855	370.94
358.238	389.02
358.62	353.54
359.002	380.65
359.384	386.08
359.766	382.01
360.148	384.95
360.53	382.69
360.912	383.14
361.294	365.29
361.676	373.65
362.057	373.87
362.439	380.2
362.821	381.56
363.203	381.78
363.584	378.62
363.966	360.77
364.348	379.75
364.729	363.71
365.111	357.83
365.493	388.34
365.874	371.84
366.256	360.09
366.637	379.3
367.019	374.55
367.4	372.74
367.781	370.03
368.163	377.49
368.544	363.71
368.925	374.1
369.306	375.46
369.688	387.66
370.069	373.42
370.45	380.43
370.831	385.17
371.212	391.73
371.593	352.86
371.974	356.02
372.355	389.24
372.736	366.42
373.117	375.23
373.498	394.89
373.879	379.3
374.26	386.53
374.641	370.26
375.021	384.72
375.402	375.68
375.783	393.76
376.163	397.6
376.544	397.6
376.925	409.58
377.305	382.01
377.686	380.43
378.066	393.76
378.447	389.92
378.827	400.54
379.208	405.74
379.588	430.14
379.968	408.68
380.349	437.38
380.729	428.34
381.109	422.23
381.489	410.71
381.87	443.7
382.25	422.91
382.63	436.25
383.01	414.78
383.39	438.51
383.77	441.22
384.15	450.26
384.53	444.15
384.91	454.55
385.29	464.72
385.67	454.55
386.049	459.3
386.429	468.79
386.809	467.66
387.189	461.78
387.568	478.05
387.948	484.61
388.328	501.78
388.707	479.18
389.087	492.29
389.466	488.67
389.846	479.63
390.225	513.53
390.605	497.49
390.984	518.28
391.363	517.6
391.743	543.59
392.122	527.54
392.501	528.67
392.881	530.93
393.26	547.2
393.639	561.89
394.018	570.93
394.397	572.51
394.776	563.7
395.155	557.82
395.534	575.68
395.913	614.55
396.292	604.6
396.671	591.04
397.05	602.79
397.429	603.92
397.808	589.46
398.186	607.54
398.565	617.48
398.944	629.46
399.323	643.02
399.701	632.4
400.08	670.82
400.458	663.81
400.837	674.21
401.215	669.46
401.594	690.02
401.972	685.5
402.351	669.69
402.729	713.75
403.107	693.87
403.486	752.62
403.864	716.46
404.242	769.57
404.62	757.37
404.999	743.13
405.377	787.42
405.755	782.68
406.133	832.39
406.511	843.69
406.889	839.4
407.267	886.18
407.645	893.41
408.023	905.39
408.401	916.01
408.779	952.84
409.156	977.93
409.534	980.86
409.912	1007.08
410.29	1025.16
410.667	1059.28
411.045	1114.87
411.422	1123.91
411.8	1151.93
412.178	1177.47
412.555	1208.43
412.933	1222.89
413.31	1252.5
413.687	1269.9
414.065	1294.53
414.442	1344.47
414.819	1361.64
415.197	1381.08
415.574	1430.12
415.951	1456.78
416.328	1500.17
416.705	1497.01
417.082	1534.75
417.46	1576.78
417.837	1576.78
418.214	1626.27
418.591	1624.69
418.967	1670.34
419.344	1692.48
419.721	1707.85
420.098	1748.75
420.475	1785.59
420.852	1787.62
421.228	1828.3
421.605	1828.75
421.982	1870.33
422.358	1898.13
422.735	1899.94
423.111	1928.18
423.488	1966.83
423.864	1954.17
424.241	2009.31
424.617	2079.82
424.994	2063.32
425.37	2112.81
425.746	2131.34
426.123	2164.79
426.499	2179.7
426.875	2224.67
427.251	2281.62
427.627	2304.45
428.003	2303.32
428.379	2327.95
428.756	2377.44
429.132	2436.87
429.507	2457.44
429.883	2499.24
430.259	2522.97
430.635	2546.25
431.011	2606.36
431.387	2656.3
431.763	2707.37
432.138	2709.18
432.514	2741.5
432.89	2786.47
433.265	2844.54
433.641	2889.51
434.016	2944.2
434.392	2983.75
434.767	2991.66
435.143	3016.29
435.518	3104.88
435.894	3082.5
436.269	3198.66
436.644	3177.64
437.02	3211.54
437.395	3245.44
437.77	3286.11
438.145	3356.62
438.52	3338.99
438.895	3432.1
439.271	3410.18
439.646	3496.5
440.021	3545.09
440.395	3574.92
440.77	3528.82
441.145	3590.51
441.52	3635.03
441.895	3657.18
442.27	3665.99
442.645	3719.32
443.019	3731.53
443.394	3767.01
443.769	3781.24
444.143	3782.15
444.518	3822.15
444.892	3811.07
445.267	3846.55
445.641	3926.1
446.016	3924.97
446.39	3995.02
446.764	3967.9
447.139	3992.76
447.513	4000.22
447.887	4053.55
448.262	4035.25
448.636	4084.74
449.01	4105.53
449.384	4215.81
449.758	4179.88
450.132	4206.99
450.506	4278.4
450.88	4270.04
451.254	4273.66
451.628	4392.98
452.002	4394.56
452.376	4457.83
452.75	4461
453.123	4492.64
453.497	4565.18
453.871	4618.28
454.244	4742.57
454.618	4772.63
454.992	4780.76
455.365	4799.97
455.739	4942.57
456.112	4982.79
456.486	4997.03
456.859	5033.64
457.232	5163.8
457.606	5143.69
457.979	5216.46
458.352	5302.33
458.725	5380.97
459.099	5456
459.472	5509.33
459.845	5563.12
460.218	5626.39
460.591	5743
460.964	5726.28
461.337	5872.03
461.71	5921.53
462.083	6057.79
462.456	6027.96
462.829	6040.17
463.201	6113.16
463.574	6167.17
463.947	6275.19
464.32	6397.67
464.692	6473.6
465.065	6511.79
465.438	6609.42
465.81	6715.63
466.183	6793.37
466.555	6882.86
466.928	6936.87
467.3	6926.92
467.672	7081.04
468.045	7218.44
468.417	7256.86
468.789	7391.09
469.161	7390.64
469.534	7610.52
469.906	7778.88
470.278	7771.42
470.65	7842.6
471.022	8015.48
471.394	8243.27
471.766	8198.3
472.138	8329.82
472.51	8516.26
472.882	8616.82
473.253	8786.99
473.625	8843.93
473.997	9070.37
474.369	9100.88
474.74	9216.13
475.112	9411.15
475.484	9516.91
475.855	9734.76
476.227	9808.2
476.598	10069.44
476.97	10115.54
477.341	10380.84
477.713	10537
478.084	10626.71
478.455	10903.99
478.827	10940.6
479.198	11224.89
479.569	11282.51
479.94	11627.82
480.311	11745.1
480.682	11970.86
481.053	12246.1
481.424	12424.86
481.795	12662.36
482.166	12737.17
482.537	12933.32
482.908	13162.46
483.279	13259.86
483.65	13562
484.021	13834.09
484.391	13919.96
484.762	14079.5
485.133	14128.31
485.503	14400.17
485.874	14596.1
486.244	14911.35
486.615	15128.51
486.985	15299.13
487.356	15441.27
487.726	15704.32
488.097	15942.96
488.467	16061.15
488.837	16336.84
489.207	16517.18
489.578	16719.21
489.948	16961.01
490.318	17134.79
490.688	17259.31
491.058	17522.12
491.428	17675.34
491.798	17825.62
492.168	18275.32
492.538	18274.19
492.908	18491.82
493.278	18838.93
493.648	18674.64
494.017	19024.68
494.387	19170.89
494.757	19315.52
495.126	19515.29
495.496	19639.13
495.866	19784.44
496.235	19970.87
496.605	20125.9
496.974	20240.24
497.344	20371.77
497.713	20438.88
498.082	20698.31
498.452	20825.99
498.821	20957.74
499.19	21106.21
499.559	21345.98
499.928	21507.33
500.298	21579.42
500.667	21689.02
501.036	21678.17
501.405	22001.78
501.774	21897.83
502.143	22232.73
502.512	22364.48
502.88	22469.56
503.249	22453.97
503.618	22720.86
503.987	22813.28
504.356	23033.17
504.724	23021.41
505.093	23266.61
505.462	23392.93
505.83	23446.04
506.199	23702.75
506.567	23930.32
506.936	24031.11
507.304	24162.85
507.672	24286.69
508.041	24475.39
508.409	24663.41
508.777	24921.03
509.145	25077.86
509.514	25075.82
509.882	25241.92
510.25	25321.47
510.618	25498.41
510.986	25552.42
511.354	25767.33
511.722	26006.42
512.09	26247.32
512.458	26267.66
512.826	26493.87
513.193	26582
513.561	26704.48
513.929	27012.5
514.297	27208.42
514.664	27409.1
515.032	27494.29
515.4	27699.26
515.767	27869.87
516.135	27981.28
516.502	27874.85
516.869	28371.1
517.237	28431.44
517.604	28418.11
517.972	28783.97
518.339	29037.08
518.706	29111.65
519.073	29248.14
519.44	29356.84
519.808	29665.31
520.175	29686.78
520.542	30098.74
520.909	30260.32
521.276	30237.72
521.643	30564.04
522.009	30809.91
522.376	31081.77
522.743	31222.33
523.11	31454.19
523.477	31817.12
523.843	31928.98
524.21	32291.45
524.577	32387.72
524.943	32499.58
525.31	32748.62
525.676	33018.44
526.043	33212.11
526.409	33489.84
526.776	33616.62
527.142	33784.07
527.508	33941.58
527.874	34257.73
528.241	34590.15
528.607	34539.53
528.973	34878.05
529.339	34938.84
529.705	35444.36
530.071	35520.97
530.437	35653.62
530.803	35855.65
531.169	36117.79
531.535	36018.13
531.901	36345.13
532.267	36567.5
532.632	36725.69
532.998	36840.49
533.364	37007.71
533.73	37067.37
534.095	37416.29
534.461	37550.3
534.826	37585.78
535.192	37953.23
535.557	38052.66
535.923	38134.01
536.288	38264.63
536.653	38373.78
537.019	38506.43
537.384	38666.88
537.749	38890.83
538.114	38851.73
538.479	38967.89
538.845	39063.48
539.21	39136.92
539.575	39352.06
539.94	39541.66
540.305	39889.22
540.67	39721.77
541.034	39819.16
541.399	40172.15
541.764	40150
542.129	40506.15
542.494	40560.61
542.858	40771
543.223	40764.68
543.587	41016.2
543.952	40991.11
544.316	41123.09
544.681	41247.6
545.045	41390.65
545.41	41594.49
545.774	41870.18
546.138	41786.57
546.503	41887.81
546.867	41972.78
547.231	42365.54
547.595	42385.88
547.959	42543.61
548.324	42636.04
548.688	42718.52
549.052	42876.71
549.416	42904.28
549.779	42875.58
550.143	43115.35
550.507	43417.94
550.871	43517.6
551.235	43520.31
551.599	43832.62
551.962	43925.72
552.326	44073.06
552.689	44329.33
553.053	44079.84
553.417	44196.9
553.78	44808.64
554.143	44657.46
554.507	44779.49
554.87	44942.65
555.234	45304.22
555.597	45178.57
555.96	45385.57
556.323	45600.48
556.686	45563.65
557.05	45928.38
557.413	45940.36
557.776	46102.16
558.139	46481.59
558.502	46381.03
558.865	46421.7
559.228	46740.11
559.59	46877.28
559.953	46991.86
560.316	47369.25
560.679	47325.41
561.041	47542.8
561.404	47734.44
561.767	47991.38
562.129	47933.3
562.492	48247.42
562.854	48272.5
563.217	48346.85
563.579	48497.35
563.941	48808.31
564.304	48944.57
564.666	49058.24
565.028	49182.53
565.39	49366.94
565.753	49488.74
566.115	49626.82
566.477	49714.95
566.839	49851.9
567.201	50191.32
567.563	50143.87
567.925	50374.14
568.287	50381.6
568.648	50521.03
569.01	50691.2
569.372	50889.16
569.734	50857.29
570.095	51093.9
570.457	51225.42
570.819	51309.03
571.18	51309.48
571.542	51536.82
571.903	51564.62
572.265	51704.73
572.626	51756.93
572.987	51857.27
573.349	51965.06
573.71	52145.85
574.071	52302
574.432	52302.9
574.794	52446.4
575.155	52415.9
575.516	52436.69
575.877	52600.52
576.238	52612.5
576.599	52780.86
576.96	52871.7
577.32	52860.18
577.681	52965.49
578.042	53086.61
578.403	53020.17
578.763	53135.2
579.124	53187.4
579.485	53377.68
579.845	53398.24
580.206	53374.74
580.566	53425.13
580.927	53532.02
581.287	53649.76
581.648	53547.39
582.008	53683.21
582.368	53673.94
582.728	53703.55
583.089	53711.23
583.449	53696.31
583.809	53652.47
584.169	53831
584.529	53747.61
584.889	54130.65
585.249	53818.34
585.609	53794.16
585.969	53963.2
586.329	53890.21
586.688	53937.89
587.048	53999.58
587.408	53906.03
587.768	54002.75
588.127	54045.91
588.487	53971.11
588.846	54120.26
589.206	53936.53
589.565	54022.41
589.925	54191.89
590.284	54110.54
590.643	54226.7
591.003	54272.57
591.362	54263.3
591.721	54183.98
592.08	54208.84
592.44	54298.11
592.799	54306.92
593.158	54313.25
593.517	54395.05
593.876	54322.06
594.235	54267.15
594.593	54345.34
594.952	54452.68
595.311	54388.73
595.67	54443.64
596.029	54604.54
596.387	54669.4
596.746	54616.52
597.104	54560.92
597.463	54494.71
597.822	54674.14
598.18	54544.65
598.538	54653.58
598.897	54754.14
599.255	54482.73
599.613	54939.9
599.972	54765.66
600.33	54761.6
600.688	54686.57
601.046	54808.15
601.404	54874.36
601.762	54835.49
602.12	54967.69
602.478	54915.72
602.836	54913.46
603.194	54801.82
603.552	54901.93
603.91	54895.38
604.268	54936.96
604.625	54914.59
604.983	55085.88
605.341	54872.1
605.698	55054.24
606.056	55134.92
606.413	55018.54
606.771	55181.92
607.128	55211.3
607.485	55026.22
607.843	55100.8
608.2	55251.08
608.557	55402.71
608.914	55240.23
609.272	55396.83
609.629	55412.2
609.986	55486.55
610.343	55365.65
610.7	55603.83
611.057	55416.95
611.414	55512.99
611.771	55501.92
612.127	55637.96
612.484	55623.04
612.841	55688.8
613.198	55601.57
613.554	55606.32
613.911	55716.37
614.267	55716.6
614.624	55682.48
614.98	55772.64
615.337	55877.05
615.693	55885.41
616.05	55712.53
616.406	55929.48
616.762	55769.25
617.118	55808.12
617.475	55816.03
617.831	55934
618.187	55916.82
618.543	55943.03
618.899	56081.79
619.255	55994.56
619.611	55977.61
619.967	56130.6
620.323	56039.53
620.678	56010.6
621.034	56000.66
621.39	55968.8
621.746	55969.7
622.101	56250.15
622.457	56048.12
622.812	56124.5
623.168	56137.83
623.523	56188.9
623.879	56222.8
624.234	56107.1
624.589	56151.39
624.945	56181.45
625.3	56248.56
625.655	56170.6
626.01	56189.13
626.365	56195.68
626.72	56223.25
627.075	56135.12
627.43	56121.34
627.785	56127.44
628.14	56221.67
628.495	56227.77
628.85	56175.57
629.205	56131.73
629.559	56235.68
629.914	56074.1
630.269	56104.61
630.623	56143.48
630.978	56076.14
631.332	56166.98
631.687	56223.48
632.041	56060.55
632.396	56148.23
632.75	56066.2
633.104	56094.44
633.459	55955.92
633.813	55953.88
634.167	55966.54
634.521	56005.63
634.875	56016.03
635.229	55953.2
635.583	55859.87
635.937	55931.51
636.291	55830.72
636.645	55793.21
636.999	55803.38
637.352	55892.19
637.706	55735.36
638.06	55839.99
638.413	55728.8
638.767	55748.46
639.121	55806.09
639.474	55605.42
639.828	55618.75
640.181	55658.97
640.534	55673.21
640.888	55537.62
641.241	55526.55
641.594	55567.23
641.947	55611.74
642.301	55586.89
642.654	55584.85
643.007	55635.47
643.36	55572.2
643.713	55457.62
644.066	55582.82
644.419	55358.42
644.771	55126.56
645.124	54957.3
645.477	54898.99
645.83	54810.41
646.182	54621.26
646.535	54658.1
646.888	54677.98
647.24	54530.19
647.593	54668.04
647.945	54630.3
648.298	54435.73
648.65	54388.05
649.002	54373.36
649.355	54413.36
649.707	54404.54
650.059	54593.69
650.411	54899.45
650.763	54972.44
651.115	55281.13
651.467	55227.8
651.819	55130.63
652.171	55069.39
652.523	55007.69
652.875	54988.48
653.227	54992.78
653.578	55160
653.93	55013.12
654.282	54885.44
654.633	54875.94
654.985	54997.3
655.337	54903.06
655.688	54864.42
656.039	54976.28
656.391	54722.95
656.742	54760.47
657.094	54849.96
657.445	54903.74
657.796	54785.33
658.147	54660.13
658.498	54772.22
658.849	54824.87
659.2	54698.55
659.551	54739.45
659.902	54755.04
660.253	54701.49
660.604	54863.52
660.955	54619.91
661.306	54738.09
661.656	54647.48
662.007	54718.43
662.358	54612.67
662.708	54659.9
663.059	54614.71
663.409	54535.84
663.76	54703.97
664.11	54617.19
664.461	54649.96
664.811	54652.9
665.161	54693.35
665.511	54593.47
665.862	54530.64
666.212	54549.17
666.562	54618.55
666.912	54525.67
667.262	54417.88
667.612	54551.66
667.962	54524.99
668.312	54431.89
668.662	54530.19
669.011	54514.37
669.361	54396.86
669.711	54362.06
670.06	54275.51
670.41	54294.49
670.76	54294.04
671.109	54426.69
671.459	54260.14
671.808	54223.98
672.157	54249.75
672.507	54146.47
672.856	54055.85
673.205	54154.16
673.554	54195.51
673.904	54028.06
674.253	54242.51
674.602	54151.44
674.951	53682.53
675.3	53539.48
675.649	53979.92
675.998	53936.76
676.346	53983.54
676.695	54035.97
677.044	53772.92
677.393	53878.91
677.741	53922.97
678.09	53891.79
678.438	53763.88
678.787	53820.83
679.135	53769.08
679.484	53527.28
679.832	53654.06
680.181	53483.66
680.529	53549.88
680.877	53455.64
681.225	53426.72
681.573	53649.54
681.922	53403.21
682.27	53221.52
682.618	53209.77
682.966	53216.55
683.314	53187.17
683.661	53125.26
684.009	53011.36
684.357	52981.76
684.705	52854.08
685.053	52923.23
685.4	52810.01
685.748	52660.41
686.095	52662.44
686.443	52556.91
686.79	52490.7
687.138	52477.14
687.485	52513.07
687.832	52302.68
688.18	52373.41
688.527	52211.61
688.874	52079.63
689.221	52053.19
689.568	52043.02
689.915	51875.35
690.262	51869.47
690.609	51828.34
690.956	51745.63
691.303	51760.55
691.65	51450.95
691.997	51514
692.344	51278.3
692.69	51106.55
693.037	51364.62
693.383	50910.17
693.73	51128.25
694.077	50956.5
694.423	50920.12
694.769	50920.34
695.116	50656.85
695.462	50678.99
695.808	50609.62
696.155	50602.16
696.501	50309.06
696.847	50235.39
697.193	50119.01
697.539	50275.84
697.885	49880.6
698.231	49792.69
698.577	49870.88
698.923	49760.6
699.269	49561.28
699.614	49494.62
699.96	49265.7
700.306	49373.72
700.651	49258.69
700.997	49114.51
701.342	49026.15
701.688	48971.01
702.033	48858.93
702.379	48891.02
702.724	48650.57
703.069	48685.6
703.415	48216.91
703.76	48294.87
704.105	48479.95
704.45	48196.35
704.795	47989.8
705.14	47922.68
705.485	47945.05
705.83	47658.05
706.175	47780.99
706.52	47579.19
706.865	47564.05
707.209	47575.12
707.554	47356.14
707.899	47341.68
708.243	47159.99
708.588	47127.22
708.932	46966.1
709.277	46857.4
709.621	46906.21
709.966	46689.49
710.31	46703.96
710.654	46357.07
710.998	46509.84
711.342	46620.79
711.687	46421.03
712.031	46236.85
712.375	45988.49
712.719	46061.71
713.063	45903.07
713.407	46073.46
713.75	45954.82
714.094	45819.69
714.438	45737.65
714.782	45761.38
715.125	45442.75
715.469	45578.11
715.812	45290.43
716.156	44954.17
716.499	45172.7
716.843	45219.93
717.186	44960.72
717.53	45046.6
717.873	45160.27
718.216	44989.65
718.559	44802.76
718.902	44513.73
719.246	44734.97
719.589	44488.42
719.932	44385.37
720.275	44428.31
720.617	44398.25
720.96	44352.38
721.303	44273.96
721.646	44104.93
721.989	43858.83
722.331	44109.67
722.674	43887.76
723.016	43979.06
723.359	43917.59
723.701	43817.7
724.044	43527.54
724.386	43328.23
724.729	43689.57
725.071	43452.97
725.413	43417.26
725.755	43364.83
726.097	43225.85
726.439	43069.47
726.782	43049.14
727.124	43312.63
727.465	42965.75
727.807	43083.49
728.149	42850.72
728.491	42751.97
728.833	42746.77
729.175	42590.17
729.516	42667.45
729.858	42537.96
730.199	42570.05
730.541	42413.9
730.882	42426.55
731.224	42431.53
731.565	42192.89
731.906	42182.49
732.248	42142.95
732.589	42050.52
732.93	42001.25
733.271	41948.6
733.612	42041.25
733.953	41977.53
734.294	41838.77
734.635	41628.83
734.976	41742.5
735.317	41497.76
735.658	41573.7
735.999	41519.01
736.339	41309.3
736.68	41595.16
737.021	41323.76
737.361	41187.26
737.702	41474.04
738.042	41281.73
738.383	41217.77
738.723	41216.87
739.063	41048.06
739.404	41161.5
739.744	40975.07
740.084	40880.83
740.424	40884.9
740.764	40855.97
741.104	40798.35
741.444	40673.15
741.784	40595.64
742.124	40590.44
742.464	40544.12
742.804	40514.06
743.143	40322.2
743.483	40451.24
743.823	40240.4
744.162	40255.54
744.502	40170.79
744.841	40204.24
745.181	40149.55
745.52	40024.36
745.86	40126.73
746.199	39979.16
746.538	40043.79
746.877	39955.88
747.216	39811.93
747.556	39778.94
747.895	39815.55
748.234	39430.7
748.573	39507.08
748.911	39460.08
749.25	39566.97
749.589	39038.17
749.928	39278.84
750.267	39265.28
750.605	39253.98
750.944	39143.25
751.283	38940.77
751.621	39076.81
751.96	38754.56
752.298	38820.77
752.636	39005.85
752.975	38653.09
753.313	38438.18
