Data from white_poster_card_FLMS001491_00099.txt Node
Date: Wed Feb 08 11:52:19 GMT 2017
User: dcchb
Spectrometer: FLMS00149
Trigger mode: 0
Integration Time (sec): 2.000000E-2
Scans to average: 10
Electric dark correction enabled: true
Nonlinearity correction enabled: false
Boxcar width: 0
XAxis mode: Wavelengths
Number of Pixels in Spectrum: 2048
>>>>>Begin Spectral Data<<<<<
341.393	-36.14
341.776	-36.14
342.16	-36.14
342.543	-53.77
342.927	-47.44
343.31	-75.69
343.693	-69.59
344.077	-62.58
344.46	-51.96
344.843	-65.07
345.226	-26.2
345.61	-18.06
345.993	-21.45
346.376	-6.99
346.759	13.57
347.142	8.38
347.525	29.62
347.908	68.03
348.291	86.79
348.674	82.95
349.057	108.26
349.44	122.72
349.823	155.94
350.206	178.31
350.588	197.3
350.971	206.34
351.354	227.35
351.737	257.41
352.119	253.34
352.502	248.6
352.884	296.5
353.267	262.83
353.65	299.22
354.032	311.19
354.414	295.6
354.797	306.45
355.179	331.53
355.562	332.43
355.944	339.21
356.326	334.92
356.709	349.84
357.091	330.17
357.473	322.49
357.855	340.8
358.238	348.03
358.62	350.06
359.002	354.13
359.384	367.91
359.766	344.41
360.148	327.92
360.53	364.52
360.912	345.09
361.294	309.61
361.676	337.41
362.057	328.37
362.439	326.33
362.821	333.11
363.203	355.49
363.584	330.17
363.966	302.38
364.348	315.03
364.729	356.61
365.111	327.69
365.493	331.98
365.874	314.13
366.256	290.85
366.637	303.73
367.019	334.69
367.4	307.35
367.781	280.91
368.163	309.61
368.544	292.66
368.925	315.49
369.306	314.58
369.688	319.55
370.069	301.7
370.45	320.23
370.831	319.78
371.212	308.25
371.593	312.1
371.974	304.19
372.355	312.55
372.736	300.57
373.117	333.56
373.498	306.22
373.879	294.7
374.26	323.85
374.641	328.14
375.021	321.36
375.402	337.63
375.783	344.86
376.163	335.37
376.544	316.39
376.925	330.4
377.305	324.98
377.686	338.76
378.066	318.65
378.447	323.62
378.827	316.84
379.208	345.77
379.588	333.11
379.968	332.43
380.349	335.82
380.729	345.32
381.109	343.51
381.489	339.67
381.87	326.11
382.25	358.2
382.63	339.89
383.01	324.98
383.39	333.34
383.77	359.33
384.15	360.46
384.53	347.8
384.91	347.8
385.29	355.94
385.67	376.73
386.049	358.87
386.429	347.35
386.809	362.26
387.189	385.99
387.568	340.57
387.948	361.36
388.328	368.37
388.707	355.49
389.087	374.92
389.466	367.01
389.846	395.03
390.225	384.18
390.605	367.01
390.984	392.32
391.363	368.37
391.743	370.4
392.122	388.48
392.501	390.96
392.881	393.45
393.26	402.26
393.639	397.97
394.018	405.65
394.397	396.39
394.776	397.97
395.155	393.9
395.534	408.36
395.913	426.9
396.292	412.88
396.671	405.65
397.05	439.55
397.429	405.2
397.808	411.98
398.186	413.56
398.565	425.77
398.944	410.17
399.323	429.61
399.701	436.84
400.08	434.8
400.458	432.09
400.837	435.93
401.215	442.26
401.594	461.02
401.972	471.41
402.351	449.04
402.729	460.79
403.107	472.54
403.486	475.26
403.864	468.7
404.242	457.18
404.62	469.38
404.999	479.32
405.377	485.65
405.755	491.98
406.133	490.17
406.511	480
406.889	480.91
407.267	507.35
407.645	503.05
408.023	492.2
408.401	538.76
408.779	561.36
409.156	527.23
409.534	534.24
409.912	554.8
410.29	545.99
410.667	562.94
411.045	598.87
411.422	608.36
411.8	611.75
412.178	618.3
412.555	631.64
412.933	640.22
413.31	669.83
413.687	672.76
414.065	680.9
414.442	680.9
414.819	703.27
415.197	703.27
415.574	733.78
415.951	740.11
416.328	749.6
416.705	772.42
417.082	762.71
417.46	792.76
417.837	769.49
418.214	808.58
418.591	828.47
418.967	829.82
419.344	860.1
419.721	863.49
420.098	899.2
420.475	910.95
420.852	898.97
421.228	879.77
421.605	941.23
421.982	948.01
422.358	937.16
422.735	971.29
423.111	975.36
423.488	991.17
423.864	994.56
424.241	1033.21
424.617	1013.32
424.994	1037.27
425.37	1051.96
425.746	1085.64
426.123	1067.1
426.499	1095.13
426.875	1115.69
427.251	1140.78
427.627	1133.77
428.003	1166.54
428.379	1175.12
428.756	1184.16
429.132	1217.16
429.507	1241.34
429.883	1259.42
430.259	1277.72
430.635	1277.95
431.011	1257.38
431.387	1327.44
431.763	1312.07
432.138	1341.45
432.514	1374.67
432.89	1395.46
433.265	1441.78
433.641	1448.11
434.016	1459.18
434.392	1486.3
434.767	1450.82
435.143	1490.14
435.518	1532.86
435.894	1553.42
436.269	1544.83
436.644	1578.5
437.02	1613.53
437.395	1572.18
437.77	1627.54
438.145	1650.59
438.52	1662.12
438.895	1658.95
439.271	1693.08
439.646	1728.56
440.021	1717.94
440.395	1756.13
440.77	1725.17
441.145	1754.54
441.52	1785.05
441.895	1766.3
442.27	1801.77
442.645	1806.52
443.019	1850.13
443.394	1805.62
443.769	1832.06
444.143	1811.72
444.518	1883.58
444.892	1874.99
445.267	1857.37
445.641	1890.13
446.016	1891.94
446.39	1922
446.764	1941.43
447.139	1938.95
447.513	1945.05
447.887	1959.51
448.262	1987.76
448.636	2004.03
449.01	2003.58
449.384	2052.16
449.758	2045.38
450.132	2074.31
450.506	2087.64
450.88	2069.56
451.254	2137.81
451.628	2103.91
452.002	2154.53
452.376	2159.73
452.75	2174.42
453.123	2206.28
453.497	2236.57
453.871	2228.2
454.244	2275.21
454.618	2311.59
454.992	2330.8
455.365	2307.98
455.739	2401.08
456.112	2436.33
456.486	2439.05
456.859	2461.87
457.232	2474.07
457.606	2457.35
457.979	2507.52
458.352	2582.09
458.725	2602.88
459.099	2588.87
459.472	2658.48
459.845	2682.66
460.218	2708.42
460.591	2731.24
460.964	2731.47
461.337	2798.13
461.71	2829.09
462.083	2870.22
462.456	2867.28
462.829	2891.01
463.201	2909.09
463.574	2979.37
463.947	3004.45
464.32	3034.51
464.692	3078.13
465.065	3064.34
465.438	3109.99
465.81	3173.72
466.183	3206.03
466.555	3284.67
466.928	3261.62
467.3	3267.95
467.672	3382.75
468.045	3439.02
468.417	3446.7
468.789	3395.41
469.161	3479.92
469.534	3545.23
469.906	3630.65
470.278	3672.46
470.65	3663.87
471.022	3811.67
471.394	3771.89
471.766	3867.71
472.138	3886.69
472.51	4012.56
472.882	4042.85
473.253	4056.86
473.625	4118.1
473.997	4193.35
474.369	4225.89
474.74	4266.57
475.112	4361.48
475.484	4402.84
475.855	4477.41
476.227	4464.08
476.598	4665.65
476.97	4712.88
477.341	4736.61
477.713	4820
478.084	4846.89
478.455	4958.3
478.827	5002.82
479.198	5187.67
479.569	5169.37
479.94	5288.69
480.311	5321.68
480.682	5453.43
481.053	5561
481.424	5661.33
481.795	5750.82
482.166	5803.48
482.537	5864.49
482.908	6012.06
483.279	6001.89
483.65	6155.33
484.021	6285.05
484.391	6372.05
484.762	6395.33
485.133	6425.83
485.503	6512.61
485.874	6676.45
486.244	6755.09
486.615	6835.54
486.985	6995.99
487.356	7097.45
487.726	7141.3
488.097	7282.08
488.467	7322.31
488.837	7442.98
489.207	7534.73
489.578	7647.72
489.948	7748.28
490.318	7882.29
490.688	7859.69
491.058	8053.81
491.428	8110.31
491.798	8205.9
492.168	8316.41
492.538	8383.3
492.908	8456.06
493.278	8638.43
493.648	8621.93
494.017	8703.29
494.387	8794.81
494.757	8842.27
495.126	9038.65
495.496	9030.74
495.866	9049.72
496.235	9172.43
496.605	9338.07
496.974	9367.45
497.344	9428.24
497.713	9485.19
498.082	9593.89
498.452	9642.02
498.821	9723.83
499.19	9764.05
499.559	9870.04
499.928	9918.62
500.298	9969.7
500.667	10079.07
501.036	10108.22
501.405	10177.37
501.774	10245.85
502.143	10324.04
502.512	10371.04
502.88	10475.22
503.249	10479.06
503.618	10594.76
503.987	10678.83
504.356	10732.61
504.724	10788.21
505.093	10900.74
505.462	10891.25
505.83	11021.19
506.199	11075.2
506.567	11229.32
506.936	11161.98
507.304	11387.29
507.672	11441.97
508.041	11511.8
508.409	11585.92
508.777	11648.97
509.145	11778.69
509.514	11785.92
509.882	11904.56
510.25	11961.28
510.618	12015.07
510.986	12057.55
511.354	12285.57
511.722	12339.8
512.09	12521.72
512.458	12416.18
512.826	12606.46
513.193	12653.92
513.561	12667.03
513.929	12803.75
514.297	12864.08
514.664	12988.83
515.032	13088.03
515.4	13198.31
515.767	13234.47
516.135	13276.73
516.502	13328.48
516.869	13452.99
517.237	13644.85
517.604	13580.22
517.972	13776.38
518.339	13907.22
518.706	13912.64
519.073	14095.01
519.44	14121.22
519.808	14297.04
520.175	14199.19
520.542	14465.4
520.909	14542.68
521.276	14604.38
521.643	14694.09
522.009	14862.45
522.376	14914.65
522.743	15090.92
523.11	15208.88
523.477	15301.31
523.843	15474.41
524.21	15554.86
524.577	15667.62
524.943	15844.57
525.31	15924.57
525.676	16175.63
526.043	16163.2
526.409	16284.78
526.776	16375.18
527.142	16463.99
527.508	16599.35
527.874	16781.04
528.241	16861.94
528.607	16887.71
528.973	17007.93
529.339	17166.12
529.705	17244.98
530.071	17418.77
530.437	17446.34
530.803	17528.82
531.169	17760
531.535	17726.55
531.901	17870.28
532.267	17877.96
532.632	18125.64
532.998	18035.02
533.364	18230.27
533.73	18267.78
534.095	18313.88
534.461	18495.12
534.826	18627.32
535.192	18664.38
535.557	18803.81
535.923	18704.38
536.288	18888.11
536.653	18953.41
537.019	18817.82
537.384	19000.87
537.749	19244.25
538.114	19187.98
538.479	19199.28
538.845	19371.48
539.21	19301.88
539.575	19442.44
539.94	19528.54
540.305	19704.58
540.67	19673.85
541.034	19825.03
541.399	19871.58
541.764	19988.64
542.129	19969.43
542.494	20004.69
542.858	20145.47
543.223	20187.96
543.587	20303.44
543.952	20314.51
544.316	20315.19
544.681	20295.75
545.045	20562.86
545.41	20570.77
545.774	20688.28
546.138	20704.78
546.503	20831.78
546.867	20750.65
547.231	21145.45
547.595	21077.65
547.959	21190.87
548.324	21271.09
548.688	21250.75
549.052	21346.57
549.416	21377.08
549.779	21386.57
550.143	21574.59
550.507	21667.69
550.871	21681.48
551.235	21720.12
551.599	21986.55
551.962	21935.03
552.326	22050.51
552.689	22169.6
553.053	22090.73
553.417	22152.65
553.78	22497.95
554.143	22340.9
554.507	22506.54
554.87	22524.85
555.234	22801.9
555.597	22681.68
555.96	22755.8
556.323	22825.4
556.686	22884.61
557.05	23131.61
557.413	23228.33
557.776	23273.98
558.139	23311.94
558.502	23464.03
558.865	23630.13
559.228	23656.57
559.59	23830.35
559.953	23837.35
560.316	24032.6
560.679	24046.16
561.041	24324.8
561.404	24405.47
561.767	24620.84
562.129	24393.95
562.492	24721.85
562.854	24730.21
563.217	24753.04
563.579	24915.07
563.941	25037.32
564.304	25114.16
564.666	25355.05
565.028	25276.64
565.39	25549.62
565.753	25556.4
566.115	25741.48
566.477	25821.71
566.839	25953
567.201	26087.46
567.563	26066.22
567.925	26228.03
568.287	26277.06
568.648	26384.86
569.01	26624.4
569.372	26655.81
569.734	26549.37
570.095	26848.35
570.457	26940.1
570.819	26972.19
571.18	27004.95
571.542	27089.02
571.903	27112.97
572.265	27333.31
572.626	27319.52
572.987	27465.96
573.349	27545.05
573.71	27593.86
574.071	27673.86
574.432	27858.49
574.794	27961.76
575.155	27921.09
575.516	27903.69
575.877	27944.59
576.238	28065.26
576.599	28152.72
576.96	28152.72
577.32	28244.47
577.681	28401.3
578.042	28425.93
578.403	28427.52
578.763	28383.9
579.124	28461.64
579.485	28649.66
579.845	28649.2
580.206	28628.41
580.566	28729.88
580.927	28717.68
581.287	28916.77
581.648	28740.28
582.008	28844.23
582.368	28773.95
582.728	29035.86
583.089	28826.15
583.449	28844.68
583.809	28885.36
584.169	28855.53
584.529	28778.69
584.889	29126.48
585.249	28995.41
585.609	28931.46
585.969	29085.8
586.329	29032.25
586.688	29032.92
587.048	29071.57
587.408	28954.28
587.768	28989.76
588.127	28928.75
588.487	28909.54
588.846	29110.66
589.206	28884.9
589.565	29098.68
589.925	29033.15
590.284	29003.32
590.643	29030.89
591.003	29051.68
591.362	29174.39
591.721	29006.94
592.08	29108.18
592.44	29245.12
592.799	29234.05
593.158	29134.62
593.517	29062.07
593.876	29238.34
594.235	29134.62
594.593	29190.21
594.952	29211.45
595.311	29153.15
595.67	29143.65
596.029	29473.82
596.387	29392.91
596.746	29458.22
597.104	29241.96
597.463	29247.15
597.822	29414.38
598.18	29257.32
598.538	29259.58
598.897	29472.46
599.255	29235.86
599.613	29711.1
599.972	29472.01
600.33	29524.21
600.688	29556.3
601.046	29516.53
601.404	29743.64
601.762	29595.17
602.12	29870.19
602.478	29787.25
602.836	29815.73
603.194	29563.3
603.552	29674.49
603.91	29724.43
604.268	29685.11
604.625	29702.06
604.983	29935.27
605.341	29634.49
605.698	29868.38
606.056	29929.85
606.413	29918.32
606.771	30025.89
607.128	30097.75
607.485	30019.79
607.843	29966.91
608.2	30068.15
608.557	30297.97
608.914	30123.97
609.272	30214.81
609.629	30260.24
609.986	30388.82
610.343	30218.43
610.7	30431.08
611.057	30307.69
611.414	30454.35
611.771	30391.31
612.127	30490.96
612.484	30582.94
612.841	30570.96
613.198	30461.36
613.554	30549.04
613.911	30730.28
614.267	30602.83
614.624	30580
614.98	30648.7
615.337	30814.57
615.693	30662.26
616.05	30675.82
616.406	30879.65
616.762	30796.04
617.118	30793.78
617.475	30697.96
617.831	30925.53
618.187	30978.41
618.543	30819.32
618.899	31103.83
619.255	31018.18
619.611	31041.23
619.967	31164.39
620.323	31075.36
620.678	30965.98
621.034	30892.31
621.39	31065.19
621.746	31002.59
622.101	31278.51
622.457	30927.11
622.812	31058.63
623.168	31182.92
623.523	31152.87
623.879	31231.51
624.234	30979.31
624.589	31072.42
624.945	31153.32
625.3	31192.19
625.655	31106.09
626.01	31077.16
626.365	31172.08
626.72	31087.11
627.075	31196.71
627.43	31080.1
627.785	30982.93
628.14	31031.06
628.495	31033.32
628.85	31094.11
629.205	31098.86
629.559	31154.68
629.914	31106.54
630.269	31054.11
630.623	30864.51
630.978	30778.41
631.332	30933.89
631.687	31040.1
632.041	30799.2
632.396	30905.19
632.75	30662.94
633.104	30752.88
633.459	30522.15
633.813	30681.69
634.167	30624.75
634.521	30590.62
634.875	30607.57
635.229	30486.44
635.583	30388.82
635.937	30438.08
636.291	30371.64
636.645	30342.95
636.999	30280.57
637.352	30457.07
637.706	30203.51
638.06	30213.68
638.413	30157.64
638.767	30081.71
639.121	30198.77
639.474	30003.29
639.828	29965.1
640.181	30025.44
640.534	30138.43
640.888	29968.94
641.241	29921.49
641.594	29732.57
641.947	29774.15
642.301	29872.67
642.654	29886.01
643.007	29622.51
643.36	29707.71
643.713	29682.62
644.066	29827.25
644.419	29755.16
644.771	29467.71
645.124	29133.94
645.477	28990.44
645.83	28834.74
646.182	28806.94
646.535	28607.17
646.888	28696.89
647.24	28494.63
647.593	28745.25
647.945	28693.5
648.298	28432.03
648.65	28306.16
649.002	28316.78
649.355	28349.33
649.707	28272.04
650.059	28514.74
650.411	28809.2
650.763	28914.96
651.115	29064.33
651.467	29068.4
651.819	28992.02
652.171	28940.5
652.523	28896.43
652.875	28835.64
653.227	28623.22
653.578	28893.72
653.93	28760.39
654.282	28810.33
654.633	28569.88
654.985	28609.21
655.337	28601.75
655.688	28545.7
656.039	28693.04
656.391	28424.58
656.742	28496.89
657.094	28521.52
657.445	28506.38
657.796	28529.21
658.147	28504.12
658.498	28472.03
658.849	28446.05
659.2	28353.17
659.551	28218.48
659.902	28293.73
660.253	28338.7
660.604	28436.1
660.955	28284.69
661.306	28366.95
661.656	28143
662.007	28327.63
662.358	28298.03
662.708	28299.83
663.059	28232.94
663.409	28011.03
663.76	28276.33
664.11	28187.52
664.461	28136
664.811	28220.29
665.161	28076.79
665.511	27999.28
665.862	28029.56
666.212	28195.2
666.562	28179.39
666.912	28008.09
667.262	28009
667.612	28145.49
667.962	27995.44
668.312	27868.21
668.662	28063.68
669.011	28034.53
669.361	28044.47
669.711	28076.79
670.06	27970.35
670.41	27936.68
670.76	27813.52
671.109	27976
671.459	27879.73
671.808	27867.76
672.157	27882.22
672.507	27504.15
672.856	27620.76
673.205	27663.92
673.554	27831.37
673.904	27629.34
674.253	27813.07
674.602	27694.2
674.951	27300.77
675.3	27200.43
675.649	27500.53
675.998	27560.87
676.346	27621.66
676.695	27588.89
677.044	27420.54
677.393	27506.41
677.741	27584.6
678.09	27494.88
678.438	27399.52
678.787	27409.91
679.135	27455.34
679.484	27155.68
679.832	27331.27
680.181	27087.89
680.529	27254.44
680.877	27055.8
681.225	27041.34
681.573	27336.92
681.922	27070.71
682.27	27018.51
682.618	27066.65
682.966	26898.74
683.314	27021.22
683.661	26938.06
684.009	26749.37
684.357	26745.53
684.705	26693.1
685.053	26700.1
685.4	26581.91
685.748	26517.28
686.095	26488.81
686.443	26388.02
686.79	26249.72
687.138	26458.98
687.485	26351.19
687.832	26223.28
688.18	26222.15
688.527	26094.24
688.874	26113.9
689.221	26009.73
689.568	26035.71
689.915	25867.36
690.262	25991.87
690.609	25858.32
690.956	25746.91
691.303	25646.35
691.65	25469.63
691.997	25590.08
692.344	25431.89
692.69	25318.44
693.037	25353.7
693.383	25154.38
693.73	25204.32
694.077	25135.85
694.423	25083.42
694.769	24966.36
695.116	24868.06
695.462	24857.21
695.808	24656.31
696.155	24853.15
696.501	24688.4
696.847	24599.37
697.193	24344.68
697.539	24633.04
697.885	24377.23
698.231	24245.25
698.577	24222.2
698.923	24247.06
699.269	24176.33
699.614	24074.64
699.96	24021.98
700.306	23952.83
700.651	23879.39
700.997	23791.25
701.342	23693.4
701.688	23753.74
702.033	23603.24
702.379	23579.06
702.724	23451.6
703.069	23603.01
703.415	23337.48
703.76	23390.36
704.105	23306.52
704.45	23281.89
704.795	23168.44
705.14	23128.9
705.485	23110.82
705.83	22960.99
706.175	23010.71
706.52	22913.54
706.865	22886.19
707.209	22852.29
707.554	22764.39
707.899	22795.8
708.243	22619.76
708.588	22553.55
708.932	22418.63
709.277	22434.9
709.621	22449.82
709.966	22256.83
710.31	22293.21
710.654	22081.24
710.998	22077.17
711.342	22137.74
711.687	22120.79
712.031	21973
712.375	21897.07
712.719	21945.43
713.063	21961.47
713.407	21925.09
713.75	21810.97
714.094	21904.52
714.438	21654.13
714.782	21655.04
715.125	21464.08
715.469	21591.99
715.812	21560.13
716.156	21420.02
716.499	21401.49
716.843	21559
717.186	21326.01
717.53	21356.51
717.873	21374.82
718.216	21197.2
718.559	21179.57
718.902	21082.62
719.246	21169.18
719.589	21008.73
719.932	20990.2
720.275	20906.36
720.617	20937.32
720.96	20924.89
721.303	20875.85
721.646	20839.47
721.989	20706.36
722.331	20704.33
722.674	20707.27
723.016	20674.27
723.359	20563.77
723.701	20576.2
724.044	20552.69
724.386	20470.89
724.729	20452.13
725.071	20378.69
725.413	20360.16
725.755	20331
726.097	20283.32
726.439	20246.26
726.782	20268.63
727.124	20329.2
727.465	20151.35
727.807	20134.63
728.149	20157.45
728.491	20164
728.833	20164.46
729.175	19993.61
729.516	19904.58
729.858	19943.9
730.199	19936.21
730.541	19912.48
730.882	19866.38
731.224	19912.48
731.565	19766.5
731.906	19754.97
732.248	19784.35
732.589	19686.5
732.93	19578.48
733.271	19602.89
733.612	19508.88
733.953	19625.49
734.294	19501.2
734.635	19437.24
734.976	19496.68
735.317	19324.7
735.658	19360.18
735.999	19274.31
736.339	19316.79
736.68	19290.81
737.021	19214.65
737.361	19180.3
737.702	19266.17
738.042	19107.31
738.383	19151.6
738.723	19255.55
739.063	19139.17
739.404	19083.81
739.744	19019.18
740.084	19007.65
740.424	19118.61
740.764	18942.34
741.104	18999.51
741.444	18933.53
741.784	18791.61
742.124	18876.35
742.464	18896.47
742.804	18757.94
743.143	18769.24
743.483	18705.29
743.823	18640.88
744.162	18606.98
744.502	18675.46
744.841	18507.78
745.181	18590.26
745.52	18526.53
745.86	18498.96
746.199	18423.94
746.538	18409.02
746.877	18533.99
747.216	18355.46
747.556	18438.17
747.895	18316.14
748.234	18312.08
748.573	18266.88
748.911	18212.42
749.25	18132.87
749.589	18061.01
749.928	18113.21
750.267	18146.43
750.605	18091.52
750.944	17991.18
751.283	17903.5
751.621	18031.86
751.96	17752.54
752.298	17792.54
752.636	17886.78
752.975	17703.96
753.313	17744.18
753.651	17753.9
753.989	17647.23
754.327	17632.09
754.666	17603.62
755.004	17558.87
