Data from white_poster_card_FLMS001491_00024.txt Node
Date: Wed Feb 08 11:51:17 GMT 2017
User: dcchb
Spectrometer: FLMS00149
Trigger mode: 0
Integration Time (sec): 2.000000E-2
Scans to average: 10
Electric dark correction enabled: true
Nonlinearity correction enabled: false
Boxcar width: 0
XAxis mode: Wavelengths
Number of Pixels in Spectrum: 2048
>>>>>Begin Spectral Data<<<<<
341.393	-10.42
341.776	-10.42
342.16	-10.42
342.543	-72.34
342.927	-55.39
343.31	-54.72
343.693	-61.27
344.077	-83.64
344.46	-63.76
344.843	-43.42
345.226	-73.7
345.61	-12.23
345.993	-30.99
346.376	-19.91
346.759	-9.07
347.142	31.38
347.525	47.2
347.908	68.22
348.291	91.95
348.674	103.47
349.057	110.48
349.44	130.82
349.823	151.38
350.206	159.06
350.588	177.82
350.971	200.64
351.354	215.33
351.737	216.69
352.119	226.18
352.502	264.6
352.884	275.22
353.267	275.9
353.65	283.81
354.032	295.11
354.414	322.9
354.797	302.34
355.179	305.95
355.562	339.4
355.944	329.23
356.326	327.19
356.709	304.14
357.091	328.32
357.473	313.86
357.855	328.1
358.238	340.75
358.62	319.74
359.002	337.59
359.384	338.95
359.766	344.14
360.148	327.65
360.53	341.43
360.912	325.84
361.294	310.7
361.676	311.83
362.057	342.34
362.439	318.61
362.821	323.58
363.203	325.84
363.584	311.83
363.966	307.99
364.348	312.05
364.729	314.54
365.111	323.58
365.493	332.17
365.874	318.38
366.256	324.03
366.637	328.32
367.019	331.26
367.4	314.09
367.781	332.62
368.163	302.34
368.544	300.53
368.925	319.74
369.306	322
369.688	307.99
370.069	304.37
370.45	314.77
370.831	313.41
371.212	327.65
371.593	301.21
371.974	302.34
372.355	317.03
372.736	295.78
373.117	305.5
373.498	319.29
373.879	319.74
374.26	339.17
374.641	305.05
375.021	314.77
375.402	310.25
375.783	322.68
376.163	345.5
376.544	324.03
376.925	324.48
377.305	324.71
377.686	316.12
378.066	328.78
378.447	328.1
378.827	313.18
379.208	343.47
379.588	331.04
379.968	324.93
380.349	331.49
380.729	337.36
381.109	331.71
381.489	342.56
381.87	343.01
382.25	345.27
382.63	349.12
383.01	359.96
383.39	344.37
383.77	346.63
384.15	352.05
384.53	347.08
384.91	353.18
385.29	357.02
385.67	350.25
386.049	371.26
386.429	350.02
386.809	343.24
387.189	345.95
387.568	348.21
387.948	356.35
388.328	342.56
388.707	361.32
389.087	341.21
389.466	380.53
389.846	381.66
390.225	362.22
390.605	377.81
390.984	376.69
391.363	389.34
391.743	385.5
392.122	378.04
392.501	373.97
392.881	394.99
393.26	386.63
393.639	381.43
394.018	394.99
394.397	377.36
394.776	373.52
395.155	396.12
395.534	381.88
395.913	410.36
396.292	398.61
396.671	428.21
397.05	422.56
397.429	431.82
397.808	431.15
398.186	419.85
398.565	423.69
398.944	408.55
399.323	427.53
399.701	446.51
400.08	409.9
400.458	430.24
400.837	449.68
401.215	416.23
401.594	427.08
401.972	430.47
402.351	442.45
402.729	448.55
403.107	450.81
403.486	463.01
403.864	450.13
404.242	479.28
404.62	462.11
404.999	473.41
405.377	475.44
405.755	493.29
406.133	495.1
406.511	502.56
406.889	490.35
407.267	529.68
407.645	475.44
408.023	515.44
408.401	512.05
408.779	521.54
409.156	532.84
409.534	527.87
409.912	552.73
410.29	555.21
410.667	562.67
411.045	585.95
411.422	597.92
411.8	626.17
412.178	624.81
412.555	657.13
412.933	643.12
413.31	664.14
413.687	656
414.065	691.48
414.442	691.03
414.819	707.75
415.197	686.28
415.574	739.61
415.951	738.48
416.328	756.79
416.705	751.14
417.082	757.47
417.46	782.1
417.837	804.47
418.214	822.55
418.591	807.41
418.967	836.11
419.344	859.38
419.721	890.12
420.098	891.93
420.475	906.16
420.852	922.89
421.228	930.34
421.605	935.54
421.982	961.98
422.358	946.39
422.735	968.76
423.111	991.36
423.488	1012.15
423.864	1027.06
424.241	1034.07
424.617	1056.67
424.994	1055.09
425.37	1107.74
425.746	1097.8
426.123	1085.14
426.499	1096.44
426.875	1139.83
427.251	1129.43
427.627	1149.55
428.003	1162.88
428.379	1164.91
428.756	1220.05
429.132	1195.65
429.507	1238.36
429.883	1265.48
430.259	1297.34
430.635	1282.88
431.011	1311.8
431.387	1358.58
431.763	1374.62
432.138	1345.47
432.514	1368.75
432.89	1419.82
433.265	1415.08
433.641	1462.08
434.016	1471.57
434.392	1484.45
434.767	1497.79
435.143	1518.58
435.518	1518.58
435.894	1578.91
436.269	1607.16
436.644	1601.96
437.02	1596.77
437.395	1629.99
437.77	1644.45
438.145	1653.04
438.52	1688.06
438.895	1698.68
439.271	1719.02
439.646	1717.67
440.021	1745.46
440.395	1740.26
440.77	1742.52
441.145	1767.16
441.52	1828.62
441.895	1786.82
442.27	1851.9
442.645	1831.56
443.019	1862.07
443.394	1841.28
443.769	1844.22
444.143	1852.8
444.518	1874.27
444.892	1857.32
445.267	1896.65
445.641	1932.35
446.016	1940.26
446.39	1934.61
446.764	1953.59
447.139	1951.56
447.513	1998.11
447.887	2013.7
448.262	1979.81
448.636	2040.14
449.01	2044.66
449.384	2064.1
449.758	2050.31
450.132	2101.61
450.506	2070.65
450.88	2119.01
451.254	2123.98
451.628	2147.03
452.002	2140.48
452.376	2178.22
452.75	2177.09
453.123	2230.42
453.497	2265.22
453.871	2272.23
454.244	2286.24
454.618	2319.01
454.992	2366.01
455.365	2338.89
455.739	2438.1
456.112	2453.69
456.486	2442.62
456.859	2468.16
457.232	2489.17
457.606	2509.51
457.979	2528.49
458.352	2597.42
458.725	2605.78
459.099	2632.67
459.472	2692.1
459.845	2695.49
460.218	2708.38
460.591	2761.03
460.964	2787.47
461.337	2859.11
461.71	2840.8
462.083	2873.79
462.456	2896.39
462.829	2908.37
463.201	2952.89
463.574	2949.27
463.947	2988.59
464.32	3051.64
464.692	3110.62
465.065	3128.25
465.438	3159.44
465.81	3217.97
466.183	3270.17
466.555	3304.07
466.928	3295.25
467.3	3346.1
467.672	3378.19
468.045	3499.77
468.417	3474.46
468.789	3495.25
469.161	3539.09
469.534	3616.37
469.906	3667.9
470.278	3679.87
470.65	3714.45
471.022	3842.81
471.394	3817.72
471.766	3901.79
472.138	3933.65
472.51	4069.7
472.882	4059.07
473.253	4123.71
473.625	4180.88
473.997	4223.36
474.369	4290.93
474.74	4342.46
475.112	4356.02
475.484	4526.41
475.855	4542.23
476.227	4595.78
476.598	4686.4
476.97	4696.35
477.341	4830.13
477.713	4901.09
478.084	4922.33
478.455	5060.4
478.827	5090.46
479.198	5245.94
479.569	5249.55
479.94	5393.95
480.311	5404.58
480.682	5508.3
481.053	5618.36
481.424	5719.82
481.795	5778.35
482.166	5841.85
482.537	5953.71
482.908	6054.28
483.279	6146.48
483.65	6232.12
484.021	6371.78
484.391	6423.98
484.762	6487.48
485.133	6559.8
485.503	6669.4
485.874	6774.93
486.244	6834.14
486.615	6971.77
486.985	7020.35
487.356	7148.71
487.726	7214.92
488.097	7398.42
488.467	7385.09
488.837	7577.85
489.207	7655.59
489.578	7712.99
489.948	7806.55
490.318	7901.46
490.688	7968.35
491.058	8091.74
491.428	8262.81
491.798	8306.65
492.168	8403.59
492.538	8508.22
492.908	8552.06
493.278	8667.77
493.648	8727.88
494.017	8812.4
494.387	8873.41
494.757	8997.7
495.126	9071.37
495.496	9114.76
495.866	9194.31
496.235	9346.39
496.605	9404.92
496.974	9449.21
497.344	9521.98
497.713	9620.74
498.082	9688.3
498.452	9802.2
498.821	9855.53
499.19	9888.98
499.559	10015.75
499.928	10056.88
500.298	10054.85
500.667	10157.44
501.036	10215.3
501.405	10323.99
501.774	10269.98
502.143	10449.41
502.512	10497.32
502.88	10608.51
503.249	10647.38
503.618	10715.62
503.987	10786.58
504.356	10881.27
504.724	10932.57
505.093	10966.92
505.462	11077.87
505.83	11144.31
506.199	11236.74
506.567	11396.28
506.936	11319.22
507.304	11488.94
507.672	11505.43
508.041	11646.45
508.409	11716.73
508.777	11810.06
509.145	11829.94
509.514	11962.37
509.882	12101.8
510.25	12061.12
510.618	12171.63
510.986	12174.11
511.354	12348.12
511.722	12409.14
512.09	12605.29
512.458	12580.21
512.826	12684.38
513.193	12734.55
513.561	12780.2
513.929	12958.5
514.297	13045.5
514.664	13235.56
515.032	13207.31
515.4	13327.53
515.767	13376.57
516.135	13495.21
516.502	13495.21
516.869	13716.22
517.237	13821.98
517.604	13773.85
517.972	13897.69
518.339	14086.16
518.706	14132.93
519.073	14196.21
519.44	14278.47
519.808	14449.99
520.175	14502.19
520.542	14757.32
520.909	14746.7
521.276	14809.98
521.643	14948.96
522.009	15008.62
522.376	15090.2
522.743	15284.77
523.11	15459.68
523.477	15545.78
523.843	15685.44
524.21	15890.63
524.577	15948.93
524.943	16083.39
525.31	16094.46
525.676	16230.73
526.043	16384.4
526.409	16449.93
526.776	16701.23
527.142	16751.4
527.508	16845.4
527.874	16917.72
528.241	17088.34
528.607	17078.62
528.973	17268.44
529.339	17363.13
529.705	17463.02
530.071	17684.7
530.437	17712.05
530.803	17864.36
531.169	17924.92
531.535	17896
531.901	18111.36
532.267	18189.55
532.632	18326.27
532.998	18379.83
533.364	18511.12
533.73	18505.47
534.095	18687.84
534.461	18579.6
534.826	18942.75
535.192	18845.58
535.557	19152.01
535.923	19011
536.288	19189.3
536.653	19328.73
537.019	19252.8
537.384	19419.12
537.749	19414.83
538.114	19589.06
538.479	19625.22
538.845	19684.88
539.21	19682.39
539.575	19768.04
539.94	19847.36
540.305	20166
540.67	20011.65
541.034	19961.03
541.399	20118.99
541.764	20183.17
542.129	20356.72
542.494	20422.26
542.858	20428.14
543.223	20458.64
543.587	20703.83
543.952	20626.32
544.316	20673.55
544.681	20819.76
545.045	20861.8
545.41	21067.21
545.774	21054.11
546.138	21080.55
546.503	21250.94
546.867	21389.01
547.231	21488.9
547.595	21522.57
547.959	21464.94
548.324	21535.68
548.688	21628.78
549.052	21591.04
549.416	21748.55
549.779	21832.39
550.143	21878.04
550.507	22032.39
550.871	22020.18
551.235	22129.33
551.599	22407.97
551.962	22361.19
552.326	22321.42
552.689	22564.58
553.053	22446.39
553.417	22663.78
553.78	22799.15
554.143	22687.28
554.507	22870.1
554.87	22979.25
555.234	23190.55
555.597	23050.21
555.96	23226.93
556.323	23359.58
556.686	23385.57
557.05	23568.62
557.413	23612.46
557.776	23686.81
558.139	23884.99
558.502	23941.94
558.865	23913.69
559.228	24253.8
559.59	24298.54
559.953	24287.02
560.316	24716.16
560.679	24600.23
561.041	24752.99
561.404	24812.2
561.767	25065.08
562.129	25015.81
562.492	25191.4
562.854	25209.48
563.217	25293.54
563.579	25364.05
563.941	25574.44
564.304	25615.12
564.666	25779.63
565.028	25814.89
565.39	25990.02
565.753	26149.11
566.115	26270.92
566.477	26441.76
566.839	26383.46
567.201	26503.68
567.563	26656.9
567.925	26790.23
568.287	26933.95
568.648	26844.69
569.01	27154.06
569.372	27280.38
569.734	27131.24
570.095	27356.77
570.457	27526.03
570.819	27582.3
571.18	27552.92
571.542	27758.79
571.903	27655.97
572.265	27931.21
572.626	28023.42
572.987	28039.91
573.349	28152.68
573.71	28248.95
574.071	28434.48
574.432	28392.67
574.794	28410.3
575.155	28617.98
575.516	28550.18
575.877	28613
576.238	28760.8
576.599	28781.36
576.96	28867.91
577.32	28869.95
577.681	28977.29
578.042	29096.38
578.403	29049.83
578.763	29071.3
579.124	29167.57
579.485	29251.18
579.845	29230.39
580.206	29129.6
580.566	29353.55
580.927	29363.04
581.287	29436.94
581.648	29278.75
582.008	29442.81
582.368	29465.86
582.728	29536.82
583.089	29596.03
583.449	29511.29
583.809	29587.67
584.169	29660.66
584.529	29450.27
584.889	29651.17
585.249	29457.5
585.609	29349.93
585.969	29746.76
586.329	29606.88
586.688	29592.41
587.048	29565.07
587.408	29523.94
587.768	29556.71
588.127	29554
588.487	29588.57
588.846	29852.97
589.206	29543.6
589.565	29601.68
589.925	29844.38
590.284	29587.44
590.643	29735.24
591.003	29746.53
591.362	29852.97
591.721	29805.97
592.08	29823.82
592.44	29784.95
592.799	29830.37
593.158	29711.51
593.517	29809.36
593.876	29758.06
594.235	29852.07
594.593	29844.38
594.952	29977.94
595.311	29855.23
595.67	29950.82
596.029	29987.21
596.387	30133.87
596.746	30226.3
597.104	30030.37
597.463	29938.17
597.822	30052.06
598.18	29978.39
598.538	29955.12
598.897	30123.7
599.255	29937.49
599.613	30349.23
599.972	30128.9
600.33	30256.58
600.688	30075.57
601.046	30262
601.404	30406.4
601.762	30264.49
602.12	30450.7
602.478	30459.96
602.836	30418.83
603.194	30255.9
603.552	30395.33
603.91	30376.8
604.268	30464.48
604.625	30379.96
604.983	30426.06
605.341	30319.17
605.698	30473.07
606.056	30598.04
606.413	30633.97
606.771	30704.02
607.128	30768.2
607.485	30463.35
607.843	30551.71
608.2	30824.02
608.557	30823.34
608.914	30678.71
609.272	30960.74
609.629	30904.02
609.986	31104.01
610.343	30870.35
610.7	31072.38
611.057	31023.79
611.414	31038.7
611.771	31109.21
612.127	31061.08
612.484	31175.2
612.841	31330.22
613.198	31207.06
613.554	31161.19
613.911	31397.34
614.267	31400.5
614.624	31294.06
614.98	31420.84
615.337	31668.52
615.693	31558.92
616.05	31529.31
616.406	31573.6
616.762	31429.65
617.118	31431.69
617.475	31489.54
617.831	31580.61
618.187	31596.88
618.543	31655.41
618.899	31874.16
619.255	31632.36
619.611	31771.11
619.967	31806.37
620.323	31811.11
620.678	31839.13
621.034	31652.92
621.39	31662.42
621.746	31626.03
622.101	32094.04
622.457	31643.43
622.812	31805.69
623.168	32085.46
623.523	31862.64
623.879	31904.67
624.234	31764.11
624.589	31795.75
624.945	31859.47
625.3	31882.98
625.655	31826.03
626.01	31809.98
626.365	31845.46
626.72	31854.73
627.075	31818.57
627.43	31848.17
627.785	31826.48
628.14	31734.5
628.495	31713.26
628.85	31808.17
629.205	31620.38
629.559	31938.79
629.914	31675.07
630.269	31612.7
630.623	31549.65
630.978	31453.61
631.332	31729.31
631.687	31663.77
632.041	31651.12
632.396	31554.4
632.75	31525.02
633.104	31465.36
633.459	31357.34
633.813	31256.78
634.167	31315.31
634.521	31382.42
634.875	31418.81
635.229	31273.27
635.583	31043.9
635.937	31148.08
636.291	31185.37
636.645	31054.75
636.999	31089.1
637.352	31134.97
637.706	30907.86
638.06	30984.47
638.413	30932.94
638.767	30829.44
639.121	30903.57
639.474	30676.91
639.828	30684.36
640.181	30676.68
640.534	30750.8
640.888	30483.24
641.241	30437.59
641.594	30554.87
641.947	30629.67
642.301	30352.85
642.654	30431.94
643.007	30537.93
643.36	30287.99
643.713	30400.08
644.066	30482.56
644.419	30211.15
644.771	30063.59
645.124	29826.76
645.477	29717.61
645.83	29534.79
646.182	29455.92
646.535	29329.6
646.888	29362.36
647.24	29291.18
647.593	29380.89
647.945	29120.11
648.298	29142.48
648.65	29077.63
649.002	28990.4
649.355	29112.2
649.707	29115.14
650.059	29135.7
650.411	29564.84
650.763	29546.31
651.115	29998.51
651.467	29643.26
651.819	29678.06
652.171	29610.04
652.523	29498.63
652.875	29487.56
653.227	29477.16
653.578	29491.63
653.93	29506.31
654.282	29473.32
654.633	29354
654.985	29467.45
655.337	29317.39
655.688	29450.95
656.039	29416.6
656.391	29125.99
656.742	29249.37
657.094	29222.25
657.445	29318.07
657.796	29287.56
658.147	29170.96
658.498	29103.84
658.849	29311.74
659.2	28987.01
659.551	29154.23
659.902	29131.64
660.253	29184.29
660.604	29072.43
660.955	28907.23
661.306	29031.3
661.656	29151.52
662.007	28935.93
662.358	29015.93
662.708	28975.93
663.059	28854.81
663.409	28693.68
663.76	28948.14
664.11	28941.36
664.461	28952.88
664.811	28843.06
665.161	28724.64
665.511	28762.83
665.862	28766
666.212	28881.92
666.562	28849.61
666.912	28709.27
667.262	28742.04
667.612	28728.48
667.962	28775.49
668.312	28536.17
668.662	28770.51
669.011	28701.36
669.361	28655.04
669.711	28618.65
670.06	28539.33
670.41	28504.31
670.76	28513.8
671.109	28652.33
671.459	28534.59
671.808	28457.75
672.157	28535.04
672.507	28374.59
672.856	28457.3
673.205	28428.38
673.554	28536.85
673.904	28440.81
674.253	28429.51
674.602	28257.99
674.951	27883.31
675.3	27777.32
675.649	28355.61
675.998	28265.22
676.346	28306.12
676.695	28342.73
677.044	28059.8
677.393	28270.41
677.741	28203.3
678.09	28057.77
678.438	28004.21
678.787	28078.78
679.135	28023.19
679.484	27973.47
679.832	28049.63
680.181	27847.38
680.529	27901.16
680.877	27789.07
681.225	27681.96
681.573	27985.9
681.922	27580.94
682.27	27738
682.618	27595.86
682.966	27594.27
683.314	27580.72
683.661	27455.07
684.009	27445.13
684.357	27325.13
684.705	27350.44
685.053	27408.97
685.4	27370.78
685.748	27191.8
686.095	27122.42
686.443	26911.13
686.79	27011.92
687.138	27127.39
687.485	26935.99
687.832	26778.02
688.18	26931.24
688.527	26795.88
688.874	26703.45
689.221	26694.64
689.568	26611.02
689.915	26623.9
690.262	26546.17
690.609	26508.88
690.956	26423.23
691.303	26354.31
691.65	26227.53
691.997	26058.27
692.344	26050.13
692.69	26107.31
693.037	26049.91
693.383	25724.04
693.73	25938.27
694.077	25740.31
694.423	25828.9
694.769	25606.08
695.116	25648.11
695.462	25588.23
695.808	25409.47
696.155	25527.89
696.501	25205.64
696.847	25236.14
697.193	25102.59
697.539	25094
697.885	24988.47
698.231	25031.63
698.577	25018.52
698.923	24911.18
699.269	24723.62
699.614	24553.22
699.96	24623.51
700.306	24561.59
700.651	24482.72
700.997	24409.05
701.342	24299.9
701.688	24358.65
702.033	24221.26
702.379	24272.33
702.724	24186.45
703.069	24269.39
703.415	23917.99
703.76	23978.55
704.105	23982.39
704.45	23849.06
704.795	23728.61
705.14	23689.74
705.485	23715.96
705.83	23522.97
706.175	23419.02
706.52	23448.39
706.865	23341.05
707.209	23322.97
707.554	23235.74
707.899	23346.93
708.243	23218.34
708.588	23115.07
708.932	23103.55
709.277	22932.48
709.621	22969.99
709.966	23009.54
710.31	22868.07
710.654	22758.47
710.998	22777.23
711.342	22713.95
711.687	22645.25
712.031	22550.11
712.375	22489.32
712.719	22505.82
713.063	22465.14
713.407	22602.32
713.75	22300.4
714.094	22421.53
714.438	22169.56
714.782	22324.13
715.125	22154.19
715.469	22164.36
715.812	22047.08
716.156	22007.08
716.499	22073.29
716.843	21975.67
717.186	21768.44
717.53	21921.66
717.873	21941.77
718.216	21824.93
718.559	21833.52
718.902	21606.18
719.246	21694.54
719.589	21574.32
719.932	21518.95
720.275	21515.11
720.617	21526.19
720.96	21379.75
721.303	21378.17
721.646	21499.75
721.989	21369.13
722.331	21377.71
722.674	21269.69
723.016	21295.01
723.359	21192.63
723.701	21164.39
724.044	21111.06
724.386	20925.07
724.729	21094.56
725.071	20972.3
725.413	20969.82
725.755	20944.05
726.097	20841.91
726.439	20723.27
726.782	20744.06
727.124	20834
727.465	20767.79
727.807	20706.77
728.149	20649.15
728.491	20674.23
728.833	20582.93
729.175	20490.05
729.516	20532.54
729.858	20444.18
730.199	20494.8
730.541	20423.84
730.882	20416.38
731.224	20420.68
731.565	20333
731.906	20333
732.248	20275.37
732.589	20234.47
732.93	20094.36
733.271	20162.61
733.612	20208.03
733.953	20095.04
734.294	20099.56
734.635	19967.13
734.976	20060.69
735.317	20000.58
735.658	20036.51
735.999	19993.57
736.339	19922.61
736.68	19943.4
737.021	19856.4
737.361	19843.07
737.702	19945.44
738.042	19808.94
738.383	19735.72
738.723	19713.35
739.063	19673.13
739.404	19679.23
739.744	19677.42
740.084	19489.63
740.424	19525.79
740.764	19500.7
741.104	19549.06
741.444	19409.86
741.784	19403.53
742.124	19529.4
742.464	19349.07
742.804	19450.31
743.143	19245.34
743.483	19346.58
743.823	19244.89
744.162	19111.79
744.502	19220.48
744.841	19019.58
745.181	19178.9
745.52	19053.93
745.86	19026.14
746.199	18971
746.538	18871.11
746.877	18974.84
747.216	18970.09
747.556	18888.51
747.895	18766.71
748.234	18741.17
748.573	18733.72
748.911	18671.8
749.25	18723.55
749.589	18606.71
749.928	18576.43
750.267	18589.09
750.605	18538.47
750.944	18516.77
751.283	18528.98
751.621	18493.27
751.96	18372.37
752.298	18378.02
752.636	18333.73
752.975	18296.67
753.313	18192.26
753.651	18304.58
753.989	18158.36
754.327	18118.59
754.666	18013.51
755.004	18067.52
