Data from whiteboard_FLMS001491_00038.txt Node
Date: Wed Feb 08 11:26:17 GMT 2017
User: dcchb
Spectrometer: FLMS00149
Trigger mode: 0
Integration Time (sec): 2.000000E-2
Scans to average: 10
Electric dark correction enabled: true
Nonlinearity correction enabled: false
Boxcar width: 0
XAxis mode: Wavelengths
Number of Pixels in Spectrum: 2048
>>>>>Begin Spectral Data<<<<<
341.393	3.83
341.776	3.83
342.16	3.83
342.543	-49.5
342.927	-67.58
343.31	-63.29
343.693	-67.13
344.077	-58.54
344.46	-39.34
344.843	-51.54
345.226	-48.37
345.61	-48.15
345.993	-24.87
346.376	-13.8
346.759	10.83
347.142	25.3
347.525	51.74
347.908	64.16
348.291	69.36
348.674	73.43
349.057	120.21
349.44	120.21
349.823	131.28
350.206	183.26
350.588	249.7
350.971	257.83
351.354	258.06
351.737	272.52
352.119	284.05
352.502	299.41
352.884	347.77
353.267	329.02
353.65	329.47
354.032	348.9
354.414	354.1
354.797	352.07
355.179	362.46
355.562	359.98
355.944	379.41
356.326	389.35
356.709	372.86
357.091	388
357.473	400.2
357.855	401.33
358.238	397.94
358.62	400.43
359.002	408.11
359.384	383.93
359.766	403.14
360.148	413.99
360.53	396.59
360.912	398.62
361.294	394.55
361.676	378.73
362.057	380.54
362.439	398.17
362.821	379.64
363.203	385.74
363.584	402.01
363.966	395.68
364.348	394.55
364.729	368.79
365.111	379.64
365.493	397.49
365.874	378.06
366.256	363.14
366.637	398.39
367.019	397.72
367.4	410.6
367.781	378.06
368.163	389.35
368.544	411.5
368.925	385.29
369.306	378.51
369.688	383.48
370.069	402.69
370.45	384.83
370.831	407.88
371.212	384.38
371.593	394.1
371.974	383.25
372.355	407.21
372.736	416.25
373.117	401.33
373.498	406.3
373.879	417.15
374.26	394.1
374.641	404.5
375.021	399.75
375.402	434.32
375.783	430.03
376.163	443.14
376.544	442.01
376.925	444.49
377.305	412.86
377.686	444.95
378.066	420.99
378.447	432.97
378.827	416.47
379.208	445.85
379.588	431.61
379.968	451.05
380.349	447.43
380.729	447.88
381.109	461.67
381.489	453.53
381.87	466.19
382.25	468.9
382.63	486.07
383.01	484.27
383.39	467.77
383.77	491.95
384.15	488.56
384.53	496.92
384.91	487.43
385.29	493.31
385.67	515
386.049	519.75
386.429	536.69
386.809	519.29
387.189	538.5
387.568	527.2
387.948	528.11
388.328	535.11
388.707	528.79
389.087	552.06
389.466	563.13
389.846	582.12
390.225	554.55
390.605	566.07
390.984	595
391.363	594.09
391.743	620.99
392.122	596.81
392.501	618.27
392.881	614.66
393.26	647.43
393.639	642.68
394.018	639.74
394.397	663.92
394.776	666.41
395.155	650.36
395.534	692.4
395.913	697.59
396.292	705.05
396.671	706.41
397.05	720.87
397.429	721.55
397.808	737.37
398.186	748.67
398.565	738.5
398.944	770.14
399.323	754.32
399.701	752.96
400.08	774.2
400.458	780.76
400.837	815.78
401.215	818.72
401.594	817.82
401.972	865.27
402.351	851.49
402.729	860.98
403.107	889.45
403.486	913.86
403.864	919.96
404.242	903.24
404.62	962.45
404.999	992.73
405.377	978.94
405.755	990.69
406.133	1003.8
406.511	1035.44
406.889	1068.88
407.267	1074.76
407.645	1054.42
408.023	1085.83
408.401	1125.61
408.779	1128.54
409.156	1170.35
409.534	1162.44
409.912	1202.44
410.29	1235.21
410.667	1248.31
411.045	1291.7
411.422	1269.56
411.8	1320.86
412.178	1312.49
412.555	1347.75
412.933	1376.22
413.31	1409.44
413.687	1430.46
414.065	1418.71
414.442	1452.6
414.819	1496.67
415.197	1531.47
415.574	1577.12
415.951	1543.22
416.328	1546.61
416.705	1609.44
417.082	1608.76
417.46	1615.99
417.837	1637.46
418.214	1698.47
418.591	1691.69
418.967	1745.25
419.344	1744.12
419.721	1740.28
420.098	1772.59
420.475	1787.74
420.852	1814.85
421.228	1848.98
421.605	1859.37
421.982	1902.08
422.358	1919.71
422.735	1938.01
423.111	1946.15
423.488	1998.58
423.864	1979.14
424.241	2037.67
424.617	2046.94
424.994	2083.09
425.37	2074.28
425.746	2112.47
426.123	2145.24
426.499	2183.88
426.875	2238.12
427.251	2281.51
427.627	2309.3
428.003	2300.94
428.379	2334.39
428.756	2378.68
429.132	2418.68
429.507	2450.77
429.883	2482.18
430.259	2518.11
430.635	2545.91
431.011	2575.06
431.387	2634.04
431.763	2692.8
432.138	2702.51
432.514	2724.43
432.89	2753.13
433.265	2813.25
433.641	2868.84
434.016	2883.75
434.392	2951.32
434.767	2995.16
435.143	2993.58
435.518	3070.64
435.894	3147.47
436.269	3165.78
436.644	3187.02
437.02	3272.67
437.395	3219.34
437.77	3262.27
438.145	3333.46
438.52	3378.2
438.895	3429.5
439.271	3428.6
439.646	3519.44
440.021	3516.96
440.395	3558.08
440.77	3493.91
441.145	3558.76
441.52	3630.4
441.895	3672.66
442.27	3681.92
442.645	3707.01
443.019	3735.03
443.394	3784.07
443.769	3769.6
444.143	3819.32
444.518	3907.91
444.892	3908.13
445.267	3946.32
445.641	3994.01
446.016	4004.85
446.39	4003.04
446.764	4043.27
447.139	4061.57
447.513	4140.44
447.887	4106.09
448.262	4177.96
448.636	4182.02
449.01	4263.38
449.384	4307.22
449.758	4297.95
450.132	4413.88
450.506	4397.61
450.88	4430.6
451.254	4497.27
451.628	4502.69
452.002	4558.51
452.376	4620.43
452.75	4651.84
453.123	4724.83
453.497	4802.35
453.871	4868.11
454.244	4912.63
454.618	5008.22
454.992	5044.15
455.365	5106.29
455.739	5254.31
456.112	5261.99
456.486	5331.37
456.859	5351.48
457.232	5486.17
457.606	5465.38
457.979	5560.07
458.352	5699.95
458.725	5766.39
459.099	5815.88
459.472	5928.87
459.845	5982.65
460.218	6006.38
460.591	6068.98
460.964	6172.7
461.337	6258.58
461.71	6411.57
462.083	6492.02
462.456	6455.41
462.829	6520.04
463.201	6697.66
463.574	6676.42
463.947	6793.93
464.32	6941.5
464.692	6985.79
465.065	7036.86
465.438	7217.65
465.81	7273.92
466.183	7361.15
466.555	7588.26
466.928	7626.68
467.3	7587.81
467.672	7706.45
468.045	7962.71
468.417	7959.55
468.789	8065.99
469.161	8147.57
469.534	8323.61
469.906	8511.63
470.278	8520.89
470.65	8710.72
471.022	8797.72
471.394	8993.87
471.766	9122.23
472.138	9242.91
472.51	9380.98
472.882	9476.8
473.253	9616
473.625	9767.19
473.997	9997.92
474.369	10104.58
474.74	10173.5
475.112	10439.03
475.484	10555.19
475.855	10779.36
476.227	10888.29
476.598	11174.38
476.97	11277.43
477.341	11543.41
477.713	11729.85
478.084	11827.25
478.455	12172.1
478.827	12308.36
479.198	12664.29
479.569	12652.31
479.94	13008.01
480.311	13157.38
480.682	13379.07
481.053	13762.34
481.424	13961.2
481.795	14200.29
482.166	14345.15
482.537	14576.55
482.908	14854.96
483.279	15051.12
483.65	15383.31
484.021	15602.74
484.391	15935.16
484.762	15927.02
485.133	16059.45
485.503	16353
485.874	16794.8
486.244	16910.73
486.615	17211.06
486.985	17399.08
487.356	17715
487.726	17876.58
488.097	18314.31
488.467	18323.8
488.837	18700.74
489.207	18895.08
489.578	19219.82
489.948	19449.64
490.318	19691.22
490.688	19723.31
491.058	20078.55
491.428	20271.32
491.798	20457.98
492.168	21018.64
492.538	21008.02
492.908	21260.22
493.278	21645.97
493.648	21647.78
494.017	22004.61
494.387	22295.9
494.757	22467.64
495.126	22640.52
495.496	22911.02
495.866	22977.01
496.235	23253.39
496.605	23499.25
496.974	23570.89
497.344	23820.6
497.713	24003.87
498.082	24096.75
498.452	24480.7
498.821	24564.54
499.19	24675.95
499.559	24958.88
499.928	25109.38
500.298	25283.16
500.667	25411.52
501.036	25408.81
501.405	25827.33
501.774	25815.35
502.143	26063.26
502.512	26247.66
502.88	26348.45
503.249	26389.57
503.618	26682
503.987	26766.51
504.356	27045.38
504.724	27140.52
505.093	27265.03
505.462	27575.98
505.83	27638.58
506.199	28003.77
506.567	28358.56
506.936	28340.94
507.304	28701.15
507.672	28914.25
508.041	29031.99
508.409	29173.46
508.777	29362.83
509.145	29663.39
509.514	29738.64
509.882	30086.88
510.25	30158.97
510.618	30562.57
510.986	30435.34
511.354	30847.31
511.722	31175.44
512.09	31369.33
512.458	31392.83
512.826	31686.84
513.193	31913.05
513.561	31881.86
513.929	32252.92
514.297	32640.48
514.664	32744.89
515.032	32887.93
515.4	33157.31
515.767	33292.22
516.135	33533.79
516.502	33306
516.869	33972.43
517.237	34048.13
517.604	34123.83
517.972	34496.48
518.339	34663.48
518.706	34812.86
519.073	35069.12
519.44	35260.3
519.808	35735.77
520.175	35606.28
520.542	36111.8
520.909	36239.48
521.276	36459.82
521.643	36895.96
522.009	37069.29
522.376	37365.33
522.743	37603.06
523.11	38050.28
523.477	38440.11
523.843	38764.84
524.21	39087.09
524.577	39363.24
524.943	39507.87
525.31	39753.29
525.676	40303.11
526.043	40450.9
526.409	40636.21
526.776	41161.39
527.142	41124.1
527.508	41528.84
527.874	41596.41
528.241	41881.82
528.607	42115.71
528.973	42496.04
529.339	42587.34
529.705	43044.5
530.071	43231.17
530.437	43388.22
530.803	43518.39
531.169	43775.11
531.535	43838.61
531.901	43964.03
532.267	44141.42
532.632	44401.98
532.998	44445.14
533.364	44801.29
533.73	44751.35
534.095	45056.43
534.461	45299.59
534.826	45453.03
535.192	45493.48
535.557	45855.73
535.923	45878.55
536.288	46051.66
536.653	46196.74
537.019	46165.55
537.384	46382.27
537.749	46708.14
538.114	46891.86
538.479	46938.19
538.845	47249.82
539.21	47110.16
539.575	47282.81
539.94	47513.09
540.305	47654.33
540.67	47881.21
541.034	48132.05
541.399	48226.29
541.764	48335.66
542.129	48547.86
542.494	48613.4
542.858	48707.86
543.223	48845.48
543.587	49233.04
543.952	49183.33
544.316	49278.46
544.681	49394.85
545.045	49561.39
545.41	49763.2
545.774	49884.32
546.138	49898.56
546.503	50022.4
546.867	50044.32
547.231	50296.74
547.595	50484.08
547.959	50388.72
548.324	50417.42
548.688	50540.8
549.052	50659.44
549.416	50633.68
549.779	50721.82
550.143	50788.93
550.507	51037.74
550.871	51099.21
551.235	51024.63
551.599	51368.8
551.962	51338.52
552.326	51421.68
552.689	51610.15
553.053	51480.21
553.417	51612.64
553.78	51971.27
554.143	51823.03
554.507	52061.89
554.87	52119.97
555.234	52450.81
555.597	52206.52
555.96	52348.21
556.323	52599.96
556.686	52697.36
557.05	52900.97
557.413	53049.44
557.776	53085.6
558.139	53294.4
558.502	53440.16
558.865	53563.55
559.228	53716.09
559.59	53888.29
559.953	53982.3
560.316	54327.14
560.679	54222.51
561.041	54530.98
561.404	54678.32
561.767	54911.76
562.129	54789.05
562.492	55158.08
562.854	55086.67
563.217	55222.71
563.579	55327.12
563.941	55439.66
564.304	55595.13
564.666	55751.97
565.028	55823.38
565.39	55892.3
565.753	56072.41
566.115	56147.21
566.477	56255.23
566.839	56295.45
567.201	56481.44
567.563	56450.03
567.925	56668.33
568.287	56649.12
568.648	56650.7
569.01	56749.45
569.372	56971.82
569.734	56744.03
570.095	56920.75
570.457	57075.1
570.819	57021.54
571.18	57020.86
571.542	57184.7
571.903	57228.09
572.265	57335.65
572.626	57349.21
572.987	57384.47
573.349	57423.56
573.71	57613.61
574.071	57636.89
574.432	57612.26
574.794	57874.17
575.155	57833.95
575.516	57825.13
575.877	57915.07
576.238	58005.47
576.599	58088.63
576.96	58140.38
577.32	58182.64
577.681	58297.66
578.042	58310.54
578.403	58302.18
578.763	58510.31
579.124	58477.54
579.485	58561.16
579.845	58674.83
580.206	58762.28
580.566	58713.24
580.927	58738.1
581.287	58858.55
581.648	58763.41
582.008	58981.94
582.368	58992.33
582.728	59004.54
583.089	58998.43
583.449	59019.22
583.809	59101.26
584.169	59189.39
584.529	59062.61
584.889	59238.65
585.249	59063.52
585.609	59016.74
585.969	59164.98
586.329	59153.68
586.688	59145.1
587.048	59047.92
587.408	59024.65
587.768	59003.86
588.127	59077.53
588.487	58996.85
588.846	59190.97
589.206	58938.78
589.565	58993.91
589.925	59109.84
590.284	59030.52
590.643	58995.95
591.003	59059.68
591.362	59113.46
591.721	59032.33
592.08	58975.16
592.44	59080.69
592.799	59064.42
593.158	59086.79
593.517	59080.47
593.876	59100.58
594.235	59078.66
594.593	58944.65
594.952	59059.9
595.311	58978.77
595.67	59100.8
596.029	59202.5
596.387	59224.64
596.746	59216.73
597.104	59107.36
597.463	59135.15
597.822	59240.46
598.18	59231.65
598.538	59235.04
598.897	59386.22
599.255	59190.75
599.613	59543.73
599.972	59349.16
600.33	59444.75
600.688	59389.38
601.046	59501.47
601.404	59629.15
601.762	59557.97
602.12	59671.41
602.478	59644.52
602.836	59688.59
603.194	59577.85
603.552	59641.36
603.91	59576.27
604.268	59849.03
604.625	59734.46
604.983	59790.05
605.341	59741.92
605.698	59802.71
606.056	59846.32
606.413	59901.01
606.771	59970.39
607.128	59914.34
607.485	59778.98
607.843	59867.11
608.2	59994.11
608.557	59993.89
608.914	59949.37
609.272	60049.71
609.629	60100.78
609.986	60161.34
610.343	60023.49
610.7	60142.36
611.057	60013.1
611.414	60095.35
611.771	60059.88
612.127	60135.58
612.484	60131.06
612.841	60167.22
613.198	60082.25
613.554	60093.1
613.911	60218.52
614.267	60149.59
614.624	60097.16
614.98	60137.16
615.337	60283.82
615.693	60235.69
616.05	60157.95
616.406	60327.89
616.762	60164.51
617.118	60231.85
617.475	60183.26
617.831	60370.15
618.187	60291.96
618.543	60330.38
618.899	60468.23
619.255	60451.5
619.611	60343.26
619.967	60510.71
620.323	60517.49
620.678	60468
621.034	60442.46
621.39	60474.1
621.746	60416.48
622.101	60743.02
622.457	60563.14
622.812	60612.86
623.168	60665.28
623.523	60667.32
623.879	60724.49
624.234	60584.16
624.589	60745.06
624.945	60712.97
625.3	60805.39
625.655	60774.66
626.01	60823.02
626.365	60779.4
626.72	60785.96
627.075	60810.82
627.43	60799.29
627.785	60749.35
628.14	60805.84
628.495	60820.76
628.85	60813.53
629.205	60686.53
629.559	60772.85
629.914	60688.33
630.269	60677.03
630.623	60591.39
630.978	60531.95
631.332	60681.33
631.687	60663.48
632.041	60515
632.396	60584.83
632.75	60401.11
633.104	60484.72
633.459	60339.19
633.813	60367.66
634.167	60275.92
634.521	60291.51
634.875	60329.02
635.229	60167.67
635.583	60090.38
635.937	60052.42
636.291	60125.86
636.645	60063.27
636.999	59934
637.352	59935.36
637.706	59811.97
638.06	59935.81
638.413	59828.47
638.767	59704.4
639.121	59832.08
639.474	59627.8
639.828	59678.87
640.181	59702.37
640.534	59586.67
640.888	59595.03
641.241	59465.09
641.594	59532.21
641.947	59575.59
642.301	59472.77
642.654	59502.15
643.007	59551.41
643.36	59461.25
643.713	59419.21
644.066	59534.24
644.419	59294.02
644.771	59298.99
645.124	59093.12
645.477	58998.89
645.83	58923.86
646.182	58864.43
646.535	58680.25
646.888	58788.04
647.24	58599.35
647.593	58726.13
647.945	58757.08
648.298	58554.15
648.65	58633.02
649.002	58556.86
649.355	58708.5
649.707	58678.89
650.059	58833.92
650.411	59159.56
650.763	59112.1
651.115	59315.49
651.467	59236.85
651.819	59246.56
652.171	59135.38
652.523	59218.54
652.875	59181.03
653.227	59042.73
653.578	59174.7
653.93	59175.15
654.282	59025.1
654.633	58994.59
654.985	59036.63
655.337	59062.84
655.688	58951.2
656.039	59072.56
656.391	58857.87
656.742	58878.21
657.094	58858.1
657.445	58900.13
657.796	58827.59
658.147	58713.7
658.498	58730.19
658.849	58802.96
659.2	58643.19
659.551	58569.75
659.902	58619.91
660.253	58526.36
660.604	58576.75
660.955	58377.43
661.306	58466.02
661.656	58360.71
662.007	58332.24
662.358	58346.47
662.708	58306.7
663.059	58329.3
663.409	58108.51
663.76	58284.56
664.11	58230.77
664.461	58133.6
664.811	58194.61
665.161	58199.59
665.511	58068.29
665.862	58147.61
666.212	58113.49
666.562	58102.41
666.912	58047.5
667.262	58002.75
667.612	57986.94
667.962	57988.07
668.312	57866.94
668.662	57965.47
669.011	57932.93
669.361	57922.76
669.711	57941.29
670.06	58018.8
670.41	57827.17
670.76	57810.44
671.109	57996.2
671.459	57921.4
671.808	57912.81
672.157	57925.69
672.507	57769.09
672.856	57786.26
673.205	57872.36
673.554	58031.23
673.904	57907.62
674.253	58021.51
674.602	57997.1
674.951	57626.72
675.3	57559.6
675.649	57927.5
675.998	57885.02
676.346	57961.4
676.695	58054.28
677.044	57795.53
677.393	57894.06
677.741	58029.42
678.09	57967.28
678.438	57860.61
678.787	57887.5
679.135	57889.99
679.484	57784.23
679.832	57893.83
680.181	57690.9
680.529	57789.88
680.877	57650.22
681.225	57638.02
681.573	57737.22
681.922	57569.32
682.27	57476.89
682.618	57498.59
682.966	57445.48
683.314	57481.19
683.661	57326.39
684.009	57265.15
684.357	57145.15
684.705	57077.13
685.053	57108.77
685.4	56983.12
685.748	56891.82
686.095	56894.54
686.443	56768.89
686.79	56669.46
687.138	56681.66
687.485	56689.34
687.832	56528.22
688.18	56508.78
688.527	56330.03
688.874	56322.8
689.221	56229.92
689.568	56109.92
689.915	56010.72
690.262	56029.02
690.609	55938.63
690.956	55801.46
691.303	55772.76
691.65	55619.09
691.997	55612.99
692.344	55378.42
692.69	55346.1
693.037	55350.39
693.383	55121.93
693.73	55206.44
694.077	55016.62
694.423	54985.43
694.769	54947.02
695.116	54838.54
695.462	54692.33
695.808	54641.71
696.155	54720.58
696.501	54447.37
696.847	54533.02
697.193	54256.86
697.539	54384.09
697.885	54178.45
698.231	54101.84
698.577	54162.4
698.923	54133.03
699.269	53988.85
699.614	53834.73
699.96	53817.33
700.306	53910.66
700.651	53765.58
700.997	53628.41
701.342	53672.92
701.688	53556.09
702.033	53503.44
702.379	53512.48
702.724	53474.96
703.069	53499.14
703.415	53107.74
703.76	53213.73
704.105	53223.22
704.45	53154.29
704.795	52999.5
705.14	52961.53
705.485	52967.63
705.83	52878.82
706.175	52966.28
706.52	52860.97
706.865	52827.3
707.209	52793.85
707.554	52721.31
707.899	52631.6
708.243	52453.52
708.588	52443.58
708.932	52302.11
709.277	52264.37
709.621	52346.18
709.966	52111.38
710.31	52170.82
710.654	51910.94
710.998	51937.6
711.342	51917.94
711.687	51830.04
712.031	51635.01
712.375	51484.51
712.719	51546.43
713.063	51445.64
713.407	51614.67
713.75	51389.37
714.094	51243.61
714.438	51092.65
714.782	51163.84
715.125	50926.78
715.469	51027.12
715.812	50833.68
716.156	50613.8
716.499	50672.78
716.843	50495.38
717.186	50442.5
717.53	50558.88
717.873	50494.7
718.216	50352.79
718.559	50118.89
718.902	49783.54
719.246	49963.64
719.589	49783.54
719.932	49652.69
720.275	49640.71
720.617	49657.66
720.96	49654.05
721.303	49455.41
721.646	49401.4
721.989	49047.96
722.331	49216.54
722.674	49076.44
723.016	49110.78
723.359	48979.04
723.701	48912.6
724.044	48558.48
724.386	48471.93
724.729	48515.09
725.071	48471.25
725.413	48344.48
725.755	48428.09
726.097	48153.75
726.439	48028.1
726.782	47975
727.124	47982.23
727.465	47771.84
727.807	47811.61
728.149	47709.47
728.491	47656.81
728.833	47666.3
729.175	47526.19
729.516	47405.52
729.858	47315.8
730.199	47317.84
730.541	47235.13
730.882	47202.81
731.224	47345.18
731.565	46986.55
731.906	47099.54
732.248	47155.36
732.589	46878.98
732.93	46811.64
733.271	46955.14
733.612	46855.7
733.953	46871.3
734.294	46753.56
734.635	46720.11
734.976	46756.95
735.317	46497.29
735.658	46635.6
735.999	46550.17
736.339	46626.56
736.68	46518.99
737.021	46530.06
737.361	46264.98
737.702	46409.39
738.042	46375.04
738.383	46321.71
738.723	46241.93
739.063	46234.93
739.404	46283.97
739.744	46263.4
740.084	45994.48
740.424	46123.74
740.764	46054.14
741.104	46208.49
741.444	45826.35
741.784	45817.31
742.124	45938.89
742.464	45834.03
742.804	45820.93
743.143	45547.94
743.483	45648.5
743.823	45565.57
744.162	45316.08
744.502	45418.45
744.841	45326.93
745.181	45345.69
745.52	45340.49
745.86	45272.47
746.199	45093.49
746.538	45115.41
746.877	45149.99
747.216	45084.45
747.556	44842.87
747.895	44907.28
748.234	44691.01
748.573	44771.69
748.911	44489.89
749.25	44489.89
749.589	44383
749.928	44426.16
750.267	44357.46
750.605	44071.82
750.944	44063.01
751.283	43924.48
751.621	43939.4
751.96	43590.93
752.298	43598.16
752.636	43626.86
752.975	43398.17
