Data from White_paper_FLMS001491_014.txt Node
Date: Tue Feb 07 10:34:43 GMT 2017
User: dcchb
Spectrometer: FLMS00149
Trigger mode: 0
Integration Time (sec): 2.000000E-2
Scans to average: 10
Electric dark correction enabled: true
Nonlinearity correction enabled: false
Boxcar width: 0
XAxis mode: Wavelengths
Number of Pixels in Spectrum: 2048
>>>>>Begin Spectral Data<<<<<
341.393	-9.72
341.776	-9.72
342.16	-9.72
342.543	-66.66
342.927	-63.28
343.31	-63.5
343.693	-51.3
344.077	-68.02
344.46	-54.24
344.843	-62.82
345.226	-59.21
345.61	-12.88
345.993	-10.17
346.376	2.71
346.759	13.56
347.142	11.53
347.525	41.81
347.908	65.31
348.291	64.18
348.674	77.29
349.057	105.76
349.44	124.97
349.823	148.24
350.206	174.01
350.588	227.34
350.971	247
351.354	254.23
351.737	270.05
352.119	284.51
352.502	296.04
352.884	288.81
353.267	302.82
353.65	318.18
354.032	319.54
354.414	328.13
354.797	337.39
355.179	349.37
355.562	343.72
355.944	352.08
356.326	343.49
356.709	373.32
357.091	347.56
357.473	387.79
357.855	368.35
358.238	370.84
358.62	391.18
359.002	361.12
359.384	374.68
359.766	367.9
360.148	345.75
360.53	371.74
360.912	389.14
361.294	389.14
361.676	397.28
362.057	362.25
362.439	352.76
362.821	366.32
363.203	356.15
363.584	365.41
363.966	368.35
364.348	358.86
364.729	368.13
365.111	364.28
365.493	366.32
365.874	364.96
366.256	361.8
366.637	359.76
367.019	362.02
367.4	344.62
367.781	364.74
368.163	347.11
368.544	344.62
368.925	370.61
369.306	357.73
369.688	369.03
370.069	368.8
370.45	362.48
370.831	403.15
371.212	370.16
371.593	376.04
371.974	357.28
372.355	360.67
372.736	370.84
373.117	365.87
373.498	380.78
373.879	373.78
374.26	365.41
374.641	369.26
375.021	365.64
375.402	384.17
375.783	385.75
376.163	376.26
376.544	388.01
376.925	388.92
377.305	391.18
377.686	398.63
378.066	383.49
378.447	414.68
378.827	399.54
379.208	399.09
379.588	397.5
379.968	397.05
380.349	414.9
380.729	382.14
381.109	415.36
381.489	419.65
381.87	399.09
382.25	404.06
382.63	418.75
383.01	452.87
383.39	407.45
383.77	428.46
384.15	431.63
384.53	425.75
384.91	437.95
385.29	442.25
385.67	439.99
386.049	465.07
386.429	455.81
386.809	447.22
387.189	472.53
387.568	438.86
387.948	463.94
388.328	455.58
388.707	463.94
389.087	475.69
389.466	468.69
389.846	460.1
390.225	501.23
390.605	537.61
390.984	501.91
391.363	494.68
391.743	516.6
392.122	516.14
392.501	489.7
392.881	512.53
393.26	524.96
393.639	529.7
394.018	520.21
394.397	515.92
394.776	545.3
395.155	552.53
395.534	537.39
395.913	553.66
396.292	551.17
396.671	559.53
397.05	582.13
397.429	583.26
397.808	587.33
398.186	587.1
398.565	586.65
398.944	609.25
399.323	620.55
399.701	626.88
400.08	608.35
400.458	623.71
400.837	615.35
401.215	647.44
401.594	655.8
401.972	644.5
402.351	672.75
402.729	678.63
403.107	690.15
403.486	690.15
403.864	715.01
404.242	723.14
404.62	726.53
404.999	746.87
405.377	772.18
405.755	765.4
406.133	771.05
406.511	780.32
406.889	816.7
407.267	844.27
407.645	864.84
408.023	902.35
408.401	923.14
408.779	905.96
409.156	938.28
409.534	943.7
409.912	964.72
410.29	1016.92
410.667	1025.28
411.045	1048.11
411.422	1092.17
411.8	1091.5
412.178	1107.77
412.555	1154.55
412.933	1181.89
413.31	1203.13
413.687	1251.49
414.065	1261.66
414.442	1301.66
414.819	1322.68
415.197	1348.67
415.574	1357.03
415.951	1431.6
416.328	1430.02
416.705	1458.49
417.082	1484.93
417.46	1507.3
417.837	1566.06
418.214	1563.12
418.591	1590.24
418.967	1605.83
419.344	1636.57
419.721	1661.43
420.098	1692.61
420.475	1724.47
420.852	1741.2
421.228	1766.06
421.605	1806.28
421.982	1825.49
422.358	1824.58
422.735	1930.12
423.111	1882.89
423.488	1919.05
423.864	1920.85
424.241	1966.73
424.617	2012.38
424.994	2028.87
425.37	2057.57
425.746	2085.14
426.123	2118.59
426.499	2103.22
426.875	2154.52
427.251	2209.89
427.627	2258.02
428.003	2286.95
428.379	2308.87
428.756	2310.9
429.132	2368.75
429.507	2388.19
429.883	2437.22
430.259	2508.86
430.635	2499.82
431.011	2557.9
431.387	2566.94
431.763	2627.5
432.138	2660.72
432.514	2695.97
432.89	2713.6
433.265	2801.51
433.641	2820.49
434.016	2882.41
434.392	2926.93
434.767	2943.88
435.143	2950.43
435.518	3049.64
435.894	3078.79
436.269	3085.79
436.644	3128.28
437.02	3162.18
437.395	3172.12
437.77	3247.37
438.145	3306.58
438.52	3299.57
438.895	3323.53
439.271	3350.65
439.646	3408.27
440.021	3481.04
440.395	3455.73
440.77	3487.37
441.145	3478.78
441.52	3570.98
441.895	3537.53
442.27	3649.17
442.645	3600.81
443.019	3664.31
443.394	3689.39
443.769	3696.17
444.143	3707.47
444.518	3737.75
444.892	3708.15
445.267	3816.4
445.641	3855.94
446.016	3847.13
446.39	3873.8
446.764	3890.75
447.139	3887.81
447.513	3955.6
447.887	3994.92
448.262	3987.24
448.636	4027.01
449.01	4009.16
449.384	4123.06
449.758	4090.06
450.132	4168.25
450.506	4156.95
450.88	4194.47
451.254	4212.32
451.628	4283.5
452.002	4287.12
452.376	4364.63
452.75	4373.9
453.123	4450.96
453.497	4531.63
453.871	4507.45
454.244	4623.16
454.618	4638.3
454.992	4671.29
455.365	4749.03
455.739	4820.89
456.112	4865.41
456.486	4897.72
456.859	4944.73
457.232	5026.76
457.606	5067.89
457.979	5123.03
458.352	5207.77
458.725	5250.26
459.099	5311.27
459.472	5442.57
459.845	5467.2
460.218	5488.9
460.591	5564.37
460.964	5627.65
461.337	5706.97
461.71	5830.36
462.083	5847.08
462.456	5879.85
462.829	5914.19
463.201	6061.76
463.574	6061.31
463.947	6137.92
464.32	6298.14
464.692	6316.9
465.065	6325.94
465.438	6476.89
465.81	6544.01
466.183	6588.75
466.555	6763.21
466.928	6827.39
467.3	6793.04
467.672	6899.71
468.045	7202.3
468.417	7114.62
468.789	7178.57
469.161	7273.71
469.534	7388.28
469.906	7547.37
470.278	7626.92
470.65	7675.28
471.022	7884.09
471.394	7975.16
471.766	8072.56
472.138	8120.69
472.51	8297.86
472.882	8493.34
473.253	8570.4
473.625	8710.73
473.997	8815.59
474.369	8892.42
474.74	8996.83
475.112	9142.58
475.484	9284.95
475.855	9482.46
476.227	9491.73
476.598	9837.93
476.97	9853.98
477.341	10115.21
477.713	10288.54
478.084	10286.51
478.455	10618.93
478.827	10749.77
479.198	11015.98
479.569	10944.8
479.94	11339.59
480.311	11385.92
480.682	11749.52
481.053	11907.71
481.424	12132.34
481.795	12160.58
482.166	12425.66
482.537	12542.95
482.908	12822.94
483.279	12998.98
483.65	13173.89
484.021	13403.94
484.391	13564.39
484.762	13683.71
485.133	13839.86
485.503	13948.11
485.874	14344.26
486.244	14498.38
486.615	14654.08
486.985	14826.28
487.356	15132.94
487.726	15249.09
488.097	15607.95
488.467	15604.56
488.837	15999.58
489.207	16054.04
489.578	16197.54
489.948	16462.39
490.318	16684.08
490.688	16785.55
491.058	17093.79
491.428	17219.43
491.798	17411.29
492.168	17757.27
492.538	17786.42
492.908	17929.7
493.278	18160.43
493.648	18231.16
494.017	18509.8
494.387	18705.72
494.757	18820.97
495.126	18941.42
495.496	19098.93
495.866	19191.81
496.235	19415.53
496.605	19615.76
496.974	19655.53
497.344	19827.5
497.713	19986.14
498.082	20114.95
498.452	20407.82
498.821	20400.59
499.19	20441.27
499.559	20593.36
499.928	20833.35
500.298	20959.67
500.667	21090.07
501.036	21093.91
501.405	21256.16
501.774	21374.58
502.143	21503.16
502.512	21636.95
502.88	21937.28
503.249	21935.02
503.618	22096.37
503.987	22156.71
504.356	22280.77
504.724	22484.83
505.093	22495
505.462	22709.46
505.83	22897.93
506.199	22978.38
506.567	23288.65
506.936	23358.26
507.304	23579.72
507.672	23645.48
508.041	23761.64
508.409	23958.47
508.777	24093.6
509.145	24315.29
509.514	24335.41
509.882	24585.12
510.25	24623.53
510.618	24839.12
510.986	24866.92
511.354	25170.41
511.722	25310.52
512.09	25550.51
512.458	25622.6
512.826	25720.45
513.193	25903.05
513.561	25950.05
513.929	26303.72
514.297	26466.2
514.664	26709.81
515.032	26690.82
515.4	26947.54
515.767	27089.46
516.135	27157.25
516.502	27060.76
516.869	27525.15
517.237	27685.37
517.604	27610.35
517.972	27988.87
518.339	28067.74
518.706	28235.64
519.073	28371.23
519.44	28514.73
519.808	28905.23
520.175	28866.59
520.542	29270.19
520.909	29387.02
521.276	29478.77
521.643	29696.85
522.009	29854.13
522.376	30091.64
522.743	30205.99
523.11	30612.53
523.477	30741.11
523.843	30981.56
524.21	31325.5
524.577	31560.75
524.943	31703.8
525.31	31717.13
525.676	32159.38
526.043	32382.2
526.409	32345.14
526.776	32718.24
527.142	32656.09
527.508	32938.12
527.874	33328.39
528.241	33567.7
528.607	33510.53
528.973	33870.97
529.339	33870.3
529.705	34156.62
530.071	34465.53
530.437	34708.47
530.803	34894.45
531.169	35015.8
531.535	35021.68
531.901	35171.28
532.267	35389.8
532.632	35513.64
532.998	35709.12
533.364	36008.09
533.73	36026.17
534.095	36236.11
534.461	36343.45
534.826	36495.31
535.192	36634.29
535.557	36904.11
535.923	36994.51
536.288	37036.54
536.653	37404.67
537.019	37335.97
537.384	37481.05
537.749	37669.52
538.114	37761.27
538.479	37839.46
538.845	38120.13
539.21	38042.39
539.575	38242.84
539.94	38371.42
540.305	38643.96
540.67	38512.43
541.034	38658.19
541.399	38854.35
541.764	39065.41
542.129	39170.27
542.494	39242.58
542.858	39487.1
543.223	39583.82
543.587	39791.95
543.952	39809.12
544.316	39916.46
544.681	39916.69
545.045	40192.39
545.41	40235.33
545.774	40474.19
546.138	40591.25
546.503	40683.9
546.867	40732.71
547.231	41085.25
547.595	41030.79
547.959	41259.25
548.324	41322.08
548.688	41366.14
549.052	41598.45
549.416	41694.27
549.779	41606.59
550.143	41858.56
550.507	42136.52
550.871	42204.77
551.235	42226.01
551.599	42621.25
551.962	42522.27
552.326	42756.16
552.689	43019.66
553.053	42870.06
553.417	42970.62
553.78	43476.37
554.143	43266.66
554.507	43528.8
554.87	43609.02
555.234	44108.9
555.597	43800.88
555.96	44056.47
556.323	44248.55
556.686	44289.23
557.05	44544.37
557.413	44818.71
557.776	44675.21
558.139	45037.46
558.502	45044.24
558.865	45182.99
559.228	45575.98
559.59	45596.99
559.953	45601.06
560.316	46041.5
560.679	46108.62
561.041	46296.18
561.404	46449.4
561.767	46749.51
562.129	46554.26
562.492	47117.63
562.854	46911.76
563.217	46946.56
563.579	47229.72
563.941	47531.63
564.304	47581.8
564.666	47884.84
565.028	47842.36
565.39	48027.21
565.753	48237.6
566.115	48436.47
566.477	48502.45
566.839	48604.37
567.201	48885.95
567.563	49039.84
567.925	49221.53
568.287	49235.99
568.648	49306.05
569.01	49541.07
569.372	49776.77
569.734	49651.8
570.095	49848.41
570.457	50099.47
570.819	50113.71
571.18	50216.31
571.542	50449.97
571.903	50405.45
572.265	50609.29
572.626	50725.9
572.987	50851.54
573.349	50917.98
573.71	51059
574.071	51087.92
574.432	51320.23
574.794	51398.87
575.155	51472.54
575.516	51351.19
575.877	51592.32
576.238	51707.57
576.599	51762.93
576.96	51794.12
577.32	51801.58
577.681	52124.96
578.042	52043.15
578.403	52019.65
578.763	52141.68
579.124	52206.31
579.485	52354.33
579.845	52357.04
580.206	52381.45
580.566	52440.66
580.927	52499.18
581.287	52507.77
581.648	52552.06
582.008	52663.7
582.368	52698.95
582.728	52728.78
583.089	52711.61
583.449	52706.86
583.809	52838.16
584.169	52861.21
584.529	52789.8
584.889	53012.84
585.249	52865.73
585.609	52875.22
585.969	53117.02
586.329	52992.96
586.688	53037.48
587.048	52990.47
587.408	52945.95
587.768	52980.3
588.127	53105.5
588.487	53036.57
588.846	53244.25
589.206	52954.54
589.565	53080.64
589.925	53234.53
590.284	53128.32
590.643	53151.82
591.003	53237.24
591.362	53303.91
591.721	53298.71
592.08	53190.24
592.44	53371.25
592.799	53374.42
593.158	53363.79
593.517	53335.77
593.876	53362.66
594.235	53360.86
594.593	53424.81
594.952	53526.95
595.311	53418.93
595.67	53425.94
596.029	53615.77
596.387	53666.39
596.746	53726.72
597.104	53620.51
597.463	53495.54
597.822	53782.99
598.18	53660.96
598.538	53675.88
598.897	53741.64
599.255	53575.09
599.613	53999.26
599.972	53757.91
600.33	53946.38
600.688	53797
601.046	53852.37
601.404	53998.13
601.762	53893.95
602.12	54140.5
602.478	54066.15
602.836	53935.3
603.194	53867.51
603.552	54019.37
603.91	53931.69
604.268	54029.77
604.625	54029.31
604.983	54225.92
605.341	54002.42
605.698	54193.83
606.056	54261.62
606.413	54194.51
606.771	54291
607.128	54312.92
607.485	54135.53
607.843	54214.39
608.2	54372.36
608.557	54536.87
608.914	54330.1
609.272	54484.44
609.629	54533.26
609.986	54673.82
610.343	54488.06
610.7	54686.92
611.057	54640.6
611.414	54648.96
611.771	54646.92
612.127	54749.07
612.484	54772.12
612.841	54771.67
613.198	54594.27
613.554	54750.42
613.911	54921.72
614.267	54894.6
614.624	54843.53
614.98	54906.13
615.337	54963.98
615.693	54878.56
616.05	54925.56
616.406	55080.81
616.762	54969.63
617.118	55013.92
617.475	54954.71
617.831	55117.65
618.187	55032.9
618.543	55144.99
618.899	55240.58
619.255	55126.91
619.611	55135.73
619.967	55315.83
620.323	55232.45
620.678	55243.97
621.034	55152.9
621.39	55187.93
621.746	55093.92
622.101	55443.97
622.457	55227.7
622.812	55231.54
623.168	55319.22
623.523	55315.61
623.879	55416.62
624.234	55159.68
624.589	55321.03
624.945	55366.23
625.3	55337.53
625.655	55248.72
626.01	55367.36
626.365	55319
626.72	55308.6
627.075	55323.97
627.43	55266.8
627.785	55209.4
628.14	55364.87
628.495	55280.81
628.85	55312.9
629.205	55264.99
629.559	55390.41
629.914	55248.49
630.269	55339.34
630.623	55221.15
630.978	55175.72
631.332	55297.53
631.687	55371.2
632.041	55279.68
632.396	55272.44
632.75	55099.57
633.104	55241.49
633.459	55170.3
633.813	55140.25
634.167	55087.59
634.521	55101.38
634.875	55186.12
635.229	55010.98
635.583	54979.8
635.937	55001.49
636.291	54989.97
636.645	55011.66
636.999	54942.51
637.352	55088.72
637.706	54834.72
638.06	54982.51
638.413	54935.05
638.767	54787.03
639.121	54931.89
639.474	54796.07
639.828	54767.15
640.181	54856.41
640.534	54778.45
640.888	54762.4
641.241	54719.24
641.594	54765.34
641.947	54795.85
642.301	54669.3
642.654	54736.64
643.007	54780.48
643.36	54673.14
643.713	54668.85
644.066	54790.42
644.419	54559.92
644.771	54322.19
645.124	54104.79
645.477	54103.89
645.83	53931.69
646.182	53799.49
646.535	53728.76
646.888	53807.17
647.24	53569.66
647.593	53784.57
647.945	53726.72
648.298	53630.91
648.65	53642.43
649.002	53483.34
649.355	53690.11
649.707	53602.43
650.059	53750
650.411	54038.35
650.763	54126.71
651.115	54406.71
651.467	54345.01
651.819	54324.67
652.171	54199.7
652.523	54185.02
652.875	54205.81
653.227	54105.47
653.578	54335.97
653.93	54145.92
654.282	54118.13
654.633	53994.96
654.985	54093.04
655.337	54038.35
655.688	54139.37
656.039	54171.23
656.391	53954.29
656.742	53944.34
657.094	54026.83
657.445	54145.47
657.796	54067.5
658.147	53959.26
658.498	53952.25
658.849	54058.92
659.2	53986.83
659.551	53950.45
659.902	53931.01
660.253	53888.98
660.604	53982.54
660.955	53794.29
661.306	53962.65
661.656	53877
662.007	53840.17
662.358	53773.95
662.708	53841.07
663.059	53804.69
663.409	53607.63
663.76	53860.96
664.11	53765.14
664.461	53804.24
664.811	53750.45
665.161	53762.88
665.511	53632.49
665.862	53764.01
666.212	53764.46
666.562	53772.37
666.912	53689.66
667.262	53710.9
667.612	53686.95
667.962	53736.89
668.312	53611.92
668.662	53708.42
669.011	53651.7
669.361	53616.67
669.711	53526.28
670.06	53479.27
670.41	53434.08
670.76	53353.17
671.109	53563.56
671.459	53462.78
671.808	53463.9
672.157	53406.73
672.507	53211.26
672.856	53326.28
673.205	53325.38
673.554	53402.66
673.904	53327.41
674.253	53429.56
674.602	53274.53
674.951	52811.72
675.3	52637.03
675.649	53100.07
675.998	53121.99
676.346	53118.15
676.695	53254.19
677.044	53008.78
677.393	53048.77
677.741	53040.87
678.09	53028.89
678.438	52821.89
678.787	52982.11
679.135	53004.26
679.484	52697.15
679.832	52834.99
680.181	52629.58
680.529	52715.9
680.877	52610.37
681.225	52440.66
681.573	52613.31
681.922	52451.5
682.27	52436.59
682.618	52476.13
682.966	52388.68
683.314	52398.85
683.661	52281.11
684.009	52150.04
684.357	52021.01
684.705	52019.88
685.053	51929.03
685.4	51922.93
685.748	51847.68
686.095	51778.3
686.443	51701.01
686.79	51620.34
687.138	51582.15
687.485	51633.44
687.832	51406.78
688.18	51466.22
688.527	51326.79
688.874	51268.93
689.221	51181.71
689.568	51063.97
689.915	50967.47
690.262	50989.39
690.609	50941.26
690.956	50763.86
691.303	50809.51
691.65	50581.49
691.997	50656.07
692.344	50383.99
692.69	50211.34
693.037	50260.15
693.383	49966.37
693.73	50198.91
694.077	50096.99
694.423	49787.84
694.769	49802.31
695.116	49746.94
695.462	49678.69
695.808	49387.63
696.155	49628.98
696.501	49370.23
696.847	49246.61
697.193	49031.03
697.539	49057.02
697.885	48829.9
698.231	48725.5
698.577	48861.09
698.923	48736.57
699.269	48496.13
699.614	48314.66
699.96	48283.48
700.306	48373.19
700.651	48113.31
700.997	48036.03
701.342	47928.23
701.688	47829.02
702.033	47819.08
702.379	47794.9
702.724	47513.33
703.069	47722.59
703.415	47304.97
703.76	47290.28
704.105	47332.99
704.45	47071.08
704.795	46928.71
705.14	46787.7
705.485	46781.37
705.83	46521.49
706.175	46747.25
706.52	46515.84
706.865	46603.07
707.209	46361.49
707.554	46202.63
707.899	46316.75
708.243	46079.24
708.588	46067.94
708.932	45848.74
709.277	45766.71
709.621	45725.13
709.966	45508.63
710.31	45598.35
710.654	45228.19
710.998	45405.13
711.342	45296.89
711.687	45194.97
712.031	45039.72
712.375	44910.23
712.719	45012.6
713.063	44891.7
713.407	45123.11
713.75	44618.49
714.094	44834.53
714.438	44648.32
714.782	44637.02
715.125	44400.41
715.469	44520.41
715.812	44307.99
716.156	44031.61
716.499	44112.29
716.843	44172.85
717.186	43775.12
717.53	43985.74
717.873	43895.79
718.216	43879.98
718.559	43672.75
718.902	43438.18
719.246	43544.17
719.589	43426.2
719.932	43141.01
720.275	43205.64
720.617	43184.85
720.96	43089.71
721.303	43223.95
721.646	43071.41
721.989	42884.3
722.331	43007.91
722.674	42881.58
723.016	42919.32
723.359	42809.5
723.701	42793.68
724.044	42555.04
724.386	42351.2
724.729	42476.62
725.071	42422.16
725.413	42418.09
725.755	42406.34
726.097	42147.14
726.439	41938.78
726.782	42125.22
727.124	42228.49
727.465	41935.17
727.807	41849.97
728.149	41798.9
728.491	41743.08
728.833	41773.36
729.175	41601.39
729.516	41625.12
729.858	41524.11
730.199	41432.36
730.541	41348.07
730.882	41409.31
731.224	41536.08
731.565	41214.06
731.906	41233.49
732.248	41334.51
732.589	41048.64
732.93	40979.04
733.271	41007.28
733.612	41007.28
733.953	40985.59
734.294	40798.25
734.635	40587.18
734.976	40796.89
735.317	40616.11
735.658	40454.98
735.999	40426.73
736.339	40459.95
736.68	40551.93
737.021	40469.67
737.361	40215.89
737.702	40490.91
738.042	40307.41
738.383	40094.99
738.723	40202.78
739.063	39971.83
739.404	40254.99
739.744	39980.19
740.084	39889.35
740.424	39836.01
740.764	39787.65
741.104	39899.97
741.444	39665.85
741.784	39749.01
742.124	39717.37
742.464	39720.54
742.804	39619.07
743.143	39481.45
743.483	39358.29
743.823	39255.46
744.162	39195.35
744.502	39411.17
744.841	39266.09
745.181	39245.3
745.52	39056.83
745.86	39125.3
746.199	39051.18
746.538	39035.36
746.877	39047.33
747.216	38950.39
747.556	38870.39
747.895	38779.32
748.234	38541.13
748.573	38662.94
748.911	38619.55
749.25	38568.03
749.589	38498.65
749.928	38456.62
750.267	38390.85
750.605	38244.19
750.944	38314.47
751.283	37997.19
751.621	38269.05
751.96	38029.96
752.298	37953.8
752.636	37960.58
752.975	37778.67
