Data from White_paper_FLMS001491_086.txt Node
Date: Tue Feb 07 10:35:40 GMT 2017
User: dcchb
Spectrometer: FLMS00149
Trigger mode: 0
Integration Time (sec): 2.000000E-2
Scans to average: 10
Electric dark correction enabled: true
Nonlinearity correction enabled: false
Boxcar width: 0
XAxis mode: Wavelengths
Number of Pixels in Spectrum: 2048
>>>>>Begin Spectral Data<<<<<
341.393	-23.6
341.776	-23.6
342.16	-23.6
342.543	-60.44
342.927	-70.61
343.31	-45.52
343.693	-80.77
344.077	-64.05
344.46	-52.75
344.843	-63.83
345.226	-53.43
345.61	-31.28
345.993	-28.8
346.376	23.4
346.759	-12.08
347.142	22.27
347.525	51.88
347.908	53.23
348.291	80.8
348.674	95.94
349.057	104.98
349.44	123.97
349.823	137.07
350.206	150.86
350.588	223.4
350.971	233.12
351.354	245.77
351.737	275.83
352.119	274.92
352.502	281.02
352.884	302.49
353.267	307.24
353.65	333.9
354.032	325.32
354.414	340.23
354.797	334.13
355.179	346.56
355.562	354.02
355.944	347.24
356.326	349.27
356.709	356.05
357.091	370.06
357.473	376.84
357.855	353.34
358.238	375.26
358.62	363.28
359.002	370.74
359.384	356.5
359.766	351.3
360.148	379.33
360.53	368.7
360.912	361.25
361.294	358.08
361.676	374.13
362.057	363.96
362.439	353.79
362.821	373.45
363.203	356.95
363.584	365.77
363.966	346.11
364.348	386.56
364.729	367.58
365.111	367.35
365.493	332.1
365.874	368.93
366.256	356.73
366.637	365.54
367.019	357.18
367.4	351.08
367.781	374.13
368.163	351.98
368.544	368.93
368.925	383.39
369.306	369.83
369.688	359.89
370.069	367.58
370.45	366.22
370.831	346.11
371.212	357.86
371.593	377.29
371.974	359.67
372.355	380
372.736	373.22
373.117	355.82
373.498	368.93
373.879	363.73
374.26	366.22
374.641	362.38
375.021	385.2
375.402	378.87
375.783	378.2
376.163	395.6
376.544	403.51
376.925	403.05
377.305	383.62
377.686	382.26
378.066	384.3
378.447	397.86
378.827	394.24
379.208	405.31
379.588	416.61
379.968	411.19
380.349	410.96
380.729	398.31
381.109	418.2
381.489	412.09
381.87	409.38
382.25	418.65
382.63	429.04
383.01	410.29
383.39	446.44
383.77	423.62
384.15	424.07
384.53	444.86
384.91	465.43
385.29	467.01
385.67	428.36
386.049	454.35
386.429	460
386.809	450.06
387.189	460
387.568	468.14
387.948	459.55
388.328	479.89
388.707	463.62
389.087	491.64
389.466	487.12
389.846	493.9
390.225	497.97
390.605	488.25
390.984	497.06
391.363	520.34
391.743	544.07
392.122	528.47
392.501	523.73
392.881	544.52
393.26	535.03
393.639	541.58
394.018	560.79
394.397	562.6
394.776	538.19
395.155	546.55
395.534	543.62
395.913	562.37
396.292	583.16
396.671	585.42
397.05	596.27
397.429	581.81
397.808	577.74
398.186	598.53
398.565	605.76
398.944	628.13
399.323	624.74
399.701	640.34
400.08	637.17
400.458	653.44
400.837	654.8
401.215	654.57
401.594	670.17
401.972	676.95
402.351	673.1
402.729	680.34
403.107	712.65
403.486	711.29
403.864	725.53
404.242	746.55
404.62	758.07
404.999	770.5
405.377	775.7
405.755	770.73
406.133	802.82
406.511	825.87
406.889	855.7
407.267	868.58
407.645	857.05
408.023	913.32
408.401	898.63
408.779	952.64
409.156	952.42
409.534	985.64
409.912	975.02
410.29	1013.89
410.667	1041.91
411.045	1066.09
411.422	1098.86
411.8	1123.49
412.178	1143.15
412.555	1162.13
412.933	1189.02
413.31	1245.97
413.687	1255.46
414.065	1255.69
414.442	1286.19
414.819	1336.14
415.197	1347.44
415.574	1377.04
415.951	1394.89
416.328	1419.07
416.705	1473.31
417.082	1484.61
417.46	1530.71
417.837	1564.15
418.214	1564.15
418.591	1595.11
418.967	1603.47
419.344	1621.1
419.721	1664.72
420.098	1720.99
420.475	1716.47
420.852	1754.21
421.228	1751.49
421.605	1801.89
421.982	1845.28
422.358	1874.2
422.735	1898.83
423.111	1878.27
423.488	1947.19
423.864	1964.82
424.241	1988.78
424.617	2022.9
424.994	2020.86
425.37	2054.54
425.746	2081.88
426.123	2118.49
426.499	2091.37
426.875	2143.57
427.251	2204.81
427.627	2263.12
428.003	2240.52
428.379	2316.9
428.756	2317.35
429.132	2367.97
429.507	2426.05
429.883	2432.61
430.259	2517.35
430.635	2486.16
431.011	2521.87
431.387	2595.31
431.763	2610
432.138	2702.43
432.514	2702.2
432.89	2732.03
433.265	2835.31
433.641	2840.5
434.016	2897.45
434.392	2912.14
434.767	2994.62
435.143	2939.03
435.518	3011.12
435.894	3050.44
436.269	3102.64
436.644	3148.07
437.02	3211.79
437.395	3177.9
437.77	3224.68
438.145	3271.91
438.52	3292.47
438.895	3380.83
439.271	3385.12
439.646	3439.36
440.021	3448.17
440.395	3500.37
440.77	3463.76
441.145	3498.79
441.52	3560.26
441.895	3607.26
442.27	3633.03
442.645	3613.14
443.019	3680.48
443.394	3706.24
443.769	3725.23
444.143	3712.35
444.518	3778.56
444.892	3772.23
445.267	3824.66
445.641	3899.91
446.016	3862.4
446.39	3882.96
446.764	3915.73
447.139	3919.35
447.513	3936.07
447.887	3986.01
448.262	3967.48
448.636	4019
449.01	4063.75
449.384	4109.4
449.758	4130.41
450.132	4210.41
450.506	4231.43
450.88	4240.02
451.254	4244.08
451.628	4286.57
452.002	4316.4
452.376	4375.83
452.75	4377.41
453.123	4438.88
453.497	4529.05
453.871	4558.43
454.244	4671.42
454.618	4690.17
454.992	4739.89
455.365	4781.92
455.739	4850.85
456.112	4955.7
456.486	4947.12
456.859	4967.91
457.232	5059.88
457.606	5127.22
457.979	5187.56
458.352	5277.05
458.725	5309.82
459.099	5310.5
459.472	5503.03
459.845	5542.58
460.218	5536.25
460.591	5647.21
460.964	5659.19
461.337	5798.39
461.71	5880.2
462.083	5955
462.456	5922.91
462.829	5948.67
463.201	6131.27
463.574	6111.83
463.947	6225.27
464.32	6346.4
464.692	6396.57
465.065	6465.04
465.438	6510.46
465.81	6663.23
466.183	6732.15
466.555	6867.97
466.928	6886.27
467.3	6858.25
467.672	7072.94
468.045	7141.18
468.417	7234.06
468.789	7274.51
469.161	7407.84
469.534	7495.52
469.906	7677.44
470.278	7738.91
470.65	7855.06
471.022	7981.16
471.394	8100.25
471.766	8190.65
472.138	8280.59
472.51	8458.66
472.882	8583.86
473.253	8661.82
473.625	8841.93
473.997	9004.64
474.369	9092.77
474.74	9147.91
475.112	9332.09
475.484	9513.1
475.855	9600.55
476.227	9714.22
476.598	9966.19
476.97	10082.12
477.341	10277.82
477.713	10429.46
478.084	10499.06
478.455	10823.12
478.827	10900.41
479.198	11118.93
479.569	11198.7
479.94	11499.26
480.311	11645.7
480.682	11880.49
481.053	12145.34
481.424	12323.19
481.795	12364.55
482.166	12538.55
482.537	12785.55
482.908	12982.38
483.279	13229.38
483.65	13368.36
484.021	13653.33
484.391	13813.32
484.762	13955.24
485.133	14051.06
485.503	14222.58
485.874	14562.91
486.244	14709.57
486.615	14953.63
486.985	15104.36
487.356	15379.38
487.726	15489.44
488.097	15851.01
488.467	15878.35
488.837	16240.38
489.207	16430.66
489.578	16569.63
489.948	16755.84
490.318	16990.87
490.688	17112.45
491.058	17365.09
491.428	17522.6
491.798	17642.38
492.168	18044.17
492.538	18107.67
492.908	18388.57
493.278	18604.84
493.648	18663.82
494.017	18849.57
494.387	18900.87
494.757	19153.75
495.126	19284.59
495.496	19431.48
495.866	19545.15
496.235	19833.28
496.605	19981.97
496.974	20137.22
497.344	20291.34
497.713	20342.87
498.082	20501.06
498.452	20690.88
498.821	20844.32
499.19	20795.96
499.559	21070.99
499.928	21197.99
500.298	21385.55
500.667	21571.31
501.036	21568.83
501.405	21720.46
501.774	21818.99
502.143	22088.59
502.512	22173.1
502.88	22291.52
503.249	22336.49
503.618	22664.84
503.987	22523.83
504.356	22771.51
504.724	22912.97
505.093	22905.74
505.462	23139.63
505.83	23359.29
506.199	23518.6
506.567	23770.35
506.936	23727.19
507.304	24051.7
507.672	24200.17
508.041	24196.78
508.409	24408.3
508.777	24637.67
509.145	24838.57
509.514	24832.92
509.882	25102.29
510.25	25020.49
510.618	25273.36
510.986	25429.29
511.354	25565.33
511.722	25910.86
512.09	25996.28
512.458	25985.66
512.826	26275.14
513.193	26450.05
513.561	26565.08
513.929	26877.39
514.297	26959.42
514.664	27193.31
515.032	27281.67
515.4	27509.69
515.767	27606.63
516.135	27855.67
516.502	27686.18
516.869	28208.65
517.237	28311.7
517.604	28235.99
517.972	28664.23
518.339	28844.79
518.706	28774.74
519.073	29033.71
519.44	29279.58
519.808	29546.24
520.175	29407.04
520.542	29786.01
520.909	30027.36
521.276	29991.2
521.643	30433.68
522.009	30630.06
522.376	30864.4
522.743	30942.14
523.11	31275.46
523.477	31644.27
523.843	31620.31
524.21	32059.4
524.577	32305.04
524.943	32270.01
525.31	32439.05
525.676	32875.42
526.043	32989.09
526.409	33260.95
526.776	33523.77
527.142	33606.25
527.508	33753.82
527.874	34043.07
528.241	34126.69
528.607	34357.42
528.973	34629.05
529.339	34705.88
529.705	35119.66
530.071	35221.57
530.437	35280.56
530.803	35581.56
531.169	35836.47
531.535	35800.99
531.901	35840.31
532.267	36179.29
532.632	36455.21
532.998	36478.04
533.364	36613.85
533.73	36796.9
534.095	37002.09
534.461	37251.8
534.826	37447.05
535.192	37535.64
535.557	37737.21
535.923	37680.94
536.288	37975.4
536.653	38179.69
537.019	38050.88
537.384	38380.36
537.749	38522.73
538.114	38681.6
538.479	38623.07
538.845	38941.02
539.21	38893.34
539.575	39093.11
539.94	39180.34
540.305	39488.13
540.67	39347.57
541.034	39507.34
541.399	39711.4
541.764	39885.63
542.129	40017.83
542.494	40153.42
542.858	40307.09
543.223	40477.03
543.587	40618.72
543.952	40606.74
544.316	40746.63
544.681	40770.13
545.045	41038.37
545.41	41199.5
545.774	41383.45
546.138	41475.42
546.503	41535.76
546.867	41497.57
547.231	41933.71
547.595	42026.59
547.959	42160.15
548.324	42206.93
548.688	42357.88
549.052	42359.92
549.416	42579.8
549.779	42683.52
550.143	42792.45
550.507	43086.45
550.871	43200.57
551.235	43039.45
551.599	43451.87
551.962	43609.83
552.326	43621.8
552.689	43921.68
553.053	43719.2
553.417	43923.49
553.78	44509.24
554.143	44317.61
554.507	44599.18
554.87	44573.64
555.234	44950.36
555.597	44777.71
555.96	44932.28
556.323	45192.39
556.686	45182.22
557.05	45494.98
557.413	45455.2
557.776	45712.6
558.139	45966.38
558.502	45918.47
558.865	45982.19
559.228	46339.47
559.59	46468.28
559.953	46531.56
560.316	47033.24
560.679	46908.95
561.041	47176.29
561.404	47418.32
561.767	47625.54
562.129	47371.99
562.492	47831.19
562.854	47914.12
563.217	47862.82
563.579	48041.8
563.941	48416.71
564.304	48477.27
564.666	48752.74
565.028	48804.72
565.39	48858.28
565.753	49228.89
566.115	49169.46
566.477	49401.31
566.839	49495.55
567.201	49789.33
567.563	49790.68
567.925	50033.84
568.287	49919.72
568.648	50120.39
569.01	50270.67
569.372	50482.87
569.734	50528.74
570.095	50720.6
570.457	50905.68
570.819	50954.04
571.18	50933.03
571.542	51185.22
571.903	51277.42
572.265	51363.52
572.626	51444.65
572.987	51586.79
573.349	51709.05
573.71	51815.94
574.071	51815.26
574.432	52101.13
574.794	52217.51
575.155	52103.84
575.516	52191.52
575.877	52325.98
576.238	52342.48
576.599	52522.36
576.96	52548.35
577.32	52546.99
577.681	52730.27
578.042	52818.4
578.403	52770.49
578.763	52899.53
579.124	52934.78
579.485	53076.02
579.845	53111.27
580.206	53083.25
580.566	53104.27
580.927	53104.95
581.287	53299.74
581.648	53195.34
582.008	53340.87
582.368	53386.97
582.728	53436.24
583.089	53451.15
583.449	53418.38
583.809	53423.81
584.169	53592.39
584.529	53473.52
584.889	53696.34
585.249	53584.93
585.609	53390.81
585.969	53677.59
586.329	53607.53
586.688	53664.48
587.048	53737.7
587.408	53697.25
587.768	53659.51
588.127	53686.17
588.487	53736.79
588.846	53844.14
589.206	53690.47
589.565	53803.68
589.925	53977.01
590.284	53811.59
590.643	53899.73
591.003	53892.5
591.362	54014.3
591.721	53959.61
592.08	53973.17
592.44	54104.47
592.799	54112.6
593.158	53979.05
593.517	54061.98
593.876	54057.24
594.235	54083.68
594.593	54012.04
594.952	54089.1
595.311	54083.9
595.67	54196.22
596.029	54300.62
596.387	54331.13
596.746	54343.78
597.104	54260.62
597.463	54258.59
597.822	54360.28
598.18	54277.12
598.538	54302.65
598.897	54476.43
599.255	54254.29
599.613	54593.72
599.972	54442.31
600.33	54461.29
600.688	54436.44
601.046	54570.9
601.404	54625.58
601.762	54521.86
602.12	54723.43
602.478	54729.31
602.836	54721.17
603.194	54597.34
603.552	54694.06
603.91	54549.2
604.268	54782.42
604.625	54683.66
604.983	54805.69
605.341	54761.85
605.698	54867.16
606.056	54843.2
606.413	54836.88
606.771	54982.18
607.128	54982.86
607.485	54880.04
607.843	54869.87
608.2	55034.61
608.557	55171.11
608.914	55016.31
609.272	55178.56
609.629	55187.38
609.986	55281.61
610.343	55094.05
610.7	55341.04
611.057	55246.13
611.414	55213.14
611.771	55292.46
612.127	55370.65
612.484	55399.8
612.841	55390.99
613.198	55289.29
613.554	55395.28
613.911	55483.41
614.267	55443.19
614.624	55446.13
614.98	55515.5
615.337	55649.06
615.693	55539.68
616.05	55576.29
616.406	55698.1
616.762	55583.3
617.118	55584.43
617.475	55651.09
617.831	55609.51
618.187	55729.74
618.543	55682.73
618.899	55846.12
619.255	55801.82
619.611	55769.73
619.967	55893.12
620.323	55856.29
620.678	55789.39
621.034	55796.63
621.39	55823.29
621.746	55711.43
622.101	56036.85
622.457	55776.97
622.812	55904.65
623.168	55945.55
623.523	55993.23
623.879	55901.71
624.234	55784.2
624.589	55838.43
624.945	55955.27
625.3	55951.2
625.655	55931.76
626.01	55954.59
626.365	56039.33
626.72	55953.23
627.075	55916.17
627.43	55842.95
627.785	55888.38
628.14	55985.77
628.495	55953.68
628.85	55869.62
629.205	55818.32
629.559	55993.91
629.914	55839.34
630.269	55956.4
630.623	55881.37
630.978	55821.03
631.332	55913.91
631.687	55986.23
632.041	55838.21
632.396	55861.48
632.75	55761.6
633.104	55889.51
633.459	55695.61
633.813	55720.02
634.167	55741.94
634.521	55667.59
634.875	55740.13
635.229	55787.36
635.583	55583.07
635.937	55634.37
636.291	55564.77
636.645	55649.06
636.999	55541.49
637.352	55695.39
637.706	55474.37
638.06	55666.69
638.413	55506.01
638.767	55429.4
639.121	55569.74
639.474	55378.56
639.828	55448.16
640.181	55457.2
640.534	55487.93
640.888	55341.27
641.241	55345.56
641.594	55373.13
641.947	55413.59
642.301	55364.55
642.654	55446.58
643.007	55328.16
643.36	55341.04
643.713	55318.45
644.066	55343.53
644.419	55264.21
644.771	54982.41
645.124	54722.76
645.477	54723.89
645.83	54642.31
646.182	54473.72
646.535	54395.31
646.888	54544
647.24	54389.66
647.593	54523.21
647.945	54433.95
648.298	54320.96
648.65	54338.81
649.002	54159.61
649.355	54361.18
649.707	54376.55
650.059	54446.61
650.411	54731.12
650.763	54746.26
651.115	55018.34
651.467	54921.85
651.819	54897.67
652.171	54873.71
652.523	54807.95
652.875	54929.08
653.227	54778.12
653.578	54963.88
653.93	54950.09
654.282	54753.94
654.633	54683.66
654.985	54761.17
655.337	54765.24
655.688	54739.7
656.039	54896.76
656.391	54547.39
656.742	54604.34
657.094	54726.82
657.445	54775.86
657.796	54646.37
658.147	54627.62
658.498	54514.85
658.849	54595.75
659.2	54674.4
659.551	54578.58
659.902	54635.98
660.253	54537
660.604	54614.96
660.955	54481.18
661.306	54576.32
661.656	54535.87
662.007	54487.51
662.358	54494.06
662.708	54560.95
663.059	54516.66
663.409	54364.35
663.76	54527.51
664.11	54471.46
664.461	54468.53
664.811	54482.76
665.161	54353.27
665.511	54348.08
665.862	54370.45
666.212	54499.71
666.562	54498.13
666.912	54402.99
667.262	54372.48
667.612	54367.51
667.962	54348.08
668.312	54266.5
668.662	54435.08
669.011	54408.19
669.361	54300.62
669.711	54172.71
670.06	54236.89
670.41	54186.05
670.76	54162.54
671.109	54245.03
671.459	54195.31
671.808	54092.26
672.157	54120.96
672.507	53958.48
672.856	53951.93
673.205	54103.79
673.554	54059.5
673.904	53953.96
674.253	54137.01
674.602	54023.11
674.951	53537.93
675.3	53350.59
675.649	53899.95
675.998	53772.05
676.346	53823.57
676.695	53849.56
677.044	53767.53
677.393	53710.13
677.741	53746.51
678.09	53738.15
678.438	53620.19
678.787	53694.53
679.135	53635.1
679.484	53483.69
679.832	53546.52
680.181	53369.57
680.529	53475.11
680.877	53361.44
681.225	53248.22
681.573	53419.06
681.922	53280.76
682.27	53179.97
682.618	53193.53
682.966	52972.75
683.314	53114.89
683.661	52963.71
684.009	52871.73
684.357	52781.79
684.705	52742.7
685.053	52760.77
685.4	52636.94
685.748	52511.74
686.095	52585.41
686.443	52399.65
686.79	52386.55
687.138	52356.26
687.485	52387.68
687.832	52190.17
688.18	52232.88
688.527	52124.63
688.874	51970.51
689.221	51929.61
689.568	51834.47
689.915	51833.79
690.262	51727.58
690.609	51594.93
690.956	51494.82
691.303	51545.21
691.65	51285.78
691.997	51332.56
692.344	51138.22
692.69	51112.23
693.037	51079.24
693.383	50845.8
693.73	50988.62
694.077	50685.35
694.423	50820.03
694.769	50579.59
695.116	50517.89
695.462	50502.08
695.808	50294.4
696.155	50392.02
696.501	50133.95
696.847	50055.31
697.193	49885.82
697.539	49982.32
697.885	49766.95
698.231	49697.35
698.577	49659.39
698.923	49543.01
699.269	49338.04
699.614	49127.87
699.96	49162.45
700.306	49130.59
700.651	49002.91
700.997	48901.89
701.342	48803.14
701.688	48857.83
702.033	48620.32
702.379	48550.26
702.724	48536.93
703.069	48552.3
703.415	48065.76
703.76	48202.48
704.105	48230.95
704.45	47955.48
704.795	47873.67
705.14	47726.1
705.485	47628.25
705.83	47583.06
706.175	47640.68
706.52	47491.53
706.865	47230.98
707.209	47286.12
707.554	47135.16
707.899	47206.12
708.243	46971.77
708.588	47073.92
708.932	46729.52
709.277	46685.91
709.621	46791.21
709.966	46296.08
710.31	46535.85
710.654	46193.94
710.998	46308.51
711.342	46241.17
711.687	46182.87
712.031	46024.23
712.375	45901.07
712.719	46021.52
713.063	45915.3
713.407	45933.83
713.75	45725.03
714.094	45716.21
714.438	45531.59
714.782	45433.28
715.125	45304.92
715.469	45434.86
715.812	45040.98
716.156	45055.44
716.499	45063.12
716.843	45050.92
717.186	44792.4
717.53	45007.76
717.873	45016.34
718.216	44789.23
718.559	44634.21
718.902	44341.11
719.246	44468.79
719.589	44272.41
719.932	44189.93
720.275	44224.05
720.617	44106.54
720.96	44143.37
721.303	44031.06
721.646	44027.22
721.989	43708.36
722.331	43816.6
722.674	43781.57
723.016	43863.83
723.359	43737.73
723.701	43636.49
724.044	43384.52
724.386	43293.9
724.729	43556.5
725.071	43339.78
725.413	43279.67
725.755	43198.99
726.097	43046
726.439	42964.42
726.782	42930.07
727.124	43100.24
727.465	42883.75
727.807	42790.19
728.149	42744.77
728.491	42684.2
728.833	42666.58
729.175	42539.35
729.516	42415.51
729.858	42452.57
730.199	42453.47
730.541	42221.84
730.882	42340.48
731.224	42460.03
731.565	42102.75
731.906	42254.38
732.248	42135.97
732.589	42096.65
732.93	41691.01
733.271	41738.69
733.612	42038.34
733.953	41881.29
734.294	41509.09
734.635	41572.82
734.976	41745.7
735.317	41452.37
735.658	41484.91
735.999	41394.52
736.339	41370.56
736.68	41338.02
737.021	41325.37
737.361	40958.82
737.702	41345.03
738.042	41232.26
738.383	41004.25
738.723	41061.42
739.063	40959.73
739.404	41021.65
739.744	40944.14
740.084	40830.92
740.424	40766.29
740.764	40630.92
741.104	40795.44
741.444	40528.78
741.784	40514.32
742.124	40641.77
742.464	40450.14
742.804	40363.59
743.143	40359.97
743.483	40397.26
743.823	40114.78
744.162	40195.23
744.502	40201.56
744.841	39986.42
745.181	40138.96
745.52	40004.05
745.86	39940.55
746.199	39842.02
746.538	39832.75
746.877	39821.68
747.216	39728.57
747.556	39636.15
747.895	39698.07
748.234	39507.79
748.573	39340.79
748.911	39394.12
749.25	39454.46
749.589	39191.41
749.928	39173.33
750.267	39254.91
750.605	39082.72
750.944	39099.21
751.283	38823.29
751.621	38995.49
751.96	38703.74
752.298	38611.54
752.636	38573.8
