Data from white_steel_sheet_FLMS001491_009.txt Node
Date: Tue Feb 07 10:57:19 GMT 2017
User: dcchb
Spectrometer: FLMS00149
Trigger mode: 0
Integration Time (sec): 2.000000E-2
Scans to average: 10
Electric dark correction enabled: true
Nonlinearity correction enabled: false
Boxcar width: 0
XAxis mode: Wavelengths
Number of Pixels in Spectrum: 2048
>>>>>Begin Spectral Data<<<<<
341.393	-3.76
341.776	-3.76
342.16	-3.76
342.543	-60.25
342.927	-48.95
343.31	-74.49
343.693	-62.29
344.077	-54.38
344.46	-56.18
344.843	-49.41
345.226	-45.11
345.61	-51.89
345.993	-27.49
346.376	-0.82
346.759	11.84
347.142	45.51
347.525	45.06
347.908	45.96
348.291	64.26
348.674	109.69
349.057	99.74
349.44	142.68
349.823	145.84
350.206	162.11
350.588	199.63
350.971	237.59
351.354	233.52
351.737	240.98
352.119	258.16
352.502	269.23
352.884	296.12
353.267	314.2
353.65	311.04
354.032	309.23
354.414	309.23
354.797	323.01
355.179	337.93
355.562	324.6
355.944	316.91
356.326	340.87
356.709	318.72
357.091	347.87
357.473	353.3
357.855	335.44
358.238	339.74
358.62	351.94
359.002	352.39
359.384	343.8
359.766	364.14
360.148	365.72
360.53	353.97
360.912	360.53
361.294	360.08
361.676	329.79
362.057	340.87
362.439	338.83
362.821	349.23
363.203	320.98
363.584	335.9
363.966	337.03
364.348	333.18
364.729	349.45
365.111	343.8
365.493	319.17
365.874	333.18
366.256	302.68
366.637	333.41
367.019	331.15
367.4	332.28
367.781	338.83
368.163	343.35
368.544	319.17
368.925	295.22
369.306	315.33
369.688	321.43
370.069	321.43
370.45	330.02
370.831	314.88
371.212	335.67
371.593	339.28
371.974	334.09
372.355	327.08
372.736	327.08
373.117	324.82
373.498	324.37
373.879	356.01
374.26	328.44
374.641	333.86
375.021	332.73
375.402	344.03
375.783	338.61
376.163	321.66
376.544	343.8
376.925	349.23
377.305	363.92
377.686	324.37
378.066	337.93
378.447	351.04
378.827	358.04
379.208	370.24
379.588	345.39
379.968	353.52
380.349	336.8
380.729	360.53
381.109	361.43
381.489	361.21
381.87	367.76
382.25	377.25
382.63	381.77
383.01	371.83
383.39	356.23
383.77	381.54
384.15	377.93
384.53	387.87
384.91	361.66
385.29	374.31
385.67	396.01
386.049	383.13
386.429	374.54
386.809	393.29
387.189	386.06
387.568	393.29
387.948	404.14
388.328	422.9
388.707	412.05
389.087	397.36
389.466	437.14
389.846	413.86
390.225	405.72
390.605	419.73
390.984	396.01
391.363	421.09
391.743	441.2
392.122	435.33
392.501	452.05
392.881	460.41
393.26	433.75
393.639	456.8
394.018	462.22
394.397	468.77
394.776	473.29
395.155	487.53
395.534	485.04
395.913	499.96
396.292	470.81
396.671	491.37
397.05	525.72
397.429	503.8
397.808	515.33
398.186	513.29
398.565	546.06
398.944	513.52
399.323	543.35
399.701	538.15
400.08	533.4
400.458	562.56
400.837	562.78
401.215	584.48
401.594	574.08
401.972	597.13
402.351	576.11
402.729	616.11
403.107	605.27
403.486	633.97
403.864	614.98
404.242	623.12
404.62	631.71
404.999	643.01
405.377	653.85
405.755	672.38
406.133	677.81
406.511	728.2
406.889	710.57
407.267	699.95
407.645	704.25
408.023	734.53
408.401	748.31
408.779	767.07
409.156	782.44
409.534	784.47
409.912	781.08
410.29	802.1
410.667	804.58
411.045	845.49
411.422	850.91
411.8	836.9
412.178	829.89
412.555	897.24
412.933	864.02
413.31	891.59
413.687	908.76
414.065	916.9
414.442	940.4
414.819	939.72
415.197	955.54
415.574	970.23
415.951	960.74
416.328	998.25
416.705	979.27
417.082	1015.43
417.46	1013.17
417.837	1036.22
418.214	1043.9
418.591	1045.03
418.967	1059.04
419.344	1087.51
419.721	1082.32
420.098	1097.46
420.475	1124.57
420.852	1103.78
421.228	1113.05
421.605	1131.81
421.982	1117.8
422.358	1147.85
422.735	1165.48
423.111	1170.22
423.488	1201.41
423.864	1198.47
424.241	1224.01
424.617	1228.53
424.994	1241.41
425.37	1257.68
425.746	1257.68
426.123	1287.06
426.499	1305.14
426.875	1310.33
427.251	1363.66
427.627	1344.23
428.003	1379.48
428.379	1393.72
428.756	1399.14
429.132	1417
429.507	1460.39
429.883	1463.78
430.259	1474.17
430.635	1506.71
431.011	1518.69
431.387	1557.33
431.763	1563.43
432.138	1574.05
432.514	1623.32
432.89	1602.98
433.265	1651.79
433.641	1666.48
434.016	1694.96
434.392	1696.09
434.767	1743.99
435.143	1747.84
435.518	1776.31
435.894	1775.41
436.269	1812.24
436.644	1818.79
437.02	1842.75
437.395	1860.15
437.77	1883.88
438.145	1855.63
438.52	1946.25
438.895	1955.74
439.271	1966.13
439.646	1995.74
440.021	1997.77
440.395	1992.35
440.77	2012.01
441.145	2038.9
441.52	2060.37
441.895	2042.06
442.27	2103.08
442.645	2121.84
443.019	2160.93
443.394	2140.82
443.769	2150.54
444.143	2157.32
444.518	2187.15
444.892	2168.39
445.267	2241.61
445.641	2217.2
446.016	2218.56
446.39	2254.49
446.764	2287.48
447.139	2287.26
447.513	2329.97
447.887	2345.33
448.262	2308.05
448.636	2395.73
449.01	2424.2
449.384	2416.52
449.758	2435.27
450.132	2487.7
450.506	2474.82
450.88	2479.79
451.254	2502.39
451.628	2556.4
452.002	2557.76
452.376	2615.38
452.75	2569.06
453.123	2642.73
453.497	2692.9
453.871	2672.56
454.244	2782.61
454.618	2759.79
454.992	2807.69
455.365	2827.36
455.739	2928.6
456.112	2911.87
456.486	2925.43
456.859	2970.4
457.232	3015.15
457.606	3011.31
457.979	3063.96
458.352	3106.44
458.725	3148.7
459.099	3138.53
459.472	3259.21
459.845	3325.2
460.218	3294.91
460.591	3282.94
460.964	3314.12
461.337	3402.26
461.71	3450.39
462.083	3487.68
462.456	3510.95
462.829	3544.62
463.201	3619.65
463.574	3600.22
463.947	3651.06
464.32	3772.19
464.692	3741.68
465.065	3799.76
465.438	3834.56
465.81	3891.73
466.183	3919.76
466.555	4018.28
466.928	4043.14
467.3	4061.22
467.672	4118.17
468.045	4216.92
468.417	4251.05
468.789	4302.34
469.161	4303.7
469.534	4398.61
469.906	4470.02
470.278	4557.48
470.65	4559.96
471.022	4667.98
471.394	4767.19
471.766	4813.07
472.138	4850.58
472.51	4951.82
472.882	5034.3
473.253	5090.8
473.625	5141.42
473.997	5248.99
474.369	5277.69
474.74	5356.33
475.112	5454.63
475.484	5522.43
475.855	5667.51
476.227	5683.1
476.598	5857.33
476.97	5853.49
477.341	6088.29
477.713	6065.01
478.084	6099.59
478.455	6340.26
478.827	6369.41
479.198	6539.8
479.569	6506.35
479.94	6739.12
480.311	6783.86
480.682	6913.8
481.053	7052.55
481.424	7179.11
481.795	7226.56
482.166	7360.12
482.537	7469.72
482.908	7635.59
483.279	7648.92
483.65	7852.99
484.021	8102.02
484.391	8158.06
484.762	8142.92
485.133	8230.38
485.503	8377.72
485.874	8613.64
486.244	8634.43
486.615	8849.57
486.985	8869.46
487.356	9112.84
487.726	9214.31
488.097	9322.55
488.467	9341.99
488.837	9555.09
489.207	9627.4
489.578	9829.88
489.948	9941.29
490.318	10041.4
490.688	10135.19
491.058	10195.75
491.428	10487.72
491.798	10575.4
492.168	10759.8
492.538	10822.85
492.908	10909.63
493.278	11053.58
493.648	11043.64
494.017	11268.94
494.387	11361.37
494.757	11405.66
495.126	11510.97
495.496	11570.85
495.866	11654.69
496.235	11842.03
496.605	11990.96
496.974	12061.46
497.344	12158.41
497.713	12206.77
498.082	12285.86
498.452	12496.25
498.821	12490.6
499.19	12566.76
499.559	12691.28
499.928	12798.62
500.298	12886.75
500.667	13037.48
501.036	12989.12
501.405	13180.53
501.774	13181.21
502.143	13227.08
502.512	13347.3
502.88	13562.89
503.249	13620.52
503.618	13653.96
503.987	13703
504.356	13944.58
504.724	13943.22
505.093	14090.34
505.462	14068.64
505.83	14181.86
506.199	14318.8
506.567	14537.1
506.936	14561.74
507.304	14761.73
507.672	14727.38
508.041	14824.1
508.409	14975.28
508.777	15071.1
509.145	15289.17
509.514	15236.07
509.882	15402.84
510.25	15435.16
510.618	15643.74
510.986	15737.07
511.354	15807.13
511.722	15962.6
512.09	16159.43
512.458	16160.79
512.826	16309.03
513.193	16451.4
513.561	16519.42
513.929	16614.11
514.297	16805.97
514.664	16870.6
515.032	17059.52
515.4	17180.42
515.767	17198.05
516.135	17367.31
516.502	17360.08
516.869	17634.88
517.237	17702.44
517.604	17766.62
517.972	17912.61
518.339	17965.49
518.706	18127.29
519.073	18269.43
519.44	18401.63
519.808	18548.3
520.175	18530.22
520.542	18923.88
520.909	18958.23
521.276	19110.77
521.643	19195.06
522.009	19353.93
522.376	19540.81
522.743	19726.8
523.11	19876.62
523.477	20112.55
523.843	20161.36
524.21	20422.82
524.577	20495.37
524.943	20621.01
525.31	20692.87
525.676	20947.78
526.043	21151.17
526.409	21233.2
526.776	21464.61
527.142	21378.96
527.508	21696.01
527.874	21881.54
528.241	21956.34
528.607	22068.21
528.973	22237.92
529.339	22288.31
529.705	22562.88
530.071	22711.35
530.437	22858.24
530.803	22971.23
531.169	23115.86
531.535	23142.3
531.901	23213.03
532.267	23406.47
532.632	23679.69
532.998	23553.14
533.364	23760.82
533.73	23903.86
534.095	24115.83
534.461	24250.29
534.826	24274.7
535.192	24397.86
535.557	24622.49
535.923	24531.42
536.288	24695.93
536.653	24810.73
537.019	24766.44
537.384	24831.52
537.749	25077.39
538.114	25173.66
538.479	25099.31
538.845	25277.61
539.21	25340.66
539.575	25532.52
539.94	25572.97
540.305	25774.55
540.67	25756.92
541.034	25858.84
541.399	25916.01
541.764	26020.87
542.129	26110.81
542.494	26202.11
542.858	26166.63
543.223	26280.75
543.587	26470.8
543.952	26602.55
544.316	26574.3
544.681	26644.36
545.045	26838.93
545.41	26928.42
545.774	26964.12
546.138	26968.64
546.503	27113.04
546.867	27211.8
547.231	27348.52
547.595	27394.62
547.959	27681.62
548.324	27638.91
548.688	27765.23
549.052	27838.45
549.416	27902.4
549.779	27987.37
550.143	28097.43
550.507	28185.78
550.871	28334.71
551.235	28314.14
551.599	28636.62
551.962	28563.85
552.326	28640.69
552.689	28790.06
553.053	28774.24
553.417	28710.29
553.78	29179.88
554.143	29011.98
554.507	29315.47
554.87	29467.11
555.234	29653.09
555.597	29522.25
555.96	29769.7
556.323	29853.31
556.686	29896.47
557.05	30024.83
557.413	30272.51
557.776	30147.09
558.139	30492.62
558.502	30489.45
558.865	30698.03
559.228	30773.96
559.59	30867.97
559.953	31007.86
560.316	31220.51
560.679	31317.68
561.041	31452.82
561.404	31653.72
561.767	31858.23
562.129	31612.59
562.492	32120.6
562.854	32124.44
563.217	32156.53
563.579	32338.22
563.941	32580.47
564.304	32594.26
564.666	32799
565.028	32698.43
565.39	32973.23
565.753	33102.94
566.115	33330.96
566.477	33429.94
566.839	33506.32
567.201	33648.92
567.563	33822.47
567.925	33836.94
568.287	33860.21
568.648	34048.68
569.01	34235.57
569.372	34454.77
569.734	34269.24
570.095	34633.3
570.457	34697.25
570.819	34726.18
571.18	34822.22
571.542	35013.4
571.903	34963.46
572.265	35139.05
572.626	35277.8
572.987	35270.8
573.349	35506.5
573.71	35534.52
574.071	35667.4
574.432	35739.71
574.794	35995.07
575.155	35954.85
575.516	35851.35
575.877	36094.95
576.238	36023.09
576.599	36265.35
576.96	36179.7
577.32	36237.78
577.681	36392.12
578.042	36581.95
578.403	36400.48
578.763	36514.15
579.124	36638.44
579.485	36598.9
579.845	36650.65
580.206	36639.35
580.566	36553.02
580.927	36745.11
581.287	36792.11
581.648	36794.37
582.008	36942.84
582.368	36884.31
582.728	36910.07
583.089	36894.26
583.449	36935.84
583.809	36960.69
584.169	37071.88
584.529	36956.63
584.889	37241.14
585.249	36884.31
585.609	36894.48
585.969	36982.39
586.329	36914.59
586.688	36914.59
587.048	36935.84
587.408	36976.51
587.768	36990.52
588.127	36981.03
588.487	36972.22
588.846	37102.61
589.206	36942.62
589.565	36955.72
589.925	37027.81
590.284	37040.24
590.643	37031.2
591.003	37077.98
591.362	37252.21
591.721	37117.07
592.08	37192.55
592.44	37160.01
592.799	37117.75
593.158	37067.81
593.517	37208.15
593.876	37186
594.235	37038.43
594.593	37198.65
594.952	37113.01
595.311	37085.89
595.67	37064.19
596.029	37432.09
596.387	37356.84
596.746	37502.6
597.104	37207.92
597.463	37174.7
597.822	37297.64
598.18	37229.61
598.538	37149.62
598.897	37568.59
599.255	37086.79
599.613	37689.26
599.972	37392.55
600.33	37381.93
600.688	37271.42
601.046	37459.21
601.404	37614.01
601.762	37392.32
602.12	37554.58
602.478	37592.54
602.836	37656.04
603.194	37240.46
603.552	37433.22
603.91	37367.92
604.268	37564.75
604.625	37443.85
604.983	37560
605.341	37395.03
605.698	37627.57
606.056	37739.43
606.413	37745.08
606.771	37767.23
607.128	37822.59
607.485	37710.05
607.843	37790.73
608.2	37946.88
608.557	38038.41
608.914	37854.46
609.272	38066.43
609.629	38126.09
609.986	38118.18
610.343	37989.59
610.7	38227.33
611.057	38181
611.414	38140.1
611.771	38378.74
612.127	38299.64
612.484	38330.38
612.841	38515
613.198	38356.14
613.554	38353.88
613.911	38642.46
614.267	38597.49
614.624	38535.79
614.98	38534.44
615.337	38772.85
615.693	38686.75
616.05	38587.32
616.406	38680.65
616.762	38765.39
617.118	38682.91
617.475	38691.72
617.831	38981.21
618.187	38825.96
618.543	38826.86
618.899	39223.69
619.255	39051.49
619.611	38984.6
619.967	39028.66
620.323	39188.88
620.678	39081.09
621.034	38865.28
621.39	39142.33
621.746	38926.29
622.101	39518.82
622.457	39101.88
622.812	39343.01
623.168	39301.88
623.523	39352.5
623.879	39290.13
624.234	39024.82
624.589	39203.35
624.945	39368.54
625.3	39384.81
625.655	39243.8
626.01	39317.47
626.365	39224.14
626.72	39076.57
627.075	39203.8
627.43	39033.41
627.785	39041.77
628.14	39118.83
628.495	39141.65
628.85	39065.27
629.205	38962
629.559	39168.77
629.914	39139.62
630.269	39100.07
630.623	38975.11
630.978	38840.42
631.332	39072.05
631.687	39134.2
632.041	38947.08
632.396	38968.78
632.75	38884.94
633.104	38946.86
633.459	38773.3
633.813	38675.9
634.167	38660.31
634.521	38656.02
634.875	38792.74
635.229	38682.68
635.583	38303.03
635.937	38469.36
636.291	38261.68
636.645	38374.89
636.999	38168.35
637.352	38484.27
637.706	38127.44
638.06	38211.96
638.413	38205.18
638.767	38175.58
639.121	38256.03
639.474	37902.14
639.828	37823.05
640.181	37870.28
640.534	37897.85
640.888	37739.66
641.241	37664.63
641.594	37714.8
641.947	37857.85
642.301	37697.62
642.654	37602.71
643.007	37625.31
643.36	37515.26
643.713	37489.72
644.066	37576.95
644.419	37382.38
644.771	37132.89
645.124	36776.52
645.477	36785.11
645.83	36489.52
646.182	36319.58
646.535	36212.47
646.888	36338.56
647.24	36132.47
647.593	36333.37
647.945	36304.21
648.298	36118.91
648.65	35978.8
649.002	35953.26
649.355	36055.41
649.707	35953.49
650.059	36082.98
650.411	36465.34
650.763	36559.58
651.115	36941.49
651.467	36815.16
651.819	36728.38
652.171	36586.47
652.523	36638.22
652.875	36687.26
653.227	36486.81
653.578	36591.66
653.93	36677.31
654.282	36467.15
654.633	36334.72
654.985	36412.01
655.337	36353.03
655.688	36265.57
656.039	36378.56
656.391	36014.05
656.742	36143.77
657.094	36146.48
657.445	36282.75
657.796	36057.22
658.147	36137.21
658.498	36116.42
658.849	36130.21
659.2	35991.23
659.551	35931.8
659.902	36012.25
660.253	35892.93
660.604	35987.16
660.955	35656.55
661.306	35858.8
661.656	35725.93
662.007	35774.51
662.358	35744.68
662.708	35644.57
663.059	35482.09
663.409	35380.17
663.76	35584.91
664.11	35487.74
664.461	35444.58
664.811	35442.77
665.161	35338.36
665.511	35149.89
665.862	35210.46
666.212	35194.87
666.562	35194.64
666.912	34947.19
667.262	34935.21
667.612	34882.11
667.962	34894.99
668.312	34650.93
668.662	34773.63
669.011	34576.8
669.361	34557.59
669.711	34615.9
670.06	34357.6
670.41	34350.59
670.76	34297.26
671.109	34303.82
671.459	34075.8
671.808	34047.55
672.157	34197.6
672.507	33851.4
672.856	33916.48
673.205	33841.68
673.554	33996.7
673.904	33693.66
674.253	33817.73
674.602	33792.19
674.951	33155.37
675.3	33055.94
675.649	33678.3
675.998	33561.46
676.346	33529.37
676.695	33614.79
677.044	33264.29
677.393	33514.46
677.741	33240.11
678.09	33344.97
678.438	33180.91
678.787	33319.21
679.135	33308.81
679.484	33092.1
679.832	33177.29
680.181	33076.73
680.529	33148.82
680.877	33053.23
681.225	32977.3
681.573	33227.46
681.922	33037.63
682.27	32855.27
682.618	32942.27
682.966	32927.13
683.314	33106.78
683.661	32917.19
684.009	32956.51
684.357	32842.61
684.705	32895.04
685.053	32987.01
685.4	32930.52
685.748	32774.82
686.095	32761.03
686.443	32719.9
686.79	32820.69
687.138	32823.18
687.485	32860.01
687.832	32801.93
688.18	32918.54
688.527	32729.17
688.874	32693.24
689.221	32705.89
689.568	32737.3
689.915	32699.11
690.262	32573.01
690.609	32606.69
690.956	32565.1
691.303	32596.74
691.65	32484.43
691.997	32460.7
692.344	32386.8
692.69	32284.43
693.037	32418.22
693.383	32065.91
693.73	32178.45
694.077	32183.87
694.423	32118.11
694.769	32053.93
695.116	31999.92
695.462	31978
695.808	31941.62
696.155	32006.47
696.501	31805.35
696.847	31836.08
697.193	31544.79
697.539	31698.91
697.885	31438.58
698.231	31475.64
698.577	31413.5
698.923	31378.69
699.269	31374.63
699.614	31148.42
699.96	31025.26
700.306	31135.54
700.651	31012.83
700.997	30857.35
701.342	30918.59
701.688	30863.91
702.033	30727.86
702.379	30615.32
702.724	30738.03
703.069	30711.37
703.415	30373.98
703.76	30389.79
704.105	30248.55
704.45	30166.52
704.795	30148.9
705.14	29921.56
705.485	29986.19
705.83	29934.44
706.175	29986.19
706.52	29690.15
706.865	29697.38
707.209	29564.96
707.554	29567.44
707.899	29739.19
708.243	29453.1
708.588	29495.81
708.932	29289.48
709.277	29202.93
709.621	29301.91
709.966	29023.73
710.31	29111.18
710.654	28885.65
710.998	28951.87
711.342	29016.27
711.687	28909.38
712.031	28749.84
712.375	28594.81
712.719	28673.23
713.063	28637.75
713.407	28684.08
713.75	28505.78
714.094	28462.39
714.438	28364.08
714.782	28405.89
715.125	28324.31
715.469	28316.63
715.812	28165.22
716.156	28018.78
716.499	28061.95
716.843	28054.04
717.186	27850.88
717.53	28002.29
717.873	27991.89
718.216	27812.01
718.559	27760.03
718.902	27604.1
719.246	27662.18
719.589	27607.72
719.932	27389.65
720.275	27448.85
720.617	27384.45
720.96	27397.78
721.303	27384.68
721.646	27415.18
721.989	27161.63
722.331	27305.36
722.674	27179.03
723.016	27237.11
723.359	27064.23
723.701	27102.87
724.044	26934.97
724.386	26769.32
724.729	27008.19
725.071	26867.85
725.413	26895.2
725.755	26806.39
726.097	26612.94
726.439	26601.65
726.782	26546.73
727.124	26674.86
727.465	26518.71
727.807	26409.11
728.149	26398.26
728.491	26372.95
728.833	26492.27
729.175	26335.44
729.516	26327.08
729.858	26209.11
730.199	26252.05
730.541	26057.03
730.882	26080.3
731.224	26168.44
731.565	26020.19
731.906	25937.48
732.248	25969.57
732.589	25847.99
732.93	25834.89
733.271	25789.24
733.612	25873.08
733.953	25771.61
734.294	25681.67
734.635	25561.67
734.976	25725.96
735.317	25563.25
735.658	25542.69
735.999	25529.81
736.339	25482.13
736.68	25527.78
737.021	25372.98
737.361	25288.01
737.702	25412.3
738.042	25326.42
738.383	25175.24
738.723	25257.05
739.063	25123.04
739.404	25366.88
739.744	25197.39
740.084	25101.12
740.424	25031.07
740.764	24983.16
741.104	25055.25
741.444	24979.99
741.784	24869.26
742.124	24956.49
742.464	24876.49
742.804	24785.65
743.143	24733.67
743.483	24799.66
743.823	24642.6
744.162	24688.93
744.502	24667.23
744.841	24454.13
745.181	24638.98
745.52	24490.97
745.86	24533.22
746.199	24410.74
746.538	24360.35
746.877	24398.77
747.216	24321.03
747.556	24206
747.895	24151.99
748.234	24130.3
748.573	24005.78
748.911	24115.83
749.25	24052.11
749.589	23995.39
749.928	23998.32
750.267	23959.91
750.605	23921.49
750.944	23751.1
751.283	23689.86
751.621	23909.74
751.96	23618.67
752.298	23697.77
752.636	23679.01
752.975	23475.4
753.313	23379.13
753.651	23560.37
753.989	23291
