Data from White_paper_FLMS001491_019.txt Node
Date: Tue Feb 07 10:34:44 GMT 2017
User: dcchb
Spectrometer: FLMS00149
Trigger mode: 0
Integration Time (sec): 2.000000E-2
Scans to average: 10
Electric dark correction enabled: true
Nonlinearity correction enabled: false
Boxcar width: 0
XAxis mode: Wavelengths
Number of Pixels in Spectrum: 2048
>>>>>Begin Spectral Data<<<<<
341.393	-1.91
341.776	-1.91
342.16	-1.91
342.543	-61.34
342.927	-88.46
343.31	-68.8
343.693	-76.03
344.077	-56.82
344.46	-70.38
344.843	-49.36
345.226	-24.73
345.61	-34
345.993	-15.01
346.376	-2.13
346.759	-4.17
347.142	15.72
347.525	46.68
347.908	59.56
348.291	99.33
348.674	93.46
349.057	86.68
349.44	130.75
349.823	126.68
350.206	146.56
350.588	241.7
350.971	242.61
351.354	239.67
351.737	252.78
352.119	284.19
352.502	312.44
352.884	307.24
353.267	309.72
353.65	319.67
354.032	332.55
354.414	319.67
354.797	336.84
355.179	322.83
355.562	350.85
355.944	361.25
356.326	341.81
356.709	344.98
357.091	374.58
357.473	368.93
357.855	389.04
358.238	380
358.62	390.4
359.002	365.09
359.384	371.87
359.766	382.49
360.148	377.29
360.53	384.3
360.912	377.97
361.294	361.93
361.676	363.73
362.057	354.92
362.439	368.93
362.821	368.03
363.203	377.07
363.584	363.28
363.966	356.73
364.348	344.07
364.729	358.54
365.111	354.47
365.493	353.79
365.874	363.51
366.256	363.73
366.637	382.04
367.019	351.98
367.4	358.54
367.781	341.36
368.163	345.65
368.544	366.67
368.925	355.15
369.306	368.03
369.688	352.21
370.069	340.23
370.45	365.77
370.831	348.37
371.212	347.01
371.593	361.25
371.974	359.21
372.355	377.97
372.736	363.96
373.117	389.5
373.498	374.35
373.879	395.82
374.26	368.48
374.641	348.37
375.021	361.93
375.402	366.9
375.783	384.52
376.163	371.19
376.544	405.54
376.925	397.86
377.305	393.11
377.686	392.21
378.066	394.24
378.447	387.46
378.827	405.99
379.208	397.63
379.588	406.44
379.968	435.82
380.349	408.7
380.729	400.79
381.109	399.21
381.489	436.27
381.87	403.73
382.25	413
382.63	446.9
383.01	418.42
383.39	417.29
383.77	422.94
384.15	420.46
384.53	441.92
384.91	432.43
385.29	424.75
385.67	449.15
386.049	453.67
386.429	456.16
386.809	456.39
387.189	457.74
387.568	474.92
387.948	454.35
388.328	483.28
388.707	460.45
389.087	475.37
389.466	472.88
389.846	477.85
390.225	485.76
390.605	490.28
390.984	509.27
391.363	510.62
391.743	502.03
392.122	533.9
392.501	525.09
392.881	509.27
393.26	526.21
393.639	530.96
394.018	496.84
394.397	517.63
394.776	537.74
395.155	562.37
395.534	544.29
395.913	549.04
396.292	554.91
396.671	556.27
397.05	595.82
397.429	570.73
397.808	581.35
398.186	580.22
398.565	585.87
398.944	602.37
399.323	612.31
399.701	608.47
400.08	626.55
400.458	637.17
400.837	628.81
401.215	636.95
401.594	638.3
401.972	636.04
402.351	658.87
402.729	685.76
403.107	706.1
403.486	700.22
403.864	707
404.242	714.23
404.62	732.54
404.999	760.11
405.377	741.12
405.755	772.99
406.133	795.36
406.511	784.06
406.889	838.75
407.267	844.17
407.645	860.22
408.023	891.86
408.401	867.22
408.779	908.58
409.156	920.33
409.534	958.75
409.912	954
410.29	1002.59
410.667	1056.6
411.045	1030.16
411.422	1074.45
411.8	1119.42
412.178	1130.49
412.555	1162.13
412.933	1187.67
413.31	1207.1
413.687	1227.89
414.065	1292.07
414.442	1293.2
414.819	1304.05
415.197	1334.56
415.574	1353.76
415.951	1386.98
416.328	1419.52
416.705	1449.58
417.082	1471.27
417.46	1490.26
417.837	1550.59
418.214	1562.8
418.591	1605.96
418.967	1616.13
419.344	1623.81
419.721	1652.97
420.098	1675.11
420.475	1713.98
420.852	1749.23
421.228	1774.09
421.605	1786.07
421.982	1826.75
422.358	1807.99
422.735	1864.26
423.111	1890.02
423.488	1965.27
423.864	1957.14
424.241	1999.4
424.617	1993.75
424.994	2000.53
425.37	2049.11
425.746	2072.16
426.123	2107.42
426.499	2110.13
426.875	2141.54
427.251	2217.92
427.627	2269.45
428.003	2258.15
428.379	2306.73
428.756	2322.1
429.132	2364.81
429.507	2400.06
429.883	2467.63
430.259	2474.41
430.635	2517.12
431.011	2576.33
431.387	2586.27
431.763	2645.48
432.138	2666.95
432.514	2722.32
432.89	2706.04
433.265	2813.61
433.641	2840.28
434.016	2857.68
434.392	2916.43
434.767	2970.44
435.143	2965.25
435.518	3048.86
435.894	3038.47
436.269	3088.86
436.644	3132.47
437.02	3192.13
437.395	3157.56
437.77	3219.25
438.145	3306.71
438.52	3337.21
438.895	3330.21
439.271	3389.64
439.646	3392.81
440.021	3456.31
440.395	3527.04
440.77	3444.56
441.145	3494.72
441.52	3616.53
441.895	3579.69
442.27	3646.36
442.645	3590.32
443.019	3670.54
443.394	3678.67
443.769	3721.16
444.143	3721.39
444.518	3780.59
444.892	3717.09
445.267	3775.4
445.641	3815.17
446.016	3817.88
446.39	3885
446.764	3918.89
447.139	3909.85
447.513	3950.98
447.887	3941.27
448.262	3986.91
448.636	3996.41
449.01	4027.37
449.384	4081.38
449.758	4112.56
450.132	4168.61
450.506	4184.65
450.88	4183.52
451.254	4219.68
451.628	4281.82
452.002	4266.46
452.376	4335.61
452.75	4430.07
453.123	4435.26
453.497	4504.19
453.871	4529.5
454.244	4651.76
454.618	4650.63
454.992	4694.01
455.365	4687.69
455.739	4839.32
456.112	4855.37
456.486	4883.84
456.859	4950.28
457.232	5018.53
457.606	5059.43
457.979	5074.34
458.352	5247.22
458.725	5254
459.099	5264.17
459.472	5416.93
459.845	5465.29
460.218	5576.25
460.591	5563.6
460.964	5575.12
461.337	5729.47
461.71	5866.19
462.083	5829.58
462.456	5871.16
462.829	5894.66
463.201	6023.02
463.574	6040.42
463.947	6169.23
464.32	6304.14
464.692	6295.55
465.065	6405.61
465.438	6391.37
465.81	6535.32
466.183	6623.46
466.555	6773.28
466.928	6775.32
467.3	6789.1
467.672	6900.06
468.045	7079.49
468.417	7119.26
468.789	7171.69
469.161	7314.29
469.534	7383.44
469.906	7564
470.278	7601.74
470.65	7675.18
471.022	7904.1
471.394	7938
471.766	8116.3
472.138	8166.01
472.51	8335.73
472.882	8470.19
473.253	8558.09
473.625	8654.81
473.997	8849.39
474.369	8960.34
474.74	9054.8
475.112	9136.61
475.484	9408.47
475.855	9475.36
476.227	9554.68
476.598	9753.32
476.97	9877.38
477.341	10111.73
477.713	10243.25
478.084	10313.53
478.455	10580.64
478.827	10685.27
479.198	11021.53
479.569	11032.61
479.94	11343.56
480.311	11428.3
480.682	11640.5
481.053	11935.18
481.424	12135.63
481.795	12173.37
482.166	12390.31
482.537	12563.86
482.908	12831.43
483.279	12976.28
483.65	13153
484.021	13447.68
484.391	13551.86
484.762	13711.86
485.133	13797.5
485.503	13983.26
485.874	14342.35
486.244	14413.76
486.615	14695.11
486.985	14881.54
487.356	15171.03
487.726	15271.59
488.097	15520.4
488.467	15674.74
488.837	16001.06
489.207	16070.21
489.578	16221.17
489.948	16464.33
490.318	16705.68
490.688	16707.26
491.058	17112.9
491.428	17213.01
491.798	17476.5
492.168	17688.48
492.538	17797.85
492.908	17958.75
493.278	18220.66
493.648	18214.56
494.017	18508.12
494.387	18530.04
494.757	18749.92
495.126	19018.38
495.496	18986.07
495.866	19176.35
496.235	19429.45
496.605	19583.12
496.974	19604.13
497.344	19874.63
497.713	19972.48
498.082	20146.94
498.452	20412.7
498.821	20381.74
499.19	20413.6
499.559	20585.57
499.928	20796.42
500.298	20922.74
500.667	21147.14
501.036	21045.9
501.405	21324.09
501.774	21303.07
502.143	21543.29
502.512	21695.6
502.88	21833.9
503.249	21915.03
503.618	22161.8
503.987	22178.3
504.356	22409.71
504.724	22435.7
505.093	22544.39
505.462	22716.82
505.83	22806.99
506.199	22995.23
506.567	23304.6
506.936	23414.43
507.304	23580.98
507.672	23708.2
508.041	23710.46
508.409	23871.36
508.777	24226.61
509.145	24284.69
509.514	24340.28
509.882	24514.74
510.25	24622.98
510.618	24825.24
510.986	24912.69
511.354	25125.57
511.722	25366.47
512.09	25419.57
512.458	25559.91
512.826	25729.62
513.193	25761.71
513.561	25926.9
513.929	26199.44
514.297	26350.85
514.664	26705.64
515.032	26648.92
515.4	26964.39
515.767	27076.03
516.135	27187.21
516.502	27142.24
516.869	27508.56
517.237	27746.06
517.604	27603.7
517.972	27934.99
518.339	28151.03
518.706	28259.27
519.073	28321.87
519.44	28535.87
519.808	28797.34
520.175	28826.71
520.542	29215.18
520.909	29425.57
521.276	29481.39
521.643	29667.14
522.009	29970.64
522.376	30081.82
522.743	30333.79
523.11	30501.7
523.477	30827.57
523.843	31010.61
524.21	31270.72
524.577	31500.09
524.943	31565.85
525.31	31851.27
525.676	32067.08
526.043	32318.6
526.409	32246.51
526.776	32730.79
527.142	32797.91
527.508	33034.96
527.874	33092.36
528.241	33469.98
528.607	33646.25
528.973	33797.66
529.339	33883.3
529.705	34215.27
530.071	34441.26
530.437	34646.67
530.803	34734.58
531.169	35070.39
531.535	35094.8
531.901	35174.12
532.267	35432.19
532.632	35567.55
532.998	35652.3
533.364	35859.3
533.73	36036.92
534.095	36168.44
534.461	36381.32
534.826	36569.34
535.192	36684.59
535.557	36941.3
535.923	36990.79
536.288	37132.26
536.653	37335.42
537.019	37326.38
537.384	37501.74
537.749	37619.48
538.114	37637.1
538.479	37872.13
538.845	38084.1
539.21	37966.13
539.575	38260.59
539.94	38326.13
540.305	38499.23
540.67	38554.59
541.034	38761.14
541.399	38900.35
541.764	39091.75
542.129	39118.19
542.494	39285.42
542.858	39386.21
543.223	39446.32
543.587	39800.66
543.952	39674.34
544.316	39863.71
544.681	39960.21
545.045	40098.28
545.41	40342.8
545.774	40415.56
546.138	40497.37
546.503	40690.81
546.867	40724.93
547.231	41138.03
547.595	41092.61
547.959	41282.43
548.324	41314.97
548.688	41441.98
549.052	41583.44
549.416	41698.69
549.779	41692.36
550.143	41826.37
550.507	42060.04
550.871	42247.83
551.235	42328.51
551.599	42495.73
551.962	42656.86
552.326	42766.23
552.689	42953.12
553.053	42813.92
553.417	43025.89
553.78	43535.48
554.143	43301.14
554.507	43498.64
554.87	43622.71
555.234	44131.17
555.597	43959.2
555.96	43986.09
556.323	44197.16
556.686	44332.07
557.05	44688.67
557.413	44734.32
557.776	44730.25
558.139	44903.58
558.502	45038.26
558.865	45161.88
559.228	45538.82
559.59	45509.44
559.953	45542.43
560.316	46108.07
560.679	45988.07
561.041	46229.19
561.404	46434.84
561.767	46757.54
562.129	46572.46
562.492	46980.13
562.854	47052.45
563.217	46994.37
563.579	47170.41
563.941	47414.47
564.304	47531.08
564.666	47801.81
565.028	47768.59
565.39	47998.19
565.753	48269.14
566.115	48409.48
566.477	48373.77
566.839	48656.47
567.201	48857.37
567.563	48999.74
567.925	49149.57
568.287	49193.18
568.648	49369.22
569.01	49533.06
569.372	49775.09
569.734	49606.28
570.095	49852.15
570.457	50174.85
570.819	50134.18
571.18	50121.52
571.542	50401.06
571.903	50391.57
572.265	50616.42
572.626	50688.06
572.987	50847.83
573.349	50927.83
573.71	51054.15
574.071	51092.57
574.432	51230.87
574.794	51534.14
575.155	51378.66
575.516	51382.28
575.877	51631.76
576.238	51718.09
576.599	51757.18
576.96	51643.74
577.32	51822.72
577.681	52067.68
578.042	52043.5
578.403	52090.73
578.763	52091.41
579.124	52258.19
579.485	52324.85
579.845	52405.3
580.206	52506.77
580.566	52378.41
580.927	52436.49
581.287	52578.63
581.648	52565.98
582.008	52767.78
582.368	52709.93
582.728	52716.03
583.089	52771.17
583.449	52692.98
583.809	52719.19
584.169	52919.41
584.529	52814.78
584.889	53118.96
585.249	52824.73
585.609	52871.05
585.969	52997.38
586.329	52951.5
586.688	52995.12
587.048	53014.78
587.408	52971.84
587.768	53024.5
588.127	53120.09
588.487	53025.4
588.846	53250.25
589.206	52970.49
589.565	53053.2
589.925	53273.3
590.284	53128.45
590.643	53241.21
591.003	53224.72
591.362	53283.92
591.721	53236.24
592.08	53306.75
592.44	53384.71
592.799	53315.11
593.158	53376.12
593.517	53357.14
593.876	53426.07
594.235	53401.43
594.593	53436.69
594.952	53438.04
595.311	53357.82
595.67	53512.39
596.029	53661.54
596.387	53612.5
596.746	53802.78
597.104	53626.74
597.463	53573.18
597.822	53787.64
598.18	53627.87
598.538	53569.34
598.897	53731.37
599.255	53551.26
599.613	53996
599.972	53838.03
600.33	53825.6
600.688	53824.47
601.046	53853.85
601.404	54065.6
601.762	53865.6
602.12	54033.51
602.478	54128.42
602.836	54049.1
603.194	53988.99
603.552	54062.66
603.91	53921.2
604.268	54046.39
604.625	53970.01
604.983	54192.6
605.341	53991.93
605.698	54230.79
606.056	54221.3
606.413	54154.41
606.771	54282.32
607.128	54286.84
607.485	54215.2
607.843	54240.96
608.2	54409.54
608.557	54480.28
608.914	54343.11
609.272	54512.14
609.629	54516.66
609.986	54561.18
610.343	54479.15
610.7	54664.45
611.057	54599.6
611.414	54586.49
611.771	54712.81
612.127	54726.82
612.484	54718.24
612.841	54804.79
613.198	54723.43
613.554	54797.78
613.911	54872.13
614.267	54865.35
614.624	54789.19
614.98	54805.92
615.337	54941.73
615.693	54882.98
616.05	54874.84
616.406	55070.09
616.762	54961.39
617.118	54977.66
617.475	54925.46
617.831	55049.3
618.187	54992.13
618.543	55097.44
618.899	55204.1
619.255	55136.53
619.611	55126.81
619.967	55204.78
620.323	55347.15
620.678	55207.04
621.034	55195.74
621.39	55167.49
621.746	55106.93
622.101	55481.15
622.457	55102.41
622.812	55203.87
623.168	55364.55
623.523	55263.98
623.879	55315.51
624.234	55172.46
624.589	55240.93
624.945	55314.15
625.3	55319.35
625.655	55332.23
626.01	55322.06
626.365	55334.04
626.72	55295.62
627.075	55271.67
627.43	55254.27
627.785	55102.18
628.14	55295.4
628.495	55358.9
628.85	55307.15
629.205	55235.06
629.559	55306.92
629.914	55316.41
630.269	55319.35
630.623	55224.21
630.978	55219.92
631.332	55259.01
631.687	55309.41
632.041	55252.91
632.396	55276.41
632.75	55218.56
633.104	55256.98
633.459	55079.81
633.813	55093.59
634.167	55169.52
634.521	55060.37
634.875	55125.68
635.229	55154.16
635.583	54956.42
635.937	55017.21
636.291	54982.41
636.645	55014.05
636.999	54973.82
637.352	55049.08
637.706	54803.88
638.06	54999.58
638.413	54895.86
638.767	54836.43
639.121	54929.53
639.474	54815.18
639.828	54845.24
640.181	54832.36
640.534	54793.26
640.888	54685.24
641.241	54659.03
641.594	54783.09
641.947	54844.56
642.301	54706.94
642.654	54725.47
643.007	54762.08
643.36	54680.27
643.713	54630.1
644.066	54789.19
644.419	54577.9
644.771	54353.05
645.124	54097.46
645.477	54068.31
645.83	53917.81
646.182	53747.41
646.535	53785.83
646.888	53877.58
647.24	53682.11
647.593	53786.96
647.945	53774.08
648.298	53590.36
648.65	53651.6
649.002	53438.95
649.355	53665.83
649.707	53530.7
650.059	53784.48
650.411	54139.49
650.763	54212.71
651.115	54453.38
651.467	54274.86
651.819	54321.41
652.171	54217.23
652.523	54199.38
652.875	54196.44
653.227	54144.92
653.578	54211.13
653.93	54219.49
654.282	54169.1
654.633	54105.37
654.985	54104.24
655.337	54142.21
655.688	54104.02
656.039	54206.61
656.391	53893.17
656.742	54041.42
657.094	53941.76
657.445	54124.13
657.796	53978.14
658.147	53962.55
658.498	53942.66
658.849	54020.4
659.2	53930.69
659.551	53903.12
659.902	53923
660.253	53972.49
660.604	53964.58
660.955	53854.98
661.306	53933.17
661.656	53765.95
662.007	53786.51
662.358	53850.91
662.708	53753.74
663.059	53889.56
663.409	53633.07
663.76	53868.32
664.11	53819.28
664.461	53904.92
664.811	53867.64
665.161	53769.56
665.511	53699.05
665.862	53671.03
666.212	53763.01
666.562	53777.02
666.912	53689.34
667.262	53665.38
667.612	53615.21
667.962	53702.44
668.312	53680.52
668.662	53769.33
669.011	53625.84
669.361	53577.7
669.711	53505.84
670.06	53504.26
670.41	53448.21
670.76	53436.46
671.109	53583.8
671.459	53404.15
671.808	53412.28
672.157	53556.01
672.507	53299.29
672.856	53266.52
673.205	53331.83
673.554	53368.67
673.904	53299.74
674.253	53471.04
674.602	53291.16
674.951	52736.37
675.3	52659.99
675.649	53111.5
675.998	53042.57
676.346	53102.46
676.695	53241.44
677.044	52924.16
677.393	53102.46
677.741	53090.71
678.09	52999.19
678.438	52940.43
678.787	52905.85
679.135	52951.28
679.484	52716.26
679.832	52823.82
680.181	52626.99
680.529	52757.84
680.877	52630.61
681.225	52568.01
681.573	52727.1
681.922	52485.07
682.27	52370.05
682.618	52425.64
682.966	52267.91
683.314	52363.27
683.661	52279.2
684.009	52171.41
684.357	51998.53
684.705	51989.72
685.053	52080.11
685.4	51951.53
685.748	51847.35
686.095	51767.13
686.443	51756.05
686.79	51577.53
687.138	51589.28
687.485	51623.4
687.832	51450.75
688.18	51497.08
688.527	51199.46
688.874	51284.88
689.221	51203.3
689.568	51018.9
689.915	50974.61
690.262	51035.62
690.609	50826.14
690.956	50776.65
691.303	50799.7
691.65	50501.17
691.997	50597.67
692.344	50301.86
692.69	50267.73
693.037	50300.27
693.383	50070.67
693.73	50187.96
694.077	49986.38
694.423	49918.81
694.769	49836.33
695.116	49723.79
695.462	49626.17
695.808	49536.45
696.155	49675.21
696.501	49274.31
696.847	49352.95
697.193	49034.54
697.539	49093.3
697.885	48872.51
698.231	48715
698.577	48768.11
698.923	48754.55
699.269	48540.32
699.614	48372.19
699.96	48214.68
700.306	48292.42
700.651	48149.37
700.997	48011.75
701.342	47879.77
701.688	47749.15
702.033	47816.27
702.379	47757.06
702.724	47562.27
703.069	47595.49
703.415	47319.33
703.76	47186.01
704.105	47291.76
704.45	47093.13
704.795	46902.17
705.14	46801.83
705.485	46868.5
705.83	46699.46
706.175	46720.48
706.52	46569.75
706.865	46386.48
707.209	46288.63
707.554	46264
707.899	46299.7
708.243	46093.38
708.588	46048.18
708.932	45812.71
709.277	45621.75
709.621	45753.73
709.966	45495.65
710.31	45586.5
710.654	45182.89
710.998	45350.12
711.342	45291.82
711.687	45222.89
712.031	45020.19
712.375	44917.82
712.719	45014.99
713.063	45069.22
713.407	45033.29
713.75	44787.65
714.094	44646.64
714.438	44613.87
714.782	44626.98
715.125	44281.67
715.469	44508.79
715.812	44283.26
716.156	43954.45
716.499	44089.14
716.843	44176.82
717.186	43935.02
717.53	44058.86
717.873	43993.55
718.216	43857.51
718.559	43723.27
718.902	43396.05
719.246	43594.24
719.589	43479.21
719.932	43162.16
720.275	43387.46
720.617	43241.25
720.96	43185.21
721.303	43177.75
721.646	43191.31
721.989	42780.92
722.331	42979.56
722.674	42750.87
723.016	42906.34
723.359	42715.16
723.701	42753.35
724.044	42321.5
724.386	42199.47
724.729	42508.39
725.071	42319.01
725.413	42361.27
725.755	42270.88
726.097	42133.48
726.439	41926.26
726.782	42117.66
727.124	42276.08
727.465	41885.35
727.807	41851.91
728.149	41804
728.491	41695.75
728.833	41824.56
729.175	41586.15
729.516	41586.6
729.858	41520.17
730.199	41514.29
730.541	41354.29
730.882	41337.35
731.224	41472.26
731.565	41186.84
731.906	41216.67
732.248	41172.38
732.589	41126.5
732.93	40909.33
733.271	40888.77
733.612	40922.67
733.953	41037.47
734.294	40779.17
734.635	40784.82
734.976	40765.83
735.317	40564.03
735.658	40579.17
735.999	40562
736.339	40503.69
736.68	40601.09
737.021	40264.61
737.361	40224.38
737.702	40352.51
738.042	40251.72
738.383	40077.49
738.723	40132.41
739.063	40022.8
739.404	40269.35
739.744	39986.19
740.084	39975.8
740.424	39996.82
740.764	39702.36
741.104	39910.49
741.444	39567.22
741.784	39705.52
742.124	39677.73
742.464	39611.74
742.804	39504.63
743.143	39390.28
743.483	39564.74
743.823	39243.62
744.162	39192.99
744.502	39367.68
744.841	39060.34
745.181	39269.15
745.52	39031.19
745.86	39116.39
746.199	39034.13
746.538	38978.76
746.877	38917.3
747.216	38921.82
747.556	38752.55
747.895	38791.88
748.234	38645.44
748.573	38556.63
748.911	38692.22
749.25	38500.81
749.589	38391.43
749.928	38446.35
750.267	38510.98
750.605	38245.9
750.944	38189.41
751.283	38128.16
751.621	38243.87
751.96	37958
752.298	38037.77
752.636	37998.9
752.975	37673.03
753.313	37537.22
