Data from White_paper_FLMS001491_050.txt Node
Date: Tue Feb 07 10:35:09 GMT 2017
User: dcchb
Spectrometer: FLMS00149
Trigger mode: 0
Integration Time (sec): 2.000000E-2
Scans to average: 10
Electric dark correction enabled: true
Nonlinearity correction enabled: false
Boxcar width: 0
XAxis mode: Wavelengths
Number of Pixels in Spectrum: 2048
>>>>>Begin Spectral Data<<<<<
341.393	-13.73
341.776	-13.73
342.16	-13.73
342.543	-53.95
342.927	-73.16
343.31	-82.2
343.693	-56.67
344.077	-72.26
344.46	-58.7
344.843	-55.08
345.226	-32.94
345.61	-17.57
345.993	-17.12
346.376	-3.11
346.759	8.42
347.142	27.17
347.525	14.52
347.908	61.98
348.291	77.12
348.674	88.87
349.057	117.57
349.44	111.47
349.823	137
350.206	167.06
350.588	216.1
350.971	226.94
351.354	250.9
351.737	258.13
352.119	264
352.502	290.22
352.884	301.07
353.267	305.81
353.65	307.85
354.032	326.83
354.414	338.13
354.797	348.52
355.179	347.84
355.562	361.18
355.944	362.98
356.326	372.7
356.709	358.24
357.091	354.62
357.473	372.93
357.855	358.92
358.238	368.63
358.62	397.56
359.002	376.32
359.384	364.79
359.766	362.76
360.148	381.52
360.53	366.6
360.912	370.67
361.294	347.17
361.676	368.63
362.057	392.81
362.439	357.56
362.821	356.88
363.203	364.34
363.584	385.36
363.966	380.61
364.348	360.27
364.729	349.88
365.111	355.98
365.493	346.04
365.874	365.02
366.256	351.46
366.637	340.39
367.019	362.31
367.4	356.43
367.781	357.34
368.163	367.05
368.544	351.01
368.925	367.5
369.306	368.63
369.688	370.22
370.069	362.76
370.45	372.02
370.831	350.33
371.212	360.72
371.593	342.65
371.974	369.09
372.355	360.95
372.736	389.2
373.117	351.46
373.498	374.96
373.879	362.31
374.26	382.65
374.641	366.15
375.021	381.29
375.402	379.71
375.783	376.54
376.163	388.52
376.544	407.05
376.925	393.72
377.305	374.51
377.686	378.58
378.066	404.79
378.447	403.44
378.827	401.63
379.208	386.49
379.588	419.25
379.968	388.29
380.349	409.76
380.729	394.4
381.109	420.38
381.489	404.57
381.87	410.44
382.25	399.37
382.63	426.71
383.01	418.8
383.39	413.15
383.77	415.19
384.15	420.84
384.53	430.78
384.91	421.06
385.29	436.2
385.67	425.36
386.049	434.85
386.429	459.03
386.809	446.6
387.189	466.03
387.568	475.75
387.948	458.35
388.328	474.39
388.707	463.1
389.087	471.46
389.466	475.07
389.846	508.29
390.225	476.65
390.605	478.91
390.984	495.86
391.363	494.73
391.743	487.95
392.122	530.89
392.501	512.36
392.881	522.08
393.26	529.76
393.639	547.39
394.018	541.51
394.397	541.29
394.776	526.82
395.155	569.53
395.534	558.23
395.913	560.04
396.292	586.26
396.671	562.08
397.05	586.71
397.429	582.19
397.808	582.87
398.186	598.46
398.565	598.68
398.944	585.58
399.323	588.29
399.701	616.54
400.08	624.22
400.458	658.8
400.837	630.55
401.215	654.28
401.594	652.92
401.972	678.68
402.351	684.33
402.729	687.27
403.107	707.61
403.486	731.79
403.864	712.58
404.242	712.58
404.62	723.65
404.999	748.29
405.377	759.36
405.755	744.44
406.133	802.75
406.511	815.85
406.889	808.4
407.267	849.75
407.645	870.77
408.023	885.68
408.401	908.28
408.779	922.07
409.156	937.43
409.534	952.12
409.912	960.03
410.29	1028.96
410.667	1025.79
411.045	1046.36
411.422	1073.02
411.8	1099.69
412.178	1128.16
412.555	1154.38
412.933	1196.41
413.31	1209.52
413.687	1240.02
414.065	1267.82
414.442	1299.23
414.819	1312.11
415.197	1349.85
415.574	1420.58
415.951	1389.17
416.328	1410.19
416.705	1426.69
417.082	1479.57
417.46	1476.4
417.837	1538.55
418.214	1561.6
418.591	1584.42
418.967	1604.99
419.344	1624.42
419.721	1663.97
420.098	1661.26
420.475	1693.12
420.852	1723.85
421.228	1724.3
421.605	1765.89
421.982	1795.04
422.358	1830.06
422.735	1869.16
423.111	1890.85
423.488	1931.53
423.864	1947.35
424.241	1949.16
424.617	2017.86
424.994	2011.98
425.37	2030.29
425.746	2016.5
426.123	2069.83
426.499	2084.75
426.875	2142.37
427.251	2183.05
427.627	2211.52
428.003	2259.88
428.379	2294.91
428.756	2325.42
429.132	2360.45
429.507	2381.69
429.883	2425.76
430.259	2464.85
430.635	2476.38
431.011	2528.58
431.387	2586.2
431.763	2629.37
432.138	2627.78
432.514	2691.51
432.89	2697.84
433.265	2771.51
433.641	2796.14
434.016	2823.03
434.392	2864.16
434.767	2954.33
435.143	2895.57
435.518	2989.58
435.894	3029.81
436.269	3071.16
436.644	3089.01
437.02	3149.8
437.395	3145.51
437.77	3208.11
438.145	3282.23
438.52	3305.28
438.895	3326.75
439.271	3317.71
439.646	3371.49
440.021	3392.28
440.395	3444.26
440.77	3400.65
441.145	3499.4
441.52	3560.64
441.895	3532.84
442.27	3584.6
442.645	3578.72
443.019	3623.01
443.394	3634.99
443.769	3669.34
444.143	3655.55
444.518	3714.08
444.892	3717.92
445.267	3758.38
445.641	3811.26
446.016	3819.84
446.39	3838.6
446.764	3855.55
447.139	3923.8
447.513	3927.41
447.887	3959.95
448.262	3941.65
448.636	3970.12
449.01	4042.66
449.384	4061.42
449.758	4053.06
450.132	4110.91
450.506	4163.34
450.88	4191.58
451.254	4215.76
451.628	4206.27
452.002	4304.8
452.376	4292.82
452.75	4327.17
453.123	4388.87
453.497	4436.32
453.871	4502.54
454.244	4565.13
454.618	4622.08
454.992	4672.48
455.365	4629.99
455.739	4811
456.112	4849.65
456.486	4837.22
456.859	4934.84
457.232	5050.32
457.606	4961.73
457.979	5091.67
458.352	5170.54
458.725	5219.58
459.099	5280.6
459.472	5444.43
459.845	5423.19
460.218	5471.78
460.591	5523.75
460.964	5542.28
461.337	5648.72
461.71	5726.23
462.083	5878.32
462.456	5849.85
462.829	5881.48
463.201	6031.99
463.574	6007.36
463.947	6058.65
464.32	6268.37
464.692	6289.83
465.065	6329.83
465.438	6423.84
465.81	6514.91
466.183	6580.22
466.555	6736.6
466.928	6735.92
467.3	6768.69
467.672	6855.47
468.045	7121.9
468.417	7052.07
468.789	7110.6
469.161	7243.93
469.534	7381.33
469.906	7538.39
470.278	7572.51
470.65	7703.81
471.022	7828.33
471.394	7972.73
471.766	7995.1
472.138	8134.53
472.51	8306.73
472.882	8454.52
473.253	8548.98
473.625	8628.08
473.997	8828.75
474.369	8819.71
474.74	8956.66
475.112	9191.23
475.484	9306.03
475.855	9457.43
476.227	9557.32
476.598	9786.92
476.97	9894.26
477.341	10191.43
477.713	10193.91
478.084	10277.07
478.455	10595.94
478.827	10690.62
479.198	10981.24
479.569	11070.27
479.94	11280.89
480.311	11397.04
480.682	11614.21
481.053	11896.01
481.424	12046.75
481.795	12199.96
482.166	12405.61
482.537	12533.51
482.908	12733.73
483.279	12942.09
483.65	13166.72
484.021	13444.67
484.391	13565.35
484.762	13623.2
485.133	13781.16
485.503	14004.21
485.874	14223.19
486.244	14316.52
486.615	14635.6
486.985	14795.15
487.356	15119.21
487.726	15236.49
488.097	15595.13
488.467	15624.5
488.837	15885.06
489.207	16078.73
489.578	16304.03
489.948	16467.42
490.318	16658.83
490.688	16725.49
491.058	16962.32
491.428	17204.58
491.798	17359.15
492.168	17789.42
492.538	17808.85
492.908	17917.33
493.278	18139.01
493.648	18240.03
494.017	18447.26
494.387	18619.91
494.757	18789.62
495.126	19051.53
495.496	19153.9
495.866	19180.34
496.235	19409.72
496.605	19576.04
496.974	19598.19
497.344	19922.7
497.713	19956.82
498.082	20118.17
498.452	20259.64
498.821	20410.59
499.19	20496.69
499.559	20628.44
499.928	20768.78
500.298	20881.77
500.667	21116.79
501.036	21084.25
501.405	21382.32
501.774	21403.79
502.143	21578.02
502.512	21703.89
502.88	21943.43
503.249	21989.08
503.618	22071.11
503.987	22227.04
504.356	22269.53
504.724	22539.58
505.093	22640.14
505.462	22622.74
505.83	22923.07
506.199	23054.59
506.567	23371.42
506.936	23308.37
507.304	23590.62
507.672	23736.83
508.041	23811.18
508.409	23889.15
508.777	24163.71
509.145	24314.45
509.514	24308.34
509.882	24537.72
510.25	24490.03
510.618	24576.81
510.986	24946.29
511.354	25095.22
511.722	25304.02
512.09	25511.48
512.458	25501.98
512.826	25811.13
513.193	25930.22
513.561	26013.61
513.929	26261.29
514.297	26473.48
514.664	26688.85
515.032	26740.37
515.4	26966.13
515.767	26938.33
516.135	27244.76
516.502	27082.51
516.869	27501.93
517.237	27588.26
517.604	27640.69
517.972	27945.76
518.339	28197.96
518.706	28196.38
519.073	28365.86
519.44	28587.33
519.808	28811.05
520.175	28945.51
520.542	29411.71
520.909	29404.93
521.276	29339.17
521.643	29834.75
522.009	29872.72
522.376	30219.37
522.743	30391.12
523.11	30779.36
523.477	30953.82
523.843	31141.84
524.21	31402.62
524.577	31510.41
524.943	31724.42
525.31	31940.01
525.676	32145.2
526.043	32203.05
526.409	32442.14
526.776	32760.1
527.142	32980.21
527.508	33106.76
527.874	33324.83
528.241	33476.01
528.607	33600.08
528.973	33996
529.339	33977.47
529.705	34289.78
530.071	34577.23
530.437	34652.48
530.803	34915.75
531.169	35229.86
531.535	35218.11
531.901	35327.94
532.267	35335.17
532.632	35661.72
532.998	35736.07
533.364	36029.39
533.73	36024.65
534.095	36429.38
534.461	36539.21
534.826	36572.43
535.192	36856.71
535.557	37044.28
535.923	37028.46
536.288	37309.81
536.653	37413.99
537.019	37448.56
537.384	37641.78
537.749	37736.01
538.114	37961.09
538.479	37870.47
538.845	38227.3
539.21	38252.16
539.575	38391.14
539.94	38440.18
540.305	38750.22
540.67	38595.43
541.034	38911.12
541.399	39138.01
541.764	39161.06
542.129	39285.8
542.494	39468.4
542.858	39652.8
543.223	39703.65
543.587	39923.3
543.952	39881.95
544.316	39926.01
544.681	40093.92
545.045	40213.01
545.41	40512.21
545.774	40430.86
546.138	40634.92
546.503	40782.71
546.867	40885.76
547.231	41308.35
547.595	41147.9
547.959	41374.79
548.324	41384.28
548.688	41453.43
549.052	41624.72
549.416	41776.13
549.779	41947.65
550.143	41959.18
550.507	42203.69
550.871	42553.06
551.235	42432.61
551.599	42691.14
551.962	42859.04
552.326	42954.86
552.689	43190.56
553.053	42989.43
553.417	43278.47
553.78	43499.25
554.143	43516.43
554.507	43666.48
554.87	43795.29
555.234	44085.68
555.597	43943.31
555.96	44139.46
556.323	44379
556.686	44441.83
557.05	44591.88
557.413	44788.94
557.776	44885.43
558.139	45089.49
558.502	45296.04
558.865	45383.5
559.228	45583.72
559.59	45707.56
559.953	45838.85
560.316	46155
560.679	46236.13
561.041	46420.3
561.404	46487.87
561.767	46859.39
562.129	46623.46
562.492	47180.96
562.854	47085.82
563.217	47102.77
563.579	47304.35
563.941	47515.42
564.304	47657.11
564.666	48072.92
565.028	48020.04
565.39	48245.12
565.753	48374.6
566.115	48490.53
566.477	48717.42
566.839	48810.52
567.201	49051.65
567.563	48985.66
567.925	49357.18
568.287	49386.78
568.648	49487.34
569.01	49651.86
569.372	49942.02
569.734	49797.17
570.095	50107.44
570.457	50065.41
570.819	50198.51
571.18	50334.33
571.542	50442.57
571.903	50603.7
572.265	50772.73
572.626	50779.51
572.987	50852.28
573.349	51064.93
573.71	51137.92
574.071	51290.91
574.432	51359.16
574.794	51571.36
575.155	51524.35
575.516	51447.97
575.877	51554.18
576.238	51736.32
576.599	51864
576.96	51815.19
577.32	51894.51
577.681	51985.36
578.042	52109.87
578.403	52162.3
578.763	52210.21
579.124	52268.51
579.485	52427.38
579.845	52530.88
580.206	52390.09
580.566	52498.34
580.927	52569.07
581.287	52722.51
581.648	52532.91
582.008	52745.11
582.368	52729.52
582.728	52831.21
583.089	52845.45
583.449	52794.37
583.809	52937.42
584.169	52871.43
584.529	52923.18
584.889	53129.28
585.249	52931.55
585.609	52918.21
585.969	53044.09
586.329	53010.41
586.688	53108.04
587.048	53114.59
587.408	53094.93
587.768	53101.26
588.127	53028.72
588.487	53010.19
588.846	53253.57
589.206	53079.11
589.565	53113.01
589.925	53267.13
590.284	53037.53
590.643	53247.92
591.003	53421.02
591.362	53420.35
591.721	53382.61
592.08	53314.59
592.44	53418.31
592.799	53400.46
593.158	53362.72
593.517	53508.71
593.876	53417.63
594.235	53410.4
594.593	53417.41
594.952	53557.97
595.311	53431.42
595.67	53597.74
596.029	53715.71
596.387	53658.98
596.746	53746.89
597.104	53583.96
597.463	53573.11
597.822	53837.28
598.18	53590.96
598.538	53750.73
598.897	53772.43
599.255	53653.34
599.613	54056.94
599.972	53872.76
600.33	53924.29
600.688	53798.64
601.046	53988.47
601.404	54075.92
601.762	53993.21
602.12	54132.19
602.478	54071.86
602.836	54067.56
603.194	53992.54
603.552	54113.44
603.91	53939.88
604.268	54118.63
604.625	54129.71
604.983	54180.55
605.341	54165.41
605.698	54183.94
606.056	54322.92
606.413	54224.17
606.771	54420.55
607.128	54381.45
607.485	54294.45
607.843	54359.76
608.2	54412.41
608.557	54516.82
608.914	54393.65
609.272	54578.28
609.629	54662.8
609.986	54647.21
610.343	54575.34
610.7	54770.82
611.057	54707.32
611.414	54702.35
611.771	54781.21
612.127	54845.62
612.484	54806.3
612.841	54899.18
613.198	54809.24
613.554	54876.35
613.911	54946.41
614.267	54927.43
614.624	54938.5
614.98	55005.39
615.337	55070.02
615.693	55008.55
616.05	55005.84
616.406	55147.08
616.762	55027.31
617.118	55073.86
617.475	55078.38
617.831	55086.97
618.187	55139.17
618.543	55138.95
618.899	55268.66
619.255	55198.15
619.611	55303.91
619.967	55244.71
620.323	55330.58
620.678	55288.55
621.034	55178.04
621.39	55195.44
621.746	55244.48
622.101	55545.04
622.457	55247.64
622.812	55312.73
623.168	55392.72
623.523	55336.91
623.879	55455.32
624.234	55289.68
624.589	55325.38
624.945	55379.17
625.3	55437.24
625.655	55371.26
626.01	55473.63
626.365	55429.11
626.72	55361.76
627.075	55328.09
627.43	55286.29
627.785	55299.85
628.14	55369.9
628.495	55466.17
628.85	55369.22
629.205	55287.64
629.559	55551.36
629.914	55247.42
630.269	55350.69
630.623	55239.28
630.978	55261.88
631.332	55434.76
631.687	55457.36
632.041	55289
632.396	55348.43
632.75	55212.84
633.104	55319.51
633.459	55116.57
633.813	55204.93
634.167	55202.22
634.521	55227.98
634.875	55204.48
635.229	55198.61
635.583	55034.54
635.937	55031.15
636.291	55013.3
636.645	55097.14
636.999	54994.32
637.352	55090.81
637.706	54942.11
638.06	55051.04
638.413	54943.92
638.767	54857.37
639.121	54968.1
639.474	54773.08
639.828	54921.55
640.181	54901.21
640.534	54897.6
640.888	54803.36
641.241	54702.8
641.594	54757.71
641.947	54881.55
642.301	54714.32
642.654	54789.12
643.007	54781.44
643.36	54737.15
643.713	54697.6
644.066	54810.37
644.419	54610.37
644.771	54398.4
645.124	54219.87
645.477	54120.67
645.83	53958.64
646.182	53910.5
646.535	53823.05
646.888	53875.48
647.24	53674.13
647.593	53929.49
647.945	53818.3
648.298	53673
648.65	53683.39
649.002	53616.73
649.355	53739.43
649.707	53637.52
650.059	53811.75
650.411	54113.66
650.763	54220.78
651.115	54421.45
651.467	54409.25
651.819	54309.14
652.171	54288.57
652.523	54242.25
652.875	54288.57
653.227	54121.8
653.578	54385.07
653.93	54252.87
654.282	54054.45
654.633	54044.29
654.985	54167.22
655.337	54058.07
655.688	54199.99
656.039	54261
656.391	53929.71
656.742	54027.56
657.094	53949.37
657.445	54088.8
657.796	54079.76
658.147	54066.43
658.498	53905.76
658.849	54078.18
659.2	54019.43
659.551	53944.63
659.902	54012.2
660.253	53958.64
660.604	53973.55
660.955	53764.07
661.306	53947.56
661.656	53862.14
662.007	53922.25
662.358	53860.79
662.708	53863.27
663.059	53870.28
663.409	53610.62
663.76	53800.45
664.11	53802.48
664.461	53852.88
664.811	53847
665.161	53841.8
665.511	53757.06
665.862	53761.35
666.212	53750.51
666.562	53827.12
666.912	53729.27
667.262	53701.24
667.612	53643.39
667.962	53693.33
668.312	53710.28
668.662	53763.16
669.011	53692.88
669.361	53557.29
669.711	53591.42
670.06	53564.3
670.41	53469.16
670.76	53378.54
671.109	53513.9
671.459	53411.99
671.808	53367.24
672.157	53518.2
672.507	53250.63
672.856	53328.82
673.205	53347.35
673.554	53398.2
673.904	53181.93
674.253	53449.5
674.602	53313
674.951	52839.8
675.3	52699.01
675.649	53160.01
675.998	53217.19
676.346	53113.24
676.695	53261.03
677.044	53032.56
677.393	53007.48
677.741	53091.77
678.09	53048.15
678.438	52958.21
678.787	52962.96
679.135	52943.98
679.484	52708.73
679.832	52896.52
680.181	52593.93
680.529	52739.46
680.877	52678.45
681.225	52604.55
681.573	52722.29
681.922	52506.7
682.27	52406.14
682.618	52448.39
682.966	52372.69
683.314	52412.01
683.661	52307.38
684.009	52233.94
684.357	52159.36
684.705	52105.13
685.053	52005.02
685.4	51959.59
685.748	51808.19
686.095	51743.33
686.443	51660.62
686.79	51584.01
687.138	51617.68
687.485	51628.08
687.832	51494.97
688.18	51497.01
688.527	51323.68
688.874	51240.07
689.221	51219.5
689.568	51064.02
689.915	51040.97
690.262	51032.84
690.609	50864.93
690.956	50699.29
691.303	50620.19
691.65	50625.17
691.997	50602.12
692.344	50328.45
692.69	50390.82
693.037	50356.25
693.383	50026.76
693.73	50089.59
694.077	49957.39
694.423	49880.78
694.769	49887.11
695.116	49693.21
695.462	49684.17
695.808	49466.78
696.155	49712.42
696.501	49251.19
696.847	49486.66
697.193	49139.33
697.539	49146.11
697.885	48920.35
698.231	48775.95
698.577	48826.8
698.923	48908.6
699.269	48561.27
699.614	48304.78
699.96	48362.85
700.306	48323.08
700.651	48264.55
700.997	48118.79
701.342	48093.03
701.688	47945.69
702.033	47800.83
702.379	47687.39
702.724	47679.03
703.069	47840.15
703.415	47269.77
703.76	47328.3
704.105	47331.69
704.45	47083.56
704.795	47017.58
705.14	46782.33
705.485	46830.01
705.83	46699.85
706.175	46683.8
706.52	46546.63
706.865	46449.91
707.209	46446.74
707.554	46391.38
707.899	46289.01
708.243	46124.95
708.588	46163.81
708.932	45724.05
709.277	45680.89
709.621	45864.84
709.966	45562.93
710.31	45706.88
710.654	45451.06
710.998	45512.98
711.342	45574
711.687	45386.43
712.031	45092.66
712.375	45031.41
712.719	45144.86
713.063	44924.52
713.407	45104.86
713.75	44783.96
714.094	44868.48
714.438	44649.73
714.782	44796.39
715.125	44564.53
715.469	44526.8
715.812	44286.8
716.156	44143.3
716.499	44179.23
716.843	44146.92
717.186	43826.47
717.53	44063.3
717.873	44013.59
718.216	43957.54
718.559	43708.06
718.902	43396.43
719.246	43578.57
719.589	43410.44
719.932	43328.41
720.275	43407.5
720.617	43219.71
720.96	43192.82
721.303	43087.06
721.646	43105.82
721.989	42896.56
722.331	42989.89
722.674	42948.76
723.016	42886.16
723.359	42817.24
723.701	42842.77
724.044	42508.77
724.386	42419.96
724.729	42704.92
725.071	42471.48
725.413	42436
725.755	42340.64
726.097	42130.47
726.439	41939.52
726.782	42019.06
727.124	42139.74
727.465	41973.87
727.807	42002.79
728.149	41826.3
728.491	41681.22
728.833	41846.64
729.175	41653.65
729.516	41673.31
729.858	41609.81
730.199	41620.88
730.541	41452.07
730.882	41400.55
731.224	41499.3
731.565	41203.94
731.906	41197.17
732.248	41256.37
732.589	41017.96
732.93	41024.74
733.271	40931.86
733.612	40997.17
733.953	40922.14
734.294	40798.76
734.635	40653.68
734.976	40728.48
735.317	40637.18
735.658	40553.34
735.999	40442.16
736.339	40397.41
736.68	40591.98
737.021	40404.64
737.361	40231.32
737.702	40578.65
738.042	40234.25
738.383	40177.08
738.723	40225.89
739.063	40000.36
739.404	40213.69
739.744	40004.2
740.084	39874.04
740.424	39874.04
740.764	39821.38
741.104	39834.49
741.444	39738.67
741.784	39548.17
742.124	39700.71
742.464	39634.04
742.804	39555.4
743.143	39505.01
743.483	39436.08
743.823	39237.67
744.162	39112.02
744.502	39429.53
744.841	39107.5
745.181	39387.27
745.52	38999.26
745.86	39129.42
746.199	39032.93
746.538	38962.42
746.877	39020.05
747.216	38915.42
747.556	38900.5
747.895	38933.04
748.234	38688.08
748.573	38680.85
748.911	38590.91
749.25	38612.6
749.589	38344.36
749.928	38472.04
750.267	38433.4
750.605	38305.94
750.944	38210.13
751.283	38009
751.621	38144.82
751.96	37903.01
752.298	37851.72
752.636	38066.4
752.975	37839.97
