Data from White_paper_FLMS001491_096.txt Node
Date: Tue Feb 07 10:35:50 GMT 2017
User: dcchb
Spectrometer: FLMS00149
Trigger mode: 0
Integration Time (sec): 2.000000E-2
Scans to average: 10
Electric dark correction enabled: true
Nonlinearity correction enabled: false
Boxcar width: 0
XAxis mode: Wavelengths
Number of Pixels in Spectrum: 2048
>>>>>Begin Spectral Data<<<<<
341.393	-4.1
341.776	-4.1
342.16	-4.1
342.543	-64.89
342.927	-66.47
343.31	-71.21
343.693	-68.73
344.077	-72.79
344.46	-55.62
344.843	-50.42
345.226	-30.76
345.61	-15.85
345.993	-19.46
346.376	-1.16
346.759	-4.1
347.142	31.84
347.525	49.91
347.908	69.8
348.291	46.98
348.674	91.95
349.057	99.63
349.44	132.85
349.823	143.7
350.206	166.52
350.588	202.9
350.971	218.95
351.354	251.72
351.737	265.28
352.119	255.11
352.502	298.72
352.884	299.4
353.267	323.81
353.65	317.7
354.032	312.28
354.414	346.86
354.797	366.74
355.179	357.02
355.562	339.62
355.944	366.06
356.326	366.74
356.709	391.15
357.091	353.86
357.473	376.01
357.855	381.43
358.238	378.49
358.62	374.2
359.002	372.39
359.384	373.07
359.766	354.99
360.148	357.48
360.53	358.38
360.912	361.09
361.294	358.61
361.676	372.39
362.057	370.58
362.439	368.55
362.821	351.15
363.203	384.82
363.584	375.56
363.966	366.97
364.348	358.15
364.729	387.53
365.111	386.85
365.493	346.18
365.874	357.25
366.256	362.67
366.637	354.09
367.019	372.84
367.4	353.41
367.781	355.67
368.163	353.18
368.544	367.42
368.925	349.12
369.306	364.48
369.688	380.75
370.069	372.39
370.45	346.18
370.831	355.67
371.212	341.21
371.593	378.49
371.974	369.91
372.355	351.15
372.736	388.21
373.117	377.14
373.498	365.61
373.879	364.03
374.26	361.54
374.641	378.04
375.021	361.32
375.402	369
375.783	375.78
376.163	379.85
376.544	364.03
376.925	399.96
377.305	381.2
377.686	378.72
378.066	387.08
378.447	367.19
378.827	405.16
379.208	424.59
379.588	397.25
379.968	373.07
380.349	406.51
380.729	381.43
381.109	407.87
381.489	424.37
381.87	411.26
382.25	402
382.63	418.72
383.01	403.8
383.39	406.29
383.77	435.89
384.15	427.53
384.53	426.63
384.91	426.63
385.29	429.11
385.67	434.31
386.049	434.99
386.429	434.99
386.809	446.51
387.189	448.55
387.568	459.62
387.948	449.45
388.328	457.36
388.707	472.73
389.087	478.6
389.466	461.43
389.846	493.29
390.225	489
390.605	475.89
390.984	477.02
391.363	472.5
391.743	513.18
392.122	507.98
392.501	508.21
392.881	513.4
393.26	525.38
393.639	513.18
394.018	546.85
394.397	538.94
394.776	534.65
395.155	546.85
395.534	564.02
395.913	571.03
396.292	564.25
396.671	589.11
397.05	553.18
397.429	570.58
397.808	593.85
398.186	571.93
398.565	609.67
398.944	607.41
399.323	599.28
399.701	594.08
400.08	611.26
400.458	607.64
400.837	640.86
401.215	645.15
401.594	645.6
401.972	657.13
402.351	644.47
402.729	659.84
403.107	675.89
403.486	683.34
403.864	688.54
404.242	733.74
404.62	709.33
404.999	714.3
405.377	761.76
405.755	762.89
406.133	793.4
406.511	792.49
406.889	794.3
407.267	812.15
407.645	806.05
408.023	856.22
408.401	846.28
408.779	884.24
409.156	907.29
409.534	903
409.912	946.39
410.29	961.75
410.667	996.33
411.045	1041.53
411.422	1032.94
411.8	1078.81
412.178	1103.45
412.555	1103.22
412.933	1150
413.31	1161.98
413.687	1231.13
414.065	1231.35
414.442	1262.31
414.819	1307.06
415.197	1316.32
415.574	1357
415.951	1385.25
416.328	1381.63
416.705	1412.14
417.082	1410.1
417.46	1453.94
417.837	1473.61
418.214	1488.97
418.591	1534.62
418.967	1535.52
419.344	1572.59
419.721	1623.66
420.098	1618.23
420.475	1660.49
420.852	1667.05
421.228	1716.76
421.605	1717.21
421.982	1770.32
422.358	1818.68
422.735	1808.29
423.111	1800.15
423.488	1853.03
423.864	1857.32
424.241	1904.1
424.617	1917.89
424.994	1927.15
425.37	1958.79
425.746	1991.78
426.123	2011.67
426.499	2052.57
426.875	2062.97
427.251	2109.29
427.627	2159.91
428.003	2145.45
428.379	2196.07
428.756	2211.21
429.132	2279.69
429.507	2308.16
429.883	2370.3
430.259	2398.78
430.635	2399.68
431.011	2420.93
431.387	2502.96
431.763	2526.91
432.138	2558.77
432.514	2556.74
432.89	2601.71
433.265	2672.22
433.641	2726.68
434.016	2768.94
434.392	2787.24
434.767	2862.04
435.143	2834.47
435.518	2879.44
435.894	2901.82
436.269	2917.18
436.644	3018.65
437.02	3022.94
437.395	3043.51
437.77	3080.57
438.145	3128.93
438.52	3157.18
438.895	3200.11
439.271	3198.98
439.646	3285.08
440.021	3327.12
440.395	3325.53
440.77	3308.36
441.145	3347
441.52	3418.64
441.895	3444.85
442.27	3432.65
442.645	3480.78
443.019	3530.5
443.394	3482.82
443.769	3539.31
444.143	3532.08
444.518	3625.64
444.892	3562.36
445.267	3608.92
445.641	3675.13
446.016	3679.42
446.39	3729.37
446.764	3717.61
447.139	3689.14
447.513	3758.07
447.887	3775.24
448.262	3839.42
448.636	3833.54
449.01	3891.62
449.384	3917.61
449.758	3971.84
450.132	4013.88
450.506	4018.17
450.88	4024.5
451.254	4072.86
451.628	4073.54
452.002	4176.81
452.376	4177.72
452.75	4206.87
453.123	4229.01
453.497	4326.19
453.871	4304.27
454.244	4446.41
454.618	4443.92
454.992	4515.11
455.365	4516.24
455.739	4643.24
456.112	4672.62
456.486	4709.23
456.859	4784.48
457.232	4822.67
457.606	4817.47
457.979	4920.07
458.352	5031.48
458.725	5079.39
459.099	5092.95
459.472	5167.97
459.845	5266.95
460.218	5301.53
460.591	5345.82
460.964	5384.24
461.337	5449.09
461.71	5532.26
462.083	5660.16
462.456	5646.38
462.829	5657.45
463.201	5777.67
463.574	5809.31
463.947	5870.1
464.32	6015.86
464.692	6068.06
465.065	6137.44
465.438	6231.67
465.81	6301.95
466.183	6375.4
466.555	6526.81
466.928	6519.8
467.3	6533.36
467.672	6678.67
468.045	6816.97
468.417	6842.5
468.789	6886.34
469.161	6962.73
469.534	7129.5
469.906	7208.6
470.278	7307.12
470.65	7371.3
471.022	7540.56
471.394	7691.07
471.766	7745.08
472.138	7869.82
472.51	8050.83
472.882	8110.72
473.253	8258.51
473.625	8303.26
473.997	8496.7
474.369	8522.46
474.74	8614.43
475.112	8772.62
475.484	8973.52
475.855	9092.16
476.227	9249.67
476.598	9479.5
476.97	9570.12
477.341	9690.34
477.713	9852.82
478.084	9937.34
478.455	10291.68
478.827	10313.82
479.198	10602.4
479.569	10545.46
479.94	10850.76
480.311	11004.65
480.682	11227.25
481.053	11485.32
481.424	11630.85
481.795	11769.38
482.166	11927.34
482.537	12096.38
482.908	12350.61
483.279	12424.28
483.65	12682.12
484.021	12898.62
484.391	13042.57
484.762	13183.13
485.133	13326.85
485.503	13500.63
485.874	13809.78
486.244	13904.92
486.615	14108.75
486.985	14344
487.356	14572.92
487.726	14696.76
488.097	14989.41
488.467	15056.3
488.837	15356.63
489.207	15516.4
489.578	15692.89
489.948	15838.43
490.318	16130.62
490.688	16166.78
491.058	16425.3
491.428	16584.17
491.798	16735.35
492.168	17145.51
492.538	17194.1
492.908	17350.25
493.278	17567.65
493.648	17523.35
494.017	17873.63
494.387	17970.12
494.757	18084.24
495.126	18283.33
495.496	18371.47
495.866	18418.47
496.235	18757.44
496.605	18889.64
496.974	18908.4
497.344	19164.21
497.713	19200.6
498.082	19369.86
498.452	19593.58
498.821	19684.65
499.19	19756.51
499.559	19984.31
499.928	20119.67
500.298	20150.63
500.667	20347.23
501.036	20359.44
501.405	20549.94
501.774	20677.17
502.143	20795.81
502.512	20956.48
502.88	21123.94
503.249	21132.75
503.618	21327.32
503.987	21435.11
504.356	21587.2
504.724	21660.65
505.093	21705.16
505.462	21914.42
505.83	22003.01
506.199	22247.07
506.567	22593.73
506.936	22543.11
507.304	22777.45
507.672	22795.53
508.041	22970.89
508.409	23126.6
508.777	23400.03
509.145	23458.11
509.514	23501.5
509.882	23614.27
510.25	23814.26
510.618	23919.12
510.986	24088.15
511.354	24216.06
511.722	24522.04
512.09	24642.26
512.458	24663.96
512.826	24917.96
513.193	25133.1
513.561	25049.26
513.929	25359.08
514.297	25613.76
514.664	25760.2
515.032	25829.8
515.4	26006.29
515.767	26201.09
516.135	26302.33
516.502	26173.07
516.869	26648.99
517.237	26725.6
517.604	26683.34
517.972	27112.03
518.339	27226.83
518.706	27286.94
519.073	27483.32
519.44	27647.61
519.808	27937.32
520.175	28008.73
520.542	28167.37
520.909	28297.98
521.276	28475.61
521.643	28818.88
522.009	29018.42
522.376	29198.07
522.743	29371.4
523.11	29552.87
523.477	29737.27
523.843	29894.1
524.21	30327.99
524.577	30485.05
524.943	30547.42
525.31	30806.62
525.676	31069.89
526.043	31251.81
526.409	31341.52
526.776	31645.47
527.142	31718.23
527.508	32042.52
527.874	32287.03
528.241	32544.43
528.607	32537.87
528.973	32789.62
529.339	32847.02
529.705	33206.1
530.071	33410.62
530.437	33621.91
530.803	33861.45
531.169	33892.19
531.535	34048.79
531.901	34213.99
532.267	34367.88
532.632	34586.41
532.998	34651.04
533.364	34903.91
533.73	34892.61
534.095	35260.29
534.461	35552.71
534.826	35572.14
535.192	35658.7
535.557	35878.35
535.923	35994.28
536.288	36181.17
536.653	36333.93
537.019	36204.67
537.384	36435.85
537.749	36550.2
538.114	36795.84
538.479	36718.33
538.845	36875.84
539.21	36940.7
539.575	37111.99
539.94	37276.73
540.305	37488.93
540.67	37314.02
541.034	37689.83
541.399	37742.71
541.764	37998.29
542.129	38040.1
542.494	38115.81
542.858	38342.24
543.223	38403.26
543.587	38655
543.952	38608.67
544.316	38669.24
544.681	38836.46
545.045	38923.92
545.41	39257.47
545.774	39161.2
546.138	39385.15
546.503	39442.55
546.867	39597.8
547.231	39942.65
547.595	39884.57
547.959	39988.07
548.324	40107.84
548.688	40209.54
549.052	40432.81
549.416	40404.56
549.779	40539.92
550.143	40643.42
550.507	40863.3
550.871	41113.02
551.235	41005.22
551.599	41350.3
551.962	41307.13
552.326	41539.9
552.689	41844.07
553.053	41749.61
553.417	41858.08
553.78	42253.1
554.143	42080
554.507	42366.54
554.87	42506.42
555.234	42880.88
555.597	42572.41
555.96	42832.07
556.323	43057.6
556.686	43245.39
557.05	43483.12
557.413	43452.61
557.776	43606.51
558.139	43710.01
558.502	43926.5
558.865	43876.33
559.228	44245.81
559.59	44412.59
559.953	44550.44
560.316	44903.65
560.679	45006.47
561.041	45190.65
561.404	45279.23
561.767	45537.31
562.129	45288.72
562.492	45796.73
562.854	45742.27
563.217	45899.33
563.579	46006.22
563.941	46347.91
564.304	46510.39
564.666	46717.39
565.028	46723.04
565.39	46937.04
565.753	47142.69
566.115	47224.94
566.477	47297.03
566.839	47407.99
567.201	47827.64
567.563	47668.1
567.925	48059.95
568.287	48047.3
568.648	48207.52
569.01	48473.05
569.372	48622.42
569.734	48499.71
570.095	48889.08
570.457	48938.35
570.819	48920.04
571.18	49059.47
571.542	49320.48
571.903	49374.49
572.265	49432.34
572.626	49701.49
572.987	49689.51
573.349	49859
573.71	49998.66
574.071	50092.44
574.432	50157.52
574.794	50407.23
575.155	50335.15
575.516	50251.31
575.877	50470.28
576.238	50628.7
576.599	50751.86
576.96	50759.77
577.32	50813.78
577.681	51030.72
578.042	51066.88
578.403	51054.9
578.763	51156.14
579.124	51073.43
579.485	51401.33
579.845	51452.86
580.206	51432.74
580.566	51450.37
580.927	51491.95
581.287	51563.81
581.648	51425.74
582.008	51678.39
582.368	51697.37
582.728	51670.93
583.089	51676.81
583.449	51724.94
583.809	51700.53
584.169	51824.37
584.529	51775.11
584.889	52039.06
585.249	51936.91
585.609	51788.89
585.969	52093.74
586.329	51950.47
586.688	52023.24
587.048	52073.86
587.408	52012.84
587.768	52001.09
588.127	52066.4
588.487	51967.19
588.846	52341.42
589.206	52038.83
589.565	52076.57
589.925	52321.08
590.284	52166.06
590.643	52234.3
591.003	52260.07
591.362	52408.09
591.721	52347.75
592.08	52355.43
592.44	52347.97
592.799	52446.5
593.158	52357.01
593.517	52406.96
593.876	52499.38
594.235	52332.61
594.593	52452.6
594.952	52551.81
595.311	52509.33
595.67	52555.88
596.029	52738.25
596.387	52753.39
596.746	52732.6
597.104	52498.93
597.463	52679.26
597.822	52818.47
598.18	52668.64
598.538	52622.77
598.897	52846.04
599.255	52580.96
599.613	53078.8
599.972	52794.06
600.33	52971.23
600.688	52753.61
601.046	52961.07
601.404	53135.98
601.762	52997.45
602.12	53147.05
602.478	53194.51
602.836	53075.64
603.194	52916.09
603.552	53041.06
603.91	52924
604.268	53174.17
604.625	53077.9
604.983	53216.43
605.341	52997
605.698	53305.24
606.056	53305.46
606.413	53232.92
606.771	53347.72
607.128	53311.11
607.485	53313.37
607.843	53288.97
608.2	53434.27
608.557	53474.95
608.914	53396.76
609.272	53554.5
609.629	53626.81
609.986	53729.41
610.343	53557.21
610.7	53749.97
611.057	53727.37
611.414	53676.07
611.771	53745.23
612.127	53819.57
612.484	53785
612.841	53900.02
613.198	53773.93
613.554	53925.79
613.911	54014.37
614.267	53961.04
614.624	53946.12
614.98	53994.26
615.337	54156.74
615.693	53998.1
616.05	54061.15
616.406	54173.24
616.762	53966.24
617.118	54061.38
617.475	54082.62
617.831	54193.8
618.187	54205.55
618.543	54187.7
618.899	54377.07
619.255	54368.71
619.611	54299.33
619.967	54383.17
620.323	54413
620.678	54318.77
621.034	54236.74
621.39	54279.9
621.746	54263.4
622.101	54526.45
622.457	54337.07
622.812	54379.78
623.168	54420.69
623.523	54353.34
623.879	54443.74
624.234	54300.69
624.589	54366.68
624.945	54420.46
625.3	54461.59
625.655	54367.13
626.01	54398.54
626.365	54464.3
626.72	54352.21
627.075	54478.09
627.43	54373.23
627.785	54385.66
628.14	54429.28
628.495	54496.62
628.85	54409.39
629.205	54395.6
629.559	54498.65
629.914	54371.42
630.269	54414.59
630.623	54345.44
630.978	54258.43
631.332	54423.4
631.687	54509.95
632.041	54375.27
632.396	54444.87
632.75	54242.39
633.104	54319
633.459	54232.22
633.813	54197.64
634.167	54263.86
634.521	54175.27
634.875	54310.41
635.229	54139.79
635.583	54077.19
635.937	54143.18
636.291	54105.67
636.645	54144.31
636.999	54035.84
637.352	54181.37
637.706	53914.03
638.06	54069.51
638.413	53982.28
638.767	53906.35
639.121	54027.7
639.474	53901.83
639.828	53771.89
640.181	53876.75
640.534	53909.06
640.888	53807.6
641.241	53728.95
641.594	53846.69
641.947	53829.97
642.301	53765.79
642.654	53702.29
643.007	53812.57
643.36	53698.45
643.713	53711.1
644.066	53746.13
644.419	53582.97
644.771	53426.59
645.124	53140.95
645.477	53071.34
645.83	52953.83
646.182	52815.08
646.535	52760.62
646.888	52889.65
647.24	52632.71
647.593	52837.68
647.945	52704.57
648.298	52636.33
648.65	52580.74
649.002	52462.77
649.355	52612.37
649.707	52564.24
650.059	52726.95
650.411	53129.65
650.763	53203.32
651.115	53497.77
651.467	53320.83
651.819	53376.65
652.171	53288.74
652.523	53281.06
652.875	53250.55
653.227	53083.77
653.578	53312.92
653.93	53307.95
654.282	53137.33
654.633	53030.44
654.985	53060.5
655.337	53129.65
655.688	53126.48
656.039	53249.19
656.391	53056.88
656.742	52952.25
657.094	52976.66
657.445	53081.74
657.796	53019.37
658.147	53022.08
658.498	53000.61
658.849	53030.22
659.2	52944.57
659.551	52862.08
659.902	53007.17
660.253	52940.5
660.604	52960.39
660.955	52885.59
661.306	52887.39
661.656	52863.67
662.007	52880.62
662.358	52744.35
662.708	52788.87
663.059	52851.46
663.409	52578.7
663.76	52864.8
664.11	52778.7
664.461	52886.94
664.811	52703.67
665.161	52820.28
665.511	52619.83
665.862	52718.36
666.212	52868.41
666.562	52776.44
666.912	52671.36
667.262	52658.7
667.612	52656.21
667.962	52698.25
668.312	52576.44
668.662	52667.06
669.011	52627.51
669.361	52550.91
669.711	52495.31
670.06	52505.94
670.41	52453.06
670.76	52384.36
671.109	52504.13
671.459	52489.44
671.808	52301.87
672.157	52464.58
672.507	52269.56
672.856	52285.6
673.205	52320.86
673.554	52388.42
673.904	52336.45
674.253	52342.78
674.602	52248.09
674.951	51810.13
675.3	51604.94
675.649	52113.63
675.998	52032.05
676.346	52188.43
676.695	52217.58
677.044	52020.52
677.393	51985.95
677.741	52009.45
678.09	51839.29
678.438	51904.37
678.787	51976.46
679.135	51862.34
679.484	51693.3
679.832	51760.19
680.181	51607.43
680.529	51566.53
680.877	51555.23
681.225	51477.94
681.573	51674.32
681.922	51412.18
682.27	51333.99
682.618	51303.26
682.966	51162.24
683.314	51350.26
683.661	51076.14
684.009	50893.1
684.357	51015.58
684.705	50873.44
685.053	50870.95
685.4	50824.62
685.748	50630.05
686.095	50631.63
686.443	50537.85
686.79	50410.4
687.138	50598.87
687.485	50462.15
687.832	50300.12
688.18	50318.42
688.527	50135.83
688.874	50129.05
689.221	50044.98
689.568	49946.91
689.915	49783.3
690.262	49727.48
690.609	49636.63
690.956	49564.77
691.303	49516.64
691.65	49348.96
691.997	49430.31
692.344	49127.49
692.69	49079.81
693.037	49155.52
693.383	48813.38
693.73	48896.54
694.077	48694.51
694.423	48739.93
694.769	48465.36
695.116	48448.19
695.462	48431.24
695.808	48228.99
696.155	48367.06
696.501	47907.19
696.847	48076.45
697.193	47772.27
697.539	47890.69
697.885	47638.27
698.231	47452.06
698.577	47442.57
698.923	47409.12
699.269	47287.99
699.614	47023.14
699.96	46889.13
700.306	47079.19
700.651	46790.15
700.997	46673.09
701.342	46668.35
701.688	46591.29
702.033	46456.83
702.379	46400.11
702.724	46277.62
703.069	46382.48
703.415	45897.97
703.76	45972.32
704.105	45958.31
704.45	45816.39
704.795	45536.85
705.14	45423.18
705.485	45522.62
705.83	45306.58
706.175	45430.42
706.52	45278.78
706.865	45078.56
707.209	45037.43
707.554	44963.08
707.899	45074.04
708.243	44789.08
708.588	44717.44
708.932	44526.71
709.277	44420.5
709.621	44554.96
709.966	44190.22
710.31	44192.71
710.654	43928.08
710.998	44048.08
711.342	44110.22
711.687	43764.47
712.031	43735.09
712.375	43611.71
712.719	43693.74
713.063	43610.58
713.407	43760.4
713.75	43539.62
714.094	43410.13
714.438	43226.63
714.782	43122.23
715.125	43057.14
715.469	43162.23
715.812	42912.06
716.156	42616.03
716.499	42760.88
716.843	42749.36
717.186	42512.07
717.53	42791.39
717.873	42637.49
718.216	42461.68
718.559	42369.25
718.902	42175.36
719.246	42223.49
719.589	42056.95
719.932	41863.28
720.275	41847.23
720.617	41873.9
720.96	41847.01
721.303	41828.93
721.646	41846.33
721.989	41522.95
722.331	41761.36
722.674	41616.05
723.016	41580.57
723.359	41446.11
723.701	41502.16
724.044	41224.65
724.386	41067.82
724.729	41298.32
725.071	41149.4
725.413	40938.78
725.755	40984.88
726.097	40830.08
726.439	40624.21
726.782	40703.08
727.124	40989.18
727.465	40569.53
727.807	40631.9
728.149	40534.95
728.491	40384.9
728.833	40546.93
729.175	40240.72
729.516	40238.46
729.858	40336.31
730.199	40171.34
730.541	40092.7
730.882	40122.08
731.224	40190.55
731.565	39986.04
731.906	40050.44
732.248	40007.51
732.589	39774.52
732.93	39720.28
733.271	39691.36
733.612	39732.49
733.953	39741.75
734.294	39590.57
734.635	39446.17
734.976	39587.18
735.317	39128.21
735.658	39294.31
735.999	39209.11
736.339	39144.25
736.68	39252.27
737.021	39074.65
737.361	38846.86
737.702	39035.1
738.042	38982.22
738.383	38946.74
738.723	38912.17
739.063	38786.3
739.404	38758.5
739.744	38694.1
740.084	38664.27
740.424	38603.93
740.764	38410.49
741.104	38572.52
741.444	38401.45
741.784	38338.4
742.124	38411.84
742.464	38463.59
742.804	38235.8
743.143	38174.79
743.483	38135.24
743.823	37987.9
744.162	38012.98
744.502	38038.97
744.841	37937.51
745.181	38006.43
745.52	37776.83
745.86	37993.55
746.199	37856.15
746.538	37749.26
746.877	37766.89
747.216	37814.34
747.556	37513.11
747.895	37562.37
748.234	37477.63
748.573	37494.58
748.911	37358.99
749.25	37375.03
749.589	37079.9
749.928	37231.76
750.267	37197.64
750.605	37008.94
750.944	36878.32
751.283	36875.61
751.621	36771.43
751.96	36755.62
752.298	36705.67
752.636	36680.36
752.975	36449.63
753.313	36312.24
753.651	36488.28
