Data from White_paper_FLMS001491_072.txt Node
Date: Tue Feb 07 10:35:32 GMT 2017
User: dcchb
Spectrometer: FLMS00149
Trigger mode: 0
Integration Time (sec): 2.000000E-2
Scans to average: 10
Electric dark correction enabled: true
Nonlinearity correction enabled: false
Boxcar width: 0
XAxis mode: Wavelengths
Number of Pixels in Spectrum: 2048
>>>>>Begin Spectral Data<<<<<
341.393	-15.58
341.776	-15.58
342.16	-15.58
342.543	-58.52
342.927	-63.04
343.31	-53.09
343.693	-70.72
344.077	-53.77
344.46	-63.04
344.843	-67.78
345.226	-48.8
345.61	-22.36
345.993	-20.78
346.376	2.73
346.759	12.67
347.142	19
347.525	30.52
347.908	65.55
348.291	64.65
348.674	84.31
349.057	120.91
349.44	103.51
349.823	149.84
350.206	153.68
350.588	209.95
350.971	230.74
351.354	255.6
351.737	254.92
352.119	275.49
352.502	276.17
352.884	286.79
353.267	295.15
353.65	319.78
354.032	322.04
354.414	341.93
354.797	344.19
355.179	342.15
355.562	347.8
355.944	376.5
356.326	357.74
356.709	377.18
357.091	378.08
357.473	376.05
357.855	364.98
358.238	359.55
358.62	372.89
359.002	378.31
359.384	411.53
359.766	373.79
360.148	366.11
360.53	367.24
360.912	346.67
361.294	373.34
361.676	375.6
362.057	375.15
362.439	379.44
362.821	373.34
363.203	362.72
363.584	367.46
363.966	360
364.348	362.49
364.729	369.27
365.111	371.76
365.493	390.96
365.874	366.11
366.256	359.1
366.637	353.68
367.019	358.2
367.4	357.97
367.781	360.91
368.163	367.24
368.544	371.3
368.925	367.24
369.306	362.26
369.688	374.02
370.069	374.24
370.45	360.46
370.831	374.24
371.212	364.98
371.593	379.21
371.974	362.49
372.355	385.54
372.736	377.41
373.117	350.97
373.498	362.26
373.879	395.71
374.26	366.33
374.641	371.3
375.021	385.09
375.402	376.95
375.783	387.8
376.163	389.38
376.544	388.48
376.925	388.7
377.305	382.15
377.686	406.56
378.066	386.22
378.447	392.77
378.827	410.62
379.208	379.21
379.588	395.94
379.968	396.39
380.349	416.05
380.729	407.24
381.109	416.05
381.489	396.84
381.87	420.34
382.25	405.43
382.63	428.25
383.01	431.87
383.39	437.06
383.77	431.64
384.15	436.16
384.53	448.82
384.91	446.1
385.29	460.79
385.67	442.71
386.049	453.56
386.429	463.28
386.809	456.05
387.189	456.27
387.568	456.5
387.948	474.35
388.328	466.89
388.707	475.93
389.087	476.16
389.466	485.88
389.846	487.68
390.225	493.33
390.605	495.82
390.984	505.31
391.363	504.86
391.743	518.19
392.122	541.92
392.501	534.69
392.881	540.79
393.26	542.15
393.639	531.98
394.018	542.37
394.397	544.63
394.776	542.82
395.155	559.55
395.534	579.21
395.913	567
396.292	584.41
396.671	586.67
397.05	601.35
397.429	606.33
397.808	597.74
398.186	609.04
398.565	638.87
398.944	617.63
399.323	629.83
399.701	618.75
400.08	631.86
400.458	648.36
400.837	665.53
401.215	646.55
401.594	677.06
401.972	687.23
402.351	712.76
402.729	724.06
403.107	705.76
403.486	720.22
403.864	752.99
404.242	758.86
404.62	750.5
404.999	765.64
405.377	797.06
405.755	789.6
406.133	815.81
406.511	836.38
406.889	838.18
407.267	862.59
407.645	891.06
408.023	905.75
408.401	913.89
408.779	939.42
409.156	969.93
409.534	974.9
409.912	998.41
410.29	1040.21
410.667	1063.04
411.045	1092.19
411.422	1122.02
411.8	1130.83
412.178	1144.16
412.555	1196.82
412.933	1194.78
413.31	1245.86
413.687	1291.73
414.065	1306.65
414.442	1345.29
414.819	1346.65
415.197	1387.1
415.574	1391.62
415.951	1446.08
416.328	1462.12
416.705	1486.08
417.082	1526.08
417.46	1549.13
417.837	1587.09
418.214	1594.1
418.591	1627.99
418.967	1649.91
419.344	1693.08
419.721	1715.9
420.098	1716.81
420.475	1744.38
420.852	1780.31
421.228	1809.23
421.605	1834.77
421.982	1858.72
422.358	1871.15
422.735	1887.65
423.111	1928.1
423.488	1983.01
423.864	1971.04
424.241	2007.42
424.617	2059.4
424.994	2067.08
425.37	2122.22
425.746	2074.08
426.123	2145.04
426.499	2183.01
426.875	2192.05
427.251	2262.33
427.627	2291.71
428.003	2274.76
428.379	2361.31
428.756	2361.99
429.132	2401.76
429.507	2432.04
429.883	2500.06
430.259	2525.15
430.635	2566.5
431.011	2604.47
431.387	2629.55
431.763	2659.38
432.138	2705.93
432.514	2749.32
432.89	2764.46
433.265	2863.67
433.641	2863.89
434.016	2881.29
434.392	2986.6
434.767	3014.62
435.143	2984.57
435.518	3094.62
435.894	3107.28
436.269	3140.04
436.644	3163.09
437.02	3234.28
437.395	3226.37
437.77	3302.07
438.145	3353.15
438.52	3357.44
438.895	3395.18
439.271	3420.72
439.646	3501.17
440.021	3483.31
440.395	3542.07
440.77	3508.85
441.145	3556.98
441.52	3607.38
441.895	3612.57
442.27	3657.32
442.645	3686.02
443.019	3730.09
443.394	3741.84
443.769	3770.08
444.143	3735.74
444.518	3844.66
444.892	3818.22
445.267	3821.16
445.641	3861.83
446.016	3934.83
446.39	3955.39
446.764	3927.37
447.139	3987.93
447.513	3983.64
447.887	3996.52
448.262	4063.86
448.636	4058.66
449.01	4124.88
449.384	4173.24
449.758	4176.63
450.132	4221.82
450.506	4241.03
450.88	4270.86
451.254	4269.51
451.628	4309.28
452.002	4401.93
452.376	4441.48
452.75	4478.09
453.123	4494.36
453.497	4575.94
453.871	4598.09
454.244	4656.39
454.618	4738.19
454.992	4780.68
455.365	4820.23
455.739	4894.35
456.112	4944.74
456.486	4988.13
456.859	5025.64
457.232	5155.36
457.606	5122.37
457.979	5179.76
458.352	5360.33
458.725	5389.48
459.099	5401
459.472	5506.31
459.845	5590.15
460.218	5608.23
460.591	5646.42
460.964	5698.85
461.337	5794.66
461.71	5890.48
462.083	6022.45
462.456	5979.52
462.829	6044.83
463.201	6203.92
463.574	6192.39
463.947	6270.58
464.32	6482.78
464.692	6488.88
465.065	6522.78
465.438	6616.11
465.81	6678.48
466.183	6740.4
466.555	6938.59
466.928	6994.41
467.3	6964.35
467.672	7050.9
468.045	7230.33
468.417	7274.4
468.789	7296.32
469.161	7370.22
469.534	7565.46
469.906	7761.39
470.278	7807.49
470.65	7873.93
471.022	7993.02
471.394	8198.22
471.766	8257.65
472.138	8367.25
472.51	8515.72
472.882	8642.27
473.253	8765.66
473.625	8806.34
473.997	9011.75
474.369	9096.27
474.74	9221.47
475.112	9432.76
475.484	9514.34
475.855	9643.6
476.227	9802.47
476.598	10063.25
476.97	10109.35
477.341	10392.51
477.713	10458.72
478.084	10496.69
478.455	10875.21
478.827	10899.16
479.198	11361.52
479.569	11289.66
479.94	11587.73
480.311	11777.56
480.682	11969.87
481.053	12228.17
481.424	12370.76
481.795	12493.92
482.166	12685.78
482.537	12862.05
482.908	13166.22
483.279	13285.09
483.65	13515.36
484.021	13749.48
484.391	13874.23
484.762	14058.85
485.133	14201.67
485.503	14368.9
485.874	14650.25
486.244	14762.79
486.615	15098.6
486.985	15254.75
487.356	15483.45
487.726	15679.38
488.097	15973.38
488.467	16042.53
488.837	16337.44
489.207	16508.28
489.578	16762.06
489.948	16876.86
490.318	17171.54
490.688	17183.97
491.058	17458.09
491.428	17692.43
491.798	17783.5
492.168	18235.92
492.538	18286.99
492.908	18458.74
493.278	18695.12
493.648	18720.88
494.017	18888.11
494.387	19156.57
494.757	19197.25
495.126	19496
495.496	19568.31
495.866	19752.49
496.235	19815.31
496.605	20043.1
496.974	20157
497.344	20422.53
497.713	20459.82
498.082	20648.51
498.452	20838.79
498.821	20946.36
499.19	21050.53
499.559	21236.07
499.928	21361.71
500.298	21469.96
500.667	21647.81
501.036	21711.76
501.405	21906.1
501.774	22045.31
502.143	22260.45
502.512	22302.93
502.88	22452.53
503.249	22510.38
503.618	22733.65
503.987	22816.14
504.356	22983.82
504.724	23048
505.093	23206.41
505.462	23212.51
505.83	23419.74
506.199	23674.42
506.567	23903.79
506.936	23860.63
507.304	24287.29
507.672	24306.95
508.041	24418.13
508.409	24578.12
508.777	24701.51
509.145	24924.1
509.514	25105.57
509.882	25231.44
510.25	25249.29
510.618	25511.89
510.986	25457.65
511.354	25903.29
511.722	26084.53
512.09	26227.57
512.458	26235.26
512.826	26388.47
513.193	26609.48
513.561	26657.17
513.929	26994.11
514.297	27141.45
514.664	27432.06
515.032	27385.96
515.4	27585.5
515.767	27745.95
516.135	27896.23
516.502	27856
516.869	28335.31
517.237	28480.17
517.604	28386.39
517.972	28685.81
518.339	28876.54
518.706	28909.31
519.073	29179.81
519.44	29447.6
519.808	29610.31
520.175	29649.86
520.542	30166.45
520.909	30247.35
521.276	30164.42
521.643	30646.44
522.009	30770.5
522.376	31024.96
522.743	31138.18
523.11	31390.6
523.477	31793.98
523.843	31911.94
524.21	32126.85
524.577	32378.37
524.943	32581.53
525.31	32655.2
525.676	32990.33
526.043	33164.79
526.409	33275.3
526.776	33750.77
527.142	33737.21
527.508	33910.08
527.874	34294.03
528.241	34538.09
528.607	34591.19
528.973	34904.86
529.339	34907.12
529.705	35263.49
530.071	35394.79
530.437	35709.58
530.803	35757.04
531.169	36059.86
531.535	36081.33
531.901	36189.57
532.267	36402.9
532.632	36680.41
532.998	36731.25
533.364	36987.29
533.73	37003.56
534.095	37455.3
534.461	37534.17
534.826	37619.36
535.192	37831.34
535.557	38008.51
535.923	37970.32
536.288	38216.64
536.653	38429.06
537.019	38399
537.384	38582.95
537.749	38774.14
538.114	38832.67
538.479	39028.59
538.845	39216.84
539.21	39170.96
539.575	39452.54
539.94	39577.96
540.305	39687.78
540.67	39707.9
541.034	39909.47
541.399	39878.51
541.764	40305.17
542.129	40290.71
542.494	40285.73
542.858	40714.88
543.223	40598.95
543.587	41043
543.952	41036.22
544.316	41209.33
544.681	41169.55
545.045	41467.85
545.41	41579.49
545.774	41795.53
546.138	41701.06
546.503	41936.31
546.867	41819.48
547.231	42309.41
547.595	42372.91
547.959	42469.63
548.324	42508.73
548.688	42594.37
549.052	42659.68
549.416	42936.06
549.779	42945.33
550.143	43093.57
550.507	43285.88
550.871	43519.32
551.235	43386.22
551.599	43749.82
551.962	43842.25
552.326	43984.85
552.689	44144.16
553.053	44152.3
553.417	44189.36
553.78	44785.5
554.143	44560.42
554.507	44736.46
554.87	44806.75
555.234	45193.18
555.597	45119.96
555.96	45280.18
556.323	45391.59
556.686	45482.89
557.05	45918.81
557.413	45824.8
557.776	46042.65
558.139	46229.08
558.502	46353.37
558.865	46445.57
559.228	46705.23
559.59	46854.83
559.953	46872
560.316	47380.46
560.679	47383.63
561.041	47650.96
561.404	47649.38
561.767	47953.33
562.129	47780.68
562.492	48261.8
562.854	48134.12
563.217	48292.76
563.579	48425.86
563.941	48569.58
564.304	48845.06
564.666	49086.86
565.028	49134.77
565.39	49273.29
565.753	49527.75
566.115	49613.62
566.477	49601.42
566.839	49810.23
567.201	50105.82
567.563	50092.71
567.925	50272.14
568.287	50417.45
568.648	50440.5
569.01	50630.55
569.372	50841.39
569.734	50747.15
570.095	51080.03
570.457	51159.12
570.819	51266.24
571.18	51273.92
571.542	51376.06
571.903	51562.05
572.265	51613.8
572.626	51755.04
572.987	51834.58
573.349	51960.68
573.71	52030.74
574.071	52119.77
574.432	52223.05
574.794	52460.33
575.155	52410.61
575.516	52386.66
575.877	52565.19
576.238	52592.53
576.599	52806.31
576.96	52736.93
577.32	52842.69
577.681	52990.26
578.042	53060.31
578.403	53098.05
578.763	53129.92
579.124	53152.29
579.485	53195.68
579.845	53309.8
580.206	53267.09
580.566	53364.49
580.927	53406.29
581.287	53524.03
581.648	53465.5
582.008	53581.2
582.368	53492.84
582.728	53723.35
583.089	53594.09
583.449	53637.25
583.809	53743.46
584.169	53822.33
584.529	53742.78
584.889	53906.17
585.249	53704.36
585.609	53625.5
585.969	53912.27
586.329	53828.43
586.688	53903.46
587.048	53907.75
587.408	53820.29
587.768	53925.15
588.127	53931.03
588.487	53943
588.846	54185.26
589.206	54004.02
589.565	54039.72
589.925	54143
590.284	54015.09
590.643	54028.88
591.003	54228.19
591.362	54284.69
591.721	54207.85
592.08	54275.88
592.44	54239.49
592.799	54293.5
593.158	54295.76
593.517	54182.54
593.876	54380.96
594.235	54355.65
594.593	54329.21
594.952	54398.36
595.311	54292.15
595.67	54440.84
596.029	54664.79
596.387	54610.56
596.746	54575.75
597.104	54471.8
597.463	54551.12
597.822	54664.79
598.18	54609.2
598.538	54584.12
598.897	54587.05
599.255	54450.11
599.613	54868.85
599.972	54682.42
600.33	54782.98
600.688	54652.14
601.046	54791.57
601.404	54885.12
601.762	54779.14
602.12	54942.3
602.478	54906.14
602.836	54923.77
603.194	54833.37
603.552	54862.53
603.91	54702.76
604.268	54907.04
604.625	54840.15
604.983	55002.18
605.341	54863.2
605.698	55033.82
606.056	55049.19
606.413	54996.76
606.771	55150.88
607.128	55171.22
607.485	55055.52
607.843	55089.87
608.2	55250.54
608.557	55301.61
608.914	55165.57
609.272	55300.48
609.629	55336.19
609.986	55442.62
610.343	55353.13
610.7	55546.8
611.057	55406.24
611.414	55404.66
611.771	55454.15
612.127	55544.99
612.484	55587.71
612.841	55615.73
613.198	55506.13
613.554	55589.06
613.911	55793.58
614.267	55680.81
614.624	55669.28
614.98	55728.94
615.337	55802.61
615.693	55780.92
616.05	55703.86
616.406	55891.43
616.762	55769.85
617.118	55784.76
617.475	55812.33
617.831	55921.48
618.187	55903.18
618.543	55925.55
618.899	56067.24
619.255	56019.56
619.611	55981.14
619.967	56000.58
620.323	56050.74
620.678	55989.95
621.034	55865.44
621.39	55918.32
621.746	55941.59
622.101	56220
622.457	55989.5
622.812	56073.79
623.168	56133.23
623.523	56135.71
623.879	56158.09
624.234	55987.24
624.589	56109.73
624.945	56214.36
625.3	56241.93
625.655	56137.75
626.01	56124.87
626.365	56128.26
626.72	56166.67
627.075	56137.3
627.43	56123.51
627.785	56069.95
628.14	56131.19
628.495	56245.77
628.85	56104.98
629.205	56062.49
629.559	56291.64
629.914	56055.94
630.269	56056.85
630.623	56053.23
630.978	56015.49
631.332	56156.73
631.687	56168.03
632.041	55996.51
632.396	56018.88
632.75	56042.38
633.104	56029.28
633.459	55888.04
633.813	55944.98
634.167	55904.08
634.521	55908.83
634.875	55967.36
635.229	55920.35
635.583	55790.41
635.937	55767.14
636.291	55796.97
636.645	55787.93
636.999	55830.18
637.352	55802.39
637.706	55619.79
638.06	55780.69
638.413	55713.8
638.767	55692.56
639.121	55660.7
639.474	55560.81
639.828	55576.63
640.181	55666.12
640.534	55657.53
640.888	55575.95
641.241	55461.61
641.594	55462.06
641.947	55544.09
642.301	55508.84
642.654	55550.64
643.007	55558.55
643.36	55514.71
643.713	55421.16
644.066	55514.26
644.419	55295.28
644.771	55079.24
645.124	54938
645.477	54857.55
645.83	54702.3
646.182	54612.14
646.535	54514.96
646.888	54575.3
647.24	54479.49
647.593	54645.36
647.945	54610.78
648.298	54453.95
648.65	54399.04
649.002	54335.31
649.355	54453.27
649.707	54351.58
650.059	54531.01
650.411	54861.62
650.763	54851.68
651.115	55188.39
651.467	55100.49
651.819	55054.16
652.171	55015.97
652.523	54941.85
652.875	54946.59
653.227	54822.08
653.578	55079.92
653.93	54940.26
654.282	54856.65
654.633	54778.46
654.985	54844.22
655.337	54876.31
655.688	54812.58
656.039	54980.26
656.391	54693.49
656.742	54653.49
657.094	54745.69
657.445	54861.17
657.796	54812.36
658.147	54727.61
658.498	54659.37
658.849	54808.97
659.2	54686.03
659.551	54679.03
659.902	54756.09
660.253	54639.26
660.604	54720.61
660.955	54572.36
661.306	54695.07
661.656	54606.26
662.007	54695.98
662.358	54602.65
662.708	54568.52
663.059	54573.95
663.409	54434.74
663.76	54570.1
664.11	54590.22
664.461	54546.6
664.811	54558.81
665.161	54515.42
665.511	54397.23
665.862	54449.43
666.212	54488.98
666.562	54492.59
666.912	54478.81
667.262	54477.68
667.612	54435.42
667.962	54472.25
668.312	54417.34
668.662	54525.59
669.011	54455.08
669.361	54392.03
669.711	54377.79
670.06	54291.02
670.41	54253.05
670.76	54193.17
671.109	54225.93
671.459	54256.67
671.808	54185.48
672.157	54266.61
672.507	54044.02
672.856	54045.15
673.205	54062.32
673.554	54154.75
673.904	54100.74
674.253	54220.28
674.602	54105.03
674.951	53663.46
675.3	53514.54
675.649	53971.93
675.998	53936.68
676.346	53955.66
676.695	53952.27
677.044	53805.38
677.393	53883.12
677.741	53836.11
678.09	53792.05
678.438	53703.46
678.787	53762.89
679.135	53708.66
679.484	53485.39
679.832	53672.5
680.181	53454.88
680.529	53436.8
680.877	53489.46
681.225	53343.47
681.573	53560.87
681.922	53341.89
682.27	53200.2
682.618	53244.72
682.966	53208.56
683.314	53192.74
683.661	53013.76
684.009	52889.24
684.357	52916.14
684.705	52880.88
685.053	52919.75
685.4	52830.94
685.748	52564.06
686.095	52615.13
686.443	52407.45
686.79	52455.13
687.138	52382.82
687.485	52379.43
687.832	52284.74
688.18	52341.24
688.527	52149.83
688.874	52029.83
689.221	52021.25
689.568	51901.93
689.915	51888.14
690.262	51902.83
690.609	51809.05
690.956	51726.56
691.303	51691.08
691.65	51425.1
691.997	51442.05
692.344	51165.9
692.69	51222.17
693.037	51153.92
693.383	50965.23
693.73	51074.6
694.077	50859.02
694.423	50840.94
694.769	50808.4
695.116	50615.86
695.462	50583.32
695.808	50395.3
696.155	50416.09
696.501	50228.07
696.847	50159.83
697.193	49990.56
697.539	50173.16
697.885	49875.09
698.231	49821.08
698.577	49749.67
698.923	49614.53
699.269	49518.71
699.614	49317.59
699.96	49275.78
700.306	49283.92
700.651	49073.98
700.997	49041.21
701.342	48980.42
701.688	48873.31
702.033	48842.8
702.379	48784.95
702.724	48669.69
703.069	48643.03
703.415	48246.2
703.76	48285.07
704.105	48358.29
704.45	48167.56
704.795	47972.54
705.14	47949.04
705.485	47859.77
705.83	47682.6
706.175	47791.53
706.52	47543.62
706.865	47415.04
707.209	47302.5
707.554	47320.35
707.899	47332.55
708.243	47128.49
708.588	47129.4
708.932	46875.17
709.277	46901.15
709.621	46852.34
709.966	46584.1
710.31	46650.99
710.654	46354.28
710.998	46450.54
711.342	46403.54
711.687	46288.74
712.031	46090.33
712.375	45911.12
712.719	46060.27
713.063	45945.25
713.407	46007.84
713.75	45837.9
714.094	45775.99
714.438	45636.1
714.782	45640.17
715.125	45503.68
715.469	45569.44
715.812	45215.32
716.156	45142.78
716.499	45158.83
716.843	45206.74
717.186	44908.89
717.53	45138.04
717.873	45098.94
718.216	44824.37
718.559	44749.12
718.902	44492.4
719.246	44489.47
719.589	44567.66
719.932	44352.75
720.275	44332.86
720.617	44317.72
720.96	44122.47
721.303	44250.38
721.646	44109.59
721.989	43847.9
722.331	43982.59
722.674	43810.39
723.016	43962.7
723.359	43777.62
723.701	43742.14
724.044	43451.08
724.386	43298.99
724.729	43655.82
725.071	43453.56
725.413	43372.43
725.755	43385.31
726.097	43230.06
726.439	42978.55
726.782	43035.49
727.124	43114.36
727.465	42872.33
727.807	42870.75
728.149	42793.69
728.491	42776.29
728.833	42701.26
729.175	42515.96
729.516	42456.75
729.858	42515.96
730.199	42538.78
730.541	42311.9
730.882	42217.66
731.224	42397.32
731.565	42150.54
731.906	42253.59
732.248	42268.51
732.589	41899.93
732.93	41826.71
733.271	41858.8
733.612	41990.32
733.953	41914.84
734.294	41771.8
734.635	41498.36
734.976	41689.54
735.317	41355.76
735.658	41487.74
735.999	41470.56
736.339	41266.5
736.68	41456.55
737.021	41413.39
737.361	41111.02
737.702	41338.14
738.042	41122.55
738.383	41067.63
738.723	41139.5
739.063	40919.39
739.404	41016.79
739.744	40951.03
740.084	40892.95
740.424	40723.46
740.764	40759.62
741.104	40580.87
741.444	40564.6
741.784	40486.18
742.124	40558.5
742.464	40419.29
742.804	40422.91
743.143	40422.91
743.483	40524.15
743.823	40186.98
744.162	40121.22
744.502	40296.81
744.841	40066.08
745.181	40151.95
745.52	39922.13
745.86	39933.2
746.199	39797.84
746.538	39790.15
746.877	39890.04
747.216	39921.45
747.556	39744.05
747.895	39747.44
748.234	39555.13
748.573	39396.04
748.911	39415.47
749.25	39383.61
749.589	39221.58
749.928	39312.43
750.267	39234.01
750.605	39113.79
750.944	39120.57
751.283	38736.85
751.621	39073.79
751.96	38744.08
752.298	38602.84
752.636	38717.87
752.975	38614.82
