Data from White_reflection_standard_FLMS001491_012.txt Node
Date: Tue Feb 07 10:31:57 GMT 2017
User: dcchb
Spectrometer: FLMS00149
Trigger mode: 0
Integration Time (sec): 2.000000E-2
Scans to average: 10
Electric dark correction enabled: true
Nonlinearity correction enabled: false
Boxcar width: 0
XAxis mode: Wavelengths
Number of Pixels in Spectrum: 2048
>>>>>Begin Spectral Data<<<<<
341.393	-12.19
341.776	-12.19
342.16	-12.19
342.543	-65.29
342.927	-37.72
343.31	-55.35
343.693	-66.88
344.077	-50.61
344.46	-66.2
344.843	-64.39
345.226	-34.79
345.61	-24.17
345.993	-27.1
346.376	-0.21
346.759	12.22
347.142	21.48
347.525	37.08
347.908	58.32
348.291	67.36
348.674	83.4
349.057	109.84
349.44	142.16
349.823	152.33
350.206	187.13
350.588	231.87
350.971	243.4
351.354	257.86
351.737	273.45
352.119	302.61
352.502	302.15
352.884	335.82
353.267	303.96
353.65	327.24
354.032	334.02
354.414	361.36
354.797	390.29
355.179	378.08
355.562	377.63
355.944	385.31
356.326	375.6
356.709	408.36
357.091	393.45
357.473	390.06
357.855	404.3
358.238	393.45
358.62	385.09
359.002	411.08
359.384	410.17
359.766	393.9
360.148	407.69
360.53	410.4
360.912	395.94
361.294	412.66
361.676	416.73
362.057	411.98
362.439	397.74
362.821	396.39
363.203	423.73
363.584	427.35
363.966	416.73
364.348	394.13
364.729	401.59
365.111	399.1
365.493	409.95
365.874	418.99
366.256	402.72
366.637	430.29
367.019	420.79
367.4	420.79
367.781	433.45
368.163	404.3
368.544	409.72
368.925	419.66
369.306	443.17
369.688	455.6
370.069	445.65
370.45	425.09
370.831	441.58
371.212	446.1
371.593	435.71
371.974	434.13
372.355	417.63
372.736	440.45
373.117	433.45
373.498	462.83
373.879	465.99
374.26	458.53
374.641	442.49
375.021	433.45
375.402	466.89
375.783	474.13
376.163	525.65
376.544	511.41
376.925	482.04
377.305	481.13
377.686	488.59
378.066	511.41
378.447	521.36
378.827	509.38
379.208	507.12
379.588	533.79
379.968	509.61
380.349	539.43
380.729	510.28
381.109	531.75
381.489	546.67
381.87	573.56
382.25	554.35
382.63	551.19
383.01	555.93
383.39	572.65
383.77	568.81
384.15	576.72
384.53	593.9
384.91	580.11
385.29	600.45
385.67	609.49
386.049	630.28
386.429	602.94
386.809	620.56
387.189	633.22
387.568	605.87
387.948	645.65
388.328	632.99
388.707	609.04
389.087	662.6
389.466	680.67
389.846	658.08
390.225	688.36
390.605	675.7
390.984	687
391.363	705.53
391.743	702.59
392.122	734.01
392.501	733.55
392.881	724.97
393.26	735.36
393.639	749.6
394.018	752.31
394.397	776.94
394.776	758.64
395.155	782.59
395.534	788.02
395.913	786.66
396.292	807.9
396.671	820.56
397.05	825.76
397.429	830.95
397.808	832.76
398.186	865.75
398.565	868.24
398.944	879.54
399.323	867.79
399.701	888.58
400.08	891.06
400.458	871.86
400.837	928.8
401.215	896.94
401.594	927.9
401.972	946.66
402.351	976.94
402.729	955.92
403.107	950.95
403.486	992.53
403.864	998.18
404.242	1007.45
404.62	1019.2
404.999	1030.04
405.377	1023.49
405.755	1038.63
406.133	1060.78
406.511	1084.51
406.889	1078.18
407.267	1098.97
407.645	1133.77
408.023	1157.95
408.401	1146.88
408.779	1174.22
409.156	1208.57
409.534	1196.82
409.912	1213.09
410.29	1251.73
410.667	1269.13
411.045	1265.97
411.422	1273.88
411.8	1265.29
412.178	1315.01
412.555	1359.07
412.933	1341
413.31	1410.37
413.687	1420.77
414.065	1398.85
414.442	1425.97
414.819	1456.25
415.197	1465.96
415.574	1475.46
415.951	1468.45
416.328	1518.39
416.705	1508.68
417.082	1514.32
417.46	1547.54
417.837	1576.7
418.214	1612.63
418.591	1628.22
418.967	1597.26
419.344	1631.61
419.721	1639.29
420.098	1679.29
420.475	1686.52
420.852	1686.07
421.228	1698.73
421.605	1729.69
421.982	1755.67
422.358	1805.16
422.735	1805.84
423.111	1822.57
423.488	1827.08
423.864	1851.49
424.241	1900.08
424.617	1900.08
424.994	1890.81
425.37	1953.18
425.746	1936.91
426.123	1978.49
426.499	2016.91
426.875	2008.32
427.251	2039.96
427.627	2106.63
428.003	2121.31
428.379	2147.98
428.756	2181.88
429.132	2209.45
429.507	2265.72
429.883	2267.75
430.259	2273.4
430.635	2311.14
431.011	2358.14
431.387	2418.93
431.763	2441.76
432.138	2446.96
432.514	2519.04
432.89	2513.62
433.265	2578.93
433.641	2619.83
434.016	2614.41
434.392	2667.06
434.767	2703.22
435.143	2735.76
435.518	2710.9
435.894	2758.13
436.269	2795.87
436.644	2873.61
437.02	2882.88
437.395	2922.88
437.77	2960.16
438.145	3002.42
438.52	3017.56
438.895	3055.98
439.271	3057.11
439.646	3152.47
440.021	3143.43
440.395	3166.26
440.77	3158.12
441.145	3223.88
441.52	3260.95
441.895	3267.72
442.27	3294.39
442.645	3311.57
443.019	3353.82
443.394	3319.93
443.769	3391.56
444.143	3382.75
444.518	3451.22
444.892	3436.31
445.267	3481.5
445.641	3506.81
446.016	3546.81
446.39	3578.9
446.764	3569.41
447.139	3618
447.513	3657.32
447.887	3667.49
448.262	3697.77
448.636	3695.06
449.01	3809.86
449.384	3831.33
449.758	3902.06
450.132	3902.06
450.506	3894.15
450.88	3935.28
451.254	3960.81
451.628	3988.84
452.002	4079.45
452.376	4065.44
452.75	4142.5
453.123	4159.45
453.497	4268.15
453.871	4281.48
454.244	4363.52
454.618	4376.62
454.992	4478.77
455.365	4449.84
455.739	4602.15
456.112	4624.53
456.486	4622.49
456.859	4694.81
457.232	4811.64
457.606	4846.67
457.979	4881.69
458.352	5046.66
458.725	5054.34
459.099	5090.73
459.472	5164.17
459.845	5238.07
460.218	5274
460.591	5316.26
460.964	5360.78
461.337	5496.37
461.71	5536.37
462.083	5627.66
462.456	5664.27
462.829	5693.88
463.201	5782.23
463.574	5787.88
463.947	5915.34
464.32	6094.09
464.692	6103.36
465.065	6139.51
465.438	6205.05
465.81	6342.45
466.183	6386.06
466.555	6572.04
466.928	6556.45
467.3	6548.77
467.672	6671.48
468.045	6875.54
468.417	6870.12
468.789	6976.78
469.161	7049.55
469.534	7181.29
469.906	7343.1
470.278	7338.8
470.65	7510.1
471.022	7613.15
471.394	7795.97
471.766	7832.8
472.138	7911.22
472.51	8108.28
472.882	8266.46
473.253	8270.98
473.625	8418.1
473.997	8604.08
474.369	8658.54
474.74	8764.08
475.112	8951.42
475.484	9101.24
475.855	9329.03
476.227	9336.27
476.598	9600.67
476.97	9735.13
477.341	9886.31
477.713	10070.03
478.084	10119.75
478.455	10396.12
478.827	10520.19
479.198	10833.4
479.569	10800.41
479.94	11165.37
480.311	11197.69
480.682	11480.84
481.053	11644.68
481.424	11946.37
481.795	12029.3
482.166	12232.91
482.537	12386.36
482.908	12642.17
483.279	12819.79
483.65	13005.1
484.021	13316.73
484.391	13446.67
484.762	13592.43
485.133	13702.48
485.503	13941.34
485.874	14205.97
486.244	14326.42
486.615	14701.1
486.985	14777.03
487.356	15084.36
487.726	15192.61
488.097	15506.73
488.467	15589.21
488.837	15864.68
489.207	16008.41
489.578	16231.23
489.948	16387.61
490.318	16780.82
490.688	16789.4
491.058	17063.07
491.428	17337.64
491.798	17522.72
492.168	17825.76
492.538	17818.75
492.908	18124.51
493.278	18301.68
493.648	18479.3
494.017	18616.7
494.387	18775.79
494.757	18911.61
495.126	19135.1
495.496	19191.37
495.866	19296.46
496.235	19671.59
496.605	19767.18
496.974	19803.79
497.344	20106.15
497.713	20222.53
498.082	20385.47
498.452	20574.39
498.821	20700.49
499.19	20803.76
499.559	20977.99
499.928	21135.96
500.298	21282.84
500.667	21440.58
501.036	21492.1
501.405	21738.65
501.774	21799.44
502.143	21929.38
502.512	22114.23
502.88	22331.86
503.249	22365.08
503.618	22513.55
503.987	22688.91
504.356	22826.53
504.724	22983.36
505.093	23158.5
505.462	23042.35
505.83	23440.08
506.199	23617.02
506.567	24002.09
506.936	23907.86
507.304	24100.85
507.672	24312.6
508.041	24384.23
508.409	24592.36
508.777	24851.56
509.145	24968.85
509.514	25041.39
509.882	25216.53
510.25	25325.68
510.618	25590.75
510.986	25619.68
511.354	25952.78
511.722	26013.57
512.09	26350.51
512.458	26322.49
512.826	26720.44
513.193	26856.26
513.561	26899.42
513.929	27182.35
514.297	27382.12
514.664	27653.3
515.032	27703.69
515.4	27947.08
515.767	28056.23
516.135	28282.66
516.502	28152.27
516.869	28605.59
517.237	28795.87
517.604	28832.93
517.972	29141.17
518.339	29441.73
518.706	29516.75
519.073	29625.9
519.44	29935.27
519.808	30262.04
520.175	30298.88
520.542	30695.7
520.909	30813.67
521.276	30828.13
521.643	31271.28
522.009	31513.31
522.376	31682.57
522.743	31836.01
523.11	32342.89
523.477	32489.1
523.843	32755.54
524.21	33115.53
524.577	33224.45
524.943	33326.82
525.31	33708.28
525.676	33917.77
526.043	34047.48
526.409	34403.18
526.776	34686.11
527.142	34845.43
527.508	35008.36
527.874	35303.94
528.241	35568.8
528.607	35584.84
528.973	35884.49
529.339	35978.28
529.705	36456.68
530.071	36696.9
530.437	36661.42
530.803	36968.31
531.169	37167.62
531.535	37271.12
531.901	37391.8
532.267	37586.14
532.632	37861.62
532.998	37933.03
533.364	38306.58
533.73	38390.42
534.095	38590.41
534.461	38664.99
534.826	38953.57
535.192	39013.9
535.557	39370.73
535.923	39351.3
536.288	39576.15
536.653	39903.82
537.019	39767.33
537.384	39967.78
537.749	40073.54
538.114	40275.34
538.479	40389.69
538.845	40610.02
539.21	40518.5
539.575	40895.21
539.94	40850.92
540.305	41180.4
540.67	41074.87
541.034	41355.08
541.399	41350.34
541.764	41531.13
542.129	41655.19
542.494	41736.32
542.858	42054.5
543.223	42125.01
543.587	42280.26
543.952	42358.67
544.316	42380.82
544.681	42470.54
545.045	42839.34
545.41	42805.44
545.774	43139.9
546.138	43149.16
546.503	43287.24
546.867	43247.24
547.231	43720.45
547.595	43693.1
547.959	43947.79
548.324	43931.74
548.688	43997.73
549.052	44334.89
549.416	44231.62
549.779	44369.24
550.143	44596.81
550.507	44756.35
550.871	44908.66
551.235	44969
551.599	45322.89
551.962	45458.71
552.326	45516.56
552.689	45844.68
553.053	45689.43
553.417	45753.61
553.78	46303.88
554.143	46102.53
554.507	46400.6
554.87	46541.39
555.234	46897.31
555.597	46572.35
555.96	46948.84
556.323	47094.6
556.686	47164.88
557.05	47481.03
557.413	47534.36
557.776	47679.21
558.139	48036.49
558.502	48052.08
558.865	48170.72
559.228	48464.5
559.59	48454.11
559.953	48632.86
560.316	48992.85
560.679	48964.38
561.041	49202.56
561.404	49380.64
561.767	49609.11
562.129	49576.11
562.492	49994.41
562.854	49845.71
563.217	50110.56
563.579	50280.73
563.941	50412.02
564.304	50520.04
564.666	50779.7
565.028	50748.74
565.39	50931.1
565.753	51209.97
566.115	51224.88
566.477	51335.84
566.839	51482.28
567.201	51605.44
567.563	51717.75
567.925	51931.98
568.287	51967.91
568.648	52000.91
569.01	52302.59
569.372	52351.63
569.734	52332.42
570.095	52567.45
570.457	52702.81
570.819	52746.88
571.18	52797.95
571.542	52996.36
571.903	53012.86
572.265	53171.95
572.626	53188.67
572.987	53236.13
573.349	53398.16
573.71	53521.77
574.071	53497.14
574.432	53732.61
574.794	53885.83
575.155	53824.59
575.516	53754.98
575.877	53989.1
576.238	54015.77
576.599	54080.17
576.96	54074.07
577.32	54196.56
577.681	54205.82
578.042	54252.15
578.403	54307.29
578.763	54357.91
579.124	54490.78
579.485	54530.33
579.845	54632.93
580.206	54462.99
580.566	54400.17
580.927	54594.74
581.287	54666.37
581.648	54541.4
582.008	54660.95
582.368	54658.46
582.728	54712.47
583.089	54716.54
583.449	54738.69
583.809	54720.16
584.169	54780.04
584.529	54664.11
584.889	54997.89
585.249	54770.55
585.609	54629.99
585.969	54844.67
586.329	54734.39
586.688	54820.95
587.048	54819.36
587.408	54795.64
587.768	54864.33
588.127	54743.21
588.487	54729.42
588.846	54923.99
589.206	54789.99
589.565	54733.26
589.925	54930.77
590.284	54824.11
590.643	54921.28
591.003	54894.39
591.362	54969.19
591.721	54884.9
592.08	54925.35
592.44	55019.58
592.799	55017.1
593.158	54948.63
593.517	54980.94
593.876	54961.28
594.235	55027.72
594.593	55022.52
594.952	55034.5
595.311	54952.92
595.67	55009.64
596.029	55227.71
596.387	55215.51
596.746	55166.93
597.104	55130.09
597.463	55042.86
597.822	55279.46
598.18	55114.72
598.538	55030.43
598.897	55242.63
599.255	55018.23
599.613	55491.66
599.972	55263.87
600.33	55342.97
600.688	55205.12
601.046	55329.41
601.404	55451.44
601.762	55306.81
602.12	55518.55
602.478	55397.43
602.836	55470.65
603.194	55411.66
603.552	55383.19
603.91	55397.2
604.268	55560.14
604.625	55401.5
604.983	55577.31
605.341	55454.38
605.698	55601.72
606.056	55613.92
606.413	55575.28
606.771	55673.8
607.128	55749.28
607.485	55643.97
607.843	55699.79
608.2	55862.73
608.557	55878.32
608.914	55689.85
609.272	55905.44
609.629	55962.84
609.986	55993.34
610.343	55953.12
610.7	56123.51
611.057	56084.19
611.414	56061.59
611.771	56083.29
612.127	56086.45
612.484	56186.79
612.841	56226.56
613.198	56133.68
613.554	56140.01
613.911	56324.86
614.267	56282.15
614.624	56232.43
614.98	56303.84
615.337	56385.88
615.693	56354.46
616.05	56312.66
616.406	56413.22
616.762	56395.37
617.118	56388.81
617.475	56415.25
617.831	56406.44
618.187	56461.13
618.543	56572.31
618.899	56635.81
619.255	56592.42
619.611	56514.69
619.967	56625.87
620.323	56656.6
620.678	56616.83
621.034	56463.39
621.39	56420
621.746	56491.41
622.101	56789.71
622.457	56461.58
622.812	56626.1
623.168	56683.04
623.523	56666.09
623.879	56677.62
624.234	56481.92
624.589	56612.08
624.945	56640.56
625.3	56697.96
625.655	56612.08
626.01	56645.3
626.365	56663.16
626.72	56564.18
627.075	56582.71
627.43	56593.1
627.785	56558.53
628.14	56577.51
628.495	56655.25
628.85	56575.48
629.205	56490.05
629.559	56632.42
629.914	56410.73
630.269	56452.32
630.623	56372.32
630.978	56354.69
631.332	56484.18
631.687	56452.77
632.041	56339.78
632.396	56387.01
632.75	56294.58
633.104	56305.88
633.459	56181.59
633.813	56214.81
634.167	56119.22
634.521	56128.26
634.875	56167.35
635.229	56142.72
635.583	56031.31
635.937	55957.19
636.291	55973.91
636.645	55926.91
636.999	55915.61
637.352	56003.29
637.706	55806.23
638.06	55899.34
638.413	55838.77
638.767	55720.58
639.121	55794.03
639.474	55616.63
639.828	55646.46
640.181	55669.51
640.534	55557.42
640.888	55567.37
641.241	55458.22
641.594	55516.97
641.947	55470.19
642.301	55450.76
642.654	55462.51
643.007	55426.81
643.36	55365.11
643.713	55306.13
644.066	55364.66
644.419	55135.29
644.771	55027.72
645.124	54755.64
645.477	54770.55
645.83	54445.14
646.182	54386.83
646.535	54306.16
646.888	54345.7
647.24	54150.68
647.593	54310
647.945	54288.08
648.298	54102.09
648.65	54023.45
649.002	54001.08
649.355	54065.26
649.707	54043.79
650.059	54177.35
650.411	54442.2
650.763	54498.47
651.115	54849.42
651.467	54647.62
651.819	54602.65
652.171	54555.19
652.523	54445.14
652.875	54563.33
653.227	54251.24
653.578	54530.11
653.93	54382.76
654.282	54287.63
654.633	54187.97
654.985	54288.53
655.337	54239.72
655.688	54279.49
656.039	54313.84
656.391	54131.47
656.742	54073.62
657.094	54141.19
657.445	54290.11
657.796	54127.4
658.147	54050.57
658.498	54110.68
658.849	54088.08
659.2	54090.57
659.551	53962.66
659.902	54125.14
660.253	53913.17
660.604	54008.54
660.955	53921.99
661.306	53992.27
661.656	53827.53
662.007	53891.25
662.358	53832.72
662.708	53920.63
663.059	53853.06
663.409	53582.11
663.76	53887.86
664.11	53825.72
664.461	53871.82
664.811	53757.24
665.161	53749.56
665.511	53727.87
665.862	53732.16
666.212	53734.19
666.562	53782.55
666.912	53649.9
667.262	53563.13
667.612	53622.56
667.962	53701.88
668.312	53481.77
668.662	53736.23
669.011	53564.71
669.361	53524.71
669.711	53434.54
670.06	53373.07
670.41	53379.4
670.76	53311.38
671.109	53490.36
671.459	53411.27
671.808	53336.69
672.157	53378.95
672.507	53180.54
672.856	53215.11
673.205	53186.19
673.554	53289.23
673.904	53129.46
674.253	53315.67
674.602	53236.13
674.951	52750.49
675.3	52580.78
675.649	53163.81
675.998	53087.88
676.346	53072.29
676.695	53083.59
677.044	52849.25
677.393	52996.81
677.741	52916.14
678.09	52867.55
678.438	52846.76
678.787	52916.36
679.135	52877.95
679.484	52656.71
679.832	52724.28
680.181	52595.02
680.529	52713.2
680.877	52590.5
681.225	52530.84
681.573	52690.38
681.922	52473.89
682.27	52362.71
682.618	52381.24
682.966	52258.98
683.314	52369.26
683.661	52243.84
684.009	52019.66
684.357	51953.22
684.705	51856.28
685.053	51983.28
685.4	51903.06
685.748	51817.18
686.095	51688.15
686.443	51565.89
686.79	51569.28
687.138	51525.66
687.485	51541.71
687.832	51366.35
688.18	51518.21
688.527	51322.51
688.874	51289.51
689.221	51199.35
689.568	51069.41
689.915	50936.53
690.262	50941.05
690.609	50863.08
690.956	50803.42
691.303	50654.5
691.65	50524.11
691.997	50566.14
692.344	50302.65
692.69	50271.91
693.037	50315.53
693.383	49976.78
693.73	50127.51
694.077	49864.92
694.423	49864.24
694.769	49798.25
695.116	49473.29
695.462	49549.9
695.808	49433.97
696.155	49446.4
696.501	49188.33
696.847	49192.17
697.193	48802.35
697.539	49064.94
697.885	48866.75
698.231	48624.05
698.577	48804.38
698.923	48579.98
699.269	48474.67
699.614	48246.88
699.96	48249.82
700.306	48305.64
700.651	47983.61
700.997	47890.28
701.342	47766.67
701.688	47855.93
702.033	47744.3
702.379	47577.75
702.724	47507.69
703.069	47567.35
703.415	46981.38
703.76	47117.65
704.105	47082.17
704.45	47047.82
704.795	46805.11
705.14	46649.63
705.485	46726.02
705.83	46428.85
706.175	46432.92
706.52	46438.34
706.865	46166.26
707.209	45950.67
707.554	45978.24
707.899	46107.73
708.243	45728.3
708.588	45806.49
708.932	45585.93
709.277	45508.2
709.621	45525.14
709.966	45176.23
710.31	45411.93
710.654	45046.74
710.998	44991.6
711.342	45060.07
711.687	44985.72
712.031	44664.15
712.375	44506.64
712.719	44623.93
713.063	44552.06
713.407	44561.33
713.75	44403.14
714.094	44354.33
714.438	44284.05
714.782	44236.59
715.125	43974.9
715.469	44101.23
715.812	43874.11
716.156	43749.37
716.499	43626.21
716.843	43825.3
717.186	43480.68
717.53	43645.19
717.873	43550.96
718.216	43431.87
718.559	43242.04
718.902	42990.75
719.246	43095.83
719.589	42907.13
719.932	42775.61
720.275	42796.85
720.617	42802.5
720.96	42739.68
721.303	42734.03
721.646	42602.96
721.989	42339.92
722.331	42512.12
722.674	42407.71
723.016	42315.51
723.359	42303.08
723.701	42232.12
724.044	41990.77
724.386	41683.44
724.729	42080.49
725.071	41871.91
725.413	41783.32
725.755	41735.87
726.097	41508.98
726.439	41446.83
726.782	41288.65
727.124	41633.27
727.465	41313.73
727.807	41379.94
728.149	41294.07
728.491	40971.37
728.833	41188.99
729.175	40901.31
729.516	40921.2
729.858	40878.04
730.199	40855.89
730.541	40784.48
730.882	40653.63
731.224	40591.72
731.565	40522.11
731.906	40491.6
732.248	40529.8
732.589	40397.14
732.93	40200.09
733.271	40312.4
733.612	40138.62
733.953	40292.06
734.294	40000.09
734.635	40005.74
734.976	40104.95
735.317	39782.02
735.658	39629.03
735.999	39749.7
736.339	39539.99
736.68	39797.84
737.021	39577.28
737.361	39366.21
737.702	39570.27
738.042	39503.83
738.383	39247.12
738.723	39280.56
739.063	39160.79
739.404	39271.07
739.744	39014.58
740.084	38961.93
740.424	39001.93
740.764	38850.07
741.104	38895.71
741.444	38744.98
741.784	38600.13
742.124	38764.19
742.464	38609.17
742.804	38488.27
743.143	38475.16
743.483	38488.04
743.823	38208.5
744.162	38367.59
744.502	38295.28
744.841	38130.31
745.181	38155.17
745.52	37923.76
745.86	38029.97
746.199	37819.13
746.538	37949.75
746.877	37922.63
747.216	37855.06
747.556	37672.7
747.895	37637.67
748.234	37467.96
748.573	37580.27
748.911	37388.64
749.25	37372.59
749.589	37239.71
749.928	37247.62
750.267	37262.09
750.605	37103.45
750.944	37003.79
751.283	36961.3
751.621	36893.96
751.96	36761.76
