Data from White_reflection_standard_FLMS001491_039.txt Node
Date: Tue Feb 07 10:32:03 GMT 2017
User: dcchb
Spectrometer: FLMS00149
Trigger mode: 0
Integration Time (sec): 2.000000E-2
Scans to average: 10
Electric dark correction enabled: true
Nonlinearity correction enabled: false
Boxcar width: 0
XAxis mode: Wavelengths
Number of Pixels in Spectrum: 2048
>>>>>Begin Spectral Data<<<<<
341.393	7.51
341.776	7.51
342.16	7.51
342.543	-51.92
342.927	-40.62
343.31	-75.42
343.693	-53.05
344.077	-58.02
344.46	-59.38
344.843	-54.18
345.226	-38.81
345.61	-39.49
345.993	-20.28
346.376	-21.19
346.759	8.64
347.142	8.19
347.525	53.61
347.908	65.37
348.291	73.5
348.674	95.2
349.057	115.31
349.44	115.76
349.823	142.88
350.206	152.14
350.588	238.24
350.971	243.21
351.354	264.46
351.737	259.48
352.119	298.81
352.502	301.52
352.884	320.5
353.267	307.85
353.65	333.16
354.032	347.39
354.414	355.08
354.797	356.88
355.179	369.76
355.562	346.94
355.944	389.2
356.326	400.95
356.709	399.59
357.091	369.99
357.473	406.83
357.855	409.09
358.238	390.1
358.62	389.2
359.002	388.97
359.384	416.09
359.766	409.09
360.148	417.9
360.53	407.05
360.912	418.35
361.294	389.88
361.676	393.04
362.057	393.04
362.439	416.32
362.821	424
363.203	401.85
363.584	397.79
363.966	394.4
364.348	401.85
364.729	413.83
365.111	400.05
365.493	418.12
365.874	417.9
366.256	405.7
366.637	421.74
367.019	413.83
367.4	402.31
367.781	418.58
368.163	414.28
368.544	431.01
368.925	434.62
369.306	417.67
369.688	432.36
370.069	409.31
370.45	422.87
370.831	428.52
371.212	434.4
371.593	431.68
371.974	440.04
372.355	436.66
372.736	462.64
373.117	463.77
373.498	461.51
373.879	459.03
374.26	465.35
374.641	420.84
375.021	448.63
375.402	459.93
375.783	466.03
376.163	509.2
376.544	492.47
376.925	497.67
377.305	489.54
377.686	497.67
378.066	480.27
378.447	494.28
378.827	521.62
379.208	494.05
379.588	510.33
379.968	503.09
380.349	536.54
380.729	510.1
381.109	531.57
381.489	541.96
381.87	548.52
382.25	545.35
382.63	535.18
383.01	551.68
383.39	580.15
383.77	567.5
384.15	554.39
384.53	567.5
384.91	572.02
385.29	583.77
385.67	614.73
386.049	607.95
386.429	602.53
386.809	623.32
387.189	593.71
387.568	616.99
387.948	642.3
388.328	628.51
388.707	657.89
389.087	656.31
389.466	669.64
389.846	681.39
390.225	699.93
390.605	697.89
390.984	686.37
391.363	696.76
391.743	728.4
392.122	680.72
392.501	724.33
392.881	733.82
393.26	746.48
393.639	745.57
394.018	776.99
394.397	777.44
394.776	781.5
395.155	805.69
395.534	787.83
395.913	792.13
396.292	806.14
396.671	845.46
397.05	829.41
397.429	853.59
397.808	825.57
398.186	844.1
398.565	852.46
398.944	882.75
399.323	876.19
399.701	874.84
400.08	882.29
400.458	901.28
400.837	927.26
401.215	922.74
401.594	922.07
401.972	934.95
402.351	943.76
402.729	968.17
403.107	999.35
403.486	968.62
403.864	979.69
404.242	1001.16
404.62	996.41
404.999	1028.28
405.377	1044.55
405.755	1071.44
406.133	1052.01
406.511	1096.98
406.889	1098.33
407.267	1099.69
407.645	1103.08
408.023	1120.48
408.401	1141.04
408.779	1168.84
409.156	1191.66
409.534	1203.64
409.912	1224.21
410.29	1228.72
410.667	1238.44
411.045	1279.8
411.422	1274.15
411.8	1322.73
412.178	1331.55
412.555	1347.14
412.933	1364.09
413.31	1383.52
413.687	1395.05
414.065	1417.19
414.442	1418.78
414.819	1432.11
415.197	1461.26
415.574	1485.22
415.951	1511.88
416.328	1525.21
416.705	1531.32
417.082	1538.55
417.46	1557.98
417.837	1564.31
418.214	1573.8
418.591	1610.64
418.967	1641.82
419.344	1626.91
419.721	1656.96
420.098	1649.73
420.475	1713.01
420.852	1698.54
421.228	1729.73
421.605	1722.27
421.982	1777.86
422.358	1770.86
422.735	1811.31
423.111	1830.29
423.488	1836.39
423.864	1856.96
424.241	1864.87
424.617	1893.79
424.994	1925.2
425.37	1928.82
425.746	1985.54
426.123	1998.87
426.499	1981.7
426.875	2032.55
427.251	2061.92
427.627	2107.57
428.003	2125.2
428.379	2158.64
428.756	2159.55
429.132	2195.03
429.507	2222.14
429.883	2279.32
430.259	2317.74
430.635	2305.76
431.011	2345.53
431.387	2417.85
431.763	2449.03
432.138	2456.72
432.514	2495.81
432.89	2509.6
433.265	2584.62
433.641	2583.04
434.016	2637.05
434.392	2668.69
434.767	2698.52
435.143	2710.27
435.518	2752.53
435.894	2846.99
436.269	2846.76
436.644	2884.73
437.02	2853.99
437.395	2922.92
437.77	2955.46
438.145	2963.82
438.52	3032.29
438.895	3041.56
439.271	3074.33
439.646	3109.13
440.021	3158.17
440.395	3150.03
440.77	3184.61
441.145	3205.17
441.52	3235.45
441.895	3268.9
442.27	3292.85
442.645	3325.84
443.019	3372.62
443.394	3360.19
443.769	3387.54
444.143	3432.28
444.518	3493.52
444.892	3462.56
445.267	3524.94
445.641	3542.11
446.016	3571.04
446.39	3611.49
446.764	3604.26
447.139	3602.22
447.513	3633.86
447.887	3669.34
448.262	3733.52
448.636	3687.19
449.01	3781.88
449.384	3838.37
449.758	3842.89
450.132	3896.45
450.506	3893.51
450.88	3973.96
451.254	3921.31
451.628	4048.09
452.002	4043.79
452.376	4083.79
452.75	4156.11
453.123	4200.4
453.497	4243.33
453.871	4249.44
454.244	4406.95
454.618	4380.96
454.992	4454.63
455.365	4460.28
455.739	4583.89
456.112	4634.28
456.486	4700.05
456.859	4698.92
457.232	4828.63
457.606	4780.72
457.979	4863.21
458.352	4970.77
458.725	5037.89
459.099	5031.56
459.472	5178
459.845	5206.02
460.218	5299.35
460.591	5330.99
460.964	5343.87
461.337	5505
461.71	5541.83
462.083	5628.38
462.456	5616.86
462.829	5674.94
463.201	5781.83
463.574	5796.74
463.947	5913.35
464.32	6056.85
464.692	6037.86
465.065	6119.67
465.438	6196.28
465.81	6365.99
466.183	6409.83
466.555	6595.14
466.928	6528.47
467.3	6557.17
467.672	6701.35
468.045	6889.14
468.417	6917.84
468.789	6921.46
469.161	7039.19
469.534	7134.11
469.906	7354.89
470.278	7384.27
470.65	7473.31
471.022	7626.97
471.394	7736.35
471.766	7841.43
472.138	7925.72
472.51	8031.94
472.882	8191.03
473.253	8291.36
473.625	8468.99
473.997	8615.2
474.369	8676.21
474.74	8771.8
475.112	8954.4
475.484	9116.43
475.855	9256.99
476.227	9342.86
476.598	9594.15
476.97	9687.26
477.341	9904.2
477.713	10010.64
478.084	10149.62
478.455	10442.27
478.827	10496.96
479.198	10875.48
479.569	10825.31
479.94	11141.46
480.311	11309.82
480.682	11494.22
481.053	11724.95
481.424	11909.12
481.795	12022.57
482.166	12263.69
482.537	12430.46
482.908	12720.4
483.279	12815.09
483.65	13003.33
484.021	13204.23
484.391	13422.98
484.762	13538.91
485.133	13669.98
485.503	13937.54
485.874	14250.08
486.244	14361.03
486.615	14641.03
486.985	14809.84
487.356	15084.63
487.726	15165.31
488.097	15491.4
488.467	15611.62
488.837	15958.28
489.207	16085.74
489.578	16335.67
489.948	16463.58
490.318	16703.57
490.688	16708.32
491.058	16998.25
491.428	17352.59
491.798	17436.89
492.168	17789.87
492.538	17858.8
492.908	18087.49
493.278	18336.75
493.648	18372.45
494.017	18611.09
494.387	18796.17
494.757	18936.96
495.126	19121.81
495.496	19269.83
495.866	19337.18
496.235	19601.57
496.605	19799.08
496.974	19921.34
497.344	20065.74
497.713	20241.56
498.082	20317.94
498.452	20575.56
498.821	20691.49
499.19	20802
499.559	20979.17
499.928	21124.25
500.298	21277.69
500.667	21478.59
501.036	21559.72
501.405	21752.48
501.774	21776.66
502.143	21937.56
502.512	22110.21
502.88	22338.23
503.249	22420.03
503.618	22608.95
503.987	22696.41
504.356	22929.62
504.724	22962.39
505.093	23132.1
505.462	23257.98
505.83	23375.49
506.199	23574.13
506.567	23810.73
506.936	23838.98
507.304	24183.15
507.672	24398.29
508.041	24304.5
508.409	24654.78
508.777	24796.01
509.145	25057.93
509.514	25067.42
509.882	25287.98
510.25	25321.65
510.618	25552.83
510.986	25595.77
511.354	25974.06
511.722	26180.16
512.09	26370.44
512.458	26400.72
512.826	26630.09
513.193	26810.88
513.561	26984.66
513.929	27121.83
514.297	27284.54
514.664	27544.42
515.032	27774.24
515.4	27923.39
515.767	28131.52
516.135	28332.64
516.502	28168.36
516.869	28666.2
517.237	29009.69
517.604	28771.05
517.972	29200.64
518.339	29365.16
518.706	29405.61
519.073	29622.1
519.44	29941.87
519.808	30192.93
520.175	30282.42
520.542	30598.35
520.909	30906.36
521.276	30937.55
521.643	31307.48
522.009	31471.55
522.376	31570.98
522.743	32036.73
523.11	32225.2
523.477	32447.56
523.843	32786.31
524.21	32976.82
524.577	33238.73
524.943	33382.91
525.31	33609.79
525.676	33949.45
526.043	34156.45
526.409	34335.88
526.776	34765.92
527.142	34820.38
527.508	34959.36
527.874	35296.08
528.241	35446.58
528.607	35573.81
528.973	35865.78
529.339	35976.96
529.705	36276.39
530.071	36724.51
530.437	36863.72
530.803	37039.99
531.169	37179.19
531.535	37237.95
531.901	37356.81
532.267	37649.01
532.632	37680.87
532.998	38109.56
533.364	38326.73
533.73	38383.68
534.095	38599.72
534.461	38712.26
534.826	38938.69
535.192	39054.62
535.557	39325.58
535.923	39474.05
536.288	39597.66
536.653	39730.09
537.019	39646.92
537.384	39946.58
537.749	40123.75
538.114	40308.83
538.479	40262.73
538.845	40451.87
539.21	40545.66
539.575	40613
539.94	40874.69
540.305	41246.43
540.67	41028.36
541.034	41250.95
541.399	41549.25
541.764	41616.36
542.129	41825.85
542.494	41806.64
542.858	42065.62
543.223	42069.46
543.587	42302
543.952	42316.23
544.316	42482.56
544.681	42563.68
545.045	42763.68
545.41	42935.65
545.774	43103.78
546.138	43178.58
546.503	43188.07
546.867	43300.84
547.231	43723.88
547.595	43708.96
547.959	43869.64
548.324	43965
548.688	43964.78
549.052	44325.22
549.416	44263.98
549.779	44284.77
550.143	44631.88
550.507	44805.21
550.871	44893.57
551.235	44922.94
551.599	45247.45
551.962	45465.08
552.326	45552.08
552.689	45763.6
553.053	45684.96
553.417	45644.96
553.78	46295.56
554.143	46150.93
554.507	46387.09
554.87	46552.73
555.234	46959.73
555.597	46678.15
555.96	46873.85
556.323	47181.64
556.686	47236.55
557.05	47514.51
557.413	47525.13
557.776	47689.88
558.139	48057.1
558.502	47979.81
558.865	48101.62
559.228	48445.11
559.59	48523.53
559.953	48747.7
560.316	49007.81
560.679	49025.43
561.041	49198.31
561.404	49433.78
561.767	49632.42
562.129	49517.62
562.492	49980.89
562.854	49867.9
563.217	50010.49
563.579	50299.98
563.941	50311.05
564.304	50649.35
564.666	50739.06
565.028	50892.28
565.39	51092.72
565.753	51162.78
566.115	51214.08
566.477	51401.42
566.839	51486.84
567.201	51713.95
567.563	51722.31
567.925	51950.78
568.287	52026.94
568.648	52130.21
569.01	52118.23
569.372	52400.03
569.734	52300.83
570.095	52613.36
570.457	52784.66
570.819	52838.67
571.18	52807.26
571.542	52987.36
571.903	52981.71
572.265	53159.34
572.626	53213.12
572.987	53288.37
573.349	53356.62
573.71	53449.05
574.071	53539.67
574.432	53679.32
574.794	53898.53
575.155	53760.22
575.516	53802.71
575.877	53833.22
576.238	54004.96
576.599	54116.15
576.96	54141.91
577.32	54165.86
577.681	54207.9
578.042	54319.08
578.403	54357.72
578.763	54331.96
579.124	54378.97
579.485	54522.01
579.845	54591.16
580.206	54489.25
580.566	54573.54
580.927	54509.81
581.287	54664.38
581.648	54570.15
582.008	54726.53
582.368	54652.4
582.728	54734.44
583.089	54676.81
583.449	54684.95
583.809	54725.85
584.169	54765.62
584.529	54739.41
584.889	54939.85
585.249	54669.13
585.609	54697.6
585.969	54852.63
586.329	54782.34
586.688	54841.1
587.048	54804.94
587.408	54807.65
587.768	54823.47
588.127	54809.24
588.487	54777.6
588.846	54964.71
589.206	54813.53
589.565	54802.68
589.925	54917.48
590.284	54779.63
590.643	54834.32
591.003	54870.7
591.362	55007.2
591.721	54905.05
592.08	54870.93
592.44	55026.41
592.799	55039.51
593.158	54948.67
593.517	54978.5
593.876	55056.91
594.235	54914.32
594.593	55026.86
594.952	55040.87
595.311	54916.35
595.67	55039.29
596.029	55169.68
596.387	55169.23
596.746	55203.58
597.104	55050.81
597.463	55119.06
597.822	55270.47
598.18	55091.72
598.538	55146.4
598.897	55232.95
599.255	55064.82
599.613	55453.51
599.972	55203.12
600.33	55352.27
600.688	55209.45
601.046	55391.37
601.404	55496.22
601.762	55417.81
602.12	55493.96
602.478	55511.14
602.836	55456.68
603.194	55345.49
603.552	55435.89
603.91	55370.13
604.268	55575.09
604.625	55463.46
604.983	55551.36
605.341	55494.42
605.698	55545.04
606.056	55685.37
606.413	55592.72
606.771	55665.26
607.128	55777.12
607.485	55639.72
607.843	55702.77
608.2	55774.64
608.557	55938.7
608.914	55749.55
609.272	55934.86
609.629	55953.16
609.986	56100.5
610.343	55913.39
610.7	56089.2
611.057	55995.42
611.414	56001.75
611.771	56123.33
612.127	56158.81
612.484	56173.72
612.841	56279.93
613.198	56159.03
613.554	56115.19
613.911	56294.62
614.267	56352.47
614.624	56191.35
614.98	56290.33
615.337	56392.92
615.693	56342.3
616.05	56255.3
616.406	56425.24
616.762	56386.37
617.118	56361.06
617.475	56355.41
617.831	56474.5
618.187	56418.01
618.543	56458.01
618.899	56699.13
619.255	56565.8
619.611	56505.69
619.967	56597.44
620.323	56602.41
620.678	56605.57
621.034	56577.1
621.39	56526.03
621.746	56494.84
622.101	56783.42
622.457	56549.98
622.812	56605.12
623.168	56668.85
623.523	56630.21
623.879	56738.9
624.234	56507.5
624.589	56667.49
624.945	56659.13
625.3	56684.67
625.655	56660.94
626.01	56644.67
626.365	56702.97
626.72	56640.6
627.075	56541.62
627.43	56577.55
627.785	56444.45
628.14	56599.02
628.495	56649.64
628.85	56552.92
629.205	56498.68
629.559	56632.01
629.914	56439.25
630.269	56464.33
630.623	56433.6
630.978	56370.1
631.332	56469.98
631.687	56463.43
632.041	56417.33
632.396	56483.09
632.75	56291.01
633.104	56342.3
633.459	56178.47
633.813	56177.79
634.167	56187.96
634.521	56113.61
634.875	56252.36
635.229	56054.18
635.583	56049.88
635.937	56024.12
636.291	55916.78
636.645	55988.87
636.999	55899.38
637.352	55969.43
637.706	55797.91
638.06	55900.28
638.413	55851.02
638.767	55705.94
639.121	55717.46
639.474	55605.6
639.828	55656.9
640.181	55698.25
640.534	55663.68
640.888	55597.46
641.241	55472.27
641.594	55463.91
641.947	55505.49
642.301	55491.48
642.654	55465.49
643.007	55380.07
643.36	55389.56
643.713	55379.62
644.066	55394.53
644.419	55216.91
644.771	54993.64
645.124	54715
645.477	54772.85
645.83	54491.96
646.182	54441.34
646.535	54321.34
646.888	54343.94
647.24	54171.97
647.593	54418.06
647.945	54316.37
648.298	54178.52
648.65	54071.86
649.002	54001.12
649.355	54062.59
649.707	54016.26
650.059	54089.48
650.411	54390.94
650.763	54462.81
651.115	54824.83
651.467	54632.07
651.819	54677.71
652.171	54541.67
652.523	54568.34
652.875	54482.24
653.227	54352.07
653.578	54585.51
653.93	54434.78
654.282	54331.51
654.633	54247.67
654.985	54345.52
655.337	54280.89
655.688	54242.47
656.039	54375.12
656.391	54071.63
656.742	54142.81
657.094	54118.41
657.445	54272.3
657.796	54140.1
658.147	54090.84
658.498	54053.55
658.849	54163.38
659.2	54072.76
659.551	53961.12
659.902	54019.88
660.253	53940.11
660.604	54070.95
660.955	53888.81
661.306	53961.8
661.656	53949.15
662.007	53950.73
662.358	53926.32
662.708	53797.51
663.059	53830.73
663.409	53585.99
663.76	53835.93
664.11	53847.91
664.461	53905.98
664.811	53856.95
665.161	53701.47
665.511	53612.43
665.862	53682.03
666.212	53832.99
666.562	53805.2
666.912	53706.44
667.262	53626.22
667.612	53678.19
667.962	53659.66
668.312	53590.29
668.662	53671.19
669.011	53549.16
669.361	53506.45
669.711	53386
670.06	53522.27
670.41	53407.92
670.76	53383.06
671.109	53518.42
671.459	53416.73
671.808	53254.48
672.157	53303.74
672.507	53245.21
672.856	53141.94
673.205	53299.45
673.554	53379.67
673.904	53106.68
674.253	53328.82
674.602	53198.88
674.951	52743.08
675.3	52638.9
675.649	53104.65
675.998	53091.09
676.346	53033.24
676.695	53121.37
677.044	52875.5
677.393	53040.7
677.741	53003.41
678.09	52883.41
678.438	52853.81
678.787	52906.24
679.135	52849.74
679.484	52682.97
679.832	52779.46
680.181	52621.5
680.529	52613.59
680.877	52596.19
681.225	52544.21
681.573	52725.22
681.922	52498.79
682.27	52356.42
682.618	52350.32
682.966	52287.04
683.314	52391
683.661	52256.99
684.009	52158.23
684.357	51963.21
684.705	51959.59
685.053	51981.06
685.4	51967.28
685.748	51820.61
686.095	51737.91
686.443	51582.2
686.79	51654.29
687.138	51681.18
687.485	51631.24
687.832	51395.09
688.18	51553.96
688.527	51210.46
688.874	51223.34
689.221	51260.4
689.568	51158.49
689.915	51005.72
690.262	50897.25
690.609	50812.28
690.956	50760.76
691.303	50659.97
691.65	50475.79
691.997	50509.01
692.344	50274.21
692.69	50262.01
693.037	50224.05
693.383	49986.54
693.73	50121
694.077	49848.46
694.423	49862.93
694.769	49760.1
695.116	49577.96
695.462	49537.29
695.808	49481.69
696.155	49586.32
696.501	49128.93
696.847	49256.16
697.193	48872.67
697.539	49200.57
697.885	48758.55
698.231	48720.36
698.577	48764.65
698.923	48576.63
699.269	48434.04
699.614	48272.91
699.96	48153.37
700.306	48148.62
700.651	47962.19
700.997	47890.77
701.342	47905.01
701.688	47818.69
702.033	47648.97
702.379	47554.51
702.724	47552.7
703.069	47488.98
703.415	47065.26
703.76	47154.07
704.105	47199.72
704.45	47061.64
704.795	46723.12
705.14	46609.45
705.485	46618.27
705.83	46431.15
706.175	46557.48
706.52	46406.97
706.865	46267.77
707.209	46191.16
707.554	46022.35
707.899	46129.92
708.243	45826.2
708.588	45824.61
708.932	45503.27
709.277	45475.92
709.621	45532.64
709.966	45262.6
710.31	45446.09
710.654	44983.96
710.998	44967.01
711.342	45081.58
711.687	44959.55
712.031	44691.54
712.375	44495.61
712.719	44637.75
713.063	44584.87
713.407	44625.55
713.75	44392.34
714.094	44448.15
714.438	44129.07
714.782	44296.74
715.125	43999.58
715.469	44027.15
715.812	43849.3
716.156	43586.71
716.499	43612.02
716.843	43730.66
717.186	43487.5
717.53	43563.66
717.873	43601.4
718.216	43403.44
718.559	43183.78
718.902	42921.87
719.246	43090.67
719.589	43024.91
719.932	42862.21
720.275	42763
720.617	42795.99
720.96	42629.9
721.303	42758.48
721.646	42560.29
721.989	42234.88
722.331	42666.51
722.674	42323.92
723.016	42408.43
723.359	42243.24
723.701	42149.46
724.044	41886.86
724.386	41859.29
724.729	41994.88
725.071	41837.37
725.413	41881.67
725.755	41771.39
726.097	41546.08
726.439	41383.38
726.782	41501.56
727.124	41626.08
727.465	41295.02
727.807	41322.59
728.149	41161.46
728.491	41149.48
728.833	41144.51
729.175	40849.15
729.516	40967.79
729.858	40822.94
730.199	40869.26
730.541	40618.42
730.882	40628.59
731.224	40789.27
731.565	40489.16
731.906	40537.3
732.248	40552.44
732.589	40203.29
732.93	40221.82
733.271	40230.86
733.612	40199.68
733.953	40119.23
734.294	40022.73
734.635	39963.98
734.976	40008.5
735.317	39816.64
735.658	39719.46
735.999	39837.43
736.339	39486.25
736.68	39757.43
737.021	39405.35
737.361	39359.02
737.702	39545.23
738.042	39474.05
738.383	39226.37
738.723	39313.15
739.063	39145.47
739.404	39173.94
739.744	39173.94
740.084	38821.18
740.424	39128.75
740.764	38921.52
741.104	39084.45
741.444	38722.88
741.784	38693.28
742.124	38769.66
742.464	38578.7
742.804	38582.77
743.143	38382.55
743.483	38415.32
743.823	38297.58
744.162	38252.84
744.502	38303.46
744.841	38126.96
745.181	38161.31
745.52	38107.76
745.86	38030.24
746.199	37849.91
746.538	37852.39
746.877	37975.33
747.216	37839.74
747.556	37703.02
747.895	37764.71
748.234	37627.54
748.573	37409.69
748.911	37423.93
749.25	37400.88
749.589	37144.39
749.928	37204.28
750.267	37233.43
750.605	37190.94
750.944	36958.18
751.283	36844.96
751.621	36985.07
751.96	36744.85
752.298	36797.73
