Data from white_wall_FLMS001491_012.txt Node
Date: Tue Feb 07 11:03:41 GMT 2017
User: dcchb
Spectrometer: FLMS00149
Trigger mode: 0
Integration Time (sec): 2.000000E-2
Scans to average: 10
Electric dark correction enabled: true
Nonlinearity correction enabled: false
Boxcar width: 0
XAxis mode: Wavelengths
Number of Pixels in Spectrum: 2048
>>>>>Begin Spectral Data<<<<<
341.393	-19.11
341.776	-19.11
342.16	-19.11
342.543	-45.1
342.927	-37.41
343.31	-85.32
343.693	-68.83
344.077	-58.66
344.46	-59.33
344.843	-44.42
345.226	-26.34
345.61	-45.55
345.993	-23.18
346.376	-17.53
346.759	23.38
347.142	31.06
347.525	59.76
347.908	46.88
348.291	80.77
348.674	98.18
349.057	89.14
349.44	131.17
349.823	136.82
350.206	165.07
350.588	224.95
350.971	219.3
351.354	239.41
351.737	243.93
352.119	284.39
352.502	293.65
352.884	292.07
353.267	302.24
353.65	329.13
354.032	337.72
354.414	326.19
354.797	334.1
355.179	356.7
355.562	349.24
355.944	347.43
356.326	347.89
356.709	356.93
357.091	370.48
357.473	372.97
357.855	369.35
358.238	349.92
358.62	354.21
359.002	357.15
359.384	357.15
359.766	385.17
360.148	367.77
360.53	363.71
360.912	385.4
361.294	376.59
361.676	376.59
362.057	361.22
362.439	369.13
362.821	350.15
363.203	376.36
363.584	365.96
363.966	340.2
364.348	366.64
364.729	342.24
365.111	352.41
365.493	333.88
365.874	363.93
366.256	358.51
366.637	338.62
367.019	353.99
367.4	364.61
367.781	348.34
368.163	340.43
368.544	356.25
368.925	347.21
369.306	342.24
369.688	364.38
370.069	341.33
370.45	353.08
370.831	351.73
371.212	347.21
371.593	361.22
371.974	345.63
372.355	360.99
372.736	348.56
373.117	353.99
373.498	383.14
373.879	359.41
374.26	364.16
374.641	350.37
375.021	347.66
375.402	353.31
375.783	382.46
376.163	393.76
376.544	379.07
376.925	387.43
377.305	387.43
377.686	349.24
378.066	371.84
378.447	372.29
378.827	374.1
379.208	385.4
379.588	382.69
379.968	384.95
380.349	390.15
380.729	407.32
381.109	394.44
381.489	372.52
381.87	399.41
382.25	394.89
382.63	397.38
383.01	394.21
383.39	392.18
383.77	422.01
384.15	419.75
384.53	418.84
384.91	442.35
385.29	422.91
385.67	438.28
386.049	439.64
386.429	413.65
386.809	435.34
387.189	435.57
387.568	440.99
387.948	462.23
388.328	456.36
388.707	459.3
389.087	453.87
389.466	448.67
389.846	488.45
390.225	479.63
390.605	479.41
390.984	487.54
391.363	485.96
391.743	473.08
392.122	503.59
392.501	500.42
392.881	529.58
393.26	533.19
393.639	512.85
394.018	528.22
394.397	542.23
394.776	536.13
395.155	552.4
395.534	561.67
395.913	566.86
396.292	585.39
396.671	586.07
397.05	577.26
397.429	594.43
397.808	603.7
398.186	622.91
398.565	638.5
398.944	615.45
399.323	644.83
399.701	653.87
400.08	633.98
400.458	669.46
400.837	695.45
401.215	712.17
401.594	697.48
401.972	722.34
402.351	750.14
402.729	737.93
403.107	751.27
403.486	754.88
403.864	800.76
404.242	798.04
404.62	812.51
404.999	809.8
405.377	812.51
405.755	858.61
406.133	876.23
406.511	860.87
406.889	878.27
407.267	911.49
407.645	937.02
408.023	960.75
408.401	984.25
408.779	998.04
409.156	1023.57
409.534	1012.73
409.912	1027.64
410.29	1075.32
410.667	1052.95
411.045	1085.27
411.422	1099.05
411.8	1090.69
412.178	1143.35
412.555	1162.1
412.933	1167.07
413.31	1203.01
413.687	1201.2
414.065	1249.56
414.442	1233.29
414.819	1254.08
415.197	1285.04
415.574	1313.28
415.951	1327.07
416.328	1354.64
416.705	1340.4
417.082	1367.97
417.46	1370.68
417.837	1414.98
418.214	1401.64
418.591	1415.2
418.967	1431.25
419.344	1440.96
419.721	1470.79
420.098	1480.74
420.475	1518.25
420.852	1512.83
421.228	1517.57
421.605	1515.31
421.982	1561.64
422.358	1587.4
422.735	1570.45
423.111	1617.91
423.488	1638.93
423.864	1667.63
424.241	1714.86
424.617	1712.82
424.994	1715.08
425.37	1701.75
425.746	1766.83
426.123	1753.05
426.499	1736.1
426.875	1817.45
427.251	1843.89
427.627	1865.59
428.003	1875.53
428.379	1883.89
428.756	1946.04
429.132	1935.19
429.507	2007.73
429.883	2024.45
430.259	2029.65
430.635	2070.1
431.011	2110.1
431.387	2115.3
431.763	2189.65
432.138	2191.91
432.514	2210.66
432.89	2239.59
433.265	2287.72
433.641	2313.94
434.016	2326.82
434.392	2374.05
434.767	2410.2
435.143	2406.59
435.518	2453.59
435.894	2481.39
436.269	2508.06
436.644	2541.95
437.02	2553.03
437.395	2573.82
437.77	2624.44
438.145	2656.3
438.52	2669.18
438.895	2722.97
439.271	2733.13
439.646	2822.62
440.021	2808.61
440.395	2844.54
440.77	2802.96
441.145	2833.47
441.52	2944.88
441.895	2903.53
442.27	2958.44
442.645	2938.1
443.019	3015.39
443.394	3016.52
443.769	3036.18
444.143	3011.55
444.518	3086.57
444.892	3074.37
445.267	3129.06
445.641	3145.78
446.016	3149.85
446.39	3176.51
446.764	3235.95
447.139	3226
447.513	3275.27
447.887	3328.37
448.262	3299.45
448.636	3305.32
449.01	3354.13
449.384	3395.49
449.758	3417.18
450.132	3478.88
450.506	3485.66
450.88	3531.08
451.254	3531.31
451.628	3617.18
452.002	3625.54
452.376	3684.52
452.75	3728.59
453.123	3719.32
453.497	3790.06
453.871	3867.79
454.244	3914.8
454.618	3870.96
454.992	3963.38
455.365	3984.63
455.739	4097.62
456.112	4152.76
456.486	4158.18
456.859	4206.99
457.232	4306.65
457.606	4311.85
457.979	4342.13
458.352	4418.74
458.725	4536.93
459.099	4570.15
459.472	4701.22
459.845	4665.51
460.218	4722.01
460.591	4779.41
460.964	4829.8
461.337	4948.67
461.71	5019.18
462.083	5047.88
462.456	5005.62
462.829	5120.64
463.201	5205.39
463.574	5271.37
463.947	5342.78
464.32	5416.68
464.692	5449.67
465.065	5532.83
465.438	5611.25
465.81	5718.14
466.183	5817.12
466.555	5934.63
466.928	5953.61
467.3	5927.63
467.672	6082.42
468.045	6179.82
468.417	6213.49
468.789	6250.56
469.161	6357.9
469.534	6465.01
469.906	6644.44
470.278	6710.88
470.65	6734.16
471.022	6861.84
471.394	7001.5
471.766	7067.71
472.138	7182.73
472.51	7326.91
472.882	7369.4
473.253	7551.99
473.625	7662.27
473.997	7827.01
474.369	7876.28
474.74	7984.52
475.112	8141.13
475.484	8296.38
475.855	8405.98
476.227	8479.42
476.598	8803.94
476.97	8803.26
477.341	9062.69
477.713	9226.97
478.084	9220.65
478.455	9443.69
478.827	9607.98
479.198	9890.23
479.569	9892.49
479.94	10197.57
480.311	10260.85
480.682	10511.69
481.053	10734.73
481.424	10937.44
481.795	11048.62
482.166	11183.99
482.537	11369.74
482.908	11644.31
483.279	11747.81
483.65	11942.84
484.021	12261.02
484.391	12296.72
484.762	12421.69
485.133	12626.43
485.503	12848.57
485.874	13182.8
486.244	13213.31
486.615	13411.95
486.985	13663.24
487.356	13910.24
487.726	13989.56
488.097	14339.16
488.467	14366.95
488.837	14650.34
489.207	14810.56
489.578	15063.88
489.948	15151.11
490.318	15468.84
490.688	15579.8
491.058	15859.34
491.428	16057.53
491.798	16182.95
492.168	16462.04
492.538	16544.75
492.908	16860.67
493.278	17029.26
493.648	17035.81
494.017	17324.62
494.387	17519.64
494.757	17672.85
495.126	17869.69
495.496	17965.5
495.866	18031.94
496.235	18287.53
496.605	18523
496.974	18572.04
497.344	18834.63
497.713	18930.9
498.082	19031.24
498.452	19346.48
498.821	19417.89
499.19	19557.32
499.559	19698.11
499.928	19823.76
500.298	20023.53
500.667	20176.52
501.036	20208.38
501.405	20372.67
501.774	20402.73
502.143	20682.49
502.512	20761.36
502.88	21015.14
503.249	21068.7
503.618	21252.42
503.987	21359.54
504.356	21572.86
504.724	21648.8
505.093	21710.94
505.462	21925.4
505.83	22123.36
506.199	22230.25
506.567	22722.67
506.936	22616.91
507.304	22935.32
507.672	22947.52
508.041	23094.86
508.409	23434.96
508.777	23429.99
509.145	23780.04
509.514	23791.56
509.882	23858.45
510.25	24055.74
510.618	24278.1
510.986	24371.21
511.354	24715.38
511.722	24822.5
512.09	25020.23
512.458	25066.11
512.826	25300
513.193	25402.37
513.561	25631.29
513.929	25905.63
514.297	26112.63
514.664	26208.45
515.032	26424.04
515.4	26598.04
515.767	26793.52
516.135	26869
516.502	26742.45
516.869	27152.38
517.237	27394.86
517.604	27468.08
517.972	27873.49
518.339	27956.65
518.706	28165.69
519.073	28342.86
519.44	28488.84
519.808	28876.63
520.175	28890.86
520.542	29172.44
520.909	29409.95
521.276	29431.19
521.643	29814
522.009	29920.44
522.376	30194.11
522.743	30391.84
523.11	30689.24
523.477	30950.02
523.843	31175.78
524.21	31434.3
524.577	31626.84
524.943	31787.06
525.31	31958.58
525.676	32287.61
526.043	32522.63
526.409	32692.35
526.776	33059.12
527.142	33116.97
527.508	33362.84
527.874	33468.37
528.241	33843.73
528.607	33879.89
528.973	34169.82
529.339	34316.03
529.705	34699.3
530.071	34801.44
530.437	34967.99
530.803	35203.69
531.169	35464.25
531.535	35530.01
531.901	35653.4
532.267	35751.93
532.632	35967.51
532.998	36197.57
533.364	36491.12
533.73	36621.28
534.095	36756.65
534.461	36870.09
534.826	37040.71
535.192	37228.72
535.557	37482.5
535.923	37470.3
536.288	37565.44
536.653	37854.24
537.019	37855.15
537.384	37994.35
537.749	38252.43
538.114	38352.54
538.479	38501.23
538.845	38657.39
539.21	38616.48
539.575	39001.11
539.94	39012.63
540.305	39360.87
540.67	39125.62
541.034	39321.78
541.399	39576.01
541.764	39761.77
542.129	39879.05
542.494	39971.03
542.858	40152.94
543.223	40199.72
543.587	40495.08
543.952	40474.97
544.316	40672.7
544.681	40820.72
545.045	40869.08
545.41	41196.53
545.774	41305.45
546.138	41273.59
546.503	41473.81
546.867	41607.82
547.231	41793.58
547.595	42009.62
547.959	42162.83
548.324	42249.16
548.688	42377.29
549.052	42574.12
549.416	42593.56
549.779	42695.02
550.143	42861.57
550.507	43253.42
550.871	43330.03
551.235	43349.02
551.599	43718.72
551.962	43972.73
552.326	43964.59
552.689	44196.45
553.053	43968.43
553.417	44232.38
553.78	44702.65
554.143	44711.92
554.507	44944.91
554.87	45120.04
555.234	45544.21
555.597	45297.44
555.96	45587.83
556.323	45894.26
556.686	45832.11
557.05	46201.14
557.413	46250.41
557.776	46537.86
558.139	46769.26
558.502	46887.23
558.865	46889.49
559.228	47263.49
559.59	47335.8
559.953	47435.46
560.316	47867.09
560.679	47908.67
561.041	48114.99
561.404	48292.16
561.767	48604.7
562.129	48525.6
562.492	48828.65
562.854	48982.31
563.217	49054.63
563.579	49147.06
563.941	49367.16
564.304	49489.42
564.666	49750.88
565.028	49956.98
565.39	49998.56
565.753	50169.18
566.115	50227.7
566.477	50426.57
566.839	50550.41
567.201	50765.77
567.563	50733.23
567.925	51032.66
568.287	51065.87
568.648	51197.4
569.01	51385.87
569.372	51480.78
569.734	51516.26
570.095	51680.55
570.457	51761.22
570.819	51975.68
571.18	51889.36
571.542	52081.89
571.903	52109.46
572.265	52242.57
572.626	52345.16
572.987	52351.04
573.349	52583.58
573.71	52595.33
574.071	52634.87
574.432	52829.67
574.794	53010.23
575.155	52964.58
575.516	52877.8
575.877	53080.06
576.238	53159.15
576.599	53207.51
576.96	53229.89
577.32	53304.69
577.681	53467.62
578.042	53473.27
578.403	53514.17
578.763	53500.61
579.124	53556.43
579.485	53696.77
579.845	53730.44
580.206	53741.51
580.566	53768.18
580.927	53779.48
581.287	53869.87
581.648	53812.02
582.008	53921.62
582.368	53798.91
582.728	53955.52
583.089	53955.74
583.449	53875.74
583.809	53950.77
584.169	53977.44
584.529	53917.33
584.889	54132.01
585.249	53899.02
585.609	53854.5
585.969	54046.14
586.329	53958.45
586.688	54035.97
587.048	54029.64
587.408	53925.69
587.768	54014.5
588.127	53952.13
588.487	53915.74
588.846	54163.19
589.206	53983.99
589.565	54045.01
589.925	54188.96
590.284	54107.83
590.643	54120.26
591.003	54266.24
591.362	54342.4
591.721	54321.83
592.08	54278.22
592.44	54249.75
592.799	54309.41
593.158	54216.98
593.517	54201.84
593.876	54219.92
594.235	54178.11
594.593	54215.62
594.952	54262.63
595.311	54254.49
595.67	54225.11
596.029	54456.52
596.387	54413.36
596.746	54447.25
597.104	54272.12
597.463	54259.24
597.822	54460.81
598.18	54250.2
598.538	54299.24
598.897	54489.29
599.255	54279.12
599.613	54736.06
599.972	54431.21
600.33	54508.72
600.688	54538.78
601.046	54533.35
601.404	54754.59
601.762	54576.52
602.12	54762.73
602.478	54740.81
602.836	54806.79
603.194	54608.61
603.552	54693.12
603.91	54513.24
604.268	54719.11
604.625	54594.82
604.983	54846.34
605.341	54675.05
605.698	54860.8
606.056	54920.24
606.413	54875.04
606.771	54991.87
607.128	54989.61
607.485	54853.35
607.843	54897.64
608.2	55012.21
608.557	55120.01
608.914	54986
609.272	55178.54
609.629	55198.2
609.986	55278.65
610.343	55147.12
610.7	55373.11
611.057	55407.23
611.414	55298.98
611.771	55373.11
612.127	55454.46
612.484	55443.16
612.841	55542.37
613.198	55491.52
613.554	55430.96
613.911	55641.57
614.267	55583.72
614.624	55518.87
614.98	55666.43
615.337	55750.72
615.693	55668.24
616.05	55656.26
616.406	55845.18
616.762	55764.06
617.118	55719.99
617.475	55768.8
617.831	55824.17
618.187	55743.27
618.543	55777.39
618.899	56011.28
619.255	55893.54
619.611	55922.92
619.967	55986.88
620.323	56069.36
620.678	55983.26
621.034	55924.28
621.39	55913.43
621.746	55882.92
622.101	56177.38
622.457	55997.27
622.812	55987.1
623.168	56100.77
623.523	55984.62
623.879	56118.85
624.234	55929.25
624.589	56024.16
624.945	56062.58
625.3	56132.18
625.655	56078.4
626.01	56142.8
626.365	56176.93
626.72	56111.84
627.075	56057.83
627.43	56089.25
627.785	56036.37
628.14	56158.4
628.495	56143.71
628.85	56069.59
629.205	55987.1
629.559	56122.69
629.914	56005.63
630.269	56090.38
630.623	55971.06
630.978	55924.96
631.332	55997.04
631.687	56065.97
632.041	55938.97
632.396	56037.95
632.75	55870.72
633.104	55961.79
633.459	55846.99
633.813	55767.67
634.167	55808.12
634.521	55728.13
634.875	55819.87
635.229	55705.07
635.583	55636.38
635.937	55612.65
636.291	55621.69
636.645	55615.81
636.999	55540.11
637.352	55609.94
637.706	55528.13
638.06	55582.37
638.413	55528.13
638.767	55449.49
639.121	55494.68
639.474	55318.64
639.828	55315.93
640.181	55237.97
640.534	55310.06
640.888	55218.08
641.241	55077.97
641.594	55187.12
641.947	55247.23
642.301	55067.8
642.654	55040.46
643.007	55050.63
643.36	55055.15
643.713	55002.04
644.066	55040.46
644.419	54853.8
644.771	54670.75
645.124	54429.63
645.477	54441.38
645.83	54249.97
646.182	54130.88
646.535	54052.69
646.888	54134.95
647.24	53919.13
647.593	54078.22
647.945	54029.64
648.298	53805.92
648.65	53801.17
649.002	53734.05
649.355	53863.32
649.707	53765.01
650.059	53989.19
650.411	54271.21
650.763	54313.02
651.115	54512.79
651.467	54423.75
651.819	54400.02
652.171	54334.49
652.523	54314.83
652.875	54279.35
653.227	54207.04
653.578	54366.35
653.93	54224.89
654.282	54220.37
654.633	54136.98
654.985	54166.36
655.337	54112.57
655.688	54058.11
656.039	54133.36
656.391	53903.54
656.742	54057.66
657.094	54080.26
657.445	54141.73
657.796	53972.92
658.147	53842.3
658.498	53892.92
658.849	53926.36
659.2	53954.84
659.551	53849.98
659.902	53964.78
660.253	53889.53
660.604	53952.35
660.955	53715.52
661.306	53849.3
661.656	53751.91
662.007	53792.58
662.358	53721.17
662.708	53747.39
663.059	53745.58
663.409	53447.73
663.76	53803.66
664.11	53706.26
664.461	53761.17
664.811	53645.69
665.161	53684.34
665.511	53610.89
665.862	53659.7
666.212	53657.45
666.562	53668.52
666.912	53625.13
667.262	53591.23
667.612	53553.72
667.962	53570.22
668.312	53523.21
668.662	53644.34
669.011	53499.03
669.361	53498.35
669.711	53374.51
670.06	53473.04
670.41	53324.57
670.76	53315.99
671.109	53447.51
671.459	53293.16
671.808	53282.54
672.157	53384.91
672.507	53167.97
672.856	53199.6
673.205	53106.5
673.554	53233.73
673.904	53111.47
674.253	53243.9
674.602	53099.27
674.951	52700.63
675.3	52471.26
675.649	52987.63
675.998	52852.49
676.346	52958.71
676.695	53054.98
677.044	52813.4
677.393	52866.28
677.741	52929.33
678.09	52744.02
678.438	52719.62
678.787	52841.65
679.135	52699.28
679.484	52566.63
679.832	52683.46
680.181	52437.36
680.529	52693.4
680.877	52516.01
681.225	52471.94
681.573	52684.14
681.922	52358.72
682.27	52262.23
682.618	52327.99
682.966	52225.62
683.314	52303.58
683.661	52116.92
684.009	51984.72
684.357	51882.8
684.705	51748.79
685.053	51860.43
685.4	51845.29
685.748	51670.6
686.095	51655.24
686.443	51467.9
686.79	51441.68
687.138	51497.05
687.485	51530.27
687.832	51433.32
688.18	51371.4
688.527	51085.76
688.874	51171.63
689.221	51039.66
689.568	51003.28
689.915	50864.07
690.262	50769.61
690.609	50867.91
690.956	50705.66
691.303	50690.97
691.65	50447.36
691.997	50526.45
692.344	50246.91
692.69	50221.38
693.037	50291.88
693.383	49994.49
693.73	50046.01
694.077	49853.03
694.423	49775.06
694.769	49688.96
695.116	49567.38
695.462	49523.77
695.808	49237.9
696.155	49468.18
696.501	49137.56
696.847	49163.78
697.193	48965.59
697.539	49055.08
697.885	48830.91
698.231	48756.33
698.577	48801.53
698.923	48585.26
699.269	48385.72
699.614	48321.54
699.96	48208.55
700.306	48258.04
700.651	48023.92
700.997	48004.26
701.342	47878.39
701.688	47832.74
702.033	47654.89
702.379	47648.34
702.724	47658.28
703.069	47527.66
703.415	47223.49
703.76	47188.01
704.105	47240.44
704.45	46989.37
704.795	46809.94
705.14	46635.71
705.485	46708.48
705.83	46531.98
706.175	46639.1
706.52	46507.35
706.865	46291.54
707.209	46458.31
707.554	46260.58
707.899	46222.61
708.243	45906.69
708.588	45978.32
708.932	45697.2
709.277	45629.86
709.621	45708.5
709.966	45405.23
710.31	45522.29
710.654	45146.93
710.998	45200.49
711.342	45164.56
711.687	45162.3
712.031	44932.48
712.375	44755.98
712.719	44906.71
713.063	44844.57
713.407	44920.73
713.75	44619.94
714.094	44715.53
714.438	44544.24
714.782	44461.98
715.125	44267.64
715.469	44453.62
715.812	44018.38
716.156	43869.23
716.499	44067.19
716.843	43898.61
717.186	43805.73
717.53	43893.86
717.873	43859.96
718.216	43671.72
718.559	43502.46
718.902	43217.04
719.246	43389.92
719.589	43285.97
719.932	43135.91
720.275	43218.85
720.617	43099.08
720.96	43070.6
721.303	42939.53
721.646	42977.05
721.989	42750.84
722.331	42765.53
722.674	42716.94
723.016	42577.51
723.359	42536.38
723.701	42599.2
724.044	42280.8
724.386	42040.35
724.729	42368.7
725.071	42153.11
725.413	42126.45
725.755	42046.45
726.097	41849.62
726.439	41739.11
726.782	41846.68
727.124	42037.64
727.465	41778.44
727.807	41749.06
728.149	41555.62
728.491	41597.2
728.833	41504.77
729.175	41453.7
729.516	41422.29
729.858	41286.92
730.199	41418.67
730.541	41345.9
730.882	41195.63
731.224	41324.66
731.565	40931.45
731.906	40956.76
732.248	41023.43
732.589	40863.21
732.93	40724.45
733.271	40658.69
733.612	40816.65
733.953	40840.83
734.294	40634.28
734.635	40328.76
734.976	40620.27
735.317	40436.32
735.658	40202.43
735.999	40277.68
736.339	40178.03
736.68	40427.06
737.021	40231.13
737.361	39989.33
737.702	40065.03
738.042	39985.26
738.383	39926.96
738.723	39909.78
739.063	39689.68
739.404	39848.99
739.744	39671.37
740.084	39486.74
740.424	39644.48
740.764	39405.39
741.104	39508.89
741.444	39250.14
741.784	39206.98
742.124	39229.8
742.464	39173.98
742.804	39142.8
743.143	39124.04
743.483	39255.34
743.823	38926.53
744.162	38910.04
744.502	38957.94
744.841	38679.31
745.181	38745.07
745.52	38590.5
745.86	38706.2
746.199	38754.79
746.538	38539.88
746.877	38674.34
747.216	38509.37
747.556	38435.47
747.895	38465.53
748.234	38151.86
748.573	38199.55
748.911	38023.51
749.25	38018.31
749.589	37923.17
749.928	37908.71
750.267	37871.87
750.605	37837.07
750.944	37749.39
751.283	37498.77
751.621	37545.33
751.96	37384.2
752.298	37259.91
752.636	37362.51
