Data from white_wall_FLMS001491_069.txt Node
Date: Tue Feb 07 11:05:24 GMT 2017
User: dcchb
Spectrometer: FLMS00149
Trigger mode: 0
Integration Time (sec): 2.000000E-2
Scans to average: 10
Electric dark correction enabled: true
Nonlinearity correction enabled: false
Boxcar width: 0
XAxis mode: Wavelengths
Number of Pixels in Spectrum: 2048
>>>>>Begin Spectral Data<<<<<
341.393	-21.27
341.776	-21.27
342.16	-21.27
342.543	-45.22
342.927	-64.66
343.31	-47.94
343.693	-79.35
344.077	-49.07
344.46	-78.44
344.843	-44.77
345.226	-39.35
345.61	-38.9
345.993	-17.65
346.376	5.62
346.759	-0.48
347.142	22.12
347.525	37.03
347.908	55.11
348.291	69.12
348.674	97.82
349.057	109.12
349.44	123.13
349.823	150.25
350.206	156.35
350.588	207.42
350.971	227.54
351.354	258.04
351.737	263.24
352.119	258.5
352.502	291.04
352.884	301.88
353.267	280.64
353.65	310.92
354.032	314.09
354.414	328.78
354.797	328.55
355.179	338.27
355.562	355.44
355.944	367.42
356.326	339.17
356.709	359.96
357.091	362
357.473	349.34
357.855	353.86
358.238	349.12
358.62	366.97
359.002	343.47
359.384	321.55
359.766	353.63
360.148	351.15
360.53	346.18
360.912	343.69
361.294	351.15
361.676	347.76
362.057	347.31
362.439	350.92
362.821	364.26
363.203	341.43
363.584	358.83
363.966	360.41
364.348	358.61
364.729	334.2
365.111	362.67
365.493	348.21
365.874	324.03
366.256	336.23
366.637	343.01
367.019	318.38
367.4	352.73
367.781	319.29
368.163	333.97
368.544	336.01
368.925	332.17
369.306	348.21
369.688	351.83
370.069	338.04
370.45	342.79
370.831	319.96
371.212	346.18
371.593	336.46
371.974	339.4
372.355	342.56
372.736	343.24
373.117	352.05
373.498	345.95
373.879	340.98
374.26	344.37
374.641	340.75
375.021	357.48
375.402	364.71
375.783	343.47
376.163	343.47
376.544	348.44
376.925	387.53
377.305	352.05
377.686	371.94
378.066	353.18
378.447	366.29
378.827	353.63
379.208	383.24
379.588	370.81
379.968	379.85
380.349	373.52
380.729	392.05
381.109	354.09
381.489	378.49
381.87	393.18
382.25	387.53
382.63	396.57
383.01	384.59
383.39	391.83
383.77	381.2
384.15	396.12
384.53	383.92
384.91	397.48
385.29	403.12
385.67	394.31
386.049	424.59
386.429	407.42
386.809	413.52
387.189	430.69
387.568	414.42
387.948	430.02
388.328	430.02
388.707	437.47
389.087	422.33
389.466	445.84
389.846	453.52
390.225	448.32
390.605	438.15
390.984	466.17
391.363	457.13
391.743	459.62
392.122	487.42
392.501	478.15
392.881	491.71
393.26	524.03
393.639	491.26
394.018	507.3
394.397	504.14
394.776	517.92
395.155	518.38
395.534	523.35
395.913	531.03
396.292	564.48
396.671	559.51
397.05	569.67
397.429	576.45
397.808	566.51
398.186	580.75
398.565	600.18
398.944	594.08
399.323	622.55
399.701	622.33
400.08	639.05
400.458	657.36
400.837	690.58
401.215	688.54
401.594	700.29
401.972	695.77
402.351	714.98
402.729	709.33
403.107	745.49
403.486	756.56
403.864	757.92
404.242	787.52
404.62	797.01
404.999	816
405.377	810.35
405.755	823
406.133	849.67
406.511	870.46
406.889	877.24
407.267	914.52
407.645	930.12
408.023	952.94
408.401	959.49
408.779	975.99
409.156	1006.27
409.534	991.13
409.912	1001.75
410.29	1049.89
410.667	1047.18
411.045	1072.26
411.422	1099.83
411.8	1119.26
412.178	1141.64
412.555	1133.28
412.933	1157.46
413.31	1172.82
413.687	1157
414.065	1194.52
414.442	1253.27
414.819	1226.83
415.197	1225.48
415.574	1277.68
415.951	1290.56
416.328	1299.82
416.705	1319.26
417.082	1327.85
417.46	1339.37
417.837	1364.23
418.214	1369.65
418.591	1417.34
418.967	1422.53
419.344	1410.33
419.721	1437.22
420.098	1421.4
420.475	1471.12
420.852	1484.9
421.228	1496.43
421.605	1533.72
421.982	1552.93
422.358	1559.93
422.735	1556.77
423.111	1564.22
423.488	1626.14
423.864	1623.66
424.241	1644.45
424.617	1651.45
424.994	1687.84
425.37	1674.5
425.746	1706.59
426.123	1736.42
426.499	1730.55
426.875	1760.83
427.251	1814.84
427.627	1826.59
428.003	1859.13
428.379	1867.04
428.756	1892.8
429.132	1941.62
429.507	1962.18
429.883	1997.21
430.259	2034.27
430.635	2054.16
431.011	2072.01
431.387	2111.78
431.763	2159.46
432.138	2143.42
432.514	2192.46
432.89	2151.55
433.265	2260.93
433.641	2251.66
434.016	2293.92
434.392	2347.48
434.767	2385.67
435.143	2342.74
435.518	2421.15
435.894	2438.33
436.269	2450.08
436.644	2480.36
437.02	2542.28
437.395	2551.77
437.77	2600.13
438.145	2644.2
438.52	2623.41
438.895	2657.53
439.271	2669.73
439.646	2714.93
440.021	2745.89
440.395	2784.31
440.77	2738.43
441.145	2790.86
441.52	2867.47
441.895	2828.15
442.27	2876.51
442.645	2876.28
443.019	2924.64
443.394	2933.91
443.769	2957.86
444.143	2983.4
444.518	3048.93
444.892	3023.85
445.267	3072.66
445.641	3089.38
446.016	3158.08
446.39	3158.76
446.764	3169.61
447.139	3179.78
447.513	3207.12
447.887	3264.52
448.262	3255.93
448.636	3261.35
449.01	3328.92
449.384	3341.8
449.758	3384.97
450.132	3423.16
450.506	3426.32
450.88	3430.39
451.254	3477.85
451.628	3536.38
452.002	3558.75
452.376	3657.95
452.75	3654.11
453.123	3668.8
453.497	3742.7
453.871	3752.19
454.244	3816.59
454.618	3899.98
454.992	3920.32
455.365	3958.96
455.739	4059.3
456.112	4083.25
456.486	4099.3
456.859	4185.85
457.232	4222.23
457.606	4242.35
457.979	4286.41
458.352	4385.85
458.725	4440.76
459.099	4469.46
459.472	4534.32
459.845	4643.92
460.218	4670.81
460.591	4688.66
460.964	4713.07
461.337	4849.56
461.71	4879.84
462.083	4996.22
462.456	4986.28
462.829	5027.86
463.201	5105.15
463.574	5147.18
463.947	5257.69
464.32	5364.8
464.692	5378.81
465.065	5447.29
465.438	5519.83
465.81	5606.6
466.183	5688.41
466.555	5807.95
466.928	5803.43
467.3	5821.97
467.672	5903.55
468.045	6156.19
468.417	6099.7
468.789	6162.07
469.161	6259.02
469.534	6388.96
469.906	6494.04
470.278	6550.31
470.65	6627.59
471.022	6760.02
471.394	6921.6
471.766	6966.79
472.138	7073.68
472.51	7235.49
472.882	7270.74
473.253	7389.16
473.625	7512.77
473.997	7692.65
474.369	7695.59
474.74	7788.24
475.112	8029.59
475.484	8151.17
475.855	8221.68
476.227	8324.27
476.598	8607.2
476.97	8678.39
477.341	8868.44
477.713	8978.49
478.084	9060.07
478.455	9304.13
478.827	9372.15
479.198	9657.12
479.569	9652.15
479.94	9910.22
480.311	10068.18
480.682	10302.53
481.053	10540.71
481.424	10747.49
481.795	10829.07
482.166	11009.85
482.537	11141.15
482.908	11427.02
483.279	11574.81
483.65	11763.5
484.021	11932.99
484.391	12121.46
484.762	12196.94
485.133	12329.59
485.503	12606.87
485.874	12860.65
486.244	12910.82
486.615	13272.62
486.985	13369.34
487.356	13666.28
487.726	13769.78
488.097	14081.86
488.467	14110.34
488.837	14330.67
489.207	14575.18
489.578	14791.67
489.948	14891.11
490.318	15138.78
490.688	15262.62
491.058	15535.61
491.428	15649.96
491.798	15853.79
492.168	16206.1
492.538	16272.54
492.908	16515.47
493.278	16640.44
493.648	16722.02
494.017	17007.43
494.387	17137.37
494.757	17335.34
495.126	17504.14
495.496	17568.32
495.866	17712.27
496.235	17909.56
496.605	18162.66
496.974	18229.32
497.344	18391.35
497.713	18577.56
498.082	18613.49
498.452	18916.31
498.821	18905.01
499.19	19035.63
499.559	19218.68
499.928	19518.78
500.298	19603.98
500.667	19796.06
501.036	19829.73
501.405	20018.2
501.774	20126.45
502.143	20282.38
502.512	20339.32
502.88	20652.31
503.249	20712.87
503.618	20769.14
503.987	20972.75
504.356	21130.49
504.724	21271.05
505.093	21444.15
505.462	21428.79
505.83	21675.56
506.199	21816.57
506.567	22168.43
506.936	22147.19
507.304	22525.26
507.672	22541.07
508.041	22586.72
508.409	22752.82
508.777	23065.13
509.145	23203.2
509.514	23295.18
509.882	23460.37
510.25	23577.2
510.618	23807.26
510.986	23969.51
511.354	24187.81
511.722	24281.14
512.09	24577.63
512.458	24592.09
512.826	24915.47
513.193	24835.25
513.561	25097.39
513.929	25290.83
514.297	25469.81
514.664	25685.17
515.032	25893.98
515.4	26040.64
515.767	26214.88
516.135	26377.58
516.502	26270.02
516.869	26748.65
517.237	27025.48
517.604	26907.96
517.972	27373.72
518.339	27490.32
518.706	27566.93
519.073	27749.75
519.44	27953.36
519.808	28246.01
520.175	28284.88
520.542	28585.43
520.909	28784.3
521.276	28743.4
521.643	29184.97
522.009	29384.06
522.376	29580.89
522.743	29746.08
523.11	30153.3
523.477	30364.15
523.843	30487.53
524.21	30738.82
524.577	30944.69
524.943	31224.69
525.31	31311.69
525.676	31746.03
526.043	31907.61
526.409	31890.21
526.776	32297.65
527.142	32403.41
527.508	32705.55
527.874	32896.28
528.241	33043.85
528.607	33276.38
528.973	33555.02
529.339	33518.19
529.705	33950.72
530.071	34201.78
530.437	34277.71
530.803	34473.19
531.169	34759.96
531.535	34696.69
531.901	34743.01
532.267	34995.21
532.632	35281.76
532.998	35442.88
533.364	35563.33
533.73	35671.58
534.095	35980.72
534.461	36072.47
534.826	36338.9
535.192	36579.57
535.557	36733.7
535.923	36631.32
536.288	36912.22
536.653	36987.7
537.019	37079.67
537.384	37324.19
537.749	37521.47
538.114	37568.48
538.479	37610.28
538.845	37808.02
539.21	38006.43
539.575	38140.21
539.94	38273.54
540.305	38440.99
540.67	38466.76
541.034	38608.22
541.399	38831.27
541.764	38843.7
542.129	39097.93
542.494	39171.82
542.858	39275.32
543.223	39389.9
543.587	39705.37
543.952	39669.66
544.316	39946.72
544.681	39790.79
545.045	40197.11
545.41	40338.8
545.774	40667.6
546.138	40446.37
546.503	40668.05
546.867	40741.27
547.231	41116.86
547.595	41150.53
547.959	41308.94
548.324	41379.22
548.688	41448.37
549.052	41592.55
549.416	41795.93
549.779	41916.38
550.143	42065.76
550.507	42376.26
550.871	42534.22
551.235	42516.14
551.599	42961.1
551.962	42936.24
552.326	43072.51
552.689	43406.06
553.053	43297.14
553.417	43384.59
553.78	44136.89
554.143	43974.41
554.507	44041.75
554.87	44386.83
555.234	44653.26
555.597	44533.04
555.96	44860.94
556.323	44999.47
556.686	45111.78
557.05	45395.84
557.413	45457.53
557.776	45733.01
558.139	45959.67
558.502	46120.12
558.865	46187.91
559.228	46607.11
559.59	46628.12
559.953	46716.94
560.316	47132.97
560.679	47134.1
561.041	47424.71
561.404	47653.86
561.767	47866.96
562.129	47739.73
562.492	48184.24
562.854	48105.15
563.217	48134.53
563.579	48425.14
563.941	48588.75
564.304	48925.01
564.666	49087.04
565.028	49065.8
565.39	49278.68
565.753	49451.33
566.115	49543.98
566.477	49682.96
566.839	49820.13
567.201	50017.19
567.563	50084.3
567.925	50230.06
568.287	50280.23
568.648	50359.33
569.01	50642.03
569.372	50734
569.734	50717.28
570.095	50986.43
570.457	51166.99
570.819	51188.91
571.18	51272.3
571.542	51355.68
571.903	51382.8
572.265	51583.02
572.626	51688.1
572.987	51743.24
573.349	51921.77
573.71	51952.73
574.071	52108.21
574.432	52196.11
574.794	52365.37
575.155	52322.89
575.516	52254.19
575.877	52506.84
576.238	52546.16
576.599	52632.71
576.96	52554.07
577.32	52567.4
577.681	52773.5
578.042	52805.59
578.403	52828.64
578.763	52782.76
579.124	52920.61
579.485	53003.78
579.845	53093.49
580.206	53081.51
580.566	53082.42
580.927	53033.61
581.287	53254.16
581.648	53198.57
582.008	53312.92
582.368	53244.9
582.728	53356.99
583.089	53235.86
583.449	53231.11
583.809	53296.42
584.169	53362.41
584.529	53238.35
584.889	53588.17
585.249	53355.63
585.609	53346.82
585.969	53461.16
586.329	53419.81
586.688	53407.38
587.048	53404.67
587.408	53364.44
587.768	53439.92
588.127	53409.87
588.487	53379.13
588.846	53585.46
589.206	53328.06
589.565	53373.71
589.925	53533.25
590.284	53394.27
590.643	53509.07
591.003	53482.41
591.362	53643.31
591.721	53524.21
592.08	53553.59
592.44	53587.49
592.799	53642.4
593.158	53569.41
593.517	53594.72
593.876	53669.3
594.235	53472.24
594.593	53589.75
594.952	53728.95
595.311	53622.06
595.67	53687.37
596.029	53839.91
596.387	53810.99
596.746	53850.99
597.104	53675.62
597.463	53729.41
597.822	53840.36
598.18	53764.43
598.538	53627.94
598.897	53932.56
599.255	53629.97
599.613	54156.29
599.972	53825
600.33	53956.97
600.688	53879.68
601.046	53992.45
601.404	54006.46
601.762	54009.85
602.12	54078.78
602.478	54187.25
602.836	54136.18
603.194	53974.15
603.552	54043.52
603.91	54124.65
604.268	54181.82
604.625	54120.81
604.983	54219.11
605.341	54074.93
605.698	54281.03
606.056	54337.98
606.413	54314.02
606.771	54341.37
607.128	54398.99
607.485	54225.21
607.843	54305.66
608.2	54504.3
608.557	54593.11
608.914	54475.38
609.272	54708.59
609.629	54652.77
609.986	54818.19
610.343	54604.41
610.7	54896.61
611.057	54781.81
611.414	54731.87
611.771	54766.44
612.127	54834.69
612.484	54799.66
612.841	54851.64
613.198	54848.25
613.554	54808.47
613.911	55028.81
614.267	54920.34
614.624	54933.67
614.98	55064.06
615.337	55083.72
615.693	55091.18
616.05	55030.62
616.406	55284.17
616.762	55129.37
617.118	55136.83
617.475	55123.72
617.831	55301.57
618.187	55288.91
618.543	55296.6
618.899	55495.46
619.255	55394.45
619.611	55419.76
619.967	55532.75
620.323	55463.6
620.678	55392.41
621.034	55346.54
621.39	55389.7
621.746	55380.44
622.101	55728.22
622.457	55371.85
622.812	55535.46
623.168	55554.22
623.523	55509.02
623.879	55613.2
624.234	55374.79
624.589	55489.13
624.945	55582.01
625.3	55541.79
625.655	55506.99
626.01	55536.14
626.365	55553.77
626.72	55553.54
627.075	55543.82
627.43	55434.9
627.785	55453.43
628.14	55544.05
628.495	55538.4
628.85	55467.21
629.205	55355.8
629.559	55550.6
629.914	55394.22
630.269	55420.89
630.623	55366.88
630.978	55283.26
631.332	55372.98
631.687	55435.12
632.041	55296.37
632.396	55365.97
632.75	55171.18
633.104	55255.92
633.459	55148.8
633.813	55140.67
634.167	55099.99
634.521	55106.55
634.875	55142.25
635.229	55083.95
635.583	55037.62
635.937	54958.53
636.291	55044.63
636.645	55022.25
636.999	54947.23
637.352	54977.74
637.706	54827
638.06	54942.03
638.413	54891.64
638.767	54846.89
639.121	54840.34
639.474	54696.16
639.828	54707.91
640.181	54754.69
640.534	54732.77
640.888	54641.25
641.241	54545.88
641.594	54601.02
641.947	54644.18
642.301	54502.95
642.654	54479.44
643.007	54482.16
643.36	54474.02
643.713	54369.16
644.066	54484.64
644.419	54334.14
644.771	54103.18
645.124	53820.25
645.477	53808.5
645.83	53616.64
646.182	53434.5
646.535	53403.99
646.888	53450.09
647.24	53212.58
647.593	53443.54
647.945	53333.26
648.298	53214.17
648.65	53097.78
649.002	53074.96
649.355	53234.73
649.707	53099.59
650.059	53227.27
650.411	53701.38
650.763	53613.03
651.115	53960.81
651.467	53821.16
651.819	53846.69
652.171	53674.94
652.523	53765.79
652.875	53703.19
653.227	53603.76
653.578	53792.91
653.93	53730.99
654.282	53545
654.633	53473.37
654.985	53469.07
655.337	53453.48
655.688	53499.13
656.039	53634.27
656.391	53254.84
656.742	53394.27
657.094	53408.28
657.445	53493.48
657.796	53399.02
658.147	53236.09
658.498	53367.38
658.849	53304.11
659.2	53314.05
659.551	53211.45
659.902	53236.99
660.253	53237.89
660.604	53293.49
660.955	53099.59
661.306	53212.36
661.656	53058.46
662.007	53058.24
662.358	53033.83
662.708	52982.08
663.059	53032.25
663.409	52746.38
663.76	53082.42
664.11	52884.91
664.461	53044.68
664.811	53006.26
665.161	52939.82
665.511	52874.06
665.862	52832.25
666.212	52986.38
666.562	52990.89
666.912	52804.46
667.262	52823.67
667.612	52953.61
667.962	52907.51
668.312	52760.17
668.662	52883.78
669.011	52790.9
669.361	52756.78
669.711	52724.46
670.06	52672.71
670.41	52620.28
670.76	52549.1
671.109	52776.21
671.459	52655.54
671.808	52473.39
672.157	52735.53
672.507	52435.2
672.856	52506.16
673.205	52435.2
673.554	52585.93
673.904	52409.67
674.253	52524.24
674.602	52479.04
674.951	51933.3
675.3	51847.65
675.649	52347.75
675.998	52204.25
676.346	52265.72
676.695	52441.3
677.044	52113.86
677.393	52245.38
677.741	52264.81
678.09	52124.48
678.438	52037.7
678.787	52061.65
679.135	52092.84
679.484	51824.15
679.832	52028.21
680.181	51880.64
680.529	52011.71
680.877	51824.15
681.225	51843.58
681.573	51978.72
681.922	51734.43
682.27	51599.07
682.618	51696.47
682.966	51577.15
683.314	51517.26
683.661	51460.77
684.009	51224.61
684.357	51176.71
684.705	51027.56
685.053	51143.26
685.4	51169.7
685.748	51012.42
686.095	50924.73
686.443	50823.04
686.79	50765.42
687.138	50781.01
687.485	50766.77
687.832	50657.62
688.18	50651.07
688.527	50390.51
688.874	50377.63
689.221	50344.18
689.568	50197.52
689.915	50177.41
690.262	50066
690.609	50048.15
690.956	49737.65
691.303	49833.24
691.65	49548.73
691.997	49601.83
692.344	49422.85
692.69	49408.62
693.037	49291.78
693.383	49045.91
693.73	49157.55
694.077	48978.8
694.423	48964.11
694.769	48895.64
695.116	48798.24
695.462	48675.3
695.808	48615.19
696.155	48631.46
696.501	48290.23
696.847	48384.01
697.193	48191.47
697.539	48428.3
697.885	47958.48
698.231	47833.74
698.577	47765.27
698.923	47596.23
699.269	47605.27
699.614	47488.44
699.96	47455.67
700.306	47380.65
700.651	47142.91
700.997	47113.99
701.342	46989.92
701.688	46789.25
702.033	46841.9
702.379	46659.54
702.724	46704.28
703.069	46617.73
703.415	46175.93
703.76	46192.43
704.105	46248.47
704.45	46123.05
704.795	45914.7
705.14	45925.09
705.485	45868.6
705.83	45648.94
706.175	45698.43
706.52	45460.02
706.865	45338.44
707.209	45425.22
707.554	45233.81
707.899	45311.1
708.243	45113.81
708.588	44986.13
708.932	44783.88
709.277	44863.88
709.621	44855.97
709.966	44449.2
710.31	44700.94
710.654	44304.57
710.998	44347.51
711.342	44359.03
711.687	44273.38
712.031	44150.45
712.375	43918.36
712.719	44046.27
713.063	44012.15
713.407	43910.91
713.75	43696
714.094	43717.01
714.438	43420.07
714.782	43604.7
715.125	43311.38
715.469	43458.72
715.812	43089.69
716.156	43026.41
716.499	43095.79
716.843	42929.24
717.186	42777.38
717.53	42884.27
717.873	42817.38
718.216	42726.31
718.559	42525.63
718.902	42435.47
719.246	42496.26
719.589	42285.19
719.932	42085.42
720.275	42213.55
720.617	42070.05
720.96	42040.9
721.303	42042.03
721.646	41982.37
721.989	41783.96
722.331	41871.19
722.674	41592.55
723.016	41616.5
723.359	41822.15
723.701	41661.25
724.044	41327.92
724.386	41285.89
724.729	41453.12
725.071	41341.94
725.413	41151.43
725.755	41213.58
726.097	41066.91
726.439	40784.66
726.782	40773.81
727.124	40952.79
727.465	40779.01
727.807	40839.12
728.149	40673.93
728.491	40563.88
728.833	40627.15
729.175	40439.81
729.516	40362.3
729.858	40241.4
730.199	40378.57
730.541	40412.02
730.882	40214.06
731.224	40394.62
731.565	40059.03
731.906	40044.12
732.248	39973.16
732.589	39696.33
732.93	39664.47
733.271	39645.71
733.612	39607.52
733.953	39738.59
734.294	39496.11
734.635	39599.38
734.976	39537.01
735.317	39332.72
735.658	39273.29
735.999	39284.59
736.339	39159.85
736.68	39382.67
737.021	39192.39
737.361	38944.48
737.702	39221.99
738.042	38994.43
738.383	38794.43
738.723	38926.86
739.063	38819.97
739.404	38745.39
739.744	38723.47
740.084	38630.82
740.424	38591.73
740.764	38595.57
741.104	38669.69
741.444	38369.36
741.784	38203.04
742.124	38375.69
742.464	38368.91
742.804	38281.45
743.143	38086.2
743.483	38140.44
743.823	37906.32
744.162	37979.31
744.502	37878.98
744.841	37746.78
745.181	37832.65
745.52	37591.07
745.86	37835.59
746.199	37624.52
746.538	37549.04
746.877	37593.56
747.216	37674.24
747.556	37543.39
747.895	37497.06
748.234	37197.41
748.573	37290.97
748.911	37046
749.25	37043.07
749.589	36977.08
749.928	36985.89
750.267	37077.87
750.605	36860.02
750.944	36757.42
751.283	36657.76
751.621	36789.06
751.96	36549.07
752.298	36550.2
752.636	36570.31
