Data from white_poster_card_FLMS001491_00043.txt Node
Date: Wed Feb 08 11:51:34 GMT 2017
User: dcchb
Spectrometer: FLMS00149
Trigger mode: 0
Integration Time (sec): 2.000000E-2
Scans to average: 10
Electric dark correction enabled: true
Nonlinearity correction enabled: false
Boxcar width: 0
XAxis mode: Wavelengths
Number of Pixels in Spectrum: 2048
>>>>>Begin Spectral Data<<<<<
341.393	6.03
341.776	6.03
342.16	6.03
342.543	-70.13
342.927	-77.36
343.31	-74.64
343.693	-68.09
344.077	-71.71
344.46	-51.37
344.843	-62.89
345.226	-50.24
345.61	-41.2
345.993	-9.11
346.376	-26.96
346.759	37.44
347.142	36.31
347.525	31.34
347.908	51.45
348.291	89.87
348.674	100.72
349.057	109.08
349.44	120.83
349.823	140.49
350.206	164.22
350.588	182.3
350.971	201.73
351.354	215.52
351.737	242.18
352.119	268.17
352.502	265.91
352.884	279.92
353.267	283.54
353.65	279.02
354.032	293.03
354.414	309.53
354.797	311.11
355.179	331.22
355.562	316.98
355.944	333.03
356.326	332.58
356.709	340.49
357.091	331.9
357.473	333.71
357.855	340.03
358.238	346.59
358.62	350.2
359.002	343.88
359.384	339.13
359.766	340.49
360.148	340.94
360.53	331.67
360.912	337.32
361.294	338.68
361.676	354.27
362.057	329.86
362.439	334.38
362.821	309.3
363.203	308.62
363.584	330.09
363.966	315.18
364.348	327.38
364.729	329.86
365.111	302.29
365.493	333.71
365.874	326.02
366.256	319.92
366.637	309.75
367.019	325.57
367.4	300.71
367.781	330.54
368.163	326.02
368.544	309.75
368.925	322.86
369.306	330.77
369.688	324.89
370.069	326.25
370.45	303.42
370.831	318.79
371.212	308.4
371.593	315.4
371.974	298.45
372.355	304.1
372.736	312.46
373.117	332.8
373.498	303.42
373.879	331.67
374.26	311.11
374.641	333.03
375.021	303.2
375.402	305.91
375.783	335.06
376.163	338.45
376.544	339.81
376.925	332.58
377.305	325.8
377.686	321.05
378.066	329.19
378.447	331.9
378.827	324.67
379.208	326.02
379.588	326.93
379.968	329.64
380.349	353.82
380.729	345.91
381.109	363.99
381.489	334.38
381.87	355.4
382.25	355.85
382.63	359.69
383.01	349.98
383.39	358.79
383.77	343.2
384.15	355.4
384.53	344.78
384.91	365.12
385.29	352.69
385.67	358.34
386.049	368.51
386.429	340.49
386.809	359.92
387.189	368.73
387.568	394.5
387.948	386.36
388.328	373.25
388.707	365.34
389.087	371.9
389.466	371.9
389.846	385.91
390.225	380.48
390.605	389.07
390.984	399.47
391.363	391.33
391.743	398.79
392.122	390.65
392.501	403.53
392.881	397.21
393.26	382.97
393.639	404.44
394.018	413.03
394.397	431.33
394.776	416.19
395.155	411.9
395.534	408.73
395.913	417.77
396.292	428.17
396.671	418.9
397.05	417.77
397.429	440.6
397.808	419.81
398.186	434.49
398.565	431.1
398.944	422.52
399.323	439.24
399.701	432.91
400.08	451.67
400.458	451.22
400.837	451.89
401.215	446.25
401.594	453.25
401.972	481.27
402.351	456.87
402.729	463.65
403.107	482.18
403.486	467.49
403.864	473.59
404.242	481.05
404.62	484.44
404.999	486.02
405.377	492.57
405.755	493.25
406.133	498.45
406.511	502.06
406.889	505.23
407.267	510.65
407.645	514.94
408.023	540.03
408.401	541.16
408.779	553.36
409.156	564.43
409.534	559.91
409.912	588.16
410.29	581.61
410.667	599.01
411.045	605.11
411.422	597.43
411.8	638.33
412.178	645.79
412.555	655.05
412.933	667.26
413.31	676.75
413.687	683.53
414.065	696.18
414.442	705.22
414.819	734.37
415.197	741.38
415.574	777.31
415.951	789.74
416.328	783.19
416.705	772.11
417.082	814.37
417.46	822.05
417.837	838.55
418.214	873.13
418.591	879.91
418.967	873.8
419.344	894.14
419.721	929.62
420.098	910.19
420.475	941.37
420.852	936.63
421.228	968.04
421.605	972.79
421.982	980.69
422.358	1009.62
422.735	991.09
423.111	1032.44
423.488	1053.91
423.864	1047.36
424.241	1088.49
424.617	1093.91
424.994	1105.21
425.37	1093.91
425.746	1123.52
426.123	1142.5
426.499	1158.32
426.875	1184.08
427.251	1186.79
427.627	1215.04
428.003	1270.86
428.379	1241.7
428.756	1278.77
429.132	1293.68
429.507	1294.36
429.883	1316.73
430.259	1361.48
430.635	1333.23
431.011	1356.05
431.387	1396.73
431.763	1438.54
432.138	1461.81
432.514	1451.19
432.89	1456.39
433.265	1508.59
433.641	1521.25
434.016	1534.58
434.392	1560.79
434.767	1593.33
435.143	1580
435.518	1617.51
435.894	1616.84
436.269	1680.34
436.644	1667
437.02	1694.8
437.395	1703.61
437.77	1721.69
438.145	1764.85
438.52	1754.01
438.895	1798.3
439.271	1773.89
439.646	1834.01
440.021	1830.84
440.395	1830.39
440.77	1837.85
441.145	1867.22
441.52	1893.44
441.895	1881.46
442.27	1896.38
442.645	1927.79
443.019	1920.1
443.394	1977.5
443.769	1939.99
444.143	1953.32
444.518	2009.37
444.892	1982.02
445.267	1986.54
445.641	2014.11
446.016	2033.32
446.39	2051.85
446.764	2076.03
447.139	2087.33
447.513	2089.82
447.887	2069.93
448.262	2101.12
448.636	2111.51
449.01	2153.32
449.384	2157.84
449.758	2193.09
450.132	2169.59
450.506	2203.49
450.88	2251.62
451.254	2228.35
451.628	2248.23
452.002	2265.18
452.376	2286.2
452.75	2318.74
453.123	2339.75
453.497	2352.64
453.871	2358.51
454.244	2402.8
454.618	2431.73
454.992	2483.03
455.365	2473.31
455.739	2524.16
456.112	2569.58
456.486	2596.25
456.859	2596.47
457.232	2645.51
457.606	2632.4
457.979	2669.46
458.352	2730.25
458.725	2789.46
459.099	2796.01
459.472	2838.27
459.845	2878.05
460.218	2886.63
460.591	2926.41
460.964	2899.74
461.337	3004.6
461.71	3019.06
462.083	3104.93
462.456	3036.91
462.829	3083.69
463.201	3095.22
463.574	3174.99
463.947	3203.69
464.32	3308.54
464.692	3310.12
465.065	3298.37
465.438	3343.12
465.81	3363
466.183	3433.74
466.555	3524.13
466.928	3537.69
467.3	3530.23
467.672	3564.13
468.045	3646.84
468.417	3697.23
468.789	3679.38
469.161	3773.39
469.534	3800.96
469.906	3880.96
470.278	3899.04
470.65	3946.27
471.022	4038.69
471.394	4096.32
471.766	4115.3
472.138	4154.17
472.51	4264.68
472.882	4304
473.253	4331.34
473.625	4415.86
473.997	4508.74
474.369	4534.27
474.74	4549.19
475.112	4665.34
475.484	4675.29
475.855	4814.04
476.227	4860.14
476.598	4952.79
476.97	4998.67
477.341	5108.04
477.713	5185.1
478.084	5176.74
478.455	5357.98
478.827	5351.43
479.198	5573.57
479.569	5593.68
479.94	5676.16
480.311	5728.37
480.682	5902.83
481.053	5997.29
481.424	6101.01
481.795	6169.03
482.166	6266.43
482.537	6309.82
482.908	6479.76
483.279	6467.78
483.65	6655.57
484.021	6716.59
484.391	6862.57
484.762	6885.62
485.133	6936.92
485.503	7102.79
485.874	7230.47
486.244	7296.01
486.615	7416.68
486.985	7394.09
487.356	7636.34
487.726	7663.23
488.097	7880.17
488.467	7899.16
488.837	8038.59
489.207	8142.31
489.578	8248.53
489.948	8362.2
490.318	8427.05
490.688	8462.53
491.058	8586.6
491.428	8755.18
491.798	8802.86
492.168	8957.89
492.538	9060.26
492.908	9098.9
493.278	9195.39
493.648	9303.87
494.017	9404.88
494.387	9472.9
494.757	9593.12
495.126	9692.33
495.496	9726.23
495.866	9820.91
496.235	9970.06
496.605	10018.87
496.974	10090.74
497.344	10164.63
497.713	10229.72
498.082	10373.89
498.452	10494.12
498.821	10500.67
499.19	10568.47
499.559	10589.93
499.928	10719.2
500.298	10779.08
500.667	10873.32
501.036	10862.02
501.405	10991.5
501.774	11079.86
502.143	11095.68
502.512	11194.66
502.88	11306.75
503.249	11330.25
503.618	11418.61
503.987	11424.26
504.356	11505.39
504.724	11651.37
505.093	11709
505.462	11805.49
505.83	11926.17
506.199	11973.63
506.567	12082.78
506.936	12114.19
507.304	12327.51
507.672	12375.2
508.041	12499.71
508.409	12458.36
508.777	12574.06
509.145	12726.83
509.514	12682.08
509.882	12861.51
510.25	12872.36
510.618	13022.19
510.986	13078.91
511.354	13106.48
511.722	13214.27
512.09	13458.56
512.458	13421.72
512.826	13592.79
513.193	13638.89
513.561	13634.83
513.929	13750.53
514.297	13873.69
514.664	14039.56
515.032	14098.09
515.4	14219.22
515.767	14246.79
516.135	14361.59
516.502	14318.42
516.869	14624.18
517.237	14676.38
517.604	14735.81
517.972	14873.66
518.339	15008.8
518.706	14980.55
519.073	15079.76
519.44	15189.13
519.808	15397.49
520.175	15360.43
520.542	15615.56
520.909	15700.53
521.276	15712.96
521.643	15809.91
522.009	15989.57
522.376	16170.13
522.743	16213.51
523.11	16502.55
523.477	16592.26
523.843	16721.07
524.21	16852.37
524.577	16974.62
524.943	17052.14
525.31	17215.52
525.676	17428.4
526.043	17558.79
526.409	17583.87
526.776	17699.58
527.142	17761.72
527.508	17913.58
527.874	18109.06
528.241	18196.97
528.607	18150.64
528.973	18409.61
529.339	18388.6
529.705	18684.64
530.071	18774.35
530.437	18890.05
530.803	18964.4
531.169	19083.27
531.535	19126.21
531.901	19277.16
532.267	19294.79
532.632	19405.07
532.998	19524.61
533.364	19566.65
533.73	19735.46
534.095	19895.45
534.461	19927.54
534.826	20092.06
535.192	20137.7
535.557	20225.16
535.923	20318.49
536.288	20362.78
536.653	20556
537.019	20538.6
537.384	20561.2
537.749	20663.57
538.114	20728.88
538.479	20863.34
538.845	20905.59
539.21	20894.52
539.575	21057.23
539.94	21149.2
540.305	21222.87
540.67	21226.04
541.034	21312.59
541.399	21384.9
541.764	21447.95
542.129	21576.99
542.494	21680.04
542.858	21792.8
543.223	21778.79
543.587	22023.53
543.952	21865.12
544.316	22131.78
544.681	22014.27
545.045	22156.63
545.41	22270.98
545.774	22380.36
546.138	22405.67
546.503	22497.64
546.867	22536.51
547.231	22695.15
547.595	22706.23
547.959	22784.42
548.324	22871.42
548.688	22947.8
549.052	22992.55
549.416	23104.63
549.779	23130.62
550.143	23214.23
550.507	23442.02
550.871	23465.53
551.235	23439.09
551.599	23756.14
551.962	23775.58
552.326	23855.12
552.689	23891.96
553.053	23824.84
553.417	23955.91
553.78	24284.49
554.143	24185.51
554.507	24486.29
554.87	24461.43
555.234	24658.04
555.597	24596.12
555.96	24747.53
556.323	24912.27
556.686	24913.4
557.05	24926.05
557.413	25172.15
557.776	25106.84
558.139	25405.59
558.502	25332.82
558.865	25473.61
559.228	25686.26
559.59	25705.47
559.953	25847.39
560.316	26068.17
560.679	26142.74
561.041	26197.21
561.404	26414.6
561.767	26633.58
562.129	26588.61
562.492	26835.61
562.854	26803.97
563.217	26870.41
563.579	26854.36
563.941	27113.34
564.304	27246.9
564.666	27421.13
565.028	27348.81
565.39	27550.84
565.753	27712.2
566.115	27844.62
566.477	28031.06
566.839	27974.56
567.201	28196.7
567.563	28160.77
567.925	28406.87
568.287	28334.55
568.648	28618.16
569.01	28838.49
569.372	28833.75
569.734	28752.17
570.095	29019.28
570.457	29066.96
570.819	29066.74
571.18	29270.8
571.542	29387.86
571.903	29436.22
572.265	29669.21
572.626	29509.66
572.987	29784.46
573.349	29861.07
573.71	29822.42
574.071	29910.1
574.432	30038.24
574.794	30216.76
575.155	30180.83
575.516	30089.08
575.877	30284.1
576.238	30411.33
576.599	30487.72
576.96	30523.42
577.32	30535.4
577.681	30659.69
578.042	30729.52
578.403	30783.75
578.763	30716.86
579.124	30851.32
579.485	30957.31
579.845	31049.28
580.206	30905.11
580.566	31089.96
580.927	30958.44
581.287	31120.69
581.648	30966.8
582.008	31165.21
582.368	30997.08
582.728	31232.78
583.089	31203.63
583.449	31276.17
583.809	31284.98
584.169	31237.53
584.529	31259.22
584.889	31498.08
585.249	31307.81
585.609	31167.25
585.969	31529.04
586.329	31388.71
586.688	31306.9
587.048	31376.96
587.408	31349.61
587.768	31353.91
588.127	31358.2
588.487	31403.62
588.846	31549.83
589.206	31364.98
589.565	31393.68
589.925	31560.46
590.284	31403.62
590.643	31394.13
591.003	31536.28
591.362	31616.95
591.721	31510.74
592.08	31606.33
592.44	31583.51
592.799	31596.61
593.158	31578.08
593.517	31525.2
593.876	31623.28
594.235	31541.7
594.593	31561.13
594.952	31655.37
595.311	31583.05
595.67	31582.38
596.029	31785.08
596.387	31815.36
596.746	31846.1
597.104	31792.09
597.463	31718.42
597.822	31837.96
598.18	31679.32
598.538	31658.31
598.897	31965.42
599.255	31631.64
599.613	32016.26
599.972	31823.73
600.33	31902.37
600.688	31795.7
601.046	32025.98
601.404	32140.55
601.762	32072.76
602.12	32328.8
602.478	32276.82
602.836	32124.73
603.194	32041.35
603.552	32236.37
603.91	32108.92
604.268	32328.57
604.625	32181.91
604.983	32309.36
605.341	32099.65
605.698	32265.75
606.056	32402.92
606.413	32363.37
606.771	32361.11
607.128	32551.16
607.485	32381.9
607.843	32367.21
608.2	32606.08
608.557	32616.02
608.914	32626.64
609.272	32668.9
609.629	32912.51
609.986	32906.63
610.343	32699.41
610.7	32888.56
611.057	32950.02
611.414	32941.66
611.771	32822.57
612.127	33077.25
612.484	32984.6
612.841	33103.47
613.198	32976.46
613.554	33061.88
613.911	33249.22
614.267	33195.67
614.624	33228.43
614.98	33232.5
615.337	33533.96
615.693	33307.75
616.05	33288.32
616.406	33527.64
616.762	33359.5
617.118	33417.81
617.475	33346.85
617.831	33479.95
618.187	33438.82
618.543	33473.85
618.899	33610.35
619.255	33529.44
619.611	33643.34
619.967	33635.43
620.323	33742.32
620.678	33663
621.034	33463
621.39	33587.75
621.746	33484.02
622.101	33894.18
622.457	33693.28
622.812	33778.93
623.168	33748.42
623.523	33814.41
623.879	33924.24
624.234	33559.72
624.589	33762.88
624.945	33734.41
625.3	33811.02
625.655	33642.66
626.01	33709.1
626.365	33659.61
626.72	33743.45
627.075	33663.45
627.43	33641.08
627.785	33506.17
628.14	33642.89
628.495	33578.03
628.85	33629.1
629.205	33557.01
629.559	33731.92
629.914	33589.1
630.269	33506.17
630.623	33404.47
630.978	33449.67
631.332	33530.35
631.687	33461.87
632.041	33407.64
632.396	33390.69
632.75	33309.34
633.104	33311.14
633.459	33190.92
633.813	33198.15
634.167	33209
634.521	33091.49
634.875	33156.12
635.229	33116.8
635.583	32945.5
635.937	33029.8
636.291	32925.39
636.645	33042.68
636.999	32958.61
637.352	32891.49
637.706	32661.9
638.06	32845.85
638.413	32629.35
638.767	32499.19
639.121	32570.15
639.474	32417.61
639.828	32553.2
640.181	32549.58
640.534	32493.31
640.888	32421
641.241	32344.39
641.594	32252.19
641.947	32303.71
642.301	32265.75
642.654	32311.4
643.007	32281.11
643.36	32269.82
643.713	32149.37
644.066	32335.58
644.419	32103.04
644.771	31814.01
645.124	31654.24
645.477	31531.08
645.83	31219.22
646.182	31132.67
646.535	31051.32
646.888	31206.79
647.24	30915.95
647.593	30993.24
647.945	31196.17
648.298	30855.39
648.65	30812.45
649.002	30792.34
649.355	30924.54
649.707	30800.25
650.059	31012.45
650.411	31280.91
650.763	31342.38
651.115	31632.09
651.467	31601.58
651.819	31428.48
652.171	31347.35
652.523	31378.54
652.875	31318.2
653.227	31188.04
653.578	31479.78
653.93	31221.26
654.282	31134.25
654.633	30942.62
654.985	31181.71
655.337	31115.27
655.688	31013.58
656.039	31167.47
656.391	30870.53
656.742	31046.12
657.094	30978.1
657.445	31078.43
657.796	30994.82
658.147	30897.42
658.498	30947.14
658.849	30964.09
659.2	30851.32
659.551	30738.78
659.902	30935.16
660.253	30792.57
660.604	30820.81
660.955	30661.95
661.306	30678.9
661.656	30774.94
662.007	30703.75
662.358	30727.93
662.708	30732.91
663.059	30652.68
663.409	30347.61
663.76	30606.36
664.11	30599.12
664.461	30600.71
664.811	30590.31
665.161	30421.73
665.511	30392.58
665.862	30503.31
666.212	30511.44
666.562	30633.7
666.912	30478.22
667.262	30437.55
667.612	30416.3
667.962	30557.32
668.312	30452.24
668.662	30483.42
669.011	30432.35
669.361	30227.16
669.711	30296.76
670.06	30338.79
670.41	30211.56
670.76	30134.28
671.109	30253.37
671.459	30180.38
671.808	30161.62
672.157	30303.31
672.507	30059.03
672.856	29907.17
673.205	30096.54
673.554	30249.76
673.904	29944.23
674.253	30361.39
674.602	30169.31
674.951	29728.19
675.3	29450.45
675.649	29929.54
675.998	29933.38
676.346	30020.61
676.695	29973.6
677.044	29786.26
677.393	29968.41
677.741	29825.59
678.09	29698.36
678.438	29627.85
678.787	29830.11
679.135	29701.75
679.484	29550.11
679.832	29678.47
680.181	29552.82
680.529	29574.29
680.877	29492.71
681.225	29500.17
681.573	29544.01
681.922	29418.36
682.27	29417.01
682.618	29296.33
682.966	29234.64
683.314	29306.96
683.661	29168.88
684.009	29212.49
684.357	28953.52
684.705	28961.2
685.053	28881.66
685.4	28807.53
685.748	28864.93
686.095	28741.55
686.443	28608.89
686.79	28685.95
687.138	28664.03
687.485	28818.38
687.832	28497.49
688.18	28538.16
688.527	28305.17
688.874	28389.92
689.221	28282.58
689.568	28147.21
689.915	28145.63
690.262	28129.36
690.609	28110.15
690.956	27995.35
691.303	27977.05
691.65	27844.17
691.997	27803.94
692.344	27661.8
692.69	27675.59
693.037	27646.21
693.383	27406.21
693.73	27539.54
694.077	27392.43
694.423	27272.88
694.769	27153.79
695.116	27176.84
695.462	26969.62
695.808	27059.78
696.155	27011.87
696.501	26932.55
696.847	26865.89
697.193	26632.22
697.539	26711.32
697.885	26404.21
698.231	26350.42
698.577	26530.08
698.923	26580.02
699.269	26277.43
699.614	26099.81
699.96	26136.87
700.306	26095.97
700.651	25925.58
700.997	25957.89
701.342	25919.25
701.688	25872.92
702.033	25721.74
702.379	25673.15
702.724	25568.52
703.069	25719.93
703.415	25367.85
703.76	25366.49
704.105	25397.23
704.45	25343.44
704.795	25230.9
705.14	25149.32
705.485	25134.86
705.83	25163.79
706.175	24994.98
706.52	24900.52
706.865	24823.01
707.209	24827.75
707.554	24656.23
707.899	24818.94
708.243	24608.32
708.588	24609.9
708.932	24293.08
709.277	24389.12
709.621	24466.86
709.966	24183.47
710.31	24338.5
710.654	24089.69
710.998	24173.08
711.342	24066.19
711.687	24076.13
712.031	24047.21
712.375	23974.89
712.719	23927.66
713.063	23841.79
713.407	23907.32
713.75	23772.19
714.094	23757.72
714.438	23563.6
714.782	23571.74
715.125	23423.27
715.469	23483.61
715.812	23425.08
716.156	23380.33
716.499	23340.56
716.843	23235.02
717.186	23138.53
717.53	23241.13
717.873	23177.17
718.216	23210.84
718.559	23051.98
718.902	22933.79
719.246	22924.07
719.589	22908.48
719.932	22801.59
720.275	22798.2
720.617	22796.39
720.96	22798.65
721.303	22628.03
721.646	22637.53
721.989	22593.01
722.331	22621.03
722.674	22564.31
723.016	22570.18
723.359	22564.53
723.701	22534.03
724.044	22411.32
724.386	22274.82
724.729	22362.73
725.071	22299.46
725.413	22226.69
725.755	22077.99
726.097	22033.02
726.439	22084.09
726.782	22008.16
727.124	22150.53
727.465	22019.01
727.807	22033.47
728.149	21888.17
728.491	21822.86
728.833	21919.13
729.175	21703.54
729.516	21807.72
729.858	21653.37
730.199	21727.27
730.541	21553.03
730.882	21675.29
731.224	21684.33
731.565	21339.26
731.906	21369.31
732.248	21484.11
732.589	21351.91
732.93	21407.95
733.271	21391.91
733.612	21291.8
733.953	21407.5
734.294	21234.4
734.635	21195.76
734.976	21183.1
735.317	21098.13
735.658	21207.28
735.999	21147.85
736.339	21039.83
736.68	21072.6
737.021	21051.81
737.361	20929.55
737.702	21004.8
738.042	20902.66
738.383	20862.43
738.723	20973.84
739.063	20806.61
739.404	20824.24
739.744	20742.89
740.084	20760.06
740.424	20814.98
740.764	20656.11
741.104	20596
741.444	20526.4
741.784	20537.92
742.124	20588.09
742.464	20520.75
742.804	20494.53
743.143	20448.43
743.483	20449.56
743.823	20302.67
744.162	20304.48
744.502	20343.12
744.841	20316.23
745.181	20242.56
745.52	20196.46
745.86	20217.93
746.199	20149.68
746.538	20088.21
746.877	20182.68
747.216	20131.83
747.556	19954.21
747.895	19979.29
748.234	19938.84
748.573	19949.24
748.911	19971.61
749.25	19864.04
749.589	19841.89
749.928	19772.74
750.267	19744.95
750.605	19718.73
750.944	19646.19
751.283	19594.22
751.621	19636.25
751.96	19485.74
752.298	19444.39
752.636	19525.74
752.975	19354.22
753.313	19367.78
753.651	19365.52
753.989	19205.07
754.327	19290.27
