Data from white_steel_sheet_FLMS001491_022.txt Node
Date: Tue Feb 07 10:57:36 GMT 2017
User: dcchb
Spectrometer: FLMS00149
Trigger mode: 0
Integration Time (sec): 2.000000E-2
Scans to average: 10
Electric dark correction enabled: true
Nonlinearity correction enabled: false
Boxcar width: 0
XAxis mode: Wavelengths
Number of Pixels in Spectrum: 2048
>>>>>Begin Spectral Data<<<<<
341.393	-1.34
341.776	-1.34
342.16	-1.34
342.543	-54.45
342.927	-57.84
343.31	-76.82
343.693	-69.36
344.077	-80.66
344.46	-53.09
344.843	-42.24
345.226	-11.06
345.61	-28.69
345.993	-11.06
346.376	-9.48
346.759	10.41
347.142	38.66
347.525	40.92
347.908	50.63
348.291	67.81
348.674	85.44
349.057	88.6
349.44	114.59
349.823	139.67
350.206	173.34
350.588	214.02
350.971	216.28
351.354	248.37
351.737	247.01
352.119	273.91
352.502	291.31
352.884	281.36
353.267	305.99
353.65	288.37
354.032	286.11
354.414	343.06
354.797	335.15
355.179	327.01
355.562	331.3
355.944	331.08
356.326	353.45
356.709	335.6
357.091	341.02
357.473	357.07
357.855	351.87
358.238	343.51
358.62	341.02
359.002	363.85
359.384	360
359.766	340.8
360.148	353
360.53	350.51
360.912	343.06
361.294	346.67
361.676	351.19
362.057	338.76
362.439	338.76
362.821	336.73
363.203	343.73
363.584	351.87
363.966	328.59
364.348	362.49
364.729	336.5
365.111	320.23
365.493	343.06
365.874	342.15
366.256	337.63
366.637	353.23
367.019	324.3
367.4	326.56
367.781	341.47
368.163	348.25
368.544	318.65
368.925	323.17
369.306	348.03
369.688	358.42
370.069	330.63
370.45	328.82
370.831	314.36
371.212	337.63
371.593	337.18
371.974	342.6
372.355	326.79
372.736	327.92
373.117	326.79
373.498	331.08
373.879	334.47
374.26	341.47
374.641	360.91
375.021	327.46
375.402	355.94
375.783	354.13
376.163	362.04
376.544	350.74
376.925	350.51
377.305	353.68
377.686	345.99
378.066	367.46
378.447	344.64
378.827	361.36
379.208	347.35
379.588	355.49
379.968	345.09
380.349	378.08
380.729	348.93
381.109	354.58
381.489	377.41
381.87	371.3
382.25	369.5
382.63	373.11
383.01	385.99
383.39	387.57
383.77	376.95
384.15	390.06
384.53	391.19
384.91	374.47
385.29	370.17
385.67	386.22
386.049	379.89
386.429	391.64
386.809	411.3
387.189	411.75
387.568	393.9
387.948	397.74
388.328	414.47
388.707	426.67
389.087	430.06
389.466	418.08
389.846	418.31
390.225	439.55
390.605	434.8
390.984	415.14
391.363	448.59
391.743	434.8
392.122	450.4
392.501	449.27
392.881	451.08
393.26	437.74
393.639	452.43
394.018	448.36
394.397	493.11
394.776	474.8
395.155	470.74
395.534	459.44
395.913	462.37
396.292	493.11
396.671	489.04
397.05	492.43
397.429	483.84
397.808	500.34
398.186	528.14
398.565	523.39
398.944	539.21
399.323	554.12
399.701	543.28
400.08	554.58
400.458	536.5
400.837	560.23
401.215	572.65
401.594	572.2
401.972	573.11
402.351	599.77
402.729	595.03
403.107	582.37
403.486	614.91
403.864	634.35
404.242	637.51
404.62	627.57
404.999	665.53
405.377	665.53
405.755	661.92
406.133	687.91
406.511	696.04
406.889	677.28
407.267	699.2
407.645	743.27
408.023	717.28
408.401	739.43
408.779	762.93
409.156	763.61
409.534	794.12
409.912	792.31
410.29	800.22
410.667	821.24
411.045	817.85
411.422	815.13
411.8	863.49
412.178	834.34
412.555	876.83
412.933	871.4
413.31	884.06
413.687	899.43
414.065	912.08
414.442	906.88
414.819	929.03
415.197	943.72
415.574	964.06
415.951	962.47
416.328	982.36
416.705	976.71
417.082	988.24
417.46	1028.91
417.837	1056.71
418.214	1025.07
418.591	1025.07
418.967	1023.72
419.344	1075.01
419.721	1083.38
420.098	1069.59
420.475	1109.82
420.852	1122.02
421.228	1106.2
421.605	1138.52
421.982	1141.68
422.358	1127.67
422.735	1169.93
423.111	1146.88
423.488	1179.64
423.864	1208.34
424.241	1210.83
424.617	1237.72
424.994	1223.94
425.37	1240.66
425.746	1235.24
426.123	1253.31
426.499	1251.73
426.875	1285.63
427.251	1314.33
427.627	1324.05
428.003	1346.42
428.379	1343.48
428.756	1380.77
429.132	1382.8
429.507	1419.64
429.883	1461.44
430.259	1460.99
430.635	1447.89
431.011	1471.39
431.387	1533.31
431.763	1521.33
432.138	1559.75
432.514	1569.46
432.89	1552.29
433.265	1636.36
433.641	1614.43
434.016	1623.25
434.392	1669.57
434.767	1697.37
435.143	1691.5
435.518	1716.58
435.894	1749.12
436.269	1757.48
436.644	1785.5
437.02	1803.58
437.395	1811.27
437.77	1821.21
438.145	1857.82
438.52	1887.87
438.895	1901.21
439.271	1894.65
439.646	1947.99
440.021	1978.04
440.395	1981.2
440.77	1962.9
441.145	2002
441.52	2029.57
441.895	2052.16
442.27	2077.25
442.645	2038.15
443.019	2109.56
443.394	2099.85
443.769	2136.46
444.143	2077.47
444.518	2150.47
444.892	2129
445.267	2184.59
445.641	2177.13
446.016	2197.02
446.39	2246.28
446.764	2236.57
447.139	2277.92
447.513	2271.82
447.887	2279.28
448.262	2306.39
448.636	2298.03
449.01	2362.89
449.384	2371.03
449.758	2368.77
450.132	2399.27
450.506	2412.83
450.88	2438.82
451.254	2449.22
451.628	2470.46
452.002	2492.38
452.376	2545.03
452.75	2571.25
453.123	2580.96
453.497	2590.68
453.871	2658.48
454.244	2649.21
454.618	2733.28
454.992	2744.12
455.365	2753.84
455.739	2788.87
456.112	2859.37
456.486	2832.03
456.859	2914.29
457.232	2978.47
457.606	2958.13
457.979	2985.47
458.352	3007.62
458.725	3091.23
459.099	3112.25
459.472	3168.07
459.845	3176.2
460.218	3188.4
460.591	3237.9
460.964	3249.65
461.337	3322.86
461.71	3351.79
462.083	3394.28
462.456	3455.29
462.829	3461.39
463.201	3534.16
463.574	3482.63
463.947	3547.49
464.32	3643.76
464.692	3688.5
465.065	3705.45
465.438	3761.95
465.81	3830.42
466.183	3857.77
466.555	3910.19
466.928	3946.35
467.3	4005.56
467.672	4017.99
468.045	4135.95
468.417	4129.85
468.789	4123.52
469.161	4194.48
469.534	4287.59
469.906	4389.05
470.278	4415.72
470.65	4445.09
471.022	4538.43
471.394	4598.09
471.766	4660.91
472.138	4754.01
472.51	4788.36
472.882	4873.33
473.253	4941.13
473.625	5011.18
473.997	5134.34
474.369	5132.53
474.74	5189.93
475.112	5276.94
475.484	5380.21
475.855	5428.8
476.227	5504.28
476.598	5633.31
476.97	5722.12
477.341	5845.96
477.713	5946.98
478.084	5959.41
478.455	6158.72
478.827	6211.15
479.198	6308.32
479.569	6375.21
479.94	6527.98
480.311	6526.4
480.682	6711.25
481.053	6855.88
481.424	6977.01
481.795	7037.57
482.166	7149.88
482.537	7253.83
482.908	7410.67
483.279	7461.74
483.65	7643.65
484.021	7784.89
484.391	7842.97
484.762	7925.68
485.133	8028.28
485.503	8119.12
485.874	8383.97
486.244	8338.33
486.615	8573.35
486.985	8612.44
487.356	8811.08
487.726	8910.97
488.097	9110.74
488.467	9118.19
488.837	9281.35
489.207	9453.1
489.578	9518.41
489.948	9643.6
490.318	9731.51
490.688	9839.98
491.058	9985.06
491.428	10197.26
491.798	10195.23
492.168	10409.23
492.538	10411.27
492.908	10565.61
493.278	10750.69
493.648	10686.74
494.017	10916.34
494.387	11014.87
494.757	11085.82
495.126	11228.42
495.496	11268.87
495.866	11338.47
496.235	11500.5
496.605	11590.9
496.974	11697.11
497.344	11858.91
497.713	11853.04
498.082	11986.82
498.452	12106.36
498.821	12106.14
499.19	12146.81
499.559	12309.97
499.928	12398.33
500.298	12535.5
500.667	12640.36
501.036	12605.56
501.405	12765.55
501.774	12763.29
502.143	12889.17
502.512	12961.26
502.88	13167.13
503.249	13182.27
503.618	13204.64
503.987	13387.68
504.356	13436.95
504.724	13481.92
505.093	13655.02
505.462	13687.79
505.83	13842.81
506.199	13875.81
506.567	14045.97
506.936	14027.67
507.304	14211.62
507.672	14323.93
508.041	14450.48
508.409	14496.81
508.777	14646.86
509.145	14771.83
509.514	14707.42
509.882	14904.48
510.25	15016.34
510.618	15022.9
510.986	15203.91
511.354	15417.24
511.722	15432.15
512.09	15530.45
512.458	15620.17
512.826	15728.19
513.193	15923.44
513.561	15981.97
513.929	16107.39
514.297	16194.62
514.664	16373.14
515.032	16406.81
515.4	16582.63
515.767	16747.6
516.135	16850.87
516.502	16791.44
516.869	16995.95
517.237	17141.26
517.604	17154.37
517.972	17303.51
518.339	17393
518.706	17558.87
519.073	17605.2
519.44	17759.55
519.808	17919.77
520.175	17964.97
520.542	18275.69
520.909	18392.3
521.276	18458.51
521.643	18639.3
522.009	18721.33
522.376	18880.87
522.743	19030.25
523.11	19269.34
523.477	19372.39
523.843	19485.38
524.21	19735.31
524.577	19889.66
524.943	19920.17
525.31	20136.21
525.676	20299.14
526.043	20432.7
526.409	20599.7
526.776	20836.53
527.142	20862.52
527.508	20938.67
527.874	21095.73
528.241	21285.33
528.607	21321.49
528.973	21528.71
529.339	21561.03
529.705	21839.67
530.071	22003.05
530.437	22139.32
530.803	22282.82
531.169	22266.77
531.535	22390.16
531.901	22450.05
532.267	22575.69
532.632	22822.69
532.998	22882.12
533.364	23135.23
533.73	23090.48
534.095	23254.54
534.461	23288.67
534.826	23518.94
535.192	23532.5
535.557	23692.95
535.923	23695.89
536.288	23856.79
536.653	23960.97
537.019	23931.14
537.384	24104.24
537.749	24223.33
538.114	24388.75
538.479	24313.73
538.845	24499.93
539.21	24585.36
539.575	24501.52
539.94	24768.18
540.305	24812.24
540.67	24844.56
541.034	25069.64
541.399	25159.13
541.764	25178.79
542.129	25318.22
542.494	25406.13
542.858	25536.07
543.223	25523.41
543.587	25661.03
543.952	25704.87
544.316	25769.05
544.681	25819.45
545.045	26006.34
545.41	26251.75
545.774	26164.52
546.138	26113.9
546.503	26205.2
546.867	26280.45
547.231	26533.1
547.595	26629.6
547.959	26632.76
548.324	26774
548.688	26800.21
549.052	26941.23
549.416	27098.28
549.779	27049.02
550.143	27098.06
550.507	27250.6
550.871	27399.29
551.235	27327.66
551.599	27628.67
551.962	27712.96
552.326	27764.93
552.689	27814.65
553.053	27895.33
553.417	27945.49
553.78	28270.23
554.143	28270.91
554.507	28316.11
554.87	28463.67
555.234	28752.03
555.597	28577.79
555.96	28757
556.323	28901.85
556.686	28914.73
557.05	29170.55
557.413	29229.75
557.776	29263.2
558.139	29519.24
558.502	29529.18
558.865	29642.17
559.228	29857.31
559.59	29913.58
559.953	29972.11
560.316	30267.92
560.679	30269.73
561.041	30518.31
561.404	30671.98
561.767	30777.06
562.129	30705.65
562.492	31134.11
562.854	31136.37
563.217	31116.71
563.579	31174.34
563.941	31429.24
564.304	31540.2
564.666	31806.86
565.028	31776.35
565.39	31928.44
565.753	32095.44
566.115	32302.67
566.477	32316.68
566.839	32410.24
567.201	32692.94
567.563	32488.88
567.925	32911.69
568.287	32918.24
568.648	32947.4
569.01	33158.69
569.372	33397.1
569.734	33208.86
570.095	33594.84
570.457	33724.55
570.819	33822.85
571.18	33743.99
571.542	33925
571.903	33990.53
572.265	34081.38
572.626	34144.88
572.987	34342.16
573.349	34322.73
573.71	34548.94
574.071	34554.36
574.432	34538.32
574.794	34872.54
575.155	34835.93
575.516	34801.81
575.877	34927.68
576.238	34983.28
576.599	35043.84
576.96	35090.39
577.32	35141.91
577.681	35346.66
578.042	35413.32
578.403	35401.8
578.763	35394.11
579.124	35433.66
579.485	35552.75
579.845	35677.72
580.206	35530.61
580.566	35543.26
580.927	35745.97
581.287	35785.74
581.648	35708.91
582.008	35858.73
582.368	35710.71
582.728	35835
583.089	35761.33
583.449	35848.56
583.809	35873.87
584.169	35819.64
584.529	35829.35
584.889	36159.97
585.249	35833.65
585.609	35785.29
585.969	35859.18
586.329	35909.13
586.688	35885.62
587.048	35779.41
587.408	35817.83
587.768	35931.05
588.127	35857.83
588.487	35916.81
588.846	35965.62
589.206	35782.8
589.565	35870.48
589.925	35937.83
590.284	35816.02
590.643	35976.92
591.003	36036.35
591.362	36089.91
591.721	36060.99
592.08	35950.26
592.44	36021.89
592.799	35985.06
593.158	35978.73
593.517	35986.64
593.876	36029.58
594.235	35858.51
594.593	35945.74
594.952	35959.07
595.311	36042.91
595.67	36068.9
596.029	36154.32
596.387	36230.93
596.746	36293.98
597.104	36024.83
597.463	36135.79
597.822	36244.71
598.18	36070.7
598.538	36136.69
598.897	36323.58
599.255	36071.38
599.613	36568.09
599.972	36205.84
600.33	36445.84
600.688	36179.4
601.046	36280.19
601.404	36366.06
601.762	36399.28
602.12	36398.15
602.478	36576.45
602.836	36486.29
603.194	36179.85
603.552	36363.58
603.91	36230.93
604.268	36465.04
604.625	36334.88
604.983	36465.27
605.341	36303.92
605.698	36492.16
606.056	36554.31
606.413	36493.52
606.771	36553.4
607.128	36773.96
607.485	36585.04
607.843	36632.05
608.2	36747.75
608.557	36730.35
608.914	36561.99
609.272	36831.36
609.629	36829.55
609.986	36963.11
610.343	36875.65
610.7	37150
611.057	37006.95
611.414	36984.35
611.771	37118.13
612.127	37220.73
612.484	37084.46
612.841	37248.53
613.198	37093.5
613.554	37166.04
613.911	37407.39
614.267	37258.47
614.624	37380.95
614.98	37371.23
615.337	37650.32
615.693	37495.53
616.05	37619.36
616.406	37785.46
616.762	37499.59
617.118	37403.78
617.475	37570.78
617.831	37752.92
618.187	37747.72
618.543	37695.29
618.899	38040.6
619.255	37756.99
619.611	37778.23
619.967	37892.35
620.323	38020.94
620.678	37878.57
621.034	37899.36
621.39	37831.56
621.746	37834.27
622.101	38157.65
622.457	37961.28
622.812	37987.26
623.168	38109.29
623.523	37992.91
623.879	38120.59
624.234	37787.04
624.589	38103.42
624.945	38128.28
625.3	38183.87
625.655	37978.45
626.01	37996.76
626.365	38198.11
626.72	38082.85
627.075	38050.77
627.43	38011.9
627.785	37900.03
628.14	38000.37
628.495	37921.73
628.85	37824.33
629.205	37768.06
629.559	38126.47
629.914	37733.94
630.269	37859.36
630.623	37757.89
630.978	37720.6
631.332	38016.19
631.687	37947.04
632.041	37601.29
632.396	37708.63
632.75	37554.28
633.104	37620.27
633.459	37495.3
633.813	37531.68
634.167	37434.74
634.521	37445.81
634.875	37455.07
635.229	37398.8
635.583	37292.37
635.937	37349.77
636.291	37155.87
636.645	37220.5
636.999	37027.29
637.352	37305.7
637.706	37086.04
638.06	37077.01
638.413	37019.83
638.767	36922.21
639.121	36991.13
639.474	36685.83
639.828	36589.33
640.181	36839.5
640.534	36764.7
640.888	36790.46
641.241	36455.55
641.594	36507.08
641.947	36624.36
642.301	36463.46
642.654	36359.96
643.007	36432.28
643.36	36352.28
643.713	36253.07
644.066	36575.55
644.419	36205.62
644.771	36018.28
645.124	35571.73
645.477	35448.8
645.83	35454.9
646.182	35261.69
646.535	35129.71
646.888	35120.9
647.24	34995.7
647.593	35310.05
647.945	35221.91
648.298	34933.11
648.65	34952.77
649.002	34838.65
649.355	34956.84
649.707	34880.68
650.059	34979.21
650.411	35340.33
650.763	35332.42
651.115	35802.91
651.467	35657.16
651.819	35632.07
652.171	35625.52
652.523	35588.91
652.875	35575.58
653.227	35326.32
653.578	35581.23
653.93	35340.55
654.282	35246.54
654.633	35159.32
654.985	35244.06
655.337	35332.87
655.688	35243.61
656.039	35259.43
656.391	34908.7
656.742	35011.52
657.094	35052.88
657.445	35197.05
657.796	35132.2
658.147	35065.98
658.498	34976.95
658.849	34979.21
659.2	34964.07
659.551	34804.97
659.902	34875.71
660.253	34566.79
660.604	34786.9
660.955	34673.45
661.306	34873.22
661.656	34532.89
662.007	34683.62
662.358	34526.79
662.708	34548.03
663.059	34533.34
663.409	34325.67
663.76	34561.37
664.11	34447.24
664.461	34535.83
664.811	34376.51
665.161	34209.74
665.511	34135.61
665.862	34136.07
666.212	34184.88
666.562	34093.81
666.912	33954.6
667.262	33891.33
667.612	33925.45
667.962	33812.46
668.312	33724.78
668.662	33786.92
669.011	33544.89
669.361	33449.53
669.711	33380.61
670.06	33294.73
670.41	33210.21
670.76	33154.17
671.109	33130.89
671.459	33102.19
671.808	32982.88
672.157	33009.77
672.507	32706.95
672.856	32736.55
673.205	32667.86
673.554	32745.37
673.904	32618.37
674.253	32821.52
674.602	32474.41
674.951	32184.7
675.3	32003.92
675.649	32378.6
675.998	32457.69
676.346	32402.55
676.695	32576.33
677.044	32156.91
677.393	32277.13
677.741	32273.29
678.09	32163.91
678.438	32029
678.787	32123.24
679.135	32238.71
679.484	31965.73
679.832	32214.76
680.181	32011.15
680.529	32102.67
680.877	32048.21
681.225	31992.85
681.573	32257.92
681.922	31948.55
682.27	31945.16
682.618	31981.77
682.966	31905.62
683.314	31979.74
683.661	31962.11
684.009	31866.75
684.357	31831.27
684.705	31829.91
685.053	31977.7
685.4	31914.88
685.748	31771.16
686.095	31787.65
686.443	31673.31
686.79	31694.77
687.138	31771.83
687.485	31907.65
687.832	31805.05
688.18	31829.69
688.527	31759.41
688.874	31697.94
689.221	31860.19
689.568	31633.31
689.915	31638.73
690.262	31535
690.609	31597.83
690.956	31507.66
691.303	31570.48
691.65	31436.48
691.997	31488.68
692.344	31278.97
692.69	31326.42
693.037	31323.03
693.383	31058.63
693.73	31286.65
694.077	31078.74
694.423	30996.26
694.769	31039.65
695.116	30933.21
695.462	31011.63
695.808	30910.39
696.155	30910.39
696.501	30794.68
696.847	30902.93
697.193	30593.11
697.539	30698.87
697.885	30410.29
698.231	30404.41
698.577	30355.37
698.923	30386.79
699.269	30250.07
699.614	30175.04
699.96	30032.67
700.306	30115.61
700.651	30015.27
700.997	29754.49
701.342	29934.59
701.688	29672.68
702.033	29672.45
702.379	29678.1
702.724	29633.59
703.069	29616.41
703.415	29295.97
703.76	29390.2
704.105	29324.89
704.45	29271.79
704.795	29010.32
705.14	29070.44
705.485	29028.86
705.83	28909.31
706.175	28900.95
706.52	28943.89
706.865	28818.01
707.209	28688.07
707.554	28633.16
707.899	28644.01
708.243	28471.36
708.588	28423.9
708.932	28312.72
709.277	28266.39
709.621	28294.64
709.966	28281.08
710.31	28271.59
710.654	27872.73
710.998	27989.56
711.342	27936.68
711.687	27891.71
712.031	27792.96
712.375	27680.87
712.719	27634.54
713.063	27717.03
713.407	27782.56
713.75	27626.86
714.094	27497.6
714.438	27451.5
714.782	27395
715.125	27217.15
715.469	27325.4
715.812	27199.52
716.156	26941.68
716.499	27105.74
716.843	27029.59
717.186	26990.94
717.53	27030.26
717.873	27011.06
718.216	26977.16
718.559	26797.5
718.902	26585.08
719.246	26720.22
719.589	26632.53
719.932	26442.26
720.275	26532.65
720.617	26501.01
720.96	26453.1
721.303	26391.18
721.646	26486.32
721.989	26238.19
722.331	26408.36
722.674	26310.51
723.016	26343.73
723.359	26312.77
723.701	26225.09
724.044	25999.33
724.386	25897.64
724.729	26061.25
725.071	25875.04
725.413	25941.03
725.755	25822.84
726.097	25785.1
726.439	25642.5
726.782	25754.14
727.124	25753.91
727.465	25593.92
727.807	25596.63
728.149	25581.26
728.491	25519.8
728.833	25512.11
729.175	25502.85
729.516	25340.14
729.858	25415.84
730.199	25336.3
730.541	25277.77
730.882	25381.27
731.224	25311.44
731.565	25066.93
731.906	25065.8
732.248	25143.08
732.589	24938.12
732.93	25003.2
733.271	24931.56
733.612	24882.52
733.953	24982.63
734.294	24708.97
734.635	24763.2
734.976	24880.94
735.317	24556.88
735.658	24590.55
735.999	24609.99
736.339	24636.65
736.68	24613.83
737.021	24493.16
737.361	24400.28
737.702	24580.38
738.042	24453.61
738.383	24354.4
738.723	24442.76
739.063	24395.53
739.404	24258.36
739.744	24219.26
740.084	24251.58
740.424	24221.98
740.764	24078.48
741.104	24282.31
741.444	24104.01
741.784	24028.53
742.124	24055.43
742.464	23998.48
742.804	23967.07
743.143	23960.51
743.483	23912.38
743.823	23828.77
744.162	23712.61
744.502	23717.58
744.841	23644.59
745.181	23781.99
745.52	23665.15
745.86	23615.44
746.199	23520.53
746.538	23561.65
746.877	23509.23
747.216	23552.16
747.556	23497.93
747.895	23407.99
748.234	23297.71
748.573	23307.42
748.911	23400.53
749.25	23228.56
749.589	23176.35
749.928	23116.47
750.267	23243.24
750.605	23037.15
750.944	22965.51
751.283	22916.47
751.621	23003.48
751.96	22799.87
752.298	22800.54
752.636	22880.99
752.975	22681.9
753.313	22631.96
753.651	22664.5
753.989	22546.77
