Data from White_paper_FLMS001491_030.txt Node
Date: Tue Feb 07 10:34:53 GMT 2017
User: dcchb
Spectrometer: FLMS00149
Trigger mode: 0
Integration Time (sec): 2.000000E-2
Scans to average: 10
Electric dark correction enabled: true
Nonlinearity correction enabled: false
Boxcar width: 0
XAxis mode: Wavelengths
Number of Pixels in Spectrum: 2048
>>>>>Begin Spectral Data<<<<<
341.393	-1.85
341.776	-1.85
342.16	-1.85
342.543	-59.25
342.927	-53.15
343.31	-44.79
343.693	-71.23
344.077	-59.02
344.46	-60.61
344.843	-64
345.226	-44.33
345.61	-31.23
345.993	-19.7
346.376	-4.79
346.759	15.32
347.142	25.04
347.525	55.55
347.908	53.52
348.291	57.13
348.674	77.7
349.057	115.43
349.44	135.77
349.823	146.17
350.206	155.21
350.588	226.84
350.971	234.98
351.354	265.26
351.737	265.94
352.119	279.95
352.502	292.38
352.884	308.65
353.267	293.74
353.65	344.13
354.032	338.03
354.414	347.97
354.797	359.5
355.179	359.27
355.562	365.15
355.944	350.91
356.326	368.08
356.709	361.53
357.091	398.59
357.473	372.83
357.855	374.64
358.238	383.9
358.62	382.32
359.002	381.19
359.384	377.57
359.766	368.08
360.148	379.83
360.53	371.25
360.912	392.26
361.294	381.19
361.676	377.12
362.057	390.68
362.439	376.9
362.821	363.79
363.203	365.15
363.584	384.58
363.966	368.31
364.348	351.59
364.729	372.6
365.111	375.99
365.493	361.76
365.874	370.8
366.256	356.11
366.637	359.95
367.019	362.43
367.4	373.06
367.781	357.01
368.163	350.46
368.544	355.2
368.925	362.43
369.306	371.7
369.688	371.93
370.069	370.12
370.45	372.15
370.831	370.8
371.212	372.6
371.593	364.02
371.974	373.28
372.355	365.6
372.736	373.73
373.117	374.86
373.498	381.42
373.879	363.56
374.26	361.53
374.641	375.54
375.021	378.25
375.402	393.85
375.783	364.47
376.163	387.52
376.544	395.65
376.925	395.2
377.305	384.13
377.686	399.95
378.066	385.03
378.447	423.45
378.827	404.01
379.208	404.24
379.588	404.69
379.968	394.52
380.349	421.42
380.729	401.98
381.109	416.44
381.489	427.29
381.87	420.29
382.25	416.9
382.63	413.73
383.01	408.53
383.39	418.7
383.77	436.78
384.15	433.17
384.53	464.8
384.91	458.25
385.29	479.49
385.67	462.54
386.049	437.69
386.429	460.28
386.809	441.53
387.189	448.76
387.568	468.42
387.948	465.71
388.328	475.88
388.707	486.27
389.087	478.14
389.466	467.06
389.846	522.43
390.225	491.92
390.605	499.83
390.984	484.01
391.363	511.13
391.743	520.17
392.122	527.85
392.501	540.73
392.881	543.67
393.26	524.92
393.639	528.98
394.018	535.08
394.397	535.31
394.776	563.78
395.155	560.62
395.534	552.49
395.913	558.59
396.292	576.44
396.671	576.67
397.05	574.18
397.429	580.51
397.808	586.83
398.186	591.58
398.565	610.79
398.944	608.98
399.323	602.43
399.701	627.51
400.08	634.52
400.458	641.3
400.837	641.07
401.215	641.75
401.594	683.56
401.972	673.84
402.351	692.82
402.729	695.98
403.107	732.14
403.486	706.15
403.864	710.45
404.242	739.6
404.62	747.96
404.999	773.5
405.377	781.63
405.755	795.87
406.133	793.84
406.511	814.63
406.889	818.92
407.267	849.2
407.645	862.76
408.023	874.51
408.401	895.98
408.779	912.48
409.156	971.23
409.534	970.33
409.912	1002.19
410.29	1017.11
410.667	1044.9
411.045	1070.44
411.422	1070.21
411.8	1102.08
412.178	1140.27
412.555	1192.47
412.933	1173.03
413.31	1217.78
413.687	1263.65
414.065	1265.91
414.442	1308.4
414.819	1347.27
415.197	1366.7
415.574	1385.01
415.951	1410.77
416.328	1418.23
416.705	1450.99
417.082	1464.33
417.46	1520.37
417.837	1539.58
418.214	1574.38
418.591	1592.46
418.967	1589.97
419.344	1613.47
419.721	1674.26
420.098	1699.12
420.475	1708.61
420.852	1724.43
421.228	1779.8
421.605	1802.17
421.982	1814.37
422.358	1847.82
422.735	1859.57
423.111	1883.3
423.488	1924.88
423.864	1954.93
424.241	1965.33
424.617	2014.82
424.994	2032.9
425.37	2036.74
425.746	2065.44
426.123	2102.95
426.499	2110.41
426.875	2158.32
427.251	2139.34
427.627	2200.35
428.003	2264.3
428.379	2288.03
428.756	2273.12
429.132	2369.16
429.507	2369.84
429.883	2419.33
430.259	2478.99
430.635	2490.51
431.011	2490.29
431.387	2610.28
431.763	2650.51
432.138	2640.79
432.514	2695.25
432.89	2726.21
433.265	2796.95
433.641	2810.73
434.016	2834.69
434.392	2889.83
434.767	2963.95
435.143	2978.18
435.518	2939.77
435.894	3021.8
436.269	3078.07
436.644	3073.32
437.02	3161.91
437.395	3161.46
437.77	3218.86
438.145	3239.87
438.52	3274.9
438.895	3315.58
439.271	3316.48
439.646	3414.78
440.021	3401.45
440.395	3433.54
440.77	3417.27
441.145	3463.14
441.52	3485.29
441.895	3528.68
442.27	3595.8
442.645	3569.36
443.019	3631.05
443.394	3664.27
443.769	3660.2
444.143	3650.94
444.518	3725.51
444.892	3725.74
445.267	3756.7
445.641	3828.33
446.016	3828.11
446.39	3836.92
446.764	3860.2
447.139	3835.79
447.513	3951.27
447.887	3924.6
448.262	3925.28
448.636	4003.47
449.01	4002.34
449.384	4031.26
449.758	4094.99
450.132	4140.64
450.506	4142
450.88	4170.24
451.254	4189.9
451.628	4207.53
452.002	4273.29
452.376	4313.06
452.75	4362.55
453.123	4401.65
453.497	4481.65
453.871	4465.6
454.244	4537.01
454.618	4593.06
454.992	4676.22
455.365	4667.86
455.739	4794.41
456.112	4810
456.486	4903.78
456.859	4894.97
457.232	4968.87
457.606	4980.84
457.979	5123.21
458.352	5125.7
458.725	5246.37
459.099	5239.37
459.472	5340.83
459.845	5326.82
460.218	5418.12
460.591	5542.64
460.964	5542.41
461.337	5663.54
461.71	5742.63
462.083	5845.23
462.456	5818.34
462.829	5818.34
463.201	5949.18
463.574	6038.44
463.947	6058.33
464.32	6196.86
464.692	6253.8
465.065	6297.87
465.438	6351.2
465.81	6510.75
466.183	6529.96
466.555	6723.85
466.928	6782.83
467.3	6777.18
467.672	6865.77
468.045	7018.53
468.417	7100.56
468.789	7073.44
469.161	7245.87
469.534	7320.9
469.906	7528.12
470.278	7498.07
470.65	7584.62
471.022	7799.3
471.394	7883.59
471.766	8014.21
472.138	8067.99
472.51	8234.32
472.882	8368.78
473.253	8425.05
473.625	8564.93
473.997	8784.13
474.369	8794.53
474.74	8962.21
475.112	9048.31
475.484	9254.4
475.855	9354.74
476.227	9563.32
476.598	9726.03
476.97	9779.81
477.341	10023.2
477.713	10168.96
478.084	10245.56
478.455	10534.37
478.827	10618.21
479.198	10822.27
479.569	10966.9
479.94	11179.55
480.311	11311.07
480.682	11584.74
481.053	11841.23
481.424	11995.12
481.795	12086.19
482.166	12327.32
482.537	12420.2
482.908	12723.69
483.279	12756.46
483.65	13002.78
484.021	13322.32
484.391	13459.72
484.762	13574.52
485.133	13660.39
485.503	13948.74
485.874	14206.14
486.244	14287.72
486.615	14618.78
486.985	14798.66
487.356	15074.82
487.726	15122.27
488.097	15515.03
488.467	15412.66
488.837	15822.82
489.207	15969.26
489.578	16236.59
489.948	16375.8
490.318	16548
490.688	16592.29
491.058	16880.19
491.428	17026.18
491.798	17182.78
492.168	17574.41
492.538	17618.03
492.908	17824.57
493.278	18065.47
493.648	18130.1
494.017	18321.06
494.387	18507.95
494.757	18712.91
495.126	18888.95
495.496	18876.07
495.866	19024.54
496.235	19306.12
496.605	19401.71
496.974	19576.84
497.344	19787.01
497.713	19754.47
498.082	19932.31
498.452	20149.71
498.821	20275.13
499.19	20210.95
499.559	20591.51
499.928	20636.93
500.298	20759.19
500.667	20915.34
501.036	21047.09
501.405	21143.13
501.774	21324.59
502.143	21459.96
502.512	21560.97
502.88	21561.2
503.249	21824.24
503.618	21935.43
503.987	22090.45
504.356	22204.12
504.724	22223.55
505.093	22374.06
505.462	22520.5
505.83	22729.08
506.199	22892.69
506.567	23173.36
506.936	23118.45
507.304	23401.15
507.672	23523.18
508.041	23586.46
508.409	23746.23
508.777	23939.44
509.145	24157.74
509.514	24111.19
509.882	24441.12
510.25	24427.56
510.618	24470.05
510.986	24587.56
511.354	24874.33
511.722	25056.25
512.09	25404.04
512.458	25330.14
512.826	25595.44
513.193	25632.05
513.561	25723.58
513.929	26040.63
514.297	26281.98
514.664	26411.24
515.032	26504.8
515.4	26774.85
515.767	26825.92
516.135	26976.2
516.502	26846.03
516.869	27268.85
517.237	27434.72
517.604	27366.24
517.972	27665.22
518.339	27902.5
518.706	28081.03
519.073	28227.46
519.44	28346.1
519.808	28584.52
520.175	28703.16
520.542	29027.22
520.909	29118.29
521.276	29172.75
521.643	29443.03
522.009	29732.96
522.376	29958.49
522.743	30095.21
523.11	30284.36
523.477	30524.13
523.843	30761.86
524.21	31008.41
524.577	31296.54
524.943	31529.07
525.31	31554.16
525.676	31931.32
526.043	32071.43
526.409	32166.8
526.776	32504.64
527.142	32654.01
527.508	32839.55
527.874	33052.65
528.241	33106.21
528.607	33278.63
528.973	33628.45
529.339	33581
529.705	34101.21
530.071	34304.59
530.437	34389.79
530.803	34554.53
531.169	34759.27
531.535	34685.37
531.901	35028.64
532.267	35126.27
532.632	35579.59
532.998	35490.78
533.364	35716.76
533.73	35734.39
534.095	36061.38
534.461	36133.92
534.826	36485.1
535.192	36530.52
535.557	36812.32
535.923	36715.15
536.288	36903.17
536.653	37132.77
537.019	37043.5
537.384	37197.4
537.749	37507.67
538.114	37450.72
538.479	37612.3
538.845	37815.01
539.21	37755.8
539.575	38058.17
539.94	38179.74
540.305	38310.36
540.67	38397.82
541.034	38557.36
541.399	38690.24
541.764	38811.37
542.129	38954.64
542.494	39102.21
542.858	39187.18
543.223	39175.42
543.587	39476.43
543.952	39498.58
544.316	39757.33
544.681	39785.58
545.045	39851.34
545.41	40176.53
545.774	40282.97
546.138	40269.63
546.503	40457.65
546.867	40428.73
547.231	40702.16
547.595	40746.68
547.959	41222.83
548.324	41015.38
548.688	41096.5
549.052	41327.46
549.416	41402.94
549.779	41609.26
550.143	41579.88
550.507	42007.67
550.871	42049.25
551.235	41966.54
551.599	42323.36
551.962	42377.15
552.326	42501.21
552.689	42759.51
553.053	42556.35
553.417	42748.44
553.78	43342.77
554.143	43135.32
554.507	43380.06
554.87	43430.91
555.234	43810.78
555.597	43707.06
555.96	43833.38
556.323	44026.37
556.686	44093.71
557.05	44335.74
557.413	44345.23
557.776	44492.57
558.139	44813.47
558.502	44930.3
558.865	44897.53
559.228	45276.73
559.59	45410.97
559.953	45485.99
560.316	45851.86
560.679	45879.43
561.041	46072.19
561.404	46277.61
561.767	46517.38
562.129	46327.33
562.492	46892.06
562.854	46808.67
563.217	46817.94
563.579	47029.46
563.941	47237.81
564.304	47351.93
564.666	47578.14
565.028	47626.5
565.39	47845.25
565.753	47993.05
566.115	48161.4
566.477	48403.43
566.839	48472.81
567.201	48735.4
567.563	48670.99
567.925	48939.24
568.287	49031.21
568.648	49102.17
569.01	49326.12
569.372	49495.61
569.734	49469.62
570.095	49754.36
570.457	49875.93
570.819	49980.79
571.18	49994.8
571.542	50133.78
571.903	50195.93
572.265	50344.62
572.626	50542.81
572.987	50613.77
573.349	50704.39
573.71	50876.36
574.071	50951.16
574.432	51041.78
574.794	51346.18
575.155	51190.48
575.516	51237.93
575.877	51331.49
576.238	51441.54
576.599	51627.98
576.96	51547.53
577.32	51652.16
577.681	51847.63
578.042	51918.37
578.403	51879.5
578.763	51953.85
579.124	51966.05
579.485	52141.64
579.845	52250.34
580.206	52228.64
580.566	52290.11
580.927	52296.21
581.287	52404.91
581.648	52338.02
582.008	52533.04
582.368	52386.15
582.728	52537.11
583.089	52485.13
583.449	52456.88
583.809	52568.74
584.169	52606.71
584.529	52615.52
584.889	52879.47
585.249	52629.53
585.609	52559.48
585.969	52820.04
586.329	52660.27
586.688	52845.12
587.048	52753.6
587.408	52680.61
587.768	52806.25
588.127	52859.13
588.487	52786.14
588.846	52970.99
589.206	52739.81
589.565	52853.71
589.925	52949.98
590.284	52946.14
590.643	52954.72
591.003	53041.27
591.362	53188.84
591.721	53059.35
592.08	53117.21
592.44	53158.79
592.799	53162.18
593.158	53125.57
593.517	53230.65
593.876	53299.12
594.235	53182.29
594.593	53234.72
594.952	53347.71
595.311	53277.2
595.67	53235.17
596.029	53427.03
596.387	53464.99
596.746	53492.11
597.104	53358.55
597.463	53454.6
597.822	53565.33
598.18	53505.22
598.538	53429.29
598.897	53572.33
599.255	53478.78
599.613	53827.92
599.972	53555.16
600.33	53749.73
600.688	53599.23
601.046	53733.91
601.404	53836.28
601.762	53764.42
602.12	53798.09
602.478	53838.09
602.836	53888.94
603.194	53716.06
603.552	53850.29
603.91	53689.62
604.268	53911.08
604.625	53780.01
604.983	53994.7
605.341	53896.85
605.698	53958.76
606.056	53979.33
606.413	54010.74
606.771	54089.61
607.128	54140.23
607.485	53997.18
607.843	54022.94
608.2	54293.9
608.557	54313.56
608.914	54130.74
609.272	54288.47
609.629	54363.5
609.986	54427.45
610.343	54241.7
610.7	54496.83
611.057	54429.94
611.414	54440.11
611.771	54513.78
612.127	54599.43
612.484	54532.08
612.841	54655.7
613.198	54572.31
613.554	54523.95
613.911	54624.51
614.267	54738.86
614.624	54675.36
614.98	54677.39
615.337	54817.05
615.693	54721.46
616.05	54711.74
616.406	54905.63
616.762	54793.77
617.118	54748.8
617.475	54767.11
617.831	54876.48
618.187	54864.73
618.543	54859.08
618.899	55025.18
619.255	54943.6
619.611	54958.29
619.967	55033.09
620.323	55124.16
620.678	54999.64
621.034	54903.37
621.39	54990.6
621.746	54909.25
622.101	55267.43
622.457	54956.7
622.812	55043.03
623.168	55132.07
623.523	55165.51
623.879	55239.64
624.234	55090.03
624.589	55080.54
624.945	55215.68
625.3	55146.76
625.655	55156.93
626.01	55166.64
626.365	55209.58
626.72	55167.32
627.075	55167.55
627.43	55154.44
627.785	55002.13
628.14	55159.86
628.495	55171.16
628.85	55127.55
629.205	54978.17
629.559	55182.69
629.914	55054.1
630.269	55029.02
630.623	55120.77
630.978	55016.59
631.332	55163.7
631.687	55240.54
632.041	55031.28
632.396	55174.55
632.75	55014.1
633.104	55049.13
633.459	54935.46
633.813	54930.26
634.167	54882.13
634.521	54841
634.875	54988.79
635.229	54858.18
635.583	54798.29
635.937	54810.27
636.291	54812.53
636.645	54805.97
636.999	54687.79
637.352	54840.78
637.706	54765.75
638.06	54812.3
638.413	54696.37
638.767	54702.7
639.121	54738.41
639.474	54555.36
639.828	54613.44
640.181	54718.52
640.534	54627.22
640.888	54585.42
641.241	54453.22
641.594	54489.6
641.947	54664.96
642.301	54559.43
642.654	54496.83
643.007	54566.21
643.36	54539.77
643.713	54391.3
644.066	54569.82
644.419	54411.18
644.771	54191.08
645.124	53858.2
645.477	53784.76
645.83	53731.65
646.182	53539.11
646.535	53506.57
646.888	53613.24
647.24	53436.29
647.593	53735.27
647.945	53581.83
648.298	53415.5
648.65	53498.21
649.002	53383.86
649.355	53392.68
649.707	53415.95
650.059	53525.33
650.411	53861.14
650.763	53928.71
651.115	54207.12
651.467	54076.05
651.819	54122.83
652.171	53954.92
652.523	53995.37
652.875	54018.65
653.227	53838.54
653.578	54064.3
653.93	54007.58
654.282	53875.83
654.633	53823.63
654.985	53897.07
655.337	53859.78
655.688	53829.73
656.039	53990.85
656.391	53693.69
656.742	53745.44
657.094	53780.01
657.445	53930.74
657.796	53804.64
658.147	53736.17
658.498	53704.08
658.849	53779.56
659.2	53741.14
659.551	53728.94
659.902	53798.77
660.253	53646.23
660.604	53782.27
660.955	53593.35
661.306	53663.41
661.656	53687.36
662.007	53629.51
662.358	53629.96
662.708	53601.94
663.059	53667.93
663.409	53433.35
663.76	53656.63
664.11	53628.15
664.461	53588.38
664.811	53671.99
665.161	53548.15
665.511	53519.91
665.862	53543.41
666.212	53593.8
666.562	53667.02
666.912	53541.6
667.262	53481.04
667.612	53473.58
667.962	53548.83
668.312	53453.92
668.662	53529.17
669.011	53421.38
669.361	53363.98
669.711	53324.66
670.06	53334.15
670.41	53290.31
670.76	53185
671.109	53359.01
671.459	53240.59
671.808	53262.29
672.157	53315.17
672.507	53027.26
672.856	53090.09
673.205	53128.28
673.554	53252.57
673.904	53024.55
674.253	53240.82
674.602	53068.39
674.951	52571.91
675.3	52466.37
675.649	52951.79
675.998	52991.56
676.346	52979.36
676.695	53017.77
677.044	52747.05
677.393	52888.74
677.741	52917.44
678.09	52830.66
678.438	52737.1
678.787	52813.94
679.135	52799.93
679.484	52520.61
679.832	52648.52
680.181	52460.05
680.529	52587.95
680.877	52373.5
681.225	52389.31
681.573	52454.62
681.922	52319.94
682.27	52245.14
682.618	52324.23
682.966	52170.56
683.314	52260.28
683.661	52002.88
684.009	51921.76
684.357	51866.16
684.705	51818.71
685.053	51778.26
685.4	51827.75
685.748	51614.87
686.095	51576.68
686.443	51465.27
686.79	51255.56
687.138	51431.37
687.485	51403.8
687.832	51162.45
688.18	51175.56
688.527	51018.05
688.874	51160.42
689.221	50900.77
689.568	50885.17
689.915	50770.15
690.262	50736.02
690.609	50572.41
690.956	50468.91
691.303	50437.5
691.65	50135.81
691.997	50265.75
692.344	50012.43
692.69	50138.07
693.037	50039.32
693.383	49775.82
693.73	49830.06
694.077	49634.81
694.423	49668.71
694.769	49493.57
695.116	49567.02
695.462	49420.13
695.808	49207.25
696.155	49246.8
696.501	48995.51
696.847	49108.72
697.193	48822.63
697.539	49072.79
697.885	48568.4
698.231	48489.08
698.577	48508.29
698.923	48543.99
699.269	48248.63
699.614	48006.6
699.96	48109.2
700.306	47969.32
700.651	47788.53
700.997	47763.9
701.342	47711.92
701.688	47718.02
702.033	47514.19
702.379	47474.64
702.724	47358.26
703.069	47368.66
703.415	46981.1
703.76	46963.47
704.105	46947.2
704.45	46926.63
704.795	46705.85
705.14	46452.07
705.485	46561.67
705.83	46354.9
706.175	46404.16
706.52	46216.6
706.865	46080.1
707.209	46173.66
707.554	45962.59
707.899	46071.06
708.243	45791.07
708.588	45652.99
708.932	45419.1
709.277	45542.71
709.621	45438.54
709.966	45214.59
710.31	45280.57
710.654	44841.26
710.998	45138.66
711.342	45114.93
711.687	44989.74
712.031	44702.29
712.375	44608.05
712.719	44705.45
713.063	44476.75
713.407	44686.47
713.75	44509.52
714.094	44596.53
714.438	44128.06
714.782	44252.81
715.125	44047.61
715.469	44207.61
715.812	43905.92
716.156	43838.35
716.499	43851.69
716.843	43852.14
717.186	43643.78
717.53	43795.19
717.873	43646.27
718.216	43558.36
718.559	43420.28
718.902	43105.04
719.246	43286.73
719.589	42978.94
719.932	42981.2
720.275	43087.19
720.617	43066.85
720.96	42972.61
721.303	42870.92
721.646	42818.72
721.989	42605.62
722.331	42651.49
722.674	42656.24
723.016	42727.42
723.359	42358.84
723.701	42515.9
724.044	42056.93
724.386	41955.46
724.729	42196.14
725.071	42202.24
725.413	42075.01
725.755	41948.69
726.097	41849.48
726.439	41740.1
726.782	41588.02
727.124	41944.84
727.465	41753.89
727.807	41496.95
728.149	41585.98
728.491	41512.99
728.833	41496.04
729.175	41360.23
729.516	41230.96
729.858	41175.6
730.199	41392.54
730.541	41170.63
730.882	40969.95
731.224	41155.26
731.565	40914.81
731.906	41017.41
732.248	40974.93
732.589	40744.87
732.93	40528.84
733.271	40688.38
733.612	40649.06
733.953	40670.53
734.294	40504.2
734.635	40277.77
734.976	40556.86
735.317	40248.16
735.658	40382.17
735.999	40343.3
736.339	40134.5
736.68	40169.07
737.021	40153.03
737.361	39962.3
737.702	40118
738.042	39930.43
738.383	39886.82
738.723	40018.79
739.063	39840.27
739.404	39887.72
739.744	39757.1
740.084	39567.73
740.424	39604.34
740.764	39524.79
741.104	39548.75
741.444	39353.73
741.784	39308.08
742.124	39302.65
742.464	39363.22
742.804	39113.73
743.143	39166.84
743.483	39233.95
743.823	38921.19
744.162	39062.66
744.502	39031.25
744.841	38826.96
745.181	38977.92
745.52	38785.6
745.86	38793.97
746.199	38697.47
746.538	38757.13
746.877	38708.09
747.216	38696.79
747.556	38629.9
747.895	38586.06
748.234	38426.52
748.573	38298.61
748.911	38255
749.25	38312.85
749.589	38164.15
749.928	38125.96
750.267	38238.5
750.605	38021.78
750.944	37981.78
751.283	37675.35
751.621	37944.04
751.96	37593.77
752.298	37528.69
752.636	37603.26
752.975	37347
753.313	37370.73
