Data from White_paper_FLMS001491_046.txt Node
Date: Tue Feb 07 10:35:08 GMT 2017
User: dcchb
Spectrometer: FLMS00149
Trigger mode: 0
Integration Time (sec): 2.000000E-2
Scans to average: 10
Electric dark correction enabled: true
Nonlinearity correction enabled: false
Boxcar width: 0
XAxis mode: Wavelengths
Number of Pixels in Spectrum: 2048
>>>>>Begin Spectral Data<<<<<
341.393	-19.12
341.776	-19.12
342.16	-19.12
342.543	-40.37
342.927	-64.55
343.31	-80.59
343.693	-80.14
344.077	-65.45
344.46	-51.67
344.843	-41.72
345.226	-36.3
345.61	-43.76
345.993	-15.51
346.376	0.76
346.759	7.09
347.142	7.09
347.525	45.51
347.908	84.38
348.291	68.11
348.674	108.33
349.057	93.87
349.44	141.1
349.823	155.11
350.206	180.42
350.588	216.35
350.971	224.71
351.354	260.64
351.737	265.61
352.119	280.76
352.502	286.63
352.884	295.67
353.267	307.42
353.65	332.96
354.032	331.15
354.414	325.05
354.797	338.15
355.179	354.2
355.562	339.96
355.944	346.74
356.326	371.15
356.709	371.6
357.091	366.18
357.473	363.01
357.855	357.82
358.238	368.66
358.62	386.29
359.002	373.63
359.384	367.98
359.766	383.13
360.148	366.18
360.53	361.21
360.912	366.85
361.294	375.89
361.676	380.19
362.057	370.47
362.439	365.5
362.821	353.97
363.203	388.1
363.584	360.75
363.966	372.96
364.348	344.48
364.729	378.15
365.111	363.47
365.493	344.03
365.874	369.79
366.256	360.98
366.637	370.02
367.019	357.36
367.4	368.89
367.781	380.87
368.163	373.41
368.544	374.09
368.925	362.56
369.306	350.81
369.688	369.57
370.069	377.02
370.45	378.83
370.831	362.11
371.212	377.93
371.593	353.97
371.974	366.4
372.355	377.02
372.736	350.58
373.117	356.01
373.498	371.15
373.879	390.58
374.26	361.88
374.641	377.7
375.021	357.36
375.402	388.55
375.783	402.11
376.163	384.71
376.544	403.92
376.925	397.14
377.305	392.62
377.686	378.38
378.066	401.43
378.447	406.4
378.827	401.43
379.208	394.42
379.588	391.49
379.968	389.23
380.349	401.2
380.729	425.38
381.109	390.81
381.489	416.8
381.87	421.77
382.25	422.45
382.63	422.22
383.01	442.33
383.39	428.77
383.77	439.4
384.15	409.57
384.53	437.36
384.91	445.27
385.29	449.79
385.67	450.47
386.049	440.53
386.429	437.81
386.809	450.92
387.189	450.69
387.568	464.93
387.948	456.57
388.328	465.61
388.707	467.87
389.087	457.02
389.466	497.92
389.846	491.15
390.225	494.99
390.605	510.81
390.984	487.76
391.363	507.87
391.743	507.19
392.122	516.23
392.501	521.88
392.881	534.76
393.26	531.14
393.639	546.06
394.018	538.38
394.397	551.26
394.776	566.62
395.155	546.06
395.534	547.64
395.913	547.41
396.292	582.89
396.671	589.9
397.05	597.36
397.429	583.12
397.808	608.2
398.186	610.01
398.565	619.73
398.944	600.97
399.323	624.02
399.701	595.55
400.08	633.29
400.458	626.06
400.837	626.96
401.215	650.01
401.594	668.54
401.972	671.03
402.351	693.4
402.729	685.04
403.107	718.94
403.486	712.38
403.864	713.29
404.242	727.07
404.62	746.96
404.999	761.42
405.377	774.08
405.755	788.99
406.133	777.69
406.511	810.01
406.889	808.65
407.267	866.95
407.645	843.45
408.023	873.96
408.401	915.09
408.779	904.24
409.156	964.81
409.534	972.26
409.912	994.41
410.29	1012.26
410.667	1049.55
411.045	1054.75
411.422	1079.38
411.8	1126.83
412.178	1129.77
412.555	1162.09
412.933	1195.31
413.31	1212.03
413.687	1237.11
414.065	1264.23
414.442	1305.36
414.819	1314.63
415.197	1350.33
415.574	1410.9
415.951	1421.97
416.328	1412.25
416.705	1442.98
417.082	1487.73
417.46	1510.55
417.837	1563.66
418.214	1534.73
418.591	1589.65
418.967	1604.56
419.344	1645.92
419.721	1663.54
420.098	1650.66
420.475	1717.55
420.852	1727.95
421.228	1753.03
421.605	1761.39
421.982	1811.56
422.358	1850.21
422.735	1847.95
423.111	1861.5
423.488	1891.79
423.864	1912.12
424.241	1944.67
424.617	1999.58
424.994	2014.95
425.37	2039.13
425.746	2054.04
426.123	2094.04
426.499	2090.88
426.875	2127.03
427.251	2212.23
427.627	2264.88
428.003	2269.63
428.379	2281.15
428.756	2306.69
429.132	2339.23
429.507	2385.33
429.883	2440.25
430.259	2459.23
430.635	2497.19
431.011	2544.88
431.387	2579.23
431.763	2580.81
432.138	2628.72
432.514	2655.83
432.89	2726.57
433.265	2789.39
433.641	2809.95
434.016	2834.59
434.392	2885.43
434.767	2937.63
435.143	2942.61
435.518	3017.63
435.894	3031.42
436.269	3091.75
436.644	3139.21
437.02	3173.56
437.395	3163.39
437.77	3206.1
438.145	3252.65
438.52	3275.7
438.895	3338.98
439.271	3316.38
439.646	3418.53
440.021	3402.48
440.395	3447.9
440.77	3437.96
441.145	3456.49
441.52	3531.52
441.895	3536.26
442.27	3615.36
442.645	3599.31
443.019	3625.53
443.394	3632.08
443.769	3677.05
444.143	3711.85
444.518	3758.18
444.892	3717.5
445.267	3770.61
445.641	3759.76
446.016	3849.93
446.39	3853.99
446.764	3870.49
447.139	3877.04
447.513	3946.65
447.887	3931.28
448.262	3921.11
448.636	3959.75
449.01	4018.96
449.384	4078.4
449.758	4083.14
450.132	4131.73
450.506	4092.86
450.88	4185.74
451.254	4190.03
451.628	4230.93
452.002	4293.76
452.376	4317.71
452.75	4365.62
453.123	4433.64
453.497	4443.36
453.871	4513.64
454.244	4597.03
454.618	4634.31
454.992	4676.57
455.365	4659.85
455.739	4807.64
456.112	4832.27
456.486	4893.29
456.859	4922.89
457.232	4997.47
457.606	5001.99
457.979	5076.11
458.352	5196.11
458.725	5220.74
459.099	5241.08
459.472	5344.13
459.845	5471.81
460.218	5474.74
460.591	5505.25
460.964	5575.98
461.337	5674.29
461.71	5737.34
462.083	5828.86
462.456	5867.28
462.829	5850.55
463.201	5972.58
463.574	6062.3
463.947	6130.77
464.32	6237.43
464.692	6258.68
465.065	6328.51
465.438	6438.11
465.81	6540.7
466.183	6607.37
466.555	6741.38
466.928	6750.19
467.3	6701.83
467.672	6942.5
468.045	7065.89
468.417	7148.37
468.789	7154.92
469.161	7260.68
469.534	7408.48
469.906	7568.47
470.278	7607.79
470.65	7702.93
471.022	7803.04
471.394	7985.41
471.766	8066.09
472.138	8089.82
472.51	8341.56
472.882	8442.12
473.253	8462.01
473.625	8642.12
473.997	8806.63
474.369	8891.15
474.74	8927.76
475.112	9123.23
475.484	9238.71
475.855	9469.67
476.227	9486.16
476.598	9825.36
476.97	9859.71
477.341	10073.04
477.713	10205.69
478.084	10245.24
478.455	10632.57
478.827	10690.2
479.198	11036.18
479.569	10972.23
479.94	11295.38
480.311	11347.81
480.682	11673.9
481.053	11894.46
481.424	12097.17
481.795	12113.21
482.166	12349.82
482.537	12623.71
482.908	12792.52
483.279	12878.16
483.65	13203.35
484.021	13404.93
484.391	13573.97
484.762	13631.82
485.133	13805.82
485.503	13960.17
485.874	14337.11
486.244	14416.43
486.615	14624.33
486.985	14906.36
487.356	15144.09
487.726	15234.71
488.097	15556.74
488.467	15575.49
488.837	15874.24
489.207	16069.94
489.578	16310.62
489.948	16483.27
490.318	16696.37
490.688	16735.01
491.058	16971.39
491.428	17204.15
491.798	17352.62
492.168	17729.79
492.538	17863.34
492.908	18023.11
493.278	18168.65
493.648	18283.22
494.017	18527.28
494.387	18579.03
494.757	18794.39
495.126	19049.75
495.496	19042.3
495.866	19129.75
496.235	19434.15
496.605	19614.26
496.974	19664.2
497.344	19895.38
497.713	19860.58
498.082	20148.48
498.452	20297.86
498.821	20407.23
499.19	20449.72
499.559	20816.94
499.928	20911.85
500.298	20843.83
500.667	21175.35
501.036	21152.3
501.405	21415.57
501.774	21328.79
502.143	21589.35
502.512	21709.34
502.88	21857.59
503.249	21887.87
503.618	22054.65
503.987	22224.13
504.356	22447.63
504.724	22421.87
505.093	22689.88
505.462	22734.18
505.83	22856.43
506.199	23073.15
506.567	23482.63
506.936	23298.23
507.304	23704.09
507.672	23659.35
508.041	23776.86
508.409	23967.36
508.777	24081.71
509.145	24371.42
509.514	24413.45
509.882	24561.02
510.25	24568.03
510.618	24826.55
510.986	24820.68
511.354	25193.77
511.722	25440.32
512.09	25519.87
512.458	25464.05
512.826	25844.6
513.193	25897.03
513.561	26060.42
513.929	26275.33
514.297	26491.14
514.664	26638.48
515.032	26727.29
515.4	27011.8
515.767	27216.54
516.135	27264
516.502	27146.26
516.869	27621.73
517.237	27822.86
517.604	27581.73
517.972	27899.24
518.339	28202.73
518.706	28346.01
519.073	28385.55
519.44	28678.43
519.808	28966.1
520.175	28927.23
520.542	29374.23
520.909	29450.84
521.276	29594.11
521.643	29811.05
522.009	30034.55
522.376	30295.11
522.743	30307.54
523.11	30616.68
523.477	30921.76
523.843	31117.01
524.21	31386.6
524.577	31571.91
524.943	31662.76
525.31	31900.04
525.676	32169.41
526.043	32288.05
526.409	32416.63
526.776	32862.5
527.142	32952.89
527.508	33107.69
527.874	33421.13
528.241	33537.51
528.607	33632.87
528.973	33965.07
529.339	33959.64
529.705	34415.23
530.071	34628.1
530.437	34761.2
530.803	35043.91
531.169	35215.43
531.535	35160.97
531.901	35250.68
532.267	35465.59
532.632	35863.77
532.998	35875.98
533.364	35941.29
533.73	36150.09
534.095	36454.95
534.461	36706.01
534.826	36820.13
535.192	36977.19
535.557	37209.05
535.923	37077.98
536.288	37350.29
536.653	37527.69
537.019	37416.73
537.384	37713.44
537.749	37830.05
538.114	37864.85
538.479	37935.58
538.845	38215.13
539.21	38249.7
539.575	38414.22
539.94	38486.08
540.305	38813.75
540.67	38820.76
541.034	38938.04
541.399	39177.59
541.764	39166.74
542.129	39401.53
542.494	39510.46
542.858	39555.43
543.223	39716.78
543.587	39933.95
543.952	39891.69
544.316	40105.92
544.681	40112.02
545.045	40315.63
545.41	40560.15
545.774	40559.47
546.138	40693.03
546.503	40911.78
546.867	40917.43
547.231	41266.12
547.595	41298.89
547.959	41385.44
548.324	41422.27
548.688	41572.55
549.052	41606.67
549.416	41729.16
549.779	41876.72
550.143	42050.28
550.507	42346.77
550.871	42472.64
551.235	42367.11
551.599	42682.8
551.962	42876.25
552.326	42854.55
552.689	43208.44
553.053	43034.43
553.417	43114.88
553.78	43704.25
554.143	43547.87
554.507	43692.04
554.87	43782.44
555.234	44228.07
555.597	44056.1
555.96	44257.68
556.323	44407.73
556.686	44446.15
557.05	44704.67
557.413	44755.97
557.776	44889.75
558.139	45026.47
558.502	45296.29
558.865	45326.12
559.228	45654.03
559.59	45729.73
559.953	45760.69
560.316	46230.96
560.679	46173.33
561.041	46423.72
561.404	46543.49
561.767	46799.31
562.129	46754.11
562.492	47198.39
562.854	47179.41
563.217	47141.44
563.579	47258.28
563.941	47613.07
564.304	47798.38
564.666	47971.7
565.028	48005.6
565.39	48086.73
565.753	48455.08
566.115	48484.69
566.477	48714.51
566.839	48832.47
567.201	49123.54
567.563	49150.43
567.925	49357.66
568.287	49303.42
568.648	49504.09
569.01	49687.37
569.372	49857.98
569.734	49798.55
570.095	50109.05
570.457	50201.7
570.819	50249.61
571.18	50265.88
571.542	50552.2
571.903	50549.49
572.265	50741.58
572.626	50831.52
572.987	50920.1
573.349	51087.56
573.71	51226.99
574.071	51243.94
574.432	51237.61
574.794	51616.81
575.155	51598.05
575.516	51495.45
575.877	51670.14
576.238	51702.23
576.599	51963.69
576.96	51999.85
577.32	52040.3
577.681	52086.17
578.042	52154.19
578.403	52120.07
578.763	52167.75
579.124	52361.19
579.485	52442.32
579.845	52541.75
580.206	52492.49
580.566	52503.11
580.927	52523.9
581.287	52731.13
581.648	52558.25
582.008	52711.24
582.368	52724.12
582.728	52870.78
583.089	52760.96
583.449	52848.64
583.809	52857.45
584.169	53021.29
584.529	52811.35
584.889	53082.76
585.249	52852.03
585.609	52951.46
585.969	53100.38
586.329	53013.61
586.688	53094.96
587.048	53143.09
587.408	53078.01
587.768	53071.01
588.127	53027.62
588.487	53098.12
588.846	53325.91
589.206	53138.57
589.565	53134.05
589.925	53355.29
590.284	53234.17
590.643	53280.27
591.003	53372.24
591.362	53433.03
591.721	53343.54
592.08	53415.63
592.44	53436.19
592.799	53454.72
593.158	53359.81
593.517	53399.81
593.876	53514.16
594.235	53386.48
594.593	53480.03
594.952	53635.51
595.311	53437.1
595.67	53571.56
596.029	53730.88
596.387	53768.39
596.746	53813.81
597.104	53684.32
597.463	53731.78
597.822	53808.84
598.18	53645.45
598.538	53701.95
598.897	53870.98
599.255	53606.81
599.613	54045.67
599.972	53780.37
600.33	53982.85
600.688	53876.18
601.046	54041.38
601.404	54063.52
601.762	54077.08
602.12	54249.51
602.478	54166.12
602.836	54148.49
603.194	54019.46
603.552	54163.86
603.91	53980.13
604.268	54205.67
604.625	54074.14
604.983	54318.66
605.341	54134.71
605.698	54273.46
606.056	54332.67
606.413	54228.72
606.771	54416.96
607.128	54356.4
607.485	54310.3
607.843	54239.79
608.2	54516.62
608.557	54519.33
608.914	54471.19
609.272	54562.94
609.629	54625.77
609.986	54674.13
610.343	54498.54
610.7	54685.2
611.057	54710.06
611.414	54747.57
611.771	54829.15
612.127	54881.35
612.484	54796.16
612.841	54882.71
613.198	54844.29
613.554	54847
613.911	55033.21
614.267	54997.51
614.624	54943.95
614.98	55038.86
615.337	55091.74
615.693	55052.2
616.05	54986.44
616.406	55100.33
616.762	55023.72
617.118	55094.46
617.475	55078.18
617.831	55182.36
618.187	55205.19
618.543	55290.16
618.899	55279.76
619.255	55278.18
619.611	55304.17
619.967	55412.87
620.323	55392.3
620.678	55270.27
621.034	55234.79
621.39	55244.06
621.746	55187.79
622.101	55521.34
622.457	55236.82
622.812	55312.3
623.168	55412.19
623.523	55410.83
623.879	55454.9
624.234	55227.11
624.589	55444.5
624.945	55359.08
625.3	55464.84
625.655	55424.62
626.01	55451.28
626.365	55428.23
626.72	55346.65
627.075	55354.34
627.43	55400.21
627.785	55299.2
628.14	55404.05
628.495	55463.03
628.85	55444.95
629.205	55303.49
629.559	55545.06
629.914	55355.92
630.269	55387.55
630.623	55305.98
630.978	55271.17
631.332	55416.93
631.687	55503.94
632.041	55310.04
632.396	55404.96
632.75	55259.2
633.104	55315.24
633.459	55193.21
633.813	55157.5
634.167	55192.31
634.521	55204.28
634.875	55295.58
635.229	55186.88
635.583	55103.27
635.937	55112.76
636.291	55089.71
636.645	55082.25
636.999	54983.27
637.352	55118.86
637.706	54933.33
638.06	55069.82
638.413	55007.45
638.767	54899.66
639.121	54996.15
639.474	54839.32
639.828	54888.59
640.181	54853.56
640.534	54889.26
640.888	54855.37
641.241	54709.38
641.594	54731.3
641.947	54830.28
642.301	54772.66
642.654	54850.85
643.007	54775.14
643.36	54736.95
643.713	54736.5
644.066	54819.43
644.419	54660.12
644.771	54472.1
645.124	54155.72
645.477	54148.04
645.83	53938.78
646.182	53822.17
646.535	53856.07
646.888	53880.7
647.24	53703.98
647.593	53890.87
647.945	53811.78
648.298	53653.14
648.65	53667.6
649.002	53624.44
649.355	53738.11
649.707	53680.71
650.059	53892.9
650.411	54176.06
650.763	54141.94
651.115	54494.47
651.467	54340.35
651.819	54355.72
652.171	54273.91
652.523	54263.06
652.875	54253.35
653.227	54106.68
653.578	54382.38
653.93	54195.27
654.282	54127.02
654.633	54192.33
654.985	54140.81
655.337	54187.13
655.688	54154.37
656.039	54184.65
656.391	53928.16
656.742	54045.44
657.094	54057.42
657.445	54176.29
657.796	54084.54
658.147	54054.26
658.498	53975.39
658.849	54041.6
659.2	53998.89
659.551	53983.75
659.902	54088.15
660.253	54013.13
660.604	53997.08
660.955	53896.97
661.306	53925.45
661.656	53893.58
662.007	53930.42
662.358	53902.62
662.708	53897.2
663.059	53823.3
663.409	53662.4
663.76	53937.2
664.11	53896.97
664.461	53837.31
664.811	53842.06
665.161	53777.2
665.511	53800.03
665.862	53708.05
666.212	53813.59
666.562	53840.03
666.912	53823.98
667.262	53709.63
667.612	53707.15
667.962	53706.47
668.312	53730.88
668.662	53843.64
669.011	53641.61
669.361	53656.98
669.711	53621.27
670.06	53529.75
670.41	53458.11
670.76	53492.01
671.109	53676.64
671.459	53540.6
671.808	53427.38
672.157	53510.54
672.507	53296.99
672.856	53350.55
673.205	53348.96
673.554	53444.33
673.904	53282.07
674.253	53476.42
674.602	53402.3
674.951	52901.74
675.3	52715.08
675.649	53205.47
675.998	53090.21
676.346	53144.45
676.695	53271.68
677.044	52999.6
677.393	53031.46
677.741	53165.92
678.09	53018.35
678.438	52919.37
678.787	52947.85
679.135	52996.43
679.484	52772.03
679.832	52864.91
680.181	52622.43
680.529	52771.58
680.877	52670.11
681.225	52638.7
681.573	52854.51
681.922	52644.12
682.27	52565.03
682.618	52449.1
682.966	52405.26
683.314	52451.81
683.661	52306.96
684.009	52148.77
684.357	52039.17
684.705	52066.29
685.053	52064.7
685.4	52025.38
685.748	51856.57
686.095	51906.52
686.443	51713.75
686.79	51553.31
687.138	51690.48
687.485	51681.66
687.832	51502.69
688.18	51495.23
688.527	51331.16
688.874	51246.19
689.221	51267.66
689.568	51204.39
689.915	51053.66
690.262	51013.43
690.609	50897.96
690.956	50864.06
691.303	50735.25
691.65	50502.49
691.997	50586.78
692.344	50409.38
692.69	50303.39
693.037	50267.46
693.383	50061.59
693.73	50177.3
694.077	49951.54
694.423	49894.82
694.769	49825.67
695.116	49931.88
695.462	49708.61
695.808	49582.51
696.155	49647.37
696.501	49244.21
696.847	49376.64
697.193	49023.65
697.539	49185.68
697.885	48976.2
698.231	48860.72
698.577	48862.75
698.923	48716.77
699.269	48542.09
699.614	48389.09
699.96	48313.84
700.306	48424.8
700.651	48171.7
700.997	48090.35
701.342	47865.49
701.688	48025.94
702.033	47885.83
702.379	47905.72
702.724	47734.2
703.069	47798.15
703.415	47392.28
703.76	47244.72
704.105	47432.74
704.45	47157.04
704.795	46995.91
705.14	46999.3
705.485	46858.06
705.83	46843.37
706.175	46712.3
706.52	46733.77
706.865	46441.35
707.209	46583.27
707.554	46366.55
707.899	46395.93
708.243	46228.02
708.588	46102.6
708.932	45877.52
709.277	45825.55
709.621	46032.55
709.966	45605.21
710.31	45745.1
710.654	45267.14
710.998	45462.84
711.342	45444.31
711.687	45321.6
712.031	45194.15
712.375	44943.76
712.719	45108.05
713.063	44987.6
713.407	45092.46
713.75	44959.81
714.094	44765.01
714.438	44544.22
714.782	44643.2
715.125	44554.17
715.469	44616.54
715.812	44270.56
716.156	44155.31
716.499	44207.28
716.843	44147.4
717.186	43915.31
717.53	44107.63
717.873	44020.62
718.216	43985.14
718.559	43700.18
718.902	43466.29
719.246	43648.43
719.589	43332.96
719.932	43454.99
720.275	43344.26
720.617	43205.28
720.96	43168.67
721.303	43122.57
721.646	43147.2
721.989	42849.13
722.331	43172.51
722.674	42821.78
723.016	42920.09
723.359	42805.96
723.701	42857.49
724.044	42641
724.386	42302.93
724.729	42549.47
725.071	42377.5
725.413	42479.19
725.755	42363.04
726.097	42224.29
726.439	42059.77
726.782	42054.12
727.124	42269.93
727.465	42036.04
727.807	41949.72
728.149	41762.83
728.491	41705.43
728.833	41935.03
729.175	41807.57
729.516	41528.03
729.858	41424.31
730.199	41538.43
730.541	41416.4
730.882	41399.22
731.224	41602.15
731.565	41287.81
731.906	41326.91
732.248	41357.87
732.589	41060.7
732.93	40914.26
733.271	41021.61
733.612	41141.6
733.953	41116.29
734.294	40891.89
734.635	40715.4
734.976	40753.59
735.317	40573.03
735.658	40592.46
735.999	40687.15
736.339	40368.06
736.68	40604.67
737.021	40415.97
737.361	40250.78
737.702	40361.28
738.042	40398.12
738.383	40130.33
738.723	40314.05
739.063	40100.95
739.404	40177.11
739.744	40081.97
740.084	39988.41
740.424	39951.58
740.764	39771.24
741.104	39957.9
741.444	39674.52
741.784	39628.87
742.124	39745.93
742.464	39537.35
742.804	39653.51
743.143	39540.74
743.483	39536.22
743.823	39181.65
744.162	39191.37
744.502	39299.84
744.841	39201.99
745.181	39286.96
745.52	39141.43
745.86	39169.45
746.199	39005.39
746.538	38977.82
746.877	38990.92
747.216	38992.28
747.556	38896.24
747.895	38907.99
748.234	38745.96
748.573	38715.22
748.911	38544.61
749.25	38653.98
749.589	38314.11
749.928	38449.02
750.267	38435.01
750.605	38339.42
750.944	38263.26
751.283	38177.16
751.621	38196.14
751.96	37911.4
752.298	37972.87
