Data from white_wall_FLMS001491_050.txt Node
Date: Tue Feb 07 11:04:35 GMT 2017
User: dcchb
Spectrometer: FLMS00149
Trigger mode: 0
Integration Time (sec): 2.000000E-2
Scans to average: 10
Electric dark correction enabled: true
Nonlinearity correction enabled: false
Boxcar width: 0
XAxis mode: Wavelengths
Number of Pixels in Spectrum: 2048
>>>>>Begin Spectral Data<<<<<
341.393	-12.56
341.776	-12.56
342.16	-12.56
342.543	-66.11
342.927	-77.87
343.31	-73.35
343.693	-68.37
344.077	-46.91
344.46	-49.62
344.843	-44.65
345.226	-49.39
345.61	-34.02
345.993	-20.47
346.376	-6.68
346.759	7.1
347.142	25.63
347.525	37.84
347.908	50.94
348.291	72.64
348.674	73.32
349.057	125.97
349.44	119.19
349.823	123.94
350.206	169.36
350.588	199.87
350.971	209.13
351.354	248.23
351.737	251.39
352.119	245.52
352.502	278.74
352.884	276.93
353.267	292.29
353.65	303.14
354.032	317.6
354.414	300.88
354.797	337.49
355.179	326.42
355.562	336.81
355.944	309.92
356.326	329.13
356.709	341.33
357.091	345.17
357.473	351.73
357.855	343.14
358.238	342.69
358.62	345.4
359.002	320.77
359.384	320.77
359.766	351.95
360.148	358.51
360.53	345.63
360.912	338.4
361.294	350.15
361.676	328
362.057	322.8
362.439	342.24
362.821	329.58
363.203	330.03
363.584	315.34
363.966	314.89
364.348	333.2
364.729	335.46
365.111	313.31
365.493	358.06
365.874	344.04
366.256	337.27
366.637	319.41
367.019	315.57
367.4	331.62
367.781	330.26
368.163	331.16
368.544	339.3
368.925	323.25
369.306	328.23
369.688	318.51
370.069	297.04
370.45	324.84
370.831	304.5
371.212	324.84
371.593	341.33
371.974	323.03
372.355	332.52
372.736	327.77
373.117	324.38
373.498	318.96
373.879	335.91
374.26	335.46
374.641	330.03
375.021	317.6
375.402	321.9
375.783	317.15
376.163	332.29
376.544	310.37
376.925	322.8
377.305	342.01
377.686	313.54
378.066	320.99
378.447	347.66
378.827	333.42
379.208	341.78
379.588	370.94
379.968	354.67
380.349	343.14
380.729	341.78
381.109	341.33
381.489	364.84
381.87	369.35
382.25	348.56
382.63	370.48
383.01	380.88
383.39	343.82
383.77	368
384.15	377.72
384.53	381.78
384.91	360.09
385.29	378.17
385.67	383.59
386.049	379.75
386.429	376.13
386.809	395.79
387.189	386.08
387.568	391.05
387.948	400.77
388.328	397.83
388.707	386.98
389.087	424.27
389.466	400.77
389.846	390.6
390.225	419.97
390.605	410.48
390.984	419.75
391.363	432.86
391.743	446.41
392.122	463.14
392.501	435.34
392.881	447.54
393.26	448.22
393.639	460.2
394.018	462.46
394.397	471.27
394.776	492.97
395.155	497.26
395.534	479.18
395.913	501.78
396.292	500.42
396.671	498.62
397.05	504.94
397.429	529.8
397.808	526.86
398.186	539.75
398.565	532.74
398.944	562.57
399.323	549.01
399.701	578.39
400.08	577.94
400.458	591.72
400.837	591.04
401.215	604.15
401.594	607.54
401.972	613.87
402.351	630.14
402.729	655
403.107	661.1
403.486	667.2
403.864	687.31
404.242	680.08
404.62	701.55
404.999	719.18
405.377	720.08
405.755	741.32
406.133	754.66
406.511	757.14
406.889	766.86
407.267	788.78
407.645	801.66
408.023	820.42
408.401	872.39
408.779	827.42
409.156	820.42
409.534	839.4
409.912	855.22
410.29	918.27
410.667	912.84
411.045	924.37
411.422	930.47
411.8	947.87
412.178	960.3
412.555	1015.21
412.933	1006.17
413.31	1018.15
413.687	1030.35
414.065	1046.4
414.442	1049.34
414.819	1075.78
415.197	1094.08
415.574	1081.43
415.951	1123.46
416.328	1106.74
416.705	1117.81
417.082	1144.48
417.46	1160.29
417.837	1169.33
418.214	1175.44
418.591	1193.06
418.967	1222.44
419.344	1203.68
419.721	1238.94
420.098	1259.05
420.475	1269.44
420.852	1273.96
421.228	1261.99
421.605	1307.18
421.982	1315.54
422.358	1323.45
422.735	1349.22
423.111	1357.58
423.488	1394.19
423.864	1386.73
424.241	1377.46
424.617	1417.46
424.994	1424.47
425.37	1430.34
425.746	1466.5
426.123	1487.07
426.499	1486.84
426.875	1533.84
427.251	1498.14
427.627	1570.45
428.003	1570.45
428.379	1610.45
428.756	1634.18
429.132	1621.98
429.507	1682.09
429.883	1672.6
430.259	1726.61
430.635	1725.25
431.011	1760.96
431.387	1799.83
431.763	1784.23
432.138	1818.36
432.514	1847.28
432.89	1879.6
433.265	1938.8
433.641	1925.92
434.016	1932.48
434.392	1951.01
434.767	1997.79
435.143	2026.26
435.518	2042.76
435.894	2080.95
436.269	2092.25
436.644	2114.62
437.02	2113.94
437.395	2132.47
437.77	2137.22
438.145	2196.65
438.52	2228.06
438.895	2256.99
439.271	2274.62
439.646	2325.91
440.021	2290.43
440.395	2336.31
440.77	2339.92
441.145	2336.31
441.52	2408.4
441.895	2402.75
442.27	2444.78
442.645	2438.9
443.019	2504.44
443.394	2490.65
443.769	2494.5
444.143	2474.61
444.518	2534.72
444.892	2555.96
445.267	2559.58
445.641	2592.57
446.016	2635.96
446.39	2638.22
446.764	2626.7
447.139	2657.2
447.513	2645.68
447.887	2705.79
448.262	2710.99
448.636	2711.21
449.01	2797.77
449.384	2815.62
449.758	2812.91
450.132	2809.06
450.506	2835.28
450.88	2874.37
451.254	2882.73
451.628	2948.04
452.002	2928.38
452.376	3024.65
452.75	3059.23
453.123	3059.45
453.497	3066.23
453.871	3149.85
454.244	3182.84
454.618	3238.43
454.992	3253.57
455.365	3262.84
455.739	3394.59
456.112	3390.29
456.486	3426
456.859	3484.3
457.232	3511.19
457.606	3552.77
457.979	3579.67
458.352	3685.88
458.725	3658.08
459.099	3712.54
459.472	3779.89
459.845	3814.91
460.218	3926.1
460.591	3906.89
460.964	3931.75
461.337	4009.94
461.71	4108.01
462.083	4186.43
462.456	4138.75
462.829	4207.45
463.201	4259.2
463.574	4286.99
463.947	4337.39
464.32	4471.17
464.692	4480.43
465.065	4492.41
465.438	4615.8
465.81	4680.43
466.183	4658.51
466.555	4844.49
466.928	4814.44
467.3	4841.1
467.672	4964.49
468.045	4982.11
468.417	5073.19
468.789	5100.08
469.161	5181.21
469.534	5211.49
469.906	5399.73
470.278	5427.07
470.65	5526.73
471.022	5583.68
471.394	5732.38
471.766	5771.7
472.138	5855.54
472.51	5961.98
472.882	6013.5
473.253	6098.02
473.625	6209.65
473.997	6399.7
474.369	6356.77
474.74	6458.69
475.112	6580.04
475.484	6629.08
475.855	6829.07
476.227	6868.62
476.598	7133.7
476.97	7123.98
477.341	7300.47
477.713	7442.16
478.084	7443.52
478.455	7723.29
478.827	7732.1
479.198	7955.14
479.569	7981.13
479.94	8188.81
480.311	8329.15
480.682	8517.84
481.053	8692.75
481.424	8843.03
481.795	8954.89
482.166	9025.17
482.537	9198.73
482.908	9405.95
483.279	9476.01
483.65	9709
484.021	9861.76
484.391	9970.68
484.762	10144.69
485.133	10247.29
485.503	10355.31
485.874	10581.29
486.244	10674.17
486.615	10880.94
486.985	11015.63
487.356	11231.89
487.726	11393.47
488.097	11549.4
488.467	11656.52
488.837	11882.95
489.207	11995.26
489.578	12144.41
489.948	12300.79
490.318	12468.7
490.688	12562.93
491.058	12755.47
491.428	12951.85
491.798	13050.15
492.168	13395.68
492.538	13374.89
492.908	13616.01
493.278	13643.58
493.648	13816.23
494.017	13987.98
494.387	14173.51
494.757	14239.72
495.126	14406.5
495.496	14466.16
495.866	14594.97
496.235	14757.68
496.605	14956.77
496.974	14972.81
497.344	15211.22
497.713	15266.82
498.082	15378.45
498.452	15599.46
498.821	15554.49
499.19	15685.11
499.559	15912.9
499.928	15973.01
500.298	16113.35
500.667	16227.02
501.036	16292.55
501.405	16413.9
501.774	16582.49
502.143	16643.73
502.512	16731.64
502.88	16947.45
503.249	17062.7
503.618	17224.28
503.987	17182.92
504.356	17363.26
504.724	17501.33
505.093	17558.96
505.462	17583.14
505.83	17839.18
506.199	18051.83
506.567	18282.1
506.936	18171.15
507.304	18513.28
507.672	18518.26
508.041	18692.49
508.409	18850
508.777	18969.54
509.145	19138.58
509.514	19086.6
509.882	19381.06
510.25	19476.65
510.618	19588.28
510.986	19727.72
511.354	19958.44
511.722	20008.61
512.09	20238.21
512.458	20302.39
512.826	20506.23
513.193	20566.79
513.561	20713.9
513.929	20858.53
514.297	20951.64
514.664	21170.84
515.032	21334.45
515.4	21502.81
515.767	21612.41
516.135	21700.09
516.502	21698.96
516.869	22099.63
517.237	22228.67
517.604	22226.18
517.972	22514.99
518.339	22624.14
518.706	22713.17
519.073	22804.47
519.44	23124.46
519.808	23302.99
520.175	23381.86
520.542	23570.55
520.909	23716.54
521.276	23731.9
521.643	24114.49
522.009	24231.55
522.376	24355.84
522.743	24611.43
523.11	24737.98
523.477	25034.69
523.843	25130.74
524.21	25468.81
524.577	25654.11
524.943	25744.51
525.31	25762.81
525.676	26245.96
526.043	26219.07
526.409	26464.49
526.776	26712.84
527.142	26654.99
527.508	26935.44
527.874	27112.61
528.241	27297.69
528.607	27461.52
528.973	27656.32
529.339	27756.88
529.705	27893.83
530.071	28259.02
530.437	28364.32
530.803	28455.17
531.169	28555.05
531.535	28544.89
531.901	28739.68
532.267	28912.33
532.632	29078.88
532.998	29353.45
533.364	29408.82
533.73	29500.57
534.095	29753.44
534.461	29885.64
534.826	30053.09
535.192	30049.25
535.557	30442.24
535.923	30349.81
536.288	30597.71
536.653	30757.26
537.019	30619.41
537.384	30726.52
537.749	30941.43
538.114	31207.19
538.479	31222.78
538.845	31396.34
539.21	31328.54
539.575	31396.56
539.94	31611.25
540.305	31878.36
540.67	31670.45
541.034	31849.2
541.399	32042.42
541.764	32241.51
542.129	32392.02
542.494	32472.92
542.858	32525.57
543.223	32607.38
543.587	32772.8
543.952	32843.3
544.316	33007.82
544.681	32947.03
545.045	33154.71
545.41	33395.83
545.774	33445.77
546.138	33508.14
546.503	33634.47
546.867	33781.58
547.231	34070.84
547.595	34116.04
547.959	34290.95
548.324	34332.08
548.688	34380.66
549.052	34492.07
549.416	34646.87
549.779	34693.65
550.143	34945.62
550.507	35110.81
550.871	35226.52
551.235	35221.09
551.599	35579.95
551.962	35558.94
552.326	35771.36
552.689	35979.04
553.053	35977.01
553.417	36061.75
553.78	36716.2
554.143	36451.57
554.507	36765.23
554.87	36951.9
555.234	37093.81
555.597	36969.75
555.96	37303.07
556.323	37483.86
556.686	37530.64
557.05	37858.99
557.413	37909.38
557.776	38136.72
558.139	38334.68
558.502	38473.44
558.865	38569.48
559.228	38840.89
559.59	39090.6
559.953	39075.46
560.316	39572.62
560.679	39547.08
561.041	39691.26
561.404	39874.53
561.767	40208.31
562.129	39977.35
562.492	40385.7
562.854	40444.91
563.217	40412.6
563.579	40853.04
563.941	41086.48
564.304	41261.84
564.666	41342.29
565.028	41485.11
565.39	41589.74
565.753	41830.86
566.115	42045.77
566.477	42028.82
566.839	42201.7
567.201	42533.67
567.563	42545.19
567.925	42857.05
568.287	42849.14
568.648	42841.46
569.01	43173.88
569.372	43432.63
569.734	43319.64
570.095	43595.79
570.457	43855.67
570.819	43867.19
571.18	43974.08
571.542	44070.35
571.903	44119.84
572.265	44374.07
572.626	44453.85
572.987	44606.38
573.349	44750.33
573.71	44826.49
574.071	44899.48
574.432	45086.15
574.794	45289.98
575.155	45340.15
575.516	45295.86
575.877	45445.68
576.238	45485
576.599	45647.03
576.96	45617.43
577.32	45706.92
577.681	45945.56
578.042	46057.42
578.403	45844.77
578.763	45965.67
579.124	45978.55
579.485	46148.49
579.845	46257.87
580.206	46272.78
580.566	46216.96
580.927	46186.23
581.287	46501.7
581.648	46353.91
582.008	46552.77
582.368	46449.5
582.728	46583.96
583.089	46464.87
583.449	46425.54
583.809	46637.74
584.169	46618.76
584.529	46593.68
584.889	47024.4
585.249	46663.28
585.609	46678.42
585.969	46750.73
586.329	46639.32
586.688	46830.73
587.048	46710.06
587.408	46775.37
587.768	46732.2
588.127	46686.78
588.487	46599.78
588.846	47033.21
589.206	46668.02
589.565	46693.11
589.925	46932.65
590.284	46729.94
590.643	46855.82
591.003	46923.84
591.362	46996.38
591.721	46965.19
592.08	46894.01
592.44	46882.48
592.799	46919.77
593.158	46934.23
593.517	46936.94
593.876	46987.56
594.235	46881.58
594.593	46924.51
594.952	47088.13
595.311	46838.19
595.67	46960.67
596.029	47156.6
596.387	47093.32
596.746	47301
597.104	47077.96
597.463	47093.78
597.822	47280.44
598.18	47007.22
598.538	47140.1
598.897	47295.35
599.255	47077.51
599.613	47571.73
599.972	47301.45
600.33	47472.3
600.688	47245.18
601.046	47497.61
601.404	47656.92
601.762	47508.45
602.12	47664.16
602.478	47531.28
602.836	47786.64
603.194	47475.91
603.552	47632.74
603.91	47555.68
604.268	47817.37
604.625	47734.89
604.983	47801.78
605.341	47657.6
605.698	47802.46
606.056	47955.67
606.413	47971.04
606.771	48014.2
607.128	48205.16
607.485	47889.01
607.843	47980.98
608.2	48192.96
608.557	48359.73
608.914	48217.14
609.272	48277.93
609.629	48433.85
609.986	48457.81
610.343	48382.56
610.7	48637.24
611.057	48482.67
611.414	48453.29
611.771	48593.62
612.127	48631.81
612.484	48562.89
612.841	48662.55
613.198	48663
613.554	48773.28
613.911	48915.65
614.267	48809.44
614.624	48870.9
614.98	48804.69
615.337	49020.96
615.693	49048.98
616.05	48960.62
616.406	49355.41
616.762	49016.44
617.118	49178.01
617.475	49109.77
617.831	49227.96
618.187	49203.55
618.543	49323.55
618.899	49507.5
619.255	49423.21
619.611	49316.54
619.967	49531.45
620.323	49593.6
620.678	49382.53
621.034	49338.46
621.39	49274.51
621.746	49347.05
622.101	49761.95
622.457	49372.81
622.812	49517.21
623.168	49636.31
623.523	49561.73
623.879	49682.41
624.234	49351.12
624.589	49511.57
624.945	49588.4
625.3	49630.21
625.655	49563.99
626.01	49453.04
626.365	49496.2
626.72	49561.51
627.075	49582.52
627.43	49557.89
627.785	49434.73
628.14	49422.53
628.495	49603.77
628.85	49455.52
629.205	49440.15
629.559	49669.53
629.914	49363.32
630.269	49556.08
630.623	49254.62
630.978	49280.16
631.332	49454.17
631.687	49421.85
632.041	49408.07
632.396	49408.52
632.75	49228.63
633.104	49354.51
633.459	49078.58
633.813	49147.96
634.167	49019.6
634.521	49018.7
634.875	49104.12
635.229	49052.14
635.583	48714.98
635.937	48888.76
636.291	48872.26
636.645	48928.98
636.999	48767.18
637.352	48814.41
637.706	48686.28
638.06	48752.49
638.413	48642.44
638.767	48634.75
639.121	48581.65
639.474	48431.82
639.828	48488.32
640.181	48541.65
640.534	48525.6
640.888	48390.01
641.241	48209.9
641.594	48434.76
641.947	48316.12
642.301	48192.05
642.654	48181.88
643.007	48103.24
643.36	48278.15
643.713	48159.51
644.066	48265.5
644.419	48044.26
644.771	47650.82
645.124	47400.43
645.477	47272.98
645.83	47018.75
646.182	46836.16
646.535	46793.9
646.888	46902.82
647.24	46740.56
647.593	46825.53
647.945	46711.86
648.298	46524.75
648.65	46417.64
649.002	46337.86
649.355	46443.17
649.707	46399.56
650.059	46597.97
650.411	47000.67
650.763	47131.51
651.115	47262.36
651.467	47220.33
651.819	47291.06
652.171	47210.83
652.523	47035.02
652.875	47174
653.227	46711.41
653.578	47264.17
653.93	47101.91
654.282	46822.37
654.633	46748.93
654.985	46823.95
655.337	46864.86
655.688	46757.51
656.039	46897.17
656.391	46627.35
656.742	46665.76
657.094	46645.43
657.445	46786.21
657.796	46692.43
658.147	46558.2
658.498	46602.49
658.849	46730.62
659.2	46640.68
659.551	46447.24
659.902	46735.14
660.253	46315.27
660.604	46469.39
660.955	46394.36
661.306	46577.86
661.656	46284.76
662.007	46439.78
662.358	46337.41
662.708	46316.62
663.059	46391.65
663.409	46011.54
663.76	46369.5
664.11	46209.28
664.461	46273.68
664.811	46176.96
665.161	46231.43
665.511	46172.9
665.862	46142.16
666.212	46343.97
666.562	46297.86
666.912	46119.79
667.262	46016.29
667.612	46006.57
667.962	46077.08
668.312	46017.42
668.662	46218.09
669.011	45993.01
669.361	45941.26
669.711	45860.81
670.06	45908.5
670.41	45709.86
670.76	45676.86
671.109	45902.17
671.459	45706.02
671.808	45637.99
672.157	45749.4
672.507	45587.15
672.856	45484.55
673.205	45568.17
673.554	45615.17
673.904	45492.24
674.253	45729.29
674.602	45588.28
674.951	44902.42
675.3	44804.12
675.649	45451.79
675.998	45417.89
676.346	45375.18
676.695	45419.92
677.044	45081.17
677.393	45178.35
677.741	45308.29
678.09	45154.62
678.438	44976.09
678.787	44983.32
679.135	45002.98
679.484	44799.82
679.832	44814.74
680.181	44637.12
680.529	44747.17
680.877	44674.18
681.225	44633.05
681.573	44911.01
681.922	44494.52
682.27	44353.96
682.618	44552.6
682.966	44252.04
683.314	44301.31
683.661	44292.95
684.009	44110.8
684.357	43972.95
684.705	43825.39
685.053	43952.16
685.4	43867.87
685.748	43618.16
686.095	43619.52
686.443	43524.83
686.79	43395.34
687.138	43424.95
687.485	43512.18
687.832	43163.94
688.18	43431.5
688.527	43129.36
688.874	43037.61
689.221	42961.91
689.568	42919.42
689.915	42729.14
690.262	42690.95
690.609	42657.28
690.956	42464.75
691.303	42430.85
691.65	42210.74
691.997	42297.52
692.344	42016.4
692.69	42000.8
693.037	41926
693.383	41734.82
693.73	41820.92
694.077	41505.45
694.423	41579.57
694.769	41437.43
695.116	41275.4
695.462	41309.75
695.808	41055.06
696.155	41207.6
696.501	40920.38
696.847	40856.88
697.193	40608.07
697.539	40778.91
697.885	40604
698.231	40301.86
698.577	40494.85
698.923	40406.04
699.269	40102.1
699.614	39922.66
699.96	39885.15
700.306	39875.89
700.651	39566.06
700.997	39692.61
701.342	39571.49
701.688	39446.97
702.033	39278.84
702.379	39093.99
702.724	39075.68
703.069	39099.18
703.415	38791.85
703.76	38842.47
704.105	38860.32
704.45	38731.51
704.795	38660.55
705.14	38488.58
705.485	38428.24
705.83	38308.47
706.175	38262.37
706.52	38199.77
706.865	37969.27
707.209	38011.3
707.554	37914.36
707.899	37958.65
708.243	37675.04
708.588	37678.66
708.932	37442.5
709.277	37466.01
709.621	37493.12
709.966	37229.18
710.31	37379.68
710.654	37040.71
710.998	36981.05
711.342	37062.63
711.687	36879.36
712.031	36851.79
712.375	36704.9
712.719	36766.36
713.063	36611.57
713.407	36693.37
713.75	36484.79
714.094	36507.84
714.438	36428.75
714.782	36305.36
715.125	36188.3
715.469	36146.72
715.812	35868.08
716.156	35914.86
716.499	35966.16
716.843	35971.81
717.186	35731.81
717.53	35869.44
717.873	35786.73
718.216	35775.43
718.559	35552.16
718.902	35405.95
719.246	35451.82
719.589	35330.24
719.932	35212.05
720.275	35253.86
720.617	35198.5
720.96	35150.14
721.303	35009.8
721.646	35055.22
721.989	34866.3
722.331	34909.01
722.674	34805.06
723.016	34871.95
723.359	34688.23
723.701	34806.87
724.044	34412.98
724.386	34296.37
724.729	34552.86
725.071	34396.48
725.413	34353.77
725.755	34315.81
726.097	34277.16
726.439	34073.1
726.782	34044.85
727.124	34101.8
727.465	33945.42
727.807	34024.97
728.149	33769.38
728.491	33894.35
728.833	33891.19
729.175	33721.7
729.516	33577.97
729.858	33507.92
730.199	33596.73
730.541	33547.92
730.882	33454.36
731.224	33501.59
731.565	33295.72
731.906	33196.06
732.248	33308.15
732.589	33081.94
732.93	32915.84
733.271	33104.54
733.612	33075.39
733.953	33217.76
734.294	32951.77
734.635	32843.98
734.976	32869.52
735.317	32718.79
735.658	32737.54
735.999	32749.97
736.339	32671.78
736.68	32709.52
737.021	32541.16
737.361	32370.32
737.702	32426.14
738.042	32435.18
738.383	32399.47
738.723	32416.65
739.063	32289.87
739.404	32382.3
739.744	32255.07
740.084	32139.82
740.424	32135.3
740.764	32032.02
741.104	32121.06
741.444	32015.08
741.784	31866.38
742.124	31861.41
742.464	31924.91
742.804	31759.49
743.143	31739.15
743.483	31594.07
743.823	31556.33
744.162	31536.44
744.502	31520.17
744.841	31426.17
745.181	31552.26
745.52	31288.99
745.86	31456.67
746.199	31300.97
746.538	31201.76
746.877	31335.77
747.216	31178.26
747.556	31033.41
747.895	31098.26
748.234	30965.84
748.573	30951.83
748.911	30807.42
749.25	30976.69
749.589	30699.63
749.928	30746.18
750.267	30691.95
750.605	30607.43
750.944	30566.98
751.283	30474.1
751.621	30569.92
751.96	30448.79
752.298	30330.6
752.636	30232.98
752.975	30134.22
753.313	30061.46
753.651	30183.26
