Data from white_steel_sheet_FLMS001491_060.txt Node
Date: Tue Feb 07 10:58:06 GMT 2017
User: dcchb
Spectrometer: FLMS00149
Trigger mode: 0
Integration Time (sec): 2.000000E-2
Scans to average: 10
Electric dark correction enabled: true
Nonlinearity correction enabled: false
Boxcar width: 0
XAxis mode: Wavelengths
Number of Pixels in Spectrum: 2048
>>>>>Begin Spectral Data<<<<<
341.393	-13.52
341.776	-13.52
342.16	-13.52
342.543	-61.88
342.927	-58.26
343.31	-64.14
343.693	-68.88
344.077	-71.82
344.46	-70.92
344.843	-49.9
345.226	-38.37
345.61	-14.42
345.993	-13.06
346.376	4.79
346.759	8.86
347.142	42.53
347.525	40.95
347.908	51.34
348.291	67.61
348.674	82.3
349.057	93.15
349.44	122.98
349.823	112.58
350.206	175.18
350.588	183.99
350.971	219.7
351.354	231.67
351.737	258.34
352.119	248.85
352.502	253.6
352.884	269.41
353.267	279.36
353.65	289.75
354.032	294.27
354.414	330.66
354.797	342.86
355.179	336.98
355.562	324.55
355.944	325.46
356.326	340.37
356.709	331.56
357.091	341.95
357.473	355.97
357.855	355.97
358.238	361.61
358.62	345.12
359.002	353.03
359.384	367.49
359.766	347.6
360.148	359.13
360.53	346.93
360.912	348.73
361.294	339.69
361.676	350.99
362.057	338.56
362.439	326.36
362.821	332.01
363.203	327.04
363.584	355.06
363.966	332.46
364.348	339.24
364.729	346.93
365.111	332.91
365.493	321.62
365.874	325.23
366.256	333.59
366.637	314.84
367.019	330.43
367.4	341.5
367.781	319.58
368.163	315.29
368.544	331.11
368.925	310.32
369.306	310.32
369.688	334.5
370.069	316.87
370.45	327.94
370.831	321.16
371.212	322.75
371.593	315.29
371.974	312.58
372.355	331.79
372.736	335.4
373.117	321.84
373.498	360.26
373.879	340.82
374.26	325.46
374.641	325.68
375.021	344.89
375.402	325.68
375.783	352.35
376.163	358.23
376.544	336.08
376.925	344.89
377.305	357.77
377.686	335.4
378.066	359.13
378.447	346.93
378.827	351.67
379.208	348.28
379.588	367.49
379.968	360.71
380.349	353.48
380.729	365.68
381.109	362.74
381.489	372.24
381.87	376.53
382.25	372.91
382.63	367.49
383.01	384.44
383.39	376.08
383.77	369.07
384.15	361.16
384.53	408.85
384.91	396.42
385.29	370.88
385.67	384.21
386.049	390.31
386.429	402.07
386.809	402.29
387.189	396.42
387.568	415.4
387.948	377.66
388.328	421.73
388.707	416.53
389.087	416.3
389.466	421.5
389.846	437.32
390.225	430.77
390.605	418.79
390.984	451.78
391.363	428.73
391.743	446.58
392.122	447.26
392.501	456.75
392.881	440.03
393.26	457.21
393.639	471.67
394.018	464.89
394.397	468.5
394.776	498.11
395.155	489.52
395.534	499.69
395.913	515.96
396.292	503.31
396.671	534.27
397.05	512.35
397.429	520.93
397.808	508.28
398.186	535.17
398.565	529.75
398.944	527.03
399.323	556.86
399.701	565.23
400.08	562.97
400.458	569.07
400.837	590.76
401.215	605
401.594	592.57
401.972	602.96
402.351	616.07
402.729	622.4
403.107	622.62
403.486	627.14
403.864	633.25
404.242	659.69
404.62	673.7
404.999	664.21
405.377	681.15
405.755	663.08
406.133	693.58
406.511	708.05
406.889	713.02
407.267	739.23
407.645	758.44
408.023	757.31
408.401	773.13
408.779	812.68
409.156	790.76
409.534	799.57
409.912	802.73
410.29	834.37
410.667	840.02
411.045	859.68
411.422	881.6
411.8	873.92
412.178	878.66
412.555	936.06
412.933	933.35
413.31	905.1
413.687	956.18
414.065	931.77
414.442	971.32
414.819	975.61
415.197	976.97
415.574	1018.77
415.951	1005.44
416.328	1037.76
416.705	1049.05
417.082	1038.66
417.46	1066.68
417.837	1073.69
418.214	1095.15
418.591	1116.62
418.967	1081.82
419.344	1100.58
419.721	1114.82
420.098	1155.72
420.475	1160.69
420.852	1164.53
421.228	1184.42
421.605	1185.32
421.982	1191.65
422.358	1233.23
422.735	1214.7
423.111	1215.38
423.488	1250.18
423.864	1278.2
424.241	1298.54
424.617	1306
424.994	1332.89
425.37	1312.78
425.746	1340.57
426.123	1335.83
426.499	1367.69
426.875	1366.56
427.251	1404.75
427.627	1422.38
428.003	1423.28
428.379	1489.95
428.756	1462.15
429.132	1499.21
429.507	1510.29
429.883	1525.65
430.259	1545.76
430.635	1571.07
431.011	1580.57
431.387	1605.2
431.763	1621.02
432.138	1661.24
432.514	1697.62
432.89	1673.9
433.265	1710.28
433.641	1751.18
434.016	1768.36
434.392	1780.11
434.767	1822.59
435.143	1820.79
435.518	1844.74
435.894	1894.68
436.269	1897.62
436.644	1928.35
437.02	1903.72
437.395	1950.73
437.77	1962.48
438.145	2003.38
438.52	2019.88
438.895	2039.08
439.271	2008.35
439.646	2131.74
440.021	2129.03
440.395	2097.39
440.77	2100.55
441.145	2135.58
441.52	2146.65
441.895	2199.08
442.27	2244.5
442.645	2214.45
443.019	2223.26
443.394	2237.27
443.769	2310.04
444.143	2305.29
444.518	2320.89
444.892	2312.3
445.267	2329.92
445.641	2342.81
446.016	2372.18
446.39	2379.87
446.764	2410.37
447.139	2402.01
447.513	2429.81
447.887	2436.81
448.262	2471.84
448.636	2492.63
449.01	2544.16
449.384	2547.09
449.758	2512.52
450.132	2575.79
450.506	2652.63
450.88	2596.13
451.254	2625.28
451.628	2651.27
452.002	2725.62
452.376	2718.39
452.75	2758.39
453.123	2747.54
453.497	2837.26
453.871	2874.32
454.244	2883.81
454.618	2914.09
454.992	2964.26
455.365	2993.41
455.739	3091.71
456.112	3049.23
456.486	3076.8
456.859	3146.63
457.232	3212.39
457.606	3180.3
457.979	3218.49
458.352	3302.1
458.725	3333.06
459.099	3365.38
459.472	3425.26
459.845	3410.12
460.218	3468.65
460.591	3546.62
460.964	3538.93
461.337	3613.73
461.71	3640.17
462.083	3703.22
462.456	3700.96
462.829	3720.17
463.201	3765.82
463.574	3830.68
463.947	3931.69
464.32	3973.27
464.692	3991.12
465.065	4015.53
465.438	4065.02
465.81	4157.22
466.183	4216.43
466.555	4305.24
466.928	4288.74
467.3	4293.71
467.672	4337.78
468.045	4458.91
468.417	4482.41
468.789	4556.53
469.161	4600.15
469.534	4672.01
469.906	4727.6
470.278	4782.52
470.65	4824.32
471.022	4911.1
471.394	5050.08
471.766	5113.13
472.138	5096.41
472.51	5205.78
472.882	5316.06
473.253	5370.52
473.625	5418.2
473.997	5525.09
474.369	5680.12
474.74	5660.68
475.112	5774.35
475.484	5819.1
475.855	5920.34
476.227	6092.31
476.598	6139.32
476.97	6197.85
477.341	6367.56
477.713	6457.05
478.084	6455.69
478.455	6623.37
478.827	6727.55
479.198	6921.44
479.569	6923.25
479.94	7151.94
480.311	7215.22
480.682	7348.78
481.053	7524.82
481.424	7667.41
481.795	7680.74
482.166	7846.84
482.537	7953.28
482.908	8145.14
483.279	8193.5
483.65	8290.22
484.021	8504.45
484.391	8569.53
484.762	8719.14
485.133	8791.68
485.503	8926.81
485.874	9123.87
486.244	9184.66
486.615	9396.41
486.985	9446.8
487.356	9661.94
487.726	9679.56
488.097	9932.44
488.467	9970.85
488.837	10206.55
489.207	10249.72
489.578	10442.93
489.948	10567.22
490.318	10632.76
490.688	10663.49
491.058	10922.92
491.428	10975.57
491.798	11166.98
492.168	11374.21
492.538	11404.04
492.908	11626.4
493.278	11727.42
493.648	11666.85
494.017	11989.11
494.387	12033.4
494.757	12080.18
495.126	12254.86
495.496	12310.68
495.866	12425.7
496.235	12540.96
496.605	12717.22
496.974	12771.23
497.344	12955.63
497.713	12982.98
498.082	13089.87
498.452	13187.27
498.821	13272.91
499.19	13341.61
499.559	13492.79
499.928	13600.59
500.298	13712.9
500.667	13856.85
501.036	13820.02
501.405	13984.08
501.774	14017.07
502.143	14143.17
502.512	14205.32
502.88	14346.56
503.249	14452.09
503.618	14548.59
503.987	14614.12
504.356	14714.23
504.724	14885.3
505.093	14902.48
505.462	14984.28
505.83	15088.01
506.199	15240.77
506.567	15390.15
506.936	15388.34
507.304	15563.93
507.672	15659.29
508.041	15715.34
508.409	15939.74
508.777	16110.58
509.145	16247.07
509.514	16191.26
509.882	16382.66
510.25	16381.53
510.618	16597.8
510.986	16680.73
511.354	16773.61
511.722	17026.71
512.09	17186.94
512.458	17106.49
512.826	17233.04
513.193	17428.28
513.561	17415.4
513.929	17665.79
514.297	17856.07
514.664	17949.4
515.032	18020.59
515.4	18207.93
515.767	18349.62
516.135	18526.79
516.502	18373.57
516.869	18682.26
517.237	18788.47
517.604	18689.95
517.972	18957.74
518.339	19112.99
518.706	19164.06
519.073	19343.94
519.44	19468.68
519.808	19727.89
520.175	19718.39
520.542	20101.89
520.909	20155.22
521.276	20117.93
521.643	20472.5
522.009	20640.63
522.376	20580.52
522.743	20829.55
523.11	21091.92
523.477	21274.74
523.843	21319.93
524.21	21608.97
524.577	21790.43
524.943	21859.35
525.31	22140.03
525.676	22264.77
526.043	22363.07
526.409	22514.7
526.776	22865.88
527.142	22903.62
527.508	22991.98
527.874	23196.49
528.241	23298.19
528.607	23456.6
528.973	23682.36
529.339	23635.58
529.705	23812.75
530.071	24050.48
530.437	24181.78
530.803	24250.7
531.169	24535.22
531.535	24545.39
531.901	24654.76
532.267	24855.43
532.632	25011.36
532.998	25057.69
533.364	25145.6
533.73	25239.83
534.095	25531.8
534.461	25650.44
534.826	25820.83
535.192	25818.12
535.557	26060.83
535.923	26096.76
536.288	26162.52
536.653	26388.05
537.019	26248.39
537.384	26438.9
537.749	26644.31
538.114	26713.69
538.479	26675.27
538.845	26855.83
539.21	26777.42
539.575	27048.14
539.94	27134.24
540.305	27283.17
540.67	27249.5
541.034	27336.95
541.399	27544.18
541.764	27566.55
542.129	27785.98
542.494	27936.03
542.858	27884.28
543.223	27988.23
543.587	28168.34
543.952	28102.13
544.316	28246.53
544.681	28382.57
545.045	28466.41
545.41	28578.05
545.774	28674.99
546.138	28723.13
546.503	28786.63
546.867	28880.19
547.231	29089.45
547.595	29121.54
547.959	29189.78
548.324	29378.7
548.688	29316.56
549.052	29463.45
549.416	29558.81
549.779	29518.59
550.143	29687.17
550.507	29936.88
550.871	29966.71
551.235	29959.71
551.599	30349.98
551.962	30287.61
552.326	30387.72
552.689	30511.78
553.053	30425.46
553.417	30624.55
553.78	30990.87
554.143	30891.89
554.507	31026.35
554.87	31122.84
555.234	31467.92
555.597	31322.61
555.96	31500.23
556.323	31615.93
556.686	31639.21
557.05	31920.78
557.413	31967.79
557.776	32004.62
558.139	32301.11
558.502	32417.5
558.865	32536.36
559.228	32691.61
559.59	32863.36
559.953	32780.2
560.316	33223.58
560.679	33194.65
561.041	33465.38
561.404	33591.02
561.767	33789.89
562.129	33625.82
562.492	34168.64
562.854	33972.48
563.217	34069.88
563.579	34246.15
563.941	34414.96
564.304	34553.03
564.666	34800.71
565.028	34877.54
565.39	34875.74
565.753	35104.43
566.115	35247.7
566.477	35341.49
566.839	35482.27
567.201	35661.48
567.563	35822.15
567.925	35915.71
568.287	36024.41
568.648	36072.31
569.01	36269.82
569.372	36387.33
569.734	36472.3
570.095	36744.39
570.457	36788.23
570.819	36898.51
571.18	36943.03
571.542	37261.21
571.903	37184.15
572.265	37354.99
572.626	37313.41
572.987	37484.93
573.349	37493.29
573.71	37664.59
574.071	37688.54
574.432	37871.81
574.794	38178.93
575.155	38066.61
575.516	38025.94
575.877	38171.69
576.238	38305.02
576.599	38475.64
576.96	38361.29
577.32	38475.87
577.681	38691.91
578.042	38627.73
578.403	38622.3
578.763	38840.6
579.124	38741.85
579.485	38866.14
579.845	39006.47
580.206	38988.17
580.566	38837.67
580.927	38866.14
581.287	39052.57
581.648	38972.58
582.008	39208.28
582.368	39115.17
582.728	39248.73
583.089	39088.96
583.449	39091.9
583.809	39037.66
584.169	39222.74
584.529	39125.34
584.889	39409.85
585.249	39087.38
585.609	39011.22
585.969	39354.26
586.329	39216.64
586.688	39357.2
587.048	39305.9
587.408	39264.32
587.768	39230.65
588.127	39186.36
588.487	39117.66
588.846	39451.89
589.206	38997.21
589.565	39149.97
589.925	39283.53
590.284	39303.64
590.643	39144.78
591.003	39322.4
591.362	39531.88
591.721	39376.18
592.08	39293.47
592.44	39387.93
592.799	39416.18
593.158	39434.26
593.517	39432
593.876	39529.85
594.235	39330.08
594.593	39423.41
594.952	39458.89
595.311	39310.87
595.67	39429.97
596.029	39597.42
596.387	39589.74
596.746	39623.63
597.104	39445.11
597.463	39563.52
597.822	39614.59
598.18	39474.71
598.538	39375.96
598.897	39595.39
599.255	39249.18
599.613	39777.08
599.972	39640.13
600.33	39687.36
600.688	39573.47
601.046	39728.49
601.404	39719.45
601.762	39631.77
602.12	39817.98
602.478	39765.78
602.836	39797.87
603.194	39572.11
603.552	39814.81
603.91	39618.66
604.268	39862.05
604.625	39689.62
604.983	39711.09
605.341	39782.5
605.698	39863.4
606.056	39976.17
606.413	39882.38
606.771	39955.83
607.128	40043.28
607.485	39850.07
607.843	39978.65
608.2	40214.8
608.557	40130.29
608.914	40168.7
609.272	40347.46
609.629	40310.39
609.986	40447.79
610.343	40259.1
610.7	40469.71
611.057	40502.03
611.414	40477.85
611.771	40471.52
612.127	40622.93
612.484	40714.45
612.841	40765.3
613.198	40535.47
613.554	40536.15
613.911	40982.69
614.267	40863.6
614.624	40723.72
614.98	40904.05
615.337	41090.26
615.693	41002.13
616.05	40994.44
616.406	41249.13
616.762	41057.72
617.118	41249.35
617.475	41118.74
617.831	41251.16
618.187	41160.32
618.543	41226.3
618.899	41532.96
619.255	41496.8
619.611	41382.46
619.967	41578.84
620.323	41530.48
620.678	41400.54
621.034	41424.26
621.39	41321.67
621.746	41283.48
622.101	41726.4
622.457	41497.26
622.812	41675.33
623.168	41604.15
623.523	41621.09
623.879	41626.97
624.234	41465.39
624.589	41630.59
624.945	41454.77
625.3	41717.59
625.655	41750.81
626.01	41606.63
626.365	41611.6
626.72	41643.92
627.075	41596.01
627.43	41408.45
627.785	41632.17
628.14	41581.1
628.495	41568.67
628.85	41615.22
629.205	41368.45
629.559	41671.72
629.914	41430.59
630.269	41470.36
630.623	41326.41
630.978	41210.03
631.332	41361.21
631.687	41453.42
632.041	41194.89
632.396	41327.77
632.75	41123.48
633.104	41165.06
633.459	41057.49
633.813	40976.59
634.167	41066.76
634.521	40951.06
634.875	41029.25
635.229	40853.88
635.583	40758.74
635.937	40864.5
636.291	40713.77
636.645	40666.77
636.999	40661.8
637.352	40742.93
637.706	40403.73
638.06	40633.78
638.413	40519.2
638.767	40322.6
639.121	40439.88
639.474	40154.92
639.828	40193.56
640.181	40344.29
640.534	40251.19
640.888	40108.37
641.241	40020.23
641.594	40028.37
641.947	40063.4
642.301	39980.69
642.654	39885.77
643.007	39923.06
643.36	39826.57
643.713	39870.86
644.066	39914.93
644.419	39593.8
644.771	39441.94
645.124	38918.57
645.477	38831.56
645.83	38604.68
646.182	38471.35
646.535	38412.37
646.888	38568.52
647.24	38291.46
647.593	38528.52
647.945	38430.9
648.298	38211.02
648.65	38328.3
649.002	38197.91
649.355	38279.71
649.707	38140.73
650.059	38270.45
650.411	38665.01
650.763	38766.71
651.115	39273.59
651.467	39056.19
651.819	38928.74
652.171	38943.65
652.523	38788.18
652.875	38919.47
653.227	38620.72
653.578	38716.99
653.93	38803.32
654.282	38651.46
654.633	38425.7
654.985	38615.98
655.337	38578.01
655.688	38519.48
656.039	38651.68
656.391	38328.07
656.742	38390.22
657.094	38481.29
657.445	38460.5
657.796	38360.84
658.147	38411.01
658.498	38396.77
658.849	38412.82
659.2	38294.85
659.551	38190.9
659.902	38348.41
660.253	38122.88
660.604	38097.8
660.955	37990.23
661.306	38018.7
661.656	37883.34
662.007	37879.27
662.358	37816.68
662.708	37930.57
663.059	37808.99
663.409	37404.48
663.76	37886.05
664.11	37605.38
664.461	37653.29
664.811	37626.62
665.161	37483.8
665.511	37491.03
665.862	37328.55
666.212	37415.1
666.562	37396.12
666.912	37265.96
667.262	37169.01
667.612	37004.04
667.962	37111.61
668.312	36941.44
668.662	37087.65
669.011	36698.51
669.361	36772.63
669.711	36638.4
670.06	36491.29
670.41	36519.99
670.76	36330.16
671.109	36413.1
671.459	36217.62
671.808	36327.45
672.157	36255.59
672.507	36022.6
672.856	35960.23
673.205	35840.91
673.554	35832.09
673.904	35783.96
674.253	35964.29
674.602	35814.47
674.951	35283.41
675.3	34956.19
675.649	35446.57
675.998	35494.48
676.346	35477.08
676.695	35676.84
677.044	35346.23
677.393	35456.74
677.741	35514.81
678.09	35380.81
678.438	35268.27
678.787	35349.62
679.135	35180.13
679.484	35021.49
679.832	35275.27
680.181	35093.58
680.529	35213.81
680.877	34954.83
681.225	35216.07
681.573	35440.01
681.922	34995.73
682.27	35034.6
682.618	34972
682.966	35025.79
683.314	35000.25
683.661	34910.31
684.009	34885.68
684.357	34835.51
684.705	35014.71
685.053	35025.11
685.4	34843.65
685.748	34920.48
686.095	34912.12
686.443	34797.09
686.79	34872.8
687.138	34877.77
687.485	34904.66
687.832	34796.64
688.18	34885.68
688.527	34778.34
688.874	34771.11
689.221	34741.95
689.568	34629.41
689.915	34636.65
690.262	34660.15
690.609	34478.91
690.956	34464.67
691.303	34530.89
691.65	34347.16
691.997	34565.24
692.344	34338.12
692.69	34370.44
693.037	34325.92
693.383	34076.21
693.73	34240.05
694.077	34174.51
694.423	34214.51
694.769	34122.08
695.116	33933.16
695.462	33979.49
695.808	33860.62
696.155	34008.41
696.501	33748.99
696.847	33812.49
697.193	33570.91
697.539	33748.08
697.885	33511.93
698.231	33405.27
698.577	33395.1
698.923	33410.24
699.269	33141.54
699.614	32985.16
699.96	32924.15
700.306	33105.84
700.651	32944.03
700.997	32625.4
701.342	32559.41
701.688	32681.67
702.033	32569.13
702.379	32651.39
702.724	32507.66
703.069	32549.69
703.415	32262.02
703.76	32264.28
704.105	32246.88
704.45	32077.17
704.795	31937.28
705.14	31788.13
705.485	31865.42
705.83	31704.75
706.175	31700
706.52	31681.92
706.865	31513.56
707.209	31564.86
707.554	31431.31
707.899	31493
708.243	31343.85
708.588	31263.85
708.932	30980.92
709.277	31092.33
709.621	31043.97
709.966	30954.93
710.31	30963.3
710.654	30628.84
710.998	30889.85
711.342	30722.62
711.687	30641.04
712.031	30485.57
712.375	30436.08
712.719	30454.83
713.063	30308.62
713.407	30545
713.75	30187.27
714.094	30208.51
714.438	30244.67
714.782	30196.76
715.125	29959.71
715.469	30023.43
715.812	29895.3
716.156	29633.39
716.499	29750.67
716.843	29700.73
717.186	29581.86
717.53	29744.12
717.873	29676.78
718.216	29648.75
718.559	29474.97
718.902	29202.66
719.246	29399.5
719.589	29217.13
719.932	29158.6
720.275	29148.2
720.617	29098.26
720.96	29062.33
721.303	29089
721.646	29045.38
721.989	28849.68
722.331	28884.25
722.674	28759.74
723.016	28792.73
723.359	28758.61
723.701	28804.71
724.044	28576.24
724.386	28349.81
724.729	28666.41
725.071	28367.88
725.413	28552.96
725.755	28398.39
726.097	28371.05
726.439	28188.68
726.782	28198.85
727.124	28338.51
727.465	28104.39
727.807	28070.72
728.149	28210.37
728.491	28051.73
728.833	28059.87
729.175	27808.58
729.516	27968.35
729.858	27862.36
730.199	27858.29
730.541	27828.01
730.882	27707.79
731.224	27727
731.565	27635.93
731.906	27627.56
732.248	27535.59
732.589	27504.4
732.93	27321.13
733.271	27429.83
733.612	27409.04
733.953	27365.65
734.294	27316.61
734.635	27193.9
734.976	27244.75
735.317	27113.23
735.658	27050.86
735.999	27040.01
736.339	27047.92
736.68	27169.05
737.021	27006.56
737.361	26900.13
737.702	26963.85
738.042	26922.95
738.383	26807.93
738.723	26790.98
739.063	26739.23
739.404	26788.72
739.744	26681.15
740.084	26441.38
740.424	26558.89
740.764	26529.51
741.104	26707.59
741.444	26404.55
741.784	26251.33
742.124	26349.18
742.464	26336.75
742.804	26332.01
743.143	26158.68
743.483	26250.2
743.823	26162.29
744.162	26155.96
744.502	26153.48
744.841	26012.92
745.181	26060.83
745.52	26030.54
745.86	26001.62
746.199	25819.7
746.538	25844.56
746.877	25814.28
747.216	25860.61
747.556	25743.55
747.895	25670.55
748.234	25575.19
748.573	25574.51
748.911	25451.8
749.25	25429.66
749.589	25369.77
749.928	25396.44
750.267	25452.71
750.605	25463.55
750.944	25148.08
751.283	24995.32
751.621	25358.47
751.96	25084.13
752.298	25110.12
752.636	25047.29
752.975	24913.74
753.313	24749.67
753.651	24884.59
