Data from whiteboard_FLMS001491_00001.txt Node
Date: Wed Feb 08 11:24:54 GMT 2017
User: dcchb
Spectrometer: FLMS00149
Trigger mode: 0
Integration Time (sec): 2.000000E-2
Scans to average: 10
Electric dark correction enabled: true
Nonlinearity correction enabled: false
Boxcar width: 0
XAxis mode: Wavelengths
Number of Pixels in Spectrum: 2048
>>>>>Begin Spectral Data<<<<<
341.393	-22.61
341.776	-22.61
342.16	-22.61
342.543	-81.59
342.927	-73.68
343.31	-71.65
343.693	-66.45
344.077	-89.05
344.46	-68.94
344.843	-48.6
345.226	-35.95
345.61	-32.78
345.993	-7.7
346.376	-3.63
346.759	17.61
347.142	41.34
347.525	42.47
347.908	68.68
348.291	66.2
348.674	104.16
349.057	84.28
349.44	104.16
349.823	136.48
350.206	150.26
350.588	213.99
350.971	229.36
351.354	241.56
351.737	269.81
352.119	275.46
352.502	289.24
352.884	303.25
353.267	305.29
353.65	323.82
354.032	317.72
354.414	359.52
354.797	352.74
355.179	363.14
355.562	341.9
355.944	361.56
356.326	369.24
356.709	356.59
357.091	359.98
357.473	361.33
357.855	385.51
358.238	363.14
358.62	382.35
359.002	381.44
359.384	400.2
359.766	355.68
360.148	369.92
360.53	373.31
360.912	367.21
361.294	372.86
361.676	367.89
362.057	383.48
362.439	368.34
362.821	364.27
363.203	370.15
363.584	374.89
363.966	365.63
364.348	383.03
364.729	373.54
365.111	346.42
365.493	369.92
365.874	375.34
366.256	365.63
366.637	380.09
367.019	365.85
367.4	361.56
367.781	365.17
368.163	383.7
368.544	370.37
368.925	351.39
369.306	392.52
369.688	373.08
370.069	370.6
370.45	358.39
370.831	382.8
371.212	365.17
371.593	378.06
371.974	379.41
372.355	386.87
372.736	392.52
373.117	371.5
373.498	377.15
373.879	384.16
374.26	380.99
374.641	377.15
375.021	378.51
375.402	399.52
375.783	390.03
376.163	409.92
376.544	396.59
376.925	394.33
377.305	394.78
377.686	411.5
378.066	409.92
378.447	431.84
378.827	415.57
379.208	428.68
379.588	418.96
379.968	425.51
380.349	440.43
380.729	432.52
381.109	448.34
381.489	447.21
381.87	456.25
382.25	454.89
382.63	451.95
383.01	475.45
383.39	432.74
383.77	458.73
384.15	463.48
384.53	465.28
384.91	486.53
385.29	489.24
385.67	467.09
386.049	486.3
386.429	495.11
386.809	505.74
387.189	503.93
387.568	494.66
387.948	492.4
388.328	515.68
388.707	545.96
389.087	531.05
389.466	540.31
389.846	524.72
390.225	550.25
390.605	534.89
390.984	568.78
391.363	565.62
391.743	563.59
392.122	584.83
392.501	602.68
392.881	579.41
393.26	638.84
393.639	599.29
394.018	606.98
394.397	651.95
394.776	628.22
395.155	642.91
395.534	636.81
395.913	636.81
396.292	676.8
396.671	672.96
397.05	673.64
397.429	683.13
397.808	699.85
398.186	712.74
398.565	709.35
398.944	724.94
399.323	712.51
399.701	749.34
400.08	766.75
400.458	762.68
400.837	782.34
401.215	781.43
401.594	801.09
401.972	805.16
402.351	804.03
402.729	807.2
403.107	827.53
403.486	867.53
403.864	878.83
404.242	892.17
404.62	900.75
404.999	947.31
405.377	915.44
405.755	950.92
406.133	964.71
406.511	964.25
406.889	994.76
407.267	1004.48
407.645	1028.89
408.023	1061.43
408.401	1056.91
408.779	1098.26
409.156	1095.1
409.534	1107.53
409.912	1178.26
410.29	1165.83
410.667	1202.21
411.045	1219.16
411.422	1209.67
411.8	1248.99
412.178	1281.08
412.555	1298.48
412.933	1311.36
413.31	1377.8
413.687	1355.2
414.065	1389.78
414.442	1390.01
414.819	1420.06
415.197	1450.8
415.574	1472.04
415.951	1491.02
416.328	1497.12
416.705	1528.08
417.082	1551.81
417.46	1541.87
417.837	1576.44
418.214	1572.83
418.591	1611.92
418.967	1644.91
419.344	1685.14
419.721	1701.64
420.098	1701.86
420.475	1720.17
420.852	1720.84
421.228	1766.27
421.605	1777.11
421.982	1827.51
422.358	1832.03
422.735	1864.8
423.111	1843.78
423.488	1885.13
423.864	1905.25
424.241	1938.01
424.617	1958.13
424.994	1975.98
425.37	2028.18
425.746	2002.65
426.123	2079.93
426.499	2052.14
426.875	2060.04
427.251	2126.26
427.627	2187.27
428.003	2227.5
428.379	2234.96
428.756	2258.68
429.132	2312.02
429.507	2337.33
429.883	2368.29
430.259	2400.37
430.635	2444.89
431.011	2454.16
431.387	2508.39
431.763	2585.91
432.138	2600.82
432.514	2598.56
432.89	2646.47
433.265	2712.91
433.641	2714.26
434.016	2768.05
434.392	2822.06
434.767	2832
435.143	2850.98
435.518	2885.11
435.894	2962.17
436.269	3037.87
436.644	3017.99
437.02	3044.43
437.395	3048.95
437.77	3129.17
438.145	3181.6
438.52	3162.16
438.895	3257.3
439.271	3257.75
439.646	3346.79
440.021	3351.31
440.395	3373.68
440.77	3342.5
441.145	3403.74
441.52	3495.49
441.895	3471.53
442.27	3546.11
442.645	3557.63
443.019	3622.26
443.394	3611.87
443.769	3644.86
444.143	3634.69
444.518	3689.61
444.892	3672.21
445.267	3730.06
445.641	3756.95
446.016	3809.6
446.39	3878.08
446.764	3910.17
447.139	3855.03
447.513	3915.59
447.887	3947.23
448.262	4020.67
448.636	3981.58
449.01	4005.08
449.384	4073.55
449.758	4139.76
450.132	4236.48
450.506	4186.99
450.88	4241.91
451.254	4199.88
451.628	4345.41
452.002	4379.98
452.376	4408.68
452.75	4429.25
453.123	4513.54
453.497	4564.39
453.871	4633.54
454.244	4743.36
454.618	4706.08
454.992	4800.76
455.365	4850.25
455.739	4960.31
456.112	4961.66
456.486	5045.95
456.859	5071.04
457.232	5231.49
457.606	5244.14
457.979	5310.13
458.352	5416.79
458.725	5506.73
459.099	5509.9
459.472	5643.23
459.845	5662.89
460.218	5763.68
460.591	5826.73
460.964	5861.3
461.337	6000.05
461.71	6065.14
462.083	6171.58
462.456	6159.15
462.829	6172.7
463.201	6323.89
463.574	6355.75
463.947	6446.14
464.32	6628.51
464.692	6653.37
465.065	6709.87
465.438	6804.78
465.81	6940.59
466.183	6966.13
466.555	7152.79
466.928	7136.97
467.3	7202.96
467.672	7338.1
468.045	7482.05
468.417	7537.19
468.789	7545.55
469.161	7767.92
469.534	7843.85
469.906	8088.13
470.278	8098.98
470.65	8214.01
471.022	8376.26
471.394	8554.79
471.766	8649.25
472.138	8729.25
472.51	8969.69
472.882	9118.62
473.253	9238.84
473.625	9368.33
473.997	9645.61
474.369	9628.21
474.74	9743.01
475.112	9952.04
475.484	10135.76
475.855	10250.11
476.227	10378.7
476.598	10689.2
476.97	10741.4
477.341	11022.29
477.713	11214.83
478.084	11232.46
478.455	11515.39
478.827	11676.52
479.198	12060.01
479.569	12053.23
479.94	12378.87
480.311	12537.51
480.682	12782.47
481.053	13017.27
481.424	13208.45
481.795	13347.88
482.166	13601.89
482.537	13729.57
482.908	14115.77
483.279	14204.81
483.65	14485.03
484.021	14776.55
484.391	14941.97
484.762	15097.67
485.133	15239.36
485.503	15554.38
485.874	15774.49
486.244	15957.31
486.615	16256.28
486.985	16445.88
487.356	16778.75
487.726	16920.67
488.097	17341.45
488.467	17389.59
488.837	17666.64
489.207	17992.06
489.578	18253.29
489.948	18494.41
490.318	18787.06
490.688	18720.4
491.058	19099.14
491.428	19453.03
491.798	19599.24
492.168	20034.71
492.538	20119.68
492.908	20387.92
493.278	20559.9
493.648	20727.58
494.017	21073.56
494.387	21092.09
494.757	21320.56
495.126	21676.48
495.496	21734.33
495.866	21861.11
496.235	22123.47
496.605	22326.4
496.974	22504.48
497.344	22597.58
497.713	22799.39
498.082	22923.9
498.452	23159.15
498.821	23330.67
499.19	23278.02
499.559	23679.14
499.928	23848.62
500.298	24001.16
500.667	24167.49
501.036	24178.79
501.405	24391.21
501.774	24497.42
502.143	24783.97
502.512	24766.57
502.88	24994.13
503.249	25055.6
503.618	25227.35
503.987	25330.39
504.356	25542.82
504.724	25714.56
505.093	25880.21
505.462	25905.75
505.83	26118.85
506.199	26371.72
506.567	26794.08
506.936	26754.31
507.304	27119.05
507.672	27277.23
508.041	27338.93
508.409	27656.21
508.777	27736.88
509.145	28049.19
509.514	28149.75
509.882	28416.87
510.25	28382.97
510.618	28827.02
510.986	28936.63
511.354	29368.25
511.722	29526.67
512.09	29743.84
512.458	29723.05
512.826	30259.08
513.193	30191.96
513.561	30440.32
513.929	30822.9
514.297	31068.32
514.664	31256.79
515.032	31373.17
515.4	31763.44
515.767	31775.87
516.135	32157.11
516.502	32046.37
516.869	32555.06
517.237	32837.31
517.604	32616.98
517.972	33046.57
518.339	33228.26
518.706	33287.02
519.073	33473.46
519.44	33697.18
519.808	34017.17
520.175	34117.51
520.542	34440.21
520.909	34573.31
521.276	34582.35
521.643	35090.59
522.009	35294.65
522.376	35326.51
522.743	35675.66
523.11	35968.53
523.477	36176.21
523.843	36390.67
524.21	36774.84
524.577	37095.96
524.943	37156.07
525.31	37359.91
525.676	37775.04
526.043	37916.95
526.409	38187.46
526.776	38426.32
527.142	38562.36
527.508	38980.43
527.874	39312.62
528.241	39373.41
528.607	39648.21
528.973	39964.36
529.339	40084.58
529.705	40560.73
530.071	40726.6
530.437	40852.02
530.803	41323.42
531.169	41537.42
531.535	41475.51
531.901	41804.54
532.267	42065.77
532.632	42409.72
532.998	42564.52
533.364	42793.66
533.73	43040.44
534.095	43310.71
534.461	43551.84
534.826	43653.98
535.192	43790.47
535.557	44231.82
535.923	44122.22
536.288	44380.97
536.653	44620.06
537.019	44588.19
537.384	44783.67
537.749	45044.23
538.114	45061.63
538.479	45051.91
538.845	45440.82
539.21	45324.9
539.575	45535.29
539.94	45577.32
540.305	45845.11
540.67	45841.04
541.034	46181.6
541.399	46167.13
541.764	46297.75
542.129	46421.36
542.494	46442.38
542.858	46478.54
543.223	46483.51
543.587	46722.6
543.952	46547.46
544.316	46840.56
544.681	46881.01
545.045	47015.7
545.41	47126.88
545.774	47204.85
546.138	47283.49
546.503	47389.7
546.867	47315.13
547.231	47742.23
547.595	47635.12
547.959	47827.43
548.324	47922.34
548.688	48109.68
549.052	48169.57
549.416	48224.93
549.779	48406.62
550.143	48524.13
550.507	48835.31
550.871	48902.2
551.235	48947.17
551.599	49230.33
551.962	49388.29
552.326	49487.95
552.689	49757.1
553.053	49570.21
553.417	49753.48
553.78	50122.74
554.143	50090.19
554.507	50322.05
554.87	50504.87
555.234	50865.54
555.597	50692.44
555.96	50877.07
556.323	51025.76
556.686	51125.87
557.05	51400.22
557.413	51491.74
557.776	51562.02
558.139	51883.59
558.502	52031.84
558.865	52126.75
559.228	52355.67
559.59	52412.17
559.953	52491.94
560.316	52876.56
560.679	52820.97
561.041	53013.51
561.404	53164.46
561.767	53355.42
562.129	53275.65
562.492	53558.35
562.854	53601.51
563.217	53514.28
563.579	53738.91
563.941	53906.14
564.304	53935.06
564.666	53986.36
565.028	54035.85
565.39	54179.8
565.753	54278.33
566.115	54343.64
566.477	54478.1
566.839	54539.79
567.201	54693.46
567.563	54621.15
567.925	54798.09
568.287	54826.34
568.648	54857.98
569.01	55052.1
569.372	55148.37
569.734	55081.7
570.095	55289.38
570.457	55307.23
570.819	55403.05
571.18	55388.36
571.542	55560.78
571.903	55511.29
572.265	55700.67
572.626	55763.72
572.987	55764.4
573.349	55858.63
573.71	55983.6
574.071	56114.22
574.432	56046.42
574.794	56340.88
575.155	56406.19
575.516	56301.56
575.877	56400.54
576.238	56461.78
576.599	56613.19
576.96	56610.02
577.32	56687.08
577.681	56685.5
578.042	56822.9
578.403	56897.25
578.763	56869.9
579.124	57017.24
579.485	57108.99
579.845	57175.21
580.206	57202.55
580.566	57203.91
580.927	57283.9
581.287	57356.9
581.648	57269.67
582.008	57437.12
582.368	57400.28
582.728	57491.13
583.089	57421.75
583.449	57460.4
583.809	57526.16
584.169	57610.22
584.529	57568.42
584.889	57795.3
585.249	57588.75
585.609	57553.73
585.969	57773.38
586.329	57635.98
586.688	57681.18
587.048	57630.11
587.408	57614.97
587.768	57680.96
588.127	57602.99
588.487	57573.16
588.846	57730.22
589.206	57566.61
589.565	57558.47
589.925	57680.73
590.284	57620.62
590.643	57608.41
591.003	57680.73
591.362	57699.26
591.721	57616.32
592.08	57621.97
592.44	57742.65
592.799	57643.44
593.158	57656.55
593.517	57658.36
593.876	57622.2
594.235	57564.35
594.593	57647.28
594.952	57593.5
595.311	57510.11
595.67	57527.74
596.029	57680.28
596.387	57722.99
596.746	57725.93
597.104	57494.29
597.463	57566.16
597.822	57681.41
598.18	57567.06
598.538	57550.34
598.897	57696.1
599.255	57548.76
599.613	57915.98
599.972	57810.9
600.33	57820.84
600.688	57738.13
601.046	57802.53
601.404	57854.96
601.762	57824.45
602.12	57943.77
602.478	58009.08
602.836	57994.17
603.194	57813.61
603.552	57890.67
603.91	57825.81
604.268	57975.41
604.625	57951.23
604.983	58014.51
605.341	57932.02
605.698	58072.36
606.056	58166.59
606.413	58071.23
606.771	58173.15
607.128	58190.77
607.485	58164.78
607.843	58171.56
608.2	58350.09
608.557	58372.91
608.914	58408.62
609.272	58580.82
609.629	58589.63
609.986	58622.4
610.343	58474.38
610.7	58720.02
611.057	58674.6
611.414	58664.21
611.771	58781.49
612.127	58882.05
612.484	58788.04
612.841	58851.09
613.198	58761.38
613.554	58838.21
613.911	58948.27
614.267	58926.35
614.624	58961.15
614.98	59026.91
615.337	59093.57
615.693	58996.63
616.05	58994.37
616.406	59105.55
616.762	59022.84
617.118	58977.64
617.475	58995.72
617.831	59055.61
618.187	59165.66
618.543	59150.75
618.899	59196.85
619.255	59116.17
619.611	59066.91
619.967	59136.51
620.323	59183.06
620.678	59071.43
621.034	59017.19
621.39	59047.02
621.746	59063.29
622.101	59282.49
622.457	59014.93
622.812	59030.75
623.168	59078.21
623.523	59059.9
623.879	59144.65
624.234	58916.63
624.589	59066.91
624.945	59139.22
625.3	59069.17
625.655	58996.63
626.01	58995.5
626.365	59004.54
626.72	58992.11
627.075	58928.38
627.43	58926.57
627.785	58842.05
628.14	58934.03
628.495	58982.39
628.85	58890.64
629.205	58819.23
629.559	58936.74
629.914	58767.25
630.269	58821.94
630.623	58789.4
630.978	58729.74
631.332	58867.82
631.687	58797.08
632.041	58794.6
632.396	58756.63
632.75	58683.19
633.104	58703.75
633.459	58662.17
633.813	58646.58
634.167	58572.01
634.521	58548.5
634.875	58625.11
635.229	58628.27
635.583	58425.12
635.937	58522.97
636.291	58428.96
636.645	58490.88
636.999	58446.36
637.352	58468.96
637.706	58393.48
638.06	58483.42
638.413	58435.51
638.767	58355.51
639.121	58455.62
639.474	58273.26
639.828	58290.66
640.181	58327.49
640.534	58349.64
640.888	58214.5
641.241	58133.15
641.594	58174.73
641.947	58258.12
642.301	58164.11
642.654	58136.99
643.007	58136.54
643.36	58120.04
643.713	58081.62
644.066	58193.26
644.419	57960.72
644.771	57917.79
645.124	57644.8
645.477	57577.91
645.83	57457.01
646.182	57302.89
646.535	57146.05
646.888	57224.47
647.24	57000.97
647.593	57117.35
647.945	57069.45
648.298	56989.67
648.65	56920.3
649.002	56799.85
649.355	56928.21
649.707	56980.86
650.059	57062.67
650.411	57391.25
650.763	57370.23
651.115	57536.78
651.467	57461.3
651.819	57472.6
652.171	57298.59
652.523	57286.39
652.875	57338.37
653.227	57179.05
653.578	57368.65
653.93	57297.69
654.282	57122.33
654.633	57039.16
654.985	57146.05
655.337	57096.11
655.688	57068.77
656.039	57179.95
656.391	56940.86
656.742	56957.81
657.094	56963.46
657.445	57007.75
657.796	56926.62
658.147	56831.71
658.498	56875.1
658.849	56811.6
659.2	56900.18
659.551	56750.36
659.902	56769.11
660.253	56685.95
660.604	56883.01
660.955	56607.99
661.306	56750.13
661.656	56638.5
662.007	56670.36
662.358	56644.82
662.708	56687.99
663.059	56614.54
663.409	56354.44
663.76	56626.75
664.11	56630.14
664.461	56603.02
664.811	56513.75
665.161	56548.1
665.511	56492.96
665.862	56575.9
666.212	56584.94
666.562	56537.48
666.912	56508.56
667.262	56500.2
667.612	56517.37
667.962	56520.99
668.312	56450.7
668.662	56509.91
669.011	56457.26
669.361	56418.84
669.711	56449.58
670.06	56496.58
670.41	56371.16
670.76	56366.19
671.109	56460.65
671.459	56360.31
671.808	56304.27
672.157	56415.68
672.507	56163.48
672.856	56314.21
673.205	56288.9
673.554	56379.75
673.904	56261.33
674.253	56379.29
674.602	56290.94
674.951	55853.21
675.3	55744.28
675.649	56199.41
675.998	56148.79
676.346	56176.81
676.695	56141.33
677.044	55962.13
677.393	56111.28
677.741	56088
678.09	56050.26
678.438	55885.75
678.787	56030.38
679.135	55907.22
679.484	55820.44
679.832	56005.52
680.181	55676.49
680.529	55732.76
680.877	55667.45
681.225	55605.08
681.573	55791.51
681.922	55531.63
682.27	55489.83
682.618	55509.49
682.966	55476.04
683.314	55426.1
683.661	55262.26
684.009	55182.26
684.357	55182.49
684.705	55112.66
685.053	55117.63
685.4	54958.99
685.748	54893.46
686.095	54846
686.443	54868.37
686.79	54769.85
687.138	54795.61
687.485	54663.86
687.832	54605.33
688.18	54588.83
688.527	54370.08
688.874	54377.31
689.221	54328.05
689.568	54242.85
689.915	54115.17
690.262	54156.75
690.609	54100.71
690.956	53933.48
691.303	53961.05
691.65	53776.65
691.997	53721.06
692.344	53536.21
692.69	53534.4
693.037	53501.18
693.383	53290.79
693.73	53482.42
694.077	53213.73
694.423	53174.41
694.769	53017.57
695.116	53041.98
695.462	52982.55
695.808	52929.89
696.155	52844.25
696.501	52605.83
696.847	52614.65
697.193	52361.32
697.539	52574.87
697.885	52268.44
698.231	52221.21
698.577	52185.28
698.923	52076.81
699.269	51978.73
699.614	51843.14
699.96	51794.78
700.306	51734.67
700.651	51600.66
700.997	51531.29
701.342	51482.93
701.688	51444.96
702.033	51447.45
702.379	51289.71
702.724	51166.1
703.069	51286.55
703.415	50988.93
703.76	50872.09
704.105	50928.59
704.45	50748.71
704.795	50654.25
705.14	50514.14
705.485	50510.75
705.83	50385.55
706.175	50409.96
706.52	50258.55
706.865	50219.46
707.209	50032.57
707.554	50030.76
707.899	50080.93
708.243	49953.7
708.588	49896.98
708.932	49669.64
709.277	49536.99
709.621	49663.54
709.966	49365.24
710.31	49520.94
710.654	49078.92
710.998	49121.63
711.342	49185.81
711.687	49012.48
712.031	48872.6
712.375	48761.64
712.719	48734.07
713.063	48762.32
713.407	48866.72
713.75	48699.04
714.094	48691.13
714.438	48468.54
714.782	48475.1
715.125	48199.85
715.469	48271.94
715.812	48171.15
716.156	47985.16
716.499	47972.96
716.843	48026.29
717.186	47550.15
717.53	47816.36
717.873	47706.53
718.216	47610.26
718.559	47372.75
718.902	47219.76
719.246	47329.36
719.589	47229.03
719.932	47018.64
720.275	47057.73
720.617	46969.6
720.96	46847.34
721.303	46953.1
721.646	46864.97
721.989	46647.35
722.331	46838.3
722.674	46734.58
723.016	46701.58
723.359	46457.3
723.701	46504.07
724.044	46322.16
724.386	46156.74
724.729	46122.84
725.071	46005.78
725.413	45969.17
725.755	46008.27
726.097	45751.78
726.439	45662.06
726.782	45676.3
727.124	45749.74
727.465	45561.73
727.807	45381.39
728.149	45312.69
728.491	45319.02
728.833	45243.77
729.175	45034.06
729.516	44915.64
729.858	44912.25
730.199	45065.24
730.541	44802.88
730.882	44843.1
731.224	44824.57
731.565	44522.88
731.906	44454.41
732.248	44497.12
732.589	44174.19
732.93	44013.74
733.271	44066.85
733.612	44069.34
733.953	44089.9
734.294	43864.37
734.635	43816.46
734.976	43892.17
735.317	43644.71
735.658	43628.67
735.999	43518.39
736.339	43539.41
736.68	43581.89
737.021	43361.33
737.361	43237.49
737.702	43412.63
738.042	43240.2
738.383	43093.09
738.723	43094.22
739.063	43006.54
739.404	43042.47
739.744	42722.7
740.084	42654.01
740.424	42700.78
740.764	42543.05
741.104	42766.32
741.444	42550.05
741.784	42216.28
742.124	42487.68
742.464	42224.64
742.804	42155.26
743.143	42246.78
743.483	42149.84
743.823	41946.45
744.162	41913.23
744.502	41859.9
744.841	41869.62
745.181	41986.9
745.52	41688.83
745.86	41772.22
746.199	41685.9
746.538	41520.7
746.877	41732.22
747.216	41621.94
747.556	41356.19
747.895	41544.2
748.234	41318.45
748.573	41200.94
748.911	41120.49
749.25	41126.59
749.589	40955.07
749.928	41044.78
750.267	41072.8
750.605	40940.83
750.944	40950.1
751.283	40668.3
751.621	40924.56
751.96	40535.64
752.298	40516.43
