Data from white_wall_FLMS001491_085.txt Node
Date: Tue Feb 07 11:06:02 GMT 2017
User: dcchb
Spectrometer: FLMS00149
Trigger mode: 0
Integration Time (sec): 2.000000E-2
Scans to average: 10
Electric dark correction enabled: true
Nonlinearity correction enabled: false
Boxcar width: 0
XAxis mode: Wavelengths
Number of Pixels in Spectrum: 2048
>>>>>Begin Spectral Data<<<<<
341.393	-10.14
341.776	-10.14
342.16	-10.14
342.543	-61.21
342.927	-71.16
343.31	-77.26
343.693	-71.16
344.077	-54.43
344.46	-70.7
344.843	-67.54
345.226	-50.14
345.61	-34.1
345.993	-8.33
346.376	-14.89
346.759	7.26
347.142	30.54
347.525	48.16
347.908	76.41
348.291	67.37
348.674	108.27
349.057	110.53
349.44	127.71
349.823	143.08
350.206	157.31
350.588	226.69
350.971	235.5
351.354	225.79
351.737	257.65
352.119	273.92
352.502	273.02
352.884	282.73
353.267	322.28
353.65	310.75
354.032	313.69
354.414	327.25
354.797	332.22
355.179	346.01
355.562	329.51
355.944	346.91
356.326	357.98
356.709	346.01
357.091	354.82
357.473	344.2
357.855	358.66
358.238	387.36
358.62	370.41
359.002	367.02
359.384	368.61
359.766	352.34
360.148	347.36
360.53	348.49
360.912	375.84
361.294	366.35
361.676	358.44
362.057	383.52
362.439	363.18
362.821	362.96
363.203	351.43
363.584	347.36
363.966	345.33
364.348	350.53
364.729	351.88
365.111	348.72
365.493	362.73
365.874	346.46
366.256	343.52
366.637	348.04
367.019	346.23
367.4	356.86
367.781	350.08
368.163	348.95
368.544	341.04
368.925	363.18
369.306	373.35
369.688	348.04
370.069	347.14
370.45	351.21
370.831	353.01
371.212	348.95
371.593	361.6
371.974	349.85
372.355	359.79
372.736	371.09
373.117	359.34
373.498	337.87
373.879	353.92
374.26	333.58
374.641	362.73
375.021	347.82
375.402	356.86
375.783	369.51
376.163	371.32
376.544	369.28
376.925	372
377.305	375.61
377.686	358.44
378.066	376.29
378.447	379.91
378.827	393.24
379.208	387.81
379.588	358.89
379.968	385.55
380.349	384.65
380.729	374.71
381.109	396.85
381.489	400.92
381.87	388.49
382.25	390.98
382.63	400.47
383.01	394.59
383.39	393.46
383.77	411.54
384.15	408.61
384.53	395.95
384.91	419.68
385.29	415.61
385.67	399.34
386.049	422.16
386.429	449.06
386.809	406.12
387.189	419.9
387.568	428.72
387.948	442.73
388.328	439.34
388.707	430.3
389.087	447.93
389.466	471.43
389.846	472.33
390.225	474.82
390.605	464.2
390.984	484.99
391.363	494.7
391.743	483.41
392.122	485.67
392.501	495.38
392.881	522.73
393.26	526.57
393.639	511.88
394.018	533.57
394.397	536.29
394.776	550.97
395.155	546
395.534	569.96
395.913	570.86
396.292	577.19
396.671	609.73
397.05	591.88
397.429	592.33
397.808	613.35
398.186	600.24
398.565	608.6
398.944	632.78
399.323	637.3
399.701	668.94
400.08	670.52
400.458	698.54
400.837	726.11
401.215	727.24
401.594	694.93
401.972	730.18
402.351	726.79
402.729	749.16
403.107	751.42
403.486	772.66
403.864	804.75
404.242	785.09
404.62	824.41
404.999	841.59
405.377	852.21
405.755	884.3
406.133	890.85
406.511	913.22
406.889	936.05
407.267	926.56
407.645	966.33
408.023	974.69
408.401	976.5
408.779	983.73
409.156	1020.34
409.534	1051.07
409.912	1070.28
410.29	1067.12
410.667	1099.66
411.045	1129.49
411.422	1141.69
411.8	1133.78
412.178	1182.82
412.555	1190.73
412.933	1217.4
413.31	1230.05
413.687	1245.42
414.065	1315.47
414.442	1300.79
414.819	1289.94
415.197	1321.35
415.574	1345.53
415.951	1345.3
416.328	1389.6
416.705	1399.54
417.082	1415.81
417.46	1421.46
417.837	1444.96
418.214	1440.22
418.591	1494.45
418.967	1455.13
419.344	1493.32
419.721	1532.64
420.098	1503.94
420.475	1540.78
420.852	1556.82
421.228	1569.25
421.605	1595.69
421.982	1621.68
422.358	1639.76
422.735	1641.34
423.111	1651.74
423.488	1698.51
423.864	1706.2
424.241	1703.71
424.617	1740.1
424.994	1767.89
425.37	1803.37
425.746	1809.02
426.123	1832.97
426.499	1830.94
426.875	1862.35
427.251	1889.92
427.627	1935.57
428.003	1957.72
428.379	1991.84
428.756	1991.84
429.132	2017.38
429.507	2046.3
429.883	2065.74
430.259	2116.36
430.635	2133.31
431.011	2205.62
431.387	2240.2
431.763	2244.49
432.138	2257.37
432.514	2328.55
432.89	2306.86
433.265	2369.01
433.641	2388.44
434.016	2422.79
434.392	2469.12
434.767	2515.67
435.143	2529.23
435.518	2536.91
435.894	2552.96
436.269	2601.54
436.644	2668.66
437.02	2690.8
437.395	2702.78
437.77	2703.91
438.145	2771.71
438.52	2762.89
438.895	2821.42
439.271	2844.47
439.646	2891.25
440.021	2896.68
440.395	2938.93
440.77	2919.5
441.145	2940.06
441.52	3005.15
441.895	3026.62
442.27	3066.84
442.645	3022.55
443.019	3082.21
443.394	3074.07
443.769	3167.4
444.143	3126.95
444.518	3214.86
444.892	3234.52
445.267	3260.96
445.641	3242.43
446.016	3277.68
446.39	3298.47
446.764	3349.09
447.139	3325.59
447.513	3391.13
447.887	3376.21
448.262	3418.92
448.636	3413.27
449.01	3506.15
449.384	3539.82
449.758	3567.62
450.132	3617.11
450.506	3628.63
450.88	3658.46
451.254	3666.37
451.628	3735.52
452.002	3775.52
452.376	3792.92
452.75	3842.87
453.123	3907.5
453.497	3949.08
453.871	3949.75
454.244	4102.75
454.618	4087.6
454.992	4185.23
455.365	4160.37
455.739	4263.87
456.112	4308.62
456.486	4356.75
456.859	4376.41
457.232	4477.88
457.606	4496.41
457.979	4535.28
458.352	4643.3
458.725	4729.17
459.099	4768.26
459.472	4854.59
459.845	4913.57
460.218	4935.04
460.591	4955.38
460.964	4990.41
461.337	5109.05
461.71	5217.74
462.083	5298.65
462.456	5283.51
462.829	5306.33
463.201	5413.22
463.574	5445.53
463.947	5577.73
464.32	5675.81
464.692	5720.33
465.065	5725.98
465.438	5835.58
465.81	5937.05
466.183	6029.02
466.555	6139.53
466.928	6152.18
467.3	6182.24
467.672	6353.99
468.045	6490.25
468.417	6487.99
468.789	6561.66
469.161	6612.28
469.534	6755.1
469.906	6852.05
470.278	6958.94
470.65	7021.76
471.022	7174.53
471.394	7288.2
471.766	7424.69
472.138	7540.85
472.51	7724.12
472.882	7759.82
473.253	7894.96
473.625	7933.15
473.997	8198
474.369	8291.56
474.74	8290.66
475.112	8464.44
475.484	8680.03
475.855	8842.51
476.227	8854.94
476.598	9140.35
476.97	9299.9
477.341	9449.72
477.713	9510.29
478.084	9684.52
478.455	9914.34
478.827	10024.62
479.198	10254.9
479.569	10411.28
479.94	10632.74
480.311	10814.43
480.682	10940.08
481.053	11195.89
481.424	11395.21
481.795	11550.23
482.166	11681.75
482.537	11894.18
482.908	12202.65
483.279	12245.36
483.65	12522.86
484.021	12788.84
484.391	12969.18
484.762	13044.43
485.133	13182.96
485.503	13463.63
485.874	13756.73
486.244	13767.8
486.615	14073.78
486.985	14239.65
487.356	14583.6
487.726	14611.4
488.097	14892.52
488.467	14990.82
488.837	15329.79
489.207	15494.31
489.578	15777.69
489.948	15991.47
490.318	16175.42
490.688	16285.25
491.058	16547.16
491.428	16786.48
491.798	16908.51
492.168	17275.05
492.538	17291.55
492.908	17482.05
493.278	17804.76
493.648	17848.15
494.017	18033
494.387	18286.55
494.757	18370.17
495.126	18616.71
495.496	18654.9
495.866	18857.16
496.235	19070.04
496.605	19303.48
496.974	19365.62
497.344	19640.42
497.713	19763.12
498.082	19930.8
498.452	20071.82
498.821	20143.68
499.19	20315.2
499.559	20551.8
499.928	20694.63
500.298	20866.15
500.667	21028.4
501.036	21020.04
501.405	21283.99
501.774	21388.62
502.143	21581.83
502.512	21724.65
502.88	21962.39
503.249	22001.94
503.618	22207.81
503.987	22360.34
504.356	22559.89
504.724	22656.16
505.093	22788.13
505.462	22868.13
505.83	23049.37
506.199	23326.65
506.567	23606.41
506.936	23573.65
507.304	23845.05
507.672	23995.78
508.041	24203.23
508.409	24300.86
508.777	24541.08
509.145	24701.3
509.514	24832.14
509.882	25027.62
510.25	25058.35
510.618	25287.05
510.986	25447.27
511.354	25706.24
511.722	25865.11
512.09	26211.09
512.458	26170.87
512.826	26442.27
513.193	26614.24
513.561	26673.68
513.929	26997.74
514.297	27129.94
514.664	27396.14
515.032	27573.54
515.4	27689.24
515.767	27848.56
516.135	28109.57
516.502	27954.77
516.869	28537.81
517.237	28603.12
517.604	28632.72
517.972	29017.34
518.339	29234.06
518.706	29293.5
519.073	29488.74
519.44	29764.9
519.808	30039.92
520.175	30010.99
520.542	30420.92
520.909	30701.14
521.276	30672.67
521.643	31018.65
522.009	31222.71
522.376	31411.63
522.743	31530.27
523.11	31890.72
523.477	32258.39
523.843	32481.89
524.21	32786.06
524.577	32906.96
524.943	33172.94
525.31	33283.22
525.676	33523.67
526.043	33821.51
526.409	33940.38
526.776	34336.75
527.142	34392.34
527.508	34659.68
527.874	35035.27
528.241	35235.49
528.607	35360.23
528.973	35634.8
529.339	35606.78
529.705	35955.47
530.071	36249.47
530.437	36451.05
530.803	36715.45
531.169	36791.38
531.535	36838.16
531.901	37168.09
532.267	37284.02
532.632	37416.9
532.998	37721.07
533.364	37858.92
533.73	37977.11
534.095	38232.24
534.461	38477.21
534.826	38615.51
535.192	38747.94
535.557	39060.92
535.923	39110.64
536.288	39118.77
536.653	39425.43
537.019	39389.95
537.384	39560.8
537.749	39913.56
538.114	39762.6
538.479	39957.85
538.845	40297.5
539.21	40049.6
539.575	40450.72
539.94	40565.06
540.305	40762.8
540.67	40796.02
541.034	40913.98
541.399	41202.56
541.764	41319.39
542.129	41475.55
542.494	41650.91
542.858	41710.34
543.223	41869.21
543.587	42078.7
543.952	42126.6
544.316	42340.84
544.681	42287.05
545.045	42728.4
545.41	42969.75
545.774	42885.23
546.138	43160.7
546.503	43246.57
546.867	43229.85
547.231	43607.02
547.595	43724.3
547.959	43828.03
548.324	43823.51
548.688	44121.81
549.052	44353.21
549.416	44364.96
549.779	44449.03
550.143	44614.67
550.507	44900.99
550.871	44995.91
551.235	45077.26
551.599	45371.26
551.962	45556.34
552.326	45621.2
552.689	45828.88
553.053	45807.41
553.417	46057.35
553.78	46560.39
554.143	46419.37
554.507	46681.51
554.87	46697.33
555.234	47202.63
555.597	47046.93
555.96	47298.45
556.323	47539.57
556.686	47477.42
557.05	47817.53
557.413	47958.09
557.776	48142.49
558.139	48444.18
558.502	48455.25
558.865	48478.75
559.228	48804.39
559.59	48949.02
559.953	49037.38
560.316	49408.22
560.679	49494.09
561.041	49601.21
561.404	49796.23
561.767	50129.56
562.129	50085.49
562.492	50499.04
562.854	50414.97
563.217	50493.16
563.579	50624.46
563.941	50856.09
564.304	51044.34
564.666	51234.61
565.028	51402.29
565.39	51350.09
565.753	51645
566.115	51699.23
566.477	51812.45
566.839	51901.49
567.201	52127.92
567.563	52177.41
567.925	52371.53
568.287	52433.45
568.648	52518.87
569.01	52633.9
569.372	52926.32
569.734	52849.71
570.095	53040.22
570.457	53094.23
570.819	53203.83
571.18	53246.09
571.542	53369.7
571.903	53435.91
572.265	53573.53
572.626	53618.51
572.987	53725.4
573.349	53903.47
573.71	53982.34
574.071	54004.94
574.432	54098.49
574.794	54276.79
575.155	54286.28
575.516	54152.5
575.877	54319.5
576.238	54367.41
576.599	54479.73
576.96	54484.25
577.32	54501.42
577.681	54585.71
578.042	54695.99
578.403	54642.89
578.763	54678.59
579.124	54801.98
579.485	54898.7
579.845	54901.86
580.206	54825.48
580.566	54797.46
580.927	54916.78
581.287	55015.98
581.648	54936.89
582.008	55074.96
582.368	55001.29
582.728	55100.27
583.089	54997.23
583.449	54999.94
583.809	55165.36
584.169	55207.39
584.529	55096.88
584.889	55343.43
585.249	55140.5
585.609	55018.47
585.969	55232.25
586.329	55127.17
586.688	55211.01
587.048	55182.53
587.408	55204
587.768	55166.49
588.127	55216.66
588.487	55119.03
588.846	55342.3
589.206	55134.62
589.565	55205.13
589.925	55385.24
590.284	55366.93
590.643	55285.13
591.003	55383.43
591.362	55448.06
591.721	55380.27
592.08	55361.74
592.44	55383.66
592.799	55457.1
593.158	55316.09
593.517	55342.98
593.876	55406.48
594.235	55330.78
594.593	55414.16
594.952	55539.36
595.311	55423.2
595.67	55493.48
596.029	55578.45
596.387	55600.83
596.746	55558.79
597.104	55449.19
597.463	55450.55
597.822	55622.52
598.18	55521.73
598.538	55481.51
598.897	55757.66
599.255	55490.32
599.613	55909.74
599.972	55673.59
600.33	55744.33
600.688	55651.9
601.046	55740.94
601.404	55841.27
601.762	55784.32
602.12	55922.85
602.478	55880.82
602.836	55891.89
603.194	55743.87
603.552	55804.44
603.91	55775.96
604.268	55906.35
604.625	55880.37
604.983	56026.58
605.341	55871.33
605.698	56101.15
606.056	56034.94
606.413	56052.11
606.771	56182.96
607.128	56127.59
607.485	56019.57
607.843	56069.51
608.2	56239
608.557	56263.18
608.914	56250.75
609.272	56352.22
609.629	56364.2
609.986	56506.79
610.343	56373.91
610.7	56505.21
611.057	56510.63
611.414	56425.21
611.771	56516.73
612.127	56597.18
612.484	56653.45
612.841	56666.33
613.198	56599.44
613.554	56571.87
613.911	56697.97
614.267	56725.77
614.624	56698.65
614.98	56807.57
615.337	56814.81
615.693	56805.77
616.05	56801.47
616.406	56834.69
616.762	56868.59
617.118	56912.2
617.475	56826.78
617.831	56920.34
618.187	57005.54
618.543	56989.72
618.899	57168.02
619.255	57063.61
619.611	57085.76
619.967	57141.8
620.323	57187.68
620.678	57093.22
621.034	57010.96
621.39	57089.37
621.746	57037.62
622.101	57331.63
622.457	57139.99
622.812	57166.66
623.168	57272.65
623.523	57239.65
623.879	57327.11
624.234	57112.65
624.589	57249.6
624.945	57251.4
625.3	57275.13
625.655	57215.92
626.01	57230.39
626.365	57212.31
626.72	57238.3
627.075	57204.17
627.43	57174.8
627.785	57210.73
628.14	57176.6
628.495	57264.74
628.85	57144.97
629.205	57103.84
629.559	57263.16
629.914	57142.25
630.269	57165.08
630.623	57066.78
630.978	56988.59
631.332	57096.61
631.687	57154.23
632.041	57001.47
632.396	57114.91
632.75	57062.26
633.104	56943.84
633.459	56844.41
633.813	56877.85
634.167	56858.19
634.521	56803.28
634.875	56897.06
635.229	56789.5
635.583	56683.28
635.937	56760.57
636.291	56700.01
636.645	56741.36
636.999	56683.28
637.352	56738.2
637.706	56570.29
638.06	56722.83
638.413	56663.62
638.767	56540.46
639.121	56629.73
639.474	56385.66
639.828	56387.02
640.181	56465.21
640.534	56453.01
640.888	56397.42
641.241	56331.88
641.594	56387.25
641.947	56382.05
642.301	56285.55
642.654	56274.48
643.007	56289.62
643.36	56227.48
643.713	56184.77
644.066	56284.65
644.419	56050.31
644.771	55879.24
645.124	55723.08
645.477	55666.14
645.83	55420.72
646.182	55321.96
646.535	55257.78
646.888	55324.68
647.24	55152.48
647.593	55264.79
647.945	55224.79
648.298	55071.12
648.65	55012.37
649.002	54996.1
649.355	55052.82
649.707	55059.37
650.059	55098.92
650.411	55478.57
650.763	55501.62
651.115	55796.75
651.467	55588.85
651.819	55595.4
652.171	55530.32
652.523	55468.4
652.875	55494.84
653.227	55373.49
653.578	55531
653.93	55399.48
654.282	55296.88
654.633	55243.55
654.985	55229.76
655.337	55239.93
655.688	55225.69
656.039	55327.39
656.391	55188.41
656.742	55156.09
657.094	55259.82
657.445	55289.42
657.796	55225.92
658.147	55231.57
658.498	55148.63
658.849	55125.81
659.2	55186.83
659.551	55069.99
659.902	55171.23
660.253	55100.27
660.604	55099.37
660.955	54911.58
661.306	55085.81
661.656	54995.64
662.007	54968.3
662.358	54951.8
662.708	54960.62
663.059	54946.83
663.409	54818.25
663.76	54977.57
664.11	54920.17
664.461	55011.46
664.811	54958.36
665.161	54919.49
665.511	54821.86
665.862	54834.52
666.212	54870.68
666.562	54809.21
666.912	54802.66
667.262	54815.76
667.612	54834.52
667.962	54852.6
668.312	54814.86
668.662	54875.2
669.011	54746.16
669.361	54697.12
669.711	54739.15
670.06	54641.53
670.41	54582.77
670.76	54653.73
671.109	54653.73
671.459	54560.63
671.808	54561.76
672.157	54635.2
672.507	54380.29
672.856	54365.38
673.205	54423.68
673.554	54470.46
673.904	54448.31
674.253	54502.1
674.602	54418.71
674.951	53933.75
675.3	53810.14
675.649	54261.88
675.998	54246.29
676.346	54182.56
676.695	54355.44
677.044	54116.8
677.393	54126.51
677.741	54118.15
678.09	54102.11
678.438	54023.92
678.787	53938.5
679.135	53973.75
679.484	53873.64
679.832	53947.54
680.181	53728.33
680.529	53930.14
680.877	53821.89
681.225	53760.65
681.573	53931.04
681.922	53696.47
682.27	53591.61
682.618	53578.51
682.966	53580.09
683.314	53603.59
683.661	53362.01
684.009	53315.69
684.357	53202.7
684.705	53222.36
685.053	53271.4
685.4	53237.05
685.748	53005.87
686.095	53028.24
686.443	52843.16
686.79	52803.16
687.138	52872.08
687.485	52820.79
687.832	52677.06
688.18	52749.38
688.527	52497.63
688.874	52534.01
689.221	52437.97
689.568	52327.01
689.915	52285.66
690.262	52319.56
690.609	52195.04
690.956	52039.11
691.303	52055.61
691.65	51831.43
691.997	51839.57
692.344	51641.61
692.69	51730.65
693.037	51659.23
693.383	51345.12
693.73	51529.97
694.077	51244.56
694.423	51307.83
694.769	51072.81
695.116	50964.34
695.462	51102.41
695.808	50975.19
696.155	50873.27
696.501	50752.37
696.847	50721.41
697.193	50551.24
697.539	50640.73
697.885	50297.01
698.231	50266.73
698.577	50191.48
698.923	50140.63
699.269	50022.89
699.614	49899.06
699.96	49855.89
700.306	49766.86
700.651	49515.56
700.997	49489.8
701.342	49436.02
701.688	49356.7
702.033	49250.48
702.379	49158.74
702.724	49107.44
703.069	49180.88
703.415	48651.4
703.76	48812.08
704.105	48694.12
704.45	48609.6
704.795	48412.99
705.14	48374.35
705.485	48342.26
705.83	48238.99
706.175	48294.8
706.52	48109.5
706.865	47992.21
707.209	47934.14
707.554	47926.45
707.899	47870.18
708.243	47720.58
708.588	47569.85
708.932	47310.42
709.277	47322.85
709.621	47346.35
709.966	47055.74
710.31	47158.79
710.654	46793.83
710.998	46975.29
711.342	46919.7
711.687	46792.02
712.031	46549.54
712.375	46425.02
712.719	46646.26
713.063	46436.55
713.407	46523.55
713.75	46373.5
714.094	46193.16
714.438	45949.1
714.782	46130.79
715.125	45966.73
715.469	45949.1
715.812	45820.52
716.156	45538.27
716.499	45620.3
716.843	45637.25
717.186	45390.7
717.53	45477.48
717.873	45465.95
718.216	45345.95
718.559	45249.46
718.902	44916.81
719.246	45004.04
719.589	44868.45
719.932	44691.96
720.275	44675.24
720.617	44736.93
720.96	44704.39
721.303	44681.11
721.646	44592.53
721.989	44325.64
722.331	44408.8
722.674	44318.86
723.016	44279.54
723.359	44158.19
723.701	44443.15
724.044	43978.76
724.386	43828.71
724.729	44097.17
725.071	43888.14
725.413	43853.79
725.755	43762.04
726.097	43702.61
726.439	43494.03
726.782	43538.09
727.124	43579
727.465	43407.93
727.807	43349.62
728.149	43213.36
728.491	43064.88
728.833	43174.03
729.175	43089.29
729.516	42995.51
729.858	42957.77
730.199	43036.41
730.541	42730.2
730.882	42814.04
731.224	42875.74
731.565	42583.54
731.906	42677.32
732.248	42532.92
732.589	42269.43
732.93	42322.31
733.271	42137
733.612	42330.44
733.953	42160.28
734.294	41895.2
734.635	42039.83
734.976	41970.68
735.317	41713.28
735.658	41859.72
735.999	41778.82
736.339	41698.59
736.68	41717.58
737.021	41539.95
737.361	41502.89
737.702	41692.49
738.042	41449.33
738.383	41392.39
738.723	41419.73
739.063	41137.7
739.404	41346.96
739.744	41182.9
740.084	40963.92
740.424	41156.69
740.764	40834.66
741.104	41000.08
741.444	40787.88
741.784	40780.42
742.124	40660.65
742.464	40738.17
742.804	40588.11
743.143	40516.25
743.483	40603.93
743.823	40292.53
744.162	40197.16
744.502	40376.59
744.841	40140.44
745.181	40295.24
745.52	40107.22
745.86	40178.18
746.199	40004.63
746.538	40015.47
746.877	40008.69
747.216	39993.1
747.556	39836.95
747.895	39881.47
748.234	39563.06
748.573	39535.71
748.911	39459.33
749.25	39455.71
749.589	39376.62
749.928	39385.66
750.267	39429.73
750.605	39273.35
750.944	39074.71
751.283	39087.81
751.621	39065.22
751.96	38930.53
752.298	38947.93
752.636	38785.45
752.975	38567.15
