Data from white_steel_sheet_FLMS001491_043.txt Node
Date: Tue Feb 07 10:57:55 GMT 2017
User: dcchb
Spectrometer: FLMS00149
Trigger mode: 0
Integration Time (sec): 2.000000E-2
Scans to average: 10
Electric dark correction enabled: true
Nonlinearity correction enabled: false
Boxcar width: 0
XAxis mode: Wavelengths
Number of Pixels in Spectrum: 2048
>>>>>Begin Spectral Data<<<<<
341.393	-0.16
341.776	-0.16
342.16	-0.16
342.543	-64.11
342.927	-75.41
343.31	-54.17
343.693	-68.18
344.077	-61.85
344.46	-73.83
344.843	-44.9
345.226	-51.68
345.61	-20.72
345.993	-16.43
346.376	-11
346.759	5.04
347.142	10.92
347.525	45.72
347.908	68.54
348.291	67.64
348.674	99.95
349.057	104.93
349.44	108.99
349.823	130.91
350.206	154.87
350.588	198.94
350.971	208.88
351.354	234.19
351.737	237.13
352.119	267.41
352.502	300.4
352.884	271.7
353.267	270.8
353.65	285.26
354.032	311.47
354.414	306.28
354.797	315.77
355.179	325.26
355.562	324.58
355.944	322.32
356.326	315.99
356.709	329.1
357.091	325.71
357.473	347.63
357.855	348.99
358.238	329.1
358.62	342.66
359.002	338.82
359.384	347.18
359.766	343.56
360.148	356.22
360.53	348.08
360.912	330.46
361.294	357.12
361.676	345.37
362.057	342.66
362.439	335.66
362.821	325.94
363.203	322.77
363.584	328.65
363.966	335.88
364.348	321.87
364.729	330.01
365.111	319.38
365.493	322.77
365.874	304.47
366.256	326.62
366.637	323.68
367.019	333.85
367.4	322.32
367.781	317.58
368.163	321.19
368.544	325.49
368.925	336.56
369.306	323
369.688	328.42
370.069	339.72
370.45	302.66
370.831	310.12
371.212	322.55
371.593	312.15
371.974	342.66
372.355	316.67
372.736	328.42
373.117	354.64
373.498	317.8
373.879	311.25
374.26	322.32
374.641	318.03
375.021	320.29
375.402	351.02
375.783	339.95
376.163	360.29
376.544	344.69
376.925	347.86
377.305	349.67
377.686	306.28
378.066	344.47
378.447	334.75
378.827	362.32
379.208	345.82
379.588	360.06
379.968	350.57
380.349	393.05
380.729	357.35
381.109	328.42
381.489	348.54
381.87	370.23
382.25	383.11
382.63	362.09
383.01	378.37
383.39	370.91
383.77	371.59
384.15	363
384.53	383.79
384.91	375.43
385.29	390.12
385.67	382.89
386.049	374.98
386.429	386.5
386.809	381.3
387.189	384.02
387.568	388.53
387.948	392.15
388.328	411.13
388.707	396.9
389.087	393.51
389.466	401.64
389.846	419.04
390.225	401.42
390.605	419.27
390.984	421.08
391.363	427.4
391.743	407.52
392.122	438.25
392.501	423.79
392.881	438.48
393.26	448.42
393.639	476.22
394.018	454.52
394.397	433.73
394.776	475.76
395.155	450.23
395.534	468.53
395.913	455.2
396.292	483.9
396.671	496.1
397.05	478.25
397.429	480.74
397.808	483
398.186	515.99
398.565	513.5
398.944	510.11
399.323	504.46
399.701	522.54
400.08	539.49
400.458	543.56
400.837	562.99
401.215	539.72
401.594	563.22
401.972	562.54
402.351	566.38
402.729	595.31
403.107	582.43
403.486	603.9
403.864	624.01
404.242	606.61
404.62	620.17
404.999	647.96
405.377	608.64
405.755	638.02
406.133	666.49
406.511	678.47
406.889	682.54
407.267	688.19
407.645	724.57
408.023	708.53
408.401	711.69
408.779	746.72
409.156	728.64
409.534	744.01
409.912	756.21
410.29	788.52
410.667	816.09
411.045	814.29
411.422	811.57
411.8	823.78
412.178	824
412.555	852.48
412.933	840.95
413.31	855.87
413.687	851.12
414.065	870.56
414.442	899.26
414.819	913.04
415.197	926.6
415.574	922.31
415.951	954.85
416.328	959.59
416.705	969.31
417.082	972.93
417.46	992.13
417.837	984.9
418.214	1004.11
418.591	1041.85
418.967	1035.98
419.344	1069.87
419.721	1052.47
420.098	1059.7
420.475	1087.5
420.852	1068.52
421.228	1099.48
421.605	1070.32
421.982	1112.13
422.358	1129.08
422.735	1160.49
423.111	1155.07
423.488	1153.71
423.864	1187.61
424.241	1182.41
424.617	1171.79
424.994	1196.65
425.37	1190.77
425.746	1218.34
426.123	1216.76
426.499	1261.73
426.875	1263.99
427.251	1297.44
427.627	1311.22
428.003	1298.57
428.379	1329.75
428.756	1367.94
429.132	1375.85
429.507	1404.55
429.883	1409.98
430.259	1422.41
430.635	1420.6
431.011	1458.11
431.387	1479.13
431.763	1548.5
432.138	1499.92
432.514	1530.88
432.89	1559.13
433.265	1605.68
433.641	1592.35
434.016	1631.89
434.392	1634.83
434.767	1680.25
435.143	1644.1
435.518	1703.98
435.894	1696.3
436.269	1731.55
436.644	1774.49
437.02	1755.96
437.395	1759.35
437.77	1802.06
438.145	1860.13
438.52	1838.44
438.895	1844.99
439.271	1879.8
439.646	1930.42
440.021	1936.97
440.395	1929.51
440.77	1915.05
441.145	1948.49
441.52	1993.92
441.895	1997.53
442.27	1991.2
442.645	2031.66
443.019	2038.89
443.394	2050.86
443.769	2041.37
444.143	2102.16
444.518	2071.43
444.892	2128.6
445.267	2152.56
445.641	2157.75
446.016	2155.72
446.39	2174.02
446.764	2186.91
447.139	2217.64
447.513	2223.74
447.887	2228.26
448.262	2277.07
448.636	2296.73
449.01	2312.55
449.384	2295.6
449.758	2332.21
450.132	2357.07
450.506	2385.09
450.88	2390.97
451.254	2400.01
451.628	2449.95
452.002	2460.12
452.376	2471.19
452.75	2514.35
453.123	2539.44
453.497	2547.35
453.871	2621.24
454.244	2665.99
454.618	2646.33
454.992	2718.64
455.365	2703.5
455.739	2733.78
456.112	2789.15
456.486	2782.37
456.859	2829.83
457.232	2878.64
457.606	2873.44
457.979	2900.79
458.352	2981.69
458.725	3033.89
459.099	2999.54
459.472	3118.86
459.845	3135.36
460.218	3155.92
460.591	3176.48
460.964	3218.52
461.337	3301.23
461.71	3291.28
462.083	3292.64
462.456	3372.86
462.829	3400.89
463.201	3431.39
463.574	3431.62
463.947	3538.06
464.32	3612.41
464.692	3587.32
465.065	3624.38
465.438	3663.03
465.81	3739.18
466.183	3770.59
466.555	3843.36
466.928	3861.89
467.3	3881.1
467.672	3987.76
468.045	4002.68
468.417	4142.56
468.789	4091.71
469.161	4201.32
469.534	4267.98
469.906	4289.45
470.278	4332.84
470.65	4359.73
471.022	4429.33
471.394	4503.68
471.766	4561.98
472.138	4556.33
472.51	4732.6
472.882	4794.07
473.253	4841.3
473.625	4914.97
473.997	4971.47
474.369	5063.89
474.74	5090.78
475.112	5180.05
475.484	5299.82
475.855	5384.79
476.227	5406.03
476.598	5556.08
476.97	5623.2
477.341	5723.76
477.713	5810.99
478.084	5891.89
478.455	5975.73
478.827	6096.41
479.198	6220.02
479.569	6253.24
479.94	6421.14
480.311	6436.29
480.682	6689.16
481.053	6754.7
481.424	6886.67
481.795	6955.82
482.166	7006.44
482.537	7117.17
482.908	7283.27
483.279	7367.11
483.65	7467.22
484.021	7644.16
484.391	7749.7
484.762	7838.73
485.133	7884.61
485.503	8053.42
485.874	8197.6
486.244	8215
486.615	8402.11
486.985	8464.48
487.356	8654.98
487.726	8809.1
488.097	8883.9
488.467	8986.5
488.837	9136.55
489.207	9259.71
489.578	9398.24
489.948	9482.08
490.318	9585.13
490.688	9603.21
491.058	9800.94
491.428	9966.14
491.798	9959.13
492.168	10234.83
492.538	10276.86
492.908	10320.48
493.278	10534.71
493.648	10517.08
494.017	10738.55
494.387	10819.9
494.757	10846.79
495.126	11016.73
495.496	11111.19
495.866	11143.73
496.235	11233
496.605	11432.99
496.974	11483.16
497.344	11560.44
497.713	11594.12
498.082	11767.9
498.452	11808.35
498.821	11927.89
499.19	12007.44
499.559	12127.44
499.928	12193.65
500.298	12278.39
500.667	12405.17
501.036	12369.01
501.405	12503.7
501.774	12484.26
502.143	12677.03
502.512	12733.52
502.88	12910.92
503.249	12937.58
503.618	13038.82
503.987	13054.42
504.356	13164.47
504.724	13223
505.093	13272.26
505.462	13425.25
505.83	13553.61
506.199	13632.93
506.567	13851.91
506.936	13788.63
507.304	13967.39
507.672	14125.12
508.041	14119.25
508.409	14203.54
508.777	14384.33
509.145	14540.93
509.514	14491.44
509.882	14682.4
510.25	14639.23
510.618	14802.85
510.986	14927.81
511.354	15055.49
511.722	15220.91
512.09	15267.47
512.458	15281.25
512.826	15502.04
513.193	15548.36
513.561	15613.9
513.929	15853.67
514.297	15909.48
514.664	16045.98
515.032	16097.5
515.4	16215.46
515.767	16406.42
516.135	16513.08
516.502	16435.34
516.869	16794.66
517.237	16797.6
517.604	16867.65
517.972	17006.63
518.339	17134.99
518.706	17198.04
519.073	17360.74
519.44	17512.15
519.808	17776.1
520.175	17694.52
520.542	17921.86
520.909	18094.28
521.276	18039.37
521.643	18271.91
522.009	18488.4
522.376	18577.44
522.743	18804.77
523.11	18891.33
523.477	19066.46
523.843	19196.4
524.21	19397.07
524.577	19608.59
524.943	19620.12
525.31	19739.66
525.676	19874.35
526.043	20012.88
526.409	20122.03
526.776	20402.47
527.142	20398.18
527.508	20695.12
527.874	20816.02
528.241	20890.82
528.607	20905.74
528.973	21232.28
529.339	21258.49
529.705	21409.23
530.071	21625.04
530.437	21620.29
530.803	21851.47
531.169	22097.57
531.535	21945.93
531.901	22089.43
532.267	22156.55
532.632	22324
532.998	22468.18
533.364	22527.61
533.73	22653.71
534.095	22806.93
534.461	22969.18
534.826	23028.17
535.192	23103.19
535.557	23245.34
535.923	23357.42
536.288	23413.01
536.653	23573.46
537.019	23509.28
537.384	23574.59
537.749	23789.95
538.114	23873.12
538.479	23984.52
538.845	24060.45
539.21	24036.05
539.575	24329.83
539.94	24323.95
540.305	24554.45
540.67	24400.33
541.034	24671.29
541.399	24718.74
541.764	24722.13
542.129	24869.02
542.494	24897.27
542.858	25001.45
543.223	25006.87
543.587	25205.51
543.952	25234.66
544.316	25304.26
544.681	25328.9
545.045	25527.76
545.41	25659.51
545.774	25601.43
546.138	25774.53
546.503	25776.34
546.867	25781.54
547.231	26134.98
547.595	26130.68
547.959	26173.17
548.324	26307.4
548.688	26282.54
549.052	26395.31
549.416	26478.47
549.779	26688.41
550.143	26549.43
550.507	26860.61
550.871	26910.78
551.235	26969.98
551.599	27142.18
551.962	27117.32
552.326	27169.75
552.689	27485.22
553.053	27396.41
553.417	27461.72
553.78	27814.71
554.143	27725.22
554.507	27841.6
554.87	27964.08
555.234	28172.89
555.597	28050.63
555.96	28267.8
556.323	28391.19
556.686	28489.04
557.05	28680.45
557.413	28677.73
557.776	28724.51
558.139	28897.16
558.502	29114.79
558.865	29081.57
559.228	29376.02
559.59	29370.82
559.953	29501.44
560.316	29879.74
560.679	29862.56
561.041	29887.65
561.404	30072.27
561.767	30273.4
562.129	30256
562.492	30461.19
562.854	30475.65
563.217	30679.49
563.579	30793.39
563.941	30911.12
564.304	31070.21
564.666	31233.37
565.028	31047.62
565.39	31393.37
565.753	31643.31
566.115	31662.51
566.477	31810.99
566.839	31967.82
567.201	32145.21
567.563	31996.07
567.925	32315.83
568.287	32288.04
568.648	32446
569.01	32592.66
569.372	32669.72
569.734	32655.26
570.095	33053.89
570.457	33056.38
570.819	33059.09
571.18	33236.03
571.542	33372.53
571.903	33429.7
572.265	33472.64
572.626	33651.16
572.987	33574.56
573.349	33730.48
573.71	33885.96
574.071	33953.53
574.432	34082.11
574.794	34167.08
575.155	34284.14
575.516	34104.03
575.877	34219.06
576.238	34438.26
576.599	34592.61
576.96	34439.84
577.32	34603
577.681	34622.66
578.042	34736.78
578.403	34751.7
578.763	34738.59
579.124	34779.5
579.485	34905.82
579.845	35014.07
580.206	35024.23
580.566	34937.01
580.927	34979.04
581.287	35224.46
581.648	35028.3
582.008	35170.67
582.368	35038.02
582.728	35169.09
583.089	35146.72
583.449	35189.65
583.809	35160.05
584.169	35187.17
584.529	35153.27
584.889	35453.15
585.249	35164.34
585.609	35088.41
585.969	35301.06
586.329	35205.25
586.688	35289.09
587.048	35165.25
587.408	35087.74
587.768	35170.67
588.127	35229.88
588.487	35093.16
588.846	35454.51
589.206	35181.29
589.565	35168.19
589.925	35338.58
590.284	35208.18
590.643	35370.89
591.003	35348.97
591.362	35433.26
591.721	35292.93
592.08	35188.3
592.44	35341.51
592.799	35322.08
593.158	35305.81
593.517	35296.32
593.876	35461.74
594.235	35247.96
594.593	35299.26
594.952	35399.82
595.311	35339.48
595.67	35374.73
596.029	35548.74
596.387	35546.93
596.746	35610.66
597.104	35307.62
597.463	35463.77
597.822	35571.56
598.18	35387.16
598.538	35460.38
598.897	35572.69
599.255	35334.51
599.613	35837.77
599.972	35572.02
600.33	35722.3
600.688	35496.99
601.046	35601.17
601.404	35748.96
601.762	35559.59
602.12	35838
602.478	35901.5
602.836	35767.94
603.194	35482.98
603.552	35751.22
603.91	35567.05
604.268	35697.44
604.625	35619.25
604.983	35740.15
605.341	35651.34
605.698	35855.85
606.056	35975.4
606.413	35934.04
606.771	35999.12
607.128	35996.86
607.485	35762.52
607.843	35954.83
608.2	36050.87
608.557	36060.82
608.914	35992.8
609.272	36184.66
609.629	36315.05
609.986	36258.78
610.343	36078.67
610.7	36465.78
611.057	36497.19
611.414	36419.45
611.771	36508.94
612.127	36431.2
612.484	36523.18
612.841	36633.01
613.198	36504.2
613.554	36527.02
613.911	36872.77
614.267	36629.62
614.624	36646.11
614.98	36794.13
615.337	36965.43
615.693	36792.1
616.05	36817.18
616.406	36994.13
616.762	36830.06
617.118	36881.59
617.475	36858.76
617.831	37074.8
618.187	37030.06
618.543	37076.16
618.899	37253.33
619.255	37251.29
619.611	37318.41
619.967	37385.08
620.323	37281.35
620.678	37174.23
621.034	37094.69
621.39	37189.15
621.746	37106.44
622.101	37545.75
622.457	37205.87
622.812	37346.66
623.168	37372.87
623.523	37376.04
623.879	37378.3
624.234	37257.4
624.589	37303.27
624.945	37388.01
625.3	37444.06
625.655	37423.27
626.01	37408.8
626.365	37365.19
626.72	37305.53
627.075	37357.73
627.43	37370.16
627.785	37255.14
628.14	37209.94
628.495	37387.34
628.85	37325.19
629.205	37254.91
629.559	37416.71
629.914	37272.54
630.269	37291.07
630.623	37145.31
630.978	37118.19
631.332	37217.17
631.687	37202.03
632.041	37040.45
632.396	37158.19
632.75	37030.06
633.104	36985.99
633.459	36839.78
633.813	36786.22
634.167	36715.94
634.521	36789.61
634.875	36805.2
635.229	36724.3
635.583	36550.52
635.937	36590.97
636.291	36602.27
636.645	36609.96
636.999	36395.05
637.352	36439.11
637.706	36282.96
638.06	36368.61
638.413	36365.22
638.767	36174.49
639.121	36212
639.474	36087.71
639.828	35990.76
640.181	36082.74
640.534	36155.96
640.888	35958.9
641.241	35823.31
641.594	35934.49
641.947	35938.11
642.301	35689.75
642.654	35874.61
643.007	35793.03
643.36	35712.8
643.713	35654.95
644.066	35817.66
644.419	35474.39
644.771	35302.19
645.124	34878.93
645.477	34791.47
645.83	34640.52
646.182	34604.36
646.535	34479.84
646.888	34474.19
647.24	34303.58
647.593	34525.72
647.945	34421.09
648.298	34369.11
648.65	34214.31
649.002	34101.55
649.355	34120.08
649.707	34197.36
650.059	34321.88
650.411	34523
650.763	34723.45
651.115	35095.87
651.467	35004.12
651.819	35059.04
652.171	34739.04
652.523	34730.91
652.875	34791.25
653.227	34525.94
653.578	34694.53
653.93	34736.33
654.282	34641.42
654.633	34506.06
654.985	34471.48
655.337	34527.07
655.688	34603.45
656.039	34504.25
656.391	34334.76
656.742	34412.5
657.094	34359.62
657.445	34463.8
657.796	34421.76
658.147	34378.83
658.498	34288.66
658.849	34372.05
659.2	34168.21
659.551	34011.83
659.902	34142.45
660.253	34068.78
660.604	34186.74
660.955	33935
661.306	33960.31
661.656	33911.04
662.007	33828.79
662.358	33786.98
662.708	33827.66
663.059	33858.84
663.409	33521.45
663.76	33696.81
664.11	33727.55
664.461	33645.74
664.811	33589.02
665.161	33687.32
665.511	33434.22
665.862	33442.36
666.212	33483.94
666.562	33520.77
666.912	33320.55
667.262	33149.93
667.612	33170.5
667.962	33044.4
668.312	32934.12
668.662	33125.75
669.011	32889.38
669.361	32729.83
669.711	32739.32
670.06	32619.33
670.41	32678.99
670.76	32348.6
671.109	32416.39
671.459	32348.15
671.808	32456.62
672.157	32393.57
672.507	32120.81
672.856	32150.86
673.205	32083.07
673.554	32169.17
673.904	32035.16
674.253	32113.58
674.602	31921.49
674.951	31561.5
675.3	31393.37
675.649	31825.45
675.998	31837.88
676.346	31788.84
676.695	31930.3
677.044	31613.93
677.393	31744.55
677.741	31657.09
678.09	31627.26
678.438	31526.93
678.787	31663.64
679.135	31621.16
679.484	31266.82
679.832	31518.34
680.181	31341.85
680.529	31451.45
680.877	31300.26
681.225	31185.01
681.573	31556.98
681.922	31329.87
682.27	31318.34
682.618	31282.19
682.966	31361.51
683.314	31390.43
683.661	31364.67
684.009	31219.36
684.357	31218.46
684.705	31211.45
685.053	31271.34
685.4	31287.38
685.748	31161.74
686.095	31186.6
686.443	31212.36
686.79	31177.56
687.138	31270.66
687.485	31170.78
687.832	31119.93
688.18	31258.91
688.527	31028.41
688.874	31113.15
689.221	31045.58
689.568	30925.81
689.915	30917
690.262	30899.37
690.609	30936.43
690.956	30818.24
691.303	30740.05
691.65	30604.46
691.997	30759.04
692.344	30679.26
692.69	30724.46
693.037	30745.02
693.383	30461.42
693.73	30572.37
694.077	30467.29
694.423	30472.72
694.769	30348.43
695.116	30359.72
695.462	30245.15
695.808	30183.46
696.155	30433.85
696.501	30136.91
696.847	30071.37
697.193	30032.05
697.539	30115.66
697.885	29890.81
698.231	29867.76
698.577	29804.03
698.923	29808.55
699.269	29732.17
699.614	29504.15
699.96	29619.18
700.306	29500.76
700.651	29405.17
700.997	29287.21
701.342	29139.64
701.688	29258.96
702.033	29065.75
702.379	29092.19
702.724	29054.45
703.069	29151.85
703.415	28777.39
703.76	28697.4
704.105	28750.05
704.45	28513.45
704.795	28479.55
705.14	28459.66
705.485	28327.46
705.83	28397.06
706.175	28276.39
706.52	28277.97
706.865	28099.44
707.209	28134.92
707.554	28016.74
707.899	28174.02
708.243	27893.8
708.588	27961.82
708.932	27702.17
709.277	27683.41
709.621	27737.42
709.966	27601.83
710.31	27619.23
710.654	27350.76
710.998	27300.6
711.342	27375.85
711.687	27275.06
712.031	27114.61
712.375	27115.52
712.719	27119.36
713.063	27060.6
713.407	27013.6
713.75	27035.74
714.094	26957.1
714.438	26889.31
714.782	26953.26
715.125	26763.43
715.469	26836.65
715.812	26724.34
716.156	26525.02
716.499	26507.17
716.843	26519.6
717.186	26418.36
717.53	26596.21
717.873	26438.47
718.216	26366.38
718.559	26281.41
718.902	25952.83
719.246	26235.76
719.589	26013.85
719.932	25946.28
720.275	26022.44
720.617	25938.82
720.96	25890.46
721.303	25956.68
721.646	25870.35
721.989	25729.79
722.331	25714.2
722.674	25669
723.016	25603.01
723.359	25619.74
723.701	25649.57
724.044	25533.18
724.386	25228.11
724.729	25459.97
725.071	25480.3
725.413	25326.86
725.755	25313.98
726.097	25321.44
726.439	25177.26
726.782	25089.81
727.124	25186.53
727.465	25055.68
727.807	25066.3
728.149	24979.98
728.491	25032.63
728.833	24981.56
729.175	24921.9
729.516	24734.34
729.858	24802.58
730.199	24862.69
730.541	24692.75
730.882	24688.46
731.224	24757.61
731.565	24658.86
731.906	24539.54
732.248	24525.53
732.589	24490.95
732.93	24372.31
733.271	24336.83
733.612	24386.32
733.953	24411.41
734.294	24293.9
734.635	24269.26
734.976	24221.58
735.317	24236.04
735.658	24163.28
735.999	24147.01
736.339	24036.95
736.68	24084.86
737.021	23991.98
737.361	23897.07
737.702	23971.64
738.042	23910.18
738.383	23814.13
738.723	23792.44
739.063	23768.71
739.404	23836.28
739.744	23687.58
740.084	23617.08
740.424	23679.22
740.764	23477.87
741.104	23668.6
741.444	23409.17
741.784	23440.58
742.124	23559.9
742.464	23423.86
742.804	23302.73
743.143	23300.7
743.483	23384.54
743.823	23184.09
744.162	23176.86
744.502	23290.53
744.841	23112.23
745.181	23099.12
745.52	23156.3
745.86	23146.13
746.199	23014.15
746.538	22937.09
746.877	22983.2
747.216	22999.92
747.556	22858.23
747.895	22850.54
748.234	22839.47
748.573	22691.23
748.911	22744.33
749.25	22744.78
749.589	22690.1
749.928	22554.51
750.267	22613.04
750.605	22588.86
750.944	22439.48
751.283	22377.34
751.621	22521.29
751.96	22239.26
752.298	22332.36
752.636	22164.69
752.975	22097.34
753.313	22021.41
753.651	22129.88
753.989	21963.56
754.327	22020.73
