Data from White_reflection_standard_FLMS001491_090.txt Node
Date: Tue Feb 07 10:32:13 GMT 2017
User: dcchb
Spectrometer: FLMS00149
Trigger mode: 0
Integration Time (sec): 2.000000E-2
Scans to average: 10
Electric dark correction enabled: true
Nonlinearity correction enabled: false
Boxcar width: 0
XAxis mode: Wavelengths
Number of Pixels in Spectrum: 2048
>>>>>Begin Spectral Data<<<<<
341.393	-22.67
341.776	-22.67
342.16	-22.67
342.543	-76.23
342.927	-50.46
343.31	-61.09
343.693	-83.46
344.077	-48.43
344.46	-62.67
344.843	-62.89
345.226	-55.44
345.61	-43.91
345.993	-22.67
346.376	17.1
346.759	2.42
347.142	18.46
347.525	34.96
347.908	81.06
348.291	70.21
348.674	94.62
349.057	121.73
349.44	118.8
349.823	135.75
350.206	171.22
350.588	228.62
350.971	244.89
351.354	274.72
351.737	284.22
352.119	311.56
352.502	287.83
352.884	319.02
353.267	318.11
353.65	337.55
354.032	340.26
354.414	344.1
354.797	373.25
355.179	377.32
355.562	370.32
355.944	359.24
356.326	367.6
356.709	382.74
357.091	395.63
357.473	387.94
357.855	369.19
358.238	401.05
358.62	375.51
359.002	397.89
359.384	401.73
359.766	386.13
360.148	406.47
360.53	398.56
360.912	395.63
361.294	400.6
361.676	411.22
362.057	421.39
362.439	399.24
362.821	418.45
363.203	406.47
363.584	406.47
363.966	416.42
364.348	420.48
364.729	399.01
365.111	393.14
365.493	426.58
365.874	399.69
366.256	397.89
366.637	396.08
367.019	408.96
367.4	400.82
367.781	436.98
368.163	394.04
368.544	416.87
368.925	420.48
369.306	425.91
369.688	437.21
370.069	431.78
370.45	415.51
370.831	439.47
371.212	430.43
371.593	436.3
371.974	437.66
372.355	464.1
372.736	453.02
373.117	472.23
373.498	438.34
373.879	447.38
374.26	451.44
374.641	435.62
375.021	436.98
375.402	446.92
375.783	512.01
376.163	509.29
376.544	498.67
376.925	482.63
377.305	487.6
377.686	470.88
378.066	474.72
378.447	485.57
378.827	505.9
379.208	515.4
379.588	530.76
379.968	508.62
380.349	532.12
380.729	522.4
381.109	521.27
381.489	531.89
381.87	547.03
382.25	548.62
382.63	559.69
383.01	542.06
383.39	560.59
383.77	573.7
384.15	565.56
384.53	590.42
384.91	596.07
385.29	609.86
385.67	601.27
386.049	605.11
386.429	610.99
386.809	625.9
387.189	657.99
387.568	613.47
387.948	633.36
388.328	646.92
388.707	658.22
389.087	641.27
389.466	661.38
389.846	667.93
390.225	669.29
390.605	699.57
390.984	700.48
391.363	707.03
391.743	704.09
392.122	712.9
392.501	724.66
392.881	737.31
393.26	740.7
393.639	735.96
394.018	763.07
394.397	777.54
394.776	767.37
395.155	780.93
395.534	795.61
395.913	799.46
396.292	803.07
396.671	813.02
397.05	847.14
397.429	826.57
397.808	820.02
398.186	829.29
398.565	881.94
398.944	861.38
399.323	876.97
399.701	879.91
400.08	909.51
400.458	909.74
400.837	913.58
401.215	932.79
401.594	927.81
401.972	946.12
402.351	926.23
402.729	955.38
403.107	948.61
403.486	982.05
403.864	965.1
404.242	1002.61
404.62	1027.02
404.999	1027.25
405.377	1042.61
405.755	1034.25
406.133	1082.39
406.511	1062.05
406.889	1089.17
407.267	1113.12
407.645	1136.62
408.023	1147.02
408.401	1125.32
408.779	1173.68
409.156	1170.97
409.534	1213.91
409.912	1217.75
410.29	1236.73
410.667	1269.95
411.045	1298.65
411.422	1272.66
411.8	1280.8
412.178	1337.75
412.555	1358.54
412.933	1344.98
413.31	1393.34
413.687	1393.79
414.065	1405.77
414.442	1408.48
414.819	1452.32
415.197	1467.01
415.574	1487.57
415.951	1499.78
416.328	1506.56
416.705	1511.98
417.082	1517.4
417.46	1551.75
417.837	1527.8
418.214	1612.54
418.591	1612.99
418.967	1616.38
419.344	1637.17
419.721	1651.41
420.098	1682.82
420.475	1715.14
420.852	1737.06
421.228	1748.81
421.605	1746.55
421.982	1724.4
422.358	1772.09
422.735	1821.8
423.111	1787.9
423.488	1853.89
423.864	1842.37
424.241	1871.74
424.617	1927.56
424.994	1934.57
425.37	1938.64
425.746	1972.98
426.123	1983.83
426.499	2009.37
426.875	2057.73
427.251	2093.21
427.627	2109.25
428.003	2115.81
428.379	2159.65
428.756	2166.65
429.132	2199.19
429.507	2241.45
429.883	2263.37
430.259	2340.43
430.635	2326.2
431.011	2333.88
431.387	2365.97
431.763	2442.13
432.138	2479.41
432.514	2494.33
432.89	2537.04
433.265	2565.96
433.641	2601.67
434.016	2647.54
434.392	2669.92
434.767	2734.32
435.143	2717.15
435.518	2761.66
435.894	2838.95
436.269	2860.42
436.644	2862.45
437.02	2895.45
437.395	2914.66
437.77	2940.19
438.145	2977.7
438.52	3033.52
438.895	3089.57
439.271	3045.05
439.646	3135.21
440.021	3168.66
440.395	3156.68
440.77	3158.49
441.145	3183.35
441.52	3295.21
441.895	3289.79
442.27	3292.5
442.645	3305.38
443.019	3385.6
443.394	3406.17
443.769	3465.37
444.143	3348.99
444.518	3455.43
444.892	3464.47
445.267	3454.98
445.641	3502.44
446.016	3549.89
446.39	3574.75
446.764	3586.95
447.139	3656.33
447.513	3643
447.887	3681.87
448.262	3720.74
448.636	3734.75
449.01	3785.59
449.384	3818.59
449.758	3844.8
450.132	3919.37
450.506	3898.58
450.88	3985.81
451.254	3984.23
451.628	4002.54
452.002	4075.98
452.376	4094.96
452.75	4185.36
453.123	4155.07
453.497	4220.84
453.871	4230.55
454.244	4409.08
454.618	4384.22
454.992	4435.29
455.365	4506.93
455.739	4585.8
456.112	4615.18
456.486	4672.8
456.859	4701.5
457.232	4808.39
457.606	4814.72
457.979	4851.78
458.352	4967.71
458.725	5059.01
459.099	5041.83
459.472	5185.78
459.845	5213.13
460.218	5296.06
460.591	5341.48
460.964	5379.67
461.337	5488.37
461.71	5558.2
462.083	5643.85
462.456	5732.43
462.829	5672.1
463.201	5774.92
463.574	5800
463.947	5896.95
464.32	6044.74
464.692	6076.83
465.065	6101.69
465.438	6245.19
465.81	6285.64
466.183	6351.85
466.555	6496.93
466.928	6553.43
467.3	6552.53
467.672	6656.48
468.045	6899.41
468.417	6904.61
468.789	6940.76
469.161	7070.93
469.534	7143.24
469.906	7308.21
470.278	7390.02
470.65	7497.81
471.022	7633.85
471.394	7812.38
471.766	7848.31
472.138	7935.09
472.51	8082.65
472.882	8241.52
473.253	8265.7
473.625	8441.29
473.997	8641.74
474.369	8684.9
474.74	8748.85
475.112	8953.37
475.484	9144.77
475.855	9280.82
476.227	9300.93
476.598	9540.7
476.97	9692.56
477.341	9892.55
477.713	10111.08
478.084	10087.57
478.455	10433.33
478.827	10501.35
479.198	10747.67
479.569	10837.61
479.94	11041.9
480.311	11172.07
480.682	11444.37
481.053	11736.34
481.424	11993.74
481.795	12056.11
482.166	12266.73
482.537	12421.75
482.908	12644.57
483.279	12735.41
483.65	12992.13
484.021	13333.14
484.391	13465.11
484.762	13591.21
485.133	13714.6
485.503	13884.08
485.874	14234.36
486.244	14318.87
486.615	14569.49
486.985	14752.99
487.356	15156.14
487.726	15219.87
488.097	15534.21
488.467	15511.61
488.837	15914.09
489.207	16029.79
489.578	16245.6
489.948	16431.59
490.318	16680.62
490.688	16724.24
491.058	17087.62
491.428	17283.32
491.798	17405.35
492.168	17789.29
492.538	17836.3
492.908	17991.77
493.278	18303.85
493.648	18373.01
494.017	18565.99
494.387	18769.83
494.757	18808.93
495.126	19139.31
495.496	19195.81
495.866	19360.1
496.235	19604.39
496.605	19779.75
496.974	19833.31
497.344	20116.01
497.713	20166.4
498.082	20358.94
498.452	20652.27
498.821	20730.91
499.19	20695.88
499.559	21033.05
499.928	21117.79
500.298	21334.96
500.667	21496.31
501.036	21518.46
501.405	21641.85
501.774	21747.15
502.143	22012.01
502.512	22046.58
502.88	22269.63
503.249	22355.5
503.618	22492.9
503.987	22653.35
504.356	22806.79
504.724	22916.61
505.093	23068.93
505.462	23221.69
505.83	23509.82
506.199	23597.73
506.567	23861.45
506.936	23882.01
507.304	24241.55
507.672	24319.74
508.041	24442.9
508.409	24691.03
508.777	24763.35
509.145	24997.69
509.514	25035.43
509.882	25211.24
510.25	25284.91
510.618	25613.72
510.986	25587.73
511.354	25916.31
511.722	26114.5
512.09	26413.47
512.458	26385.68
512.826	26739.57
513.193	26785.21
513.561	26858.66
513.929	27205.99
514.297	27451.18
514.664	27507.91
515.032	27774.11
515.4	27962.13
515.767	27986.31
516.135	28225.85
516.502	28216.59
516.869	28790.58
517.237	28948.32
517.604	28733.86
517.972	29113.97
518.339	29353.28
518.706	29483.45
519.073	29636.44
519.44	29878.69
519.808	30236.65
520.175	30294.05
520.542	30722.74
520.909	30899.68
521.276	30905.33
521.643	31325.21
522.009	31405.43
522.376	31670.06
522.743	31908.69
523.11	32316.14
523.477	32580.32
523.843	32738.5
524.21	32871.38
524.577	33298.26
524.943	33415.55
525.31	33542.1
525.676	33914.07
526.043	34190.22
526.409	34365.35
526.776	34753.82
527.142	34898.67
527.508	35046.69
527.874	35355.38
528.241	35439.22
528.607	35637.41
528.973	36027.23
529.339	35947.91
529.705	36219.32
530.071	36696.14
530.437	36782.92
530.803	37160.76
531.169	37260.19
531.535	37215.45
531.901	37332.06
532.267	37587.19
532.632	37855.66
532.998	37987.86
533.364	38302.88
533.73	38332.03
534.095	38519.37
534.461	38854.95
534.826	38915.74
535.192	39046.13
535.557	39364.77
535.923	39298.11
536.288	39584.65
536.653	39735.16
537.019	39702.39
537.384	40082.49
537.749	40042.72
538.114	40198.87
538.479	40313.45
538.845	40446.1
539.21	40522.48
539.575	40708.69
539.94	40935.58
540.305	41158.62
540.67	41038.4
541.034	41453.08
541.399	41426.18
541.764	41636.12
542.129	41745.95
542.494	41899.84
542.858	42018.26
543.223	42064.81
543.587	42314.07
543.952	42177.58
544.316	42404.69
544.681	42540.73
545.045	42580.96
545.41	42927.16
545.774	43013.04
546.138	43224.1
546.503	43283.54
546.867	43251.67
547.231	43738.21
547.595	43738.44
547.959	44050.07
548.324	43944.08
548.688	44145.21
549.052	44205.55
549.416	44309.05
549.779	44438.08
550.143	44619.55
550.507	44858.18
550.871	44919.88
551.235	44910.84
551.599	45362.35
551.962	45440.99
552.326	45494.1
552.689	45749.23
553.053	45576.58
553.417	45770.7
553.78	46377.24
554.143	46070.81
554.507	46440.29
554.87	46641.64
555.234	46795.54
555.597	46805.93
555.96	47034.17
556.323	47203.66
556.686	47170.89
557.05	47505.35
557.413	47638.9
557.776	47641.39
558.139	47875.05
558.502	48108.27
558.865	48044.99
559.228	48437.98
559.59	48542.83
559.953	48553.91
560.316	49098.3
560.679	48960.22
561.041	49318.18
561.404	49442.92
561.767	49557.04
562.129	49604.5
562.492	49968.79
562.854	49914.32
563.217	50096.69
563.579	50182.79
563.941	50459.17
564.304	50552.95
564.666	50752.04
565.028	50772.38
565.39	50930.34
565.753	51141.41
566.115	51282.42
566.477	51437.22
566.839	51559.48
567.201	51706.14
567.563	51698.46
567.925	51950.43
568.287	51906.59
568.648	52008.96
569.01	52184.09
569.372	52372.79
569.734	52345.67
570.095	52602.84
570.457	52744.76
570.819	52705.89
571.18	52908.59
571.542	52996.5
571.903	53065.2
572.265	53081.02
572.626	53283.05
572.987	53296.38
573.349	53455.47
573.71	53443.95
574.071	53544.74
574.432	53645.52
574.794	53911.96
575.155	53812.75
575.516	53807.55
575.877	53914.67
576.238	54037.83
576.599	54105.4
576.96	54137.49
577.32	54188.34
577.681	54284.83
578.042	54307.65
578.403	54283.93
578.763	54355.79
579.124	54403.92
579.485	54535.67
579.845	54645.05
580.206	54556.69
580.566	54511.72
580.927	54592.39
581.287	54709
581.648	54596.23
582.008	54680.98
582.368	54672.39
582.728	54728.43
583.089	54705.61
583.449	54650.24
583.809	54737.7
584.169	54805.49
584.529	54739.06
584.889	54913.51
585.249	54771.14
585.609	54745.83
585.969	54859.05
586.329	54760.52
586.688	54828.09
587.048	54840.3
587.408	54798.71
587.768	54813.63
588.127	54775.21
588.487	54790.13
588.846	54968.88
589.206	54694.31
589.565	54727.76
589.925	54937.47
590.284	54790.58
590.643	54928.65
591.003	54944.02
591.362	54979.5
591.721	54990.57
592.08	54898.15
592.44	55003.68
592.799	54936.11
593.158	54869.67
593.517	54948.77
593.876	55024.02
594.235	54965.26
594.593	54941.99
594.952	55094.53
595.311	54977.47
595.67	55025.15
596.029	55221.75
596.387	55228.53
596.746	55228.31
597.104	55060.85
597.463	55130.91
597.822	55254.07
598.18	55083
598.538	55125.71
598.897	55333.16
599.255	55078.48
599.613	55459.94
599.972	55346.72
600.33	55324.58
600.688	55221.08
601.046	55346.5
601.404	55481.86
601.762	55315.09
602.12	55508.07
602.478	55529.54
602.836	55499.26
603.194	55322.54
603.552	55404.8
603.91	55367.97
604.268	55512.59
604.625	55471.01
604.983	55549.43
605.341	55410.22
605.698	55646.6
606.056	55650.22
606.413	55615.19
606.771	55695.41
607.128	55707.17
607.485	55636.88
607.843	55700.39
608.2	55810.44
608.557	55911.68
608.914	55850.66
609.272	55962.98
609.629	55937.22
609.986	56008.4
610.343	55871.45
610.7	56074.84
611.057	56086.14
611.414	56016.31
611.771	56065.8
612.127	56172.46
612.484	56197.32
612.841	56250.65
613.198	56131.33
613.554	56193.25
613.911	56280.26
614.267	56315.74
614.624	56147.38
614.98	56267.15
615.337	56421.27
615.693	56378.79
616.05	56299.47
616.406	56512.12
616.762	56388.5
617.118	56371.78
617.475	56349.18
617.831	56457.43
618.187	56476.18
618.543	56505.56
618.899	56636.86
619.255	56601.83
619.611	56538.33
619.967	56575.39
620.323	56652
620.678	56483.19
621.034	56541.04
621.39	56502.62
621.746	56488.39
622.101	56728.16
622.457	56509.63
622.812	56622.85
623.168	56666.91
623.523	56603.86
623.879	56677.76
624.234	56558.67
624.589	56650.64
624.945	56721.83
625.3	56619.46
625.655	56704.43
626.01	56578.55
626.365	56593.92
626.72	56615.62
627.075	56608.84
627.43	56582.85
627.785	56529.74
628.14	56558.67
628.495	56622.4
628.85	56547.37
629.205	56436.86
629.559	56669.63
629.914	56450.2
630.269	56435.51
630.623	56492.91
630.978	56365.45
631.332	56464.43
631.687	56475.28
632.041	56364.55
632.396	56394.83
632.75	56184.21
633.104	56374.04
633.459	56182.63
633.813	56218.79
634.167	56181.05
634.521	56185.12
634.875	56230.54
635.229	56104.67
635.583	56001.85
635.937	55996.42
636.291	56028.29
636.645	56075.97
636.999	55843.43
637.352	55922.98
637.706	55815.18
638.06	55953.03
638.413	55803.89
638.767	55714.62
639.121	55825.58
639.474	55650.67
639.828	55652.48
640.181	55651.12
640.534	55623.55
640.888	55509.66
641.241	55419.49
641.594	55454.29
641.947	55638.01
642.301	55465.14
642.654	55479.83
643.007	55388.53
643.36	55353.05
643.713	55291.81
644.066	55313.05
644.419	55149.44
644.771	54913.74
645.124	54771.14
645.477	54694.76
645.83	54467.65
646.182	54375.45
646.535	54263.36
646.888	54367.54
647.24	54185.4
647.593	54362.79
647.945	54277.6
648.298	54104.04
648.65	54055.68
649.002	53962.35
649.355	54031.96
649.707	54016.36
650.059	54146.98
650.411	54485.28
650.763	54493.64
651.115	54658.61
651.467	54651.83
651.819	54561.88
652.171	54496.12
652.523	54493.86
652.875	54534.31
653.227	54403.7
653.578	54513.52
653.93	54399.4
654.282	54321.21
654.633	54243.02
654.985	54273.76
655.337	54170.48
655.688	54227.88
656.039	54352.17
656.391	54132.74
656.742	54101.56
657.094	54102.01
657.445	54148.34
657.796	54103.82
658.147	54095
658.498	54081.9
658.849	54131.61
659.2	54052.75
659.551	53932.3
659.902	54092.97
660.253	53986.31
660.604	54062.91
660.955	53960.09
661.306	53986.31
661.656	53917.61
662.007	53942.92
662.358	53871.51
662.708	53887.1
663.059	53801.9
663.409	53590.38
663.76	53898.63
664.11	53929.36
664.461	53900.43
664.811	53863.37
665.161	53738.18
665.511	53715.35
665.862	53739.08
666.212	53822.47
666.562	53812.75
666.912	53623.38
667.262	53640.33
667.612	53564.17
667.962	53559.43
668.312	53573.44
668.662	53629.03
669.011	53591.51
669.361	53483.27
669.711	53512.42
670.06	53443.27
670.41	53410.95
670.76	53350.62
671.109	53483.49
671.459	53369.37
671.808	53358.75
672.157	53379.09
672.507	53096.61
672.856	53282.37
673.205	53219.77
673.554	53296.38
673.904	53219.32
674.253	53369.83
674.602	53253.9
674.951	52746.79
675.3	52669.96
675.649	53140.23
675.998	53010.29
676.346	53149.72
676.695	53174.35
677.044	52907.46
677.393	52881.02
677.741	52993.56
678.09	52923.51
678.438	52933
678.787	52914.47
679.135	52963.73
679.484	52673.57
679.832	52691.65
680.181	52686.45
680.529	52678.54
680.877	52587.47
681.225	52502.28
681.573	52693.23
681.922	52495.5
682.27	52376.63
682.618	52415.27
682.966	52356.52
683.314	52319.91
683.661	52300.25
684.009	52136.41
684.357	52027.49
684.705	51942.97
685.053	51965.12
685.4	51953.59
685.748	51658.68
686.095	51694.16
686.443	51587.5
686.79	51504.34
687.138	51672.02
687.485	51624.56
687.832	51479.25
688.18	51536.88
688.527	51268.19
688.874	51301.18
689.221	51211.69
689.568	51134.4
689.915	50988.19
690.262	50902.32
690.609	50916.1
690.956	50691.48
691.303	50699.16
691.65	50529.45
691.997	50557.92
692.344	50287.87
692.69	50191.83
693.037	50193.41
693.383	49922.91
693.73	50098.5
694.077	49915.23
694.423	49806.08
694.769	49720.88
695.116	49621.9
695.462	49568.8
695.808	49456.48
696.155	49432.75
696.501	49230.05
696.847	49311.63
697.193	48993.67
697.539	48974.46
697.885	48762.04
698.231	48717.52
698.577	48648.59
698.923	48589.84
699.269	48507.13
699.614	48188.49
699.96	48179.68
700.306	48232.11
700.651	47972.45
700.997	48056.07
701.342	47877.99
701.688	47736.08
702.033	47662.4
702.379	47691.33
702.724	47647.72
703.069	47593.93
703.415	47096.77
703.76	47188.29
704.105	47045.92
704.45	47031.01
704.795	46782.88
705.14	46732.26
705.485	46619.49
705.83	46440.52
706.175	46490.23
706.52	46342.89
706.865	46109.45
707.209	46202.78
707.554	46084.14
707.899	46134.76
708.243	45804.6
708.588	45819.29
708.932	45562.12
709.277	45500.88
709.621	45535.23
709.966	45370.71
710.31	45365.06
710.654	45094.34
710.998	45159.87
711.342	45046.88
711.687	44938.41
712.031	44845.3
712.375	44575.25
712.719	44467.23
713.063	44580.9
713.407	44564.63
713.75	44377.97
714.094	44380.91
714.438	44175.49
714.782	44225.89
715.125	44101.37
715.469	43994.48
715.812	43900.47
716.156	43712.45
716.499	43630.65
716.843	43595.85
717.186	43556.75
717.53	43634.49
717.873	43644.88
718.216	43508.84
718.559	43216.42
718.902	42928.74
719.246	43049.87
719.589	42820.72
719.932	42826.83
720.275	42799.71
720.617	42739.82
720.96	42846.71
721.303	42692.59
721.646	42504.57
721.989	42394.97
722.331	42491.02
722.674	42426.38
723.016	42242.89
723.359	42253.51
723.701	42198.59
724.044	41895.1
724.386	41781.2
724.729	41919.28
725.071	41947.75
725.413	41695.56
725.755	41656.91
726.097	41601.32
726.439	41432.51
726.782	41346.64
727.124	41606.07
727.465	41297.37
727.807	41181.22
728.149	41124.95
728.491	41182.8
728.833	41236.59
729.175	40994.11
729.516	41106.65
729.858	40843.38
730.199	40831.62
730.541	40650.61
730.882	40761.8
731.224	40665.3
731.565	40497.85
731.906	40482.71
732.248	40577.17
732.589	40270.06
732.93	40176.5
733.271	40324.29
733.612	40231.64
733.953	40205.2
734.294	40011.53
734.635	39916.17
734.976	39965.21
735.317	39846.34
735.658	39710.52
735.999	39837.07
736.339	39605.67
736.68	39692.9
737.021	39488.16
737.361	39403.87
737.702	39681.6
738.042	39479.8
738.383	39316.41
738.723	39384.88
739.063	39134.95
739.404	39168.17
739.744	38983.99
740.084	38889.98
740.424	39043.87
740.764	38903.31
741.104	39015.63
741.444	38721.17
741.784	38657.22
742.124	38751.23
742.464	38686.6
742.804	38579.71
743.143	38413.61
743.483	38500.61
743.823	38214.52
744.162	38340.39
744.502	38308.75
744.841	38007.07
745.181	38158.25
745.52	38024.24
745.86	38123.22
746.199	37969.1
746.538	37763.23
746.877	37973.39
747.216	37764.13
747.556	37671.93
747.895	37705.38
748.234	37550.58
748.573	37446.4
748.911	37406.63
749.25	37431.71
749.589	37248.89
749.928	37239.63
750.267	37337.25
750.605	37121.89
750.944	36974.32
751.283	36834.89
751.621	36934.33
751.96	36661.56
752.298	36597.16
