Data from White_reflection_standard_FLMS001491_073.txt Node
Date: Tue Feb 07 10:32:09 GMT 2017
User: dcchb
Spectrometer: FLMS00149
Trigger mode: 0
Integration Time (sec): 2.000000E-2
Scans to average: 10
Electric dark correction enabled: true
Nonlinearity correction enabled: false
Boxcar width: 0
XAxis mode: Wavelengths
Number of Pixels in Spectrum: 2048
>>>>>Begin Spectral Data<<<<<
341.393	-8.4
341.776	-8.4
342.16	-8.4
342.543	-57.22
342.927	-66.26
343.31	-75.29
343.693	-75.07
344.077	-64.9
344.46	-51.34
344.843	-49.08
345.226	-52.24
345.61	-29.65
345.993	-2.98
346.376	-14.73
346.759	12.84
347.142	23.23
347.525	34.76
347.908	65.94
348.291	90.8
348.674	97.13
349.057	90.58
349.44	115.66
349.823	124.25
350.206	147.98
350.588	239.27
350.971	236.79
351.354	271.14
351.737	284.47
352.119	298.48
352.502	314.53
352.884	318.14
353.267	317.46
353.65	338.93
354.032	355.2
354.414	350.68
354.797	370.12
355.179	368.76
355.562	357.01
355.944	371.7
356.326	373.51
356.709	392.94
357.091	399.04
357.473	401.53
357.855	399.5
358.238	392.26
358.62	404.92
359.002	407.4
359.384	419.83
359.766	409.66
360.148	394.98
360.53	393.85
360.912	414.41
361.294	390.68
361.676	394.52
362.057	414.86
362.439	404.47
362.821	412.83
363.203	393.17
363.584	399.95
363.966	411.7
364.348	405.6
364.729	410.57
365.111	423.22
365.493	404.69
365.874	412.15
366.256	417.35
366.637	404.92
367.019	424.58
367.4	410.12
367.781	425.26
368.163	427.74
368.544	414.18
368.925	415.54
369.306	418.25
369.688	409.66
370.069	449.44
370.45	413.96
370.831	440.85
371.212	443.11
371.593	436.56
371.974	446.05
372.355	436.33
372.736	451.25
373.117	454.41
373.498	446.27
373.879	462.77
374.26	457.57
374.641	447.86
375.021	471.13
375.402	463.9
375.783	496.67
376.163	501.19
376.544	516.1
376.925	483.56
377.305	502.32
377.686	506.16
378.066	504.35
378.447	494.41
378.827	494.63
379.208	507.97
379.588	511.58
379.968	534.18
380.349	523.11
380.729	516.1
381.109	540.73
381.489	538.02
381.87	527.85
382.25	546.61
382.63	561.75
383.01	542.54
383.39	557.01
383.77	581.19
384.15	567.63
384.53	590
384.91	589.09
385.29	594.29
385.67	599.04
386.049	620.05
386.429	595.65
386.809	607.63
387.189	648.75
387.568	634.52
387.948	631.35
388.328	674.06
388.707	652.82
389.087	648.08
389.466	681.75
389.846	675.19
390.225	681.52
390.605	707.74
390.984	685.36
391.363	723.78
391.743	733.95
392.122	724.01
392.501	749.09
392.881	755.19
393.26	766.27
393.639	747.06
394.018	787.28
394.397	764.01
394.776	808.52
395.155	775.08
395.534	805.13
395.913	786.83
396.292	819.6
396.671	805.81
397.05	839.03
397.429	830.67
397.808	843.78
398.186	833.16
398.565	853.27
398.944	878.35
399.323	850.33
399.701	882.87
400.08	884
400.458	909.99
400.837	912.48
401.215	915.64
401.594	918.58
401.972	955.19
402.351	943.21
402.729	974.4
403.107	998.8
403.486	975.75
403.864	979.82
404.242	1021.85
404.62	1010.33
404.999	1032.02
405.377	1040.16
405.755	1047.39
406.133	1094.62
406.511	1086.03
406.889	1122.19
407.267	1084
407.645	1144.33
408.023	1156.31
408.401	1163.54
408.779	1178.68
409.156	1182.98
409.534	1221.17
409.912	1208.51
410.29	1248.06
410.667	1251
411.045	1283.77
411.422	1277.89
411.8	1304.33
412.178	1318.79
412.555	1351.33
412.933	1359.24
413.31	1406.25
413.687	1413.48
414.065	1434.95
414.442	1430.2
414.819	1448.28
415.197	1441.05
415.574	1471.33
415.951	1481.05
416.328	1501.61
416.705	1553.36
417.082	1531.67
417.46	1532.12
417.837	1594.72
418.214	1580.03
418.591	1612.12
418.967	1626.58
419.344	1629.52
419.721	1696.64
420.098	1667.26
420.475	1713.13
420.852	1677.88
421.228	1735.73
421.605	1728.5
421.982	1759.23
422.358	1765.56
422.735	1787.93
423.111	1810.98
423.488	1822.96
423.864	1848.95
424.241	1909.29
424.617	1917.65
424.994	1921.94
425.37	1923.97
425.746	1967.14
426.123	1970.75
426.499	2008.04
426.875	2028.38
427.251	2040.36
427.627	2101.82
428.003	2135.95
428.379	2117.87
428.756	2159
429.132	2218.43
429.507	2261.37
429.883	2276.51
430.259	2336.17
430.635	2335.72
431.011	2359.44
431.387	2406.45
431.763	2426.56
432.138	2447.35
432.514	2497.75
432.89	2561.47
433.265	2598.99
433.641	2641.47
434.016	2647.35
434.392	2658.87
434.767	2693.67
435.143	2732.32
435.518	2764.63
435.894	2804.63
436.269	2836.04
436.644	2862.03
437.02	2897.28
437.395	2920.33
437.77	2920.78
438.145	3024.51
438.52	3002.14
438.895	3044.17
439.271	3102.47
439.646	3142.25
440.021	3176.82
440.395	3175.24
440.77	3173.66
441.145	3206.88
441.52	3253.88
441.895	3282.13
442.27	3293.88
442.645	3299.98
443.019	3323.49
443.394	3396.03
443.769	3394.67
444.143	3395.8
444.518	3445.97
444.892	3481.22
445.267	3462.92
445.641	3556.7
446.016	3562.35
446.39	3623.14
446.764	3585.85
447.139	3603.93
447.513	3667.88
447.887	3665.4
448.262	3684.15
448.636	3752.63
449.01	3777.26
449.384	3797.6
449.758	3847.54
450.132	3874.21
450.506	3930.02
450.88	3923.47
451.254	3958.05
451.628	4043.69
452.002	4081.43
452.376	4084.37
452.75	4160.53
453.123	4219.73
453.497	4234.2
453.871	4294.08
454.244	4394.64
454.618	4386.96
454.992	4454.76
455.365	4458.15
455.739	4610.46
456.112	4679.16
456.486	4661.76
456.859	4726.39
457.232	4841.19
457.606	4789.44
457.979	4899.72
458.352	5006.61
458.725	5062.88
459.099	5084.12
459.472	5181.97
459.845	5194.62
460.218	5218.13
460.591	5347.84
460.964	5385.8
461.337	5500.83
461.71	5574.73
462.083	5635.29
462.456	5644.1
462.829	5691.56
463.201	5863.08
463.574	5775.4
463.947	5939.46
464.32	6080.48
464.692	6066.01
465.065	6127.48
465.438	6208.38
465.81	6315.5
466.183	6352.11
466.555	6509.62
466.928	6553.91
467.3	6560.24
467.672	6689.5
468.045	6872.77
468.417	6897.18
468.789	6928.59
469.161	6997.74
469.534	7204.06
469.906	7271.18
470.278	7377.39
470.65	7458.74
471.022	7628.46
471.394	7762.01
471.766	7802.01
472.138	7928.11
472.51	8103.7
472.882	8216.24
473.253	8282.68
473.625	8418.72
473.997	8652.84
474.369	8657.81
474.74	8805.38
475.112	8928.76
475.484	9086.05
475.855	9229.55
476.227	9334.63
476.598	9659.14
476.97	9732.58
477.341	9893.26
477.713	9998.34
478.084	10100.48
478.455	10369.4
478.827	10511.55
479.198	10796.28
479.569	10843.97
479.94	11087.8
480.311	11209.61
480.682	11516.94
481.053	11744.96
481.424	11863.37
481.795	12066.08
482.166	12228.79
482.537	12365.73
482.908	12644.37
483.279	12785.38
483.65	12998.71
484.021	13293.39
484.391	13447.74
484.762	13562.09
485.133	13744.23
485.503	13926.37
485.874	14240.26
486.244	14337.66
486.615	14626.69
486.985	14801.15
487.356	15074.59
487.726	15173.8
488.097	15517.29
488.467	15561.81
488.837	15849.94
489.207	16091.74
489.578	16321.11
489.948	16471.84
490.318	16732.4
490.688	16777.14
491.058	17058.27
491.428	17290.58
491.798	17411.25
492.168	17845.36
492.538	17873.61
492.908	18016.43
493.278	18329.19
493.648	18416.2
494.017	18538.45
494.387	18777.32
494.757	18910.42
495.126	19044.43
495.496	19208.27
495.866	19442.84
496.235	19572.1
496.605	19641.02
496.974	19919.89
497.344	19942.03
497.713	20170.27
498.082	20409.36
498.452	20563.71
498.821	20797.6
499.19	20716.02
499.559	20996.02
499.928	21094.09
500.298	21183.81
500.667	21446.17
501.036	21434.42
501.405	21754.19
501.774	21767.75
502.143	21984.01
502.512	22057.46
502.88	22287.96
503.249	22391.01
503.618	22522.53
503.987	22644.79
504.356	22823.54
504.724	22999.8
505.093	23008.84
505.462	23174.26
505.83	23343.98
506.199	23600.24
506.567	23856.28
506.936	23863.74
507.304	24140.11
507.672	24258.08
508.041	24517.73
508.409	24581.46
508.777	24736.48
509.145	24926.76
509.514	25026.19
509.882	25240.65
510.25	25277.03
510.618	25695.1
510.986	25689.23
511.354	25923.12
511.722	26107.75
512.09	26426.16
512.458	26463.44
512.826	26611.69
513.193	26822.53
513.561	26833.15
513.929	27172.35
514.297	27436.75
514.664	27615.05
515.032	27731.21
515.4	28010.29
515.767	28170.52
516.135	28260.46
516.502	28193.34
516.869	28725.76
517.237	28710.62
517.604	28787
517.972	29214.78
518.339	29351.95
518.706	29429.69
519.073	29575
519.44	29899.96
519.808	30170.01
520.175	30182.89
520.542	30643.9
520.909	30831.69
521.276	30960.05
521.643	31243.88
522.009	31498.56
522.376	31751.89
522.743	31777.2
523.11	32202.27
523.477	32481.82
523.843	32757.06
524.21	32997.96
524.577	33378.97
524.943	33526.99
525.31	33595.91
525.676	33989.8
526.043	34110.25
526.409	34279.73
526.776	34830.68
527.142	34824.35
527.508	34975.08
527.874	35194.96
528.241	35490.1
528.607	35680.83
528.973	35975.51
529.339	35984.77
529.705	36294.37
530.071	36728.71
530.437	36813
530.803	37213.89
531.169	37330.05
531.535	37264.97
531.901	37356.26
532.267	37531.85
532.632	37862.46
532.998	37838.28
533.364	38337.93
533.73	38241.44
534.095	38591.71
534.461	38689.11
534.826	38915.77
535.192	39031.25
535.557	39302.65
535.923	39297.91
536.288	39511.24
536.653	39694.96
537.019	39791
537.384	39853.15
537.749	40080.03
538.114	40337.2
538.479	40299.69
538.845	40575.39
539.21	40523.86
539.575	40821.94
539.94	40915.04
540.305	41141.7
540.67	41115.71
541.034	41336.5
541.399	41460.79
541.764	41484.74
542.129	41715.47
542.494	41918.4
542.858	42017.84
543.223	42112.07
543.587	42393.19
543.952	42329.47
544.316	42493.76
544.681	42355.91
545.045	42797.93
545.41	42863.24
545.774	43136
546.138	43102.33
546.503	43361.98
546.867	43290.57
547.231	43813.04
547.595	43751.35
547.959	43812.36
548.324	43949.54
548.688	44031.79
549.052	44217.78
549.416	44288.51
549.779	44416.64
550.143	44507.94
550.507	44902.05
550.871	44925.56
551.235	44836.97
551.599	45192.67
551.962	45289.39
552.326	45422.27
552.689	45805.08
553.053	45643.73
553.417	45686.21
553.78	46299.76
554.143	46219.53
554.507	46370.04
554.87	46570.48
555.234	46812.51
555.597	46699.52
555.96	46956.24
556.323	47158.04
556.686	47279.39
557.05	47603.23
557.413	47670.57
557.776	47714.18
558.139	47951.69
558.502	48063.55
558.865	48081.41
559.228	48432.13
559.59	48601.62
559.953	48710.54
560.316	49016.52
560.679	48965
561.041	49303.07
561.404	49457.64
561.767	49632.78
562.129	49624.42
562.492	50019.43
562.854	49922.71
563.217	50009.94
563.579	50177.62
563.941	50463.04
564.304	50489.25
564.666	50800.88
565.028	50774.44
565.39	50998.84
565.753	51168.78
566.115	51224.37
566.477	51453.29
566.839	51499.39
567.201	51698.94
567.563	51706.85
567.925	51959.27
568.287	51992.26
568.648	52022.54
569.01	52220.51
569.372	52463.66
569.734	52317.9
570.095	52609.2
570.457	52706.82
570.819	52735.07
571.18	52812.58
571.542	52990.65
571.903	53020.71
572.265	53260.25
572.626	53238.78
572.987	53240.14
573.349	53474.48
573.71	53533.47
574.071	53554.03
574.432	53660.69
574.794	53897.52
575.155	53783.4
575.516	53737.3
575.877	53948.14
576.238	54023.85
576.599	54089.16
576.96	54174.35
577.32	54137.74
577.681	54233.33
578.042	54338.87
578.403	54323.95
578.763	54248.47
579.124	54482.59
579.485	54475.81
579.845	54582.03
580.206	54425.42
580.566	54539.54
580.927	54588.13
581.287	54668.8
581.648	54581.12
582.008	54781.12
582.368	54597.84
582.728	54643.27
583.089	54721
583.449	54617.5
583.809	54718.97
584.169	54783.15
584.529	54691.63
584.889	54956.93
585.249	54803.94
585.609	54670.16
585.969	54835.58
586.329	54806.65
586.688	54866.99
587.048	54749.25
587.408	54775.01
587.768	54747.9
588.127	54767.56
588.487	54796.26
588.846	54957.83
589.206	54801.45
589.565	54743.83
589.925	54932.3
590.284	54868.12
590.643	54848.91
591.003	54968
591.362	54911.73
591.721	54928
592.08	54941.11
592.44	54940.89
592.799	55006.19
593.158	54988.79
593.517	54898.63
593.876	54997.16
594.235	54971.17
594.593	54978.17
594.952	55037.15
595.311	54918.29
595.67	55004.39
596.029	55209.58
596.387	55187.21
596.746	55217.71
597.104	55092.75
597.463	55068.34
597.822	55284.15
598.18	55132.29
598.538	55105.63
598.897	55243.7
599.255	54996.25
599.613	55443.02
599.972	55198.28
600.33	55358.28
600.688	55246.87
601.046	55365.96
601.404	55436.01
601.762	55372.96
602.12	55518.05
602.478	55494.54
602.836	55512.85
603.194	55333.19
603.552	55467.43
603.91	55330.25
604.268	55532.96
604.625	55469.69
604.983	55562.11
605.341	55496.8
605.698	55620.19
606.056	55639.85
606.413	55550.81
606.771	55693.18
607.128	55666.74
607.485	55643.47
607.843	55644.37
608.2	55830.35
608.557	55887.75
608.914	55797.36
609.272	55876.45
609.629	55984.47
609.986	56029.9
610.343	55866.29
610.7	56152.38
611.057	56075.32
611.414	56002.1
611.771	56093.85
612.127	56127.75
612.484	56104.25
612.841	56252.04
613.198	56162.1
613.554	56213.17
613.911	56247.52
614.267	56293.84
614.624	56209.78
614.98	56261.3
615.337	56420.17
615.693	56335.65
616.05	56267.4
616.406	56408.64
616.762	56395.54
617.118	56271.47
617.475	56373.16
617.831	56450.22
618.187	56447.96
618.543	56483.67
618.899	56612.48
619.255	56516.66
619.611	56582.2
619.967	56595.98
620.323	56690.9
620.678	56560.28
621.034	56526.83
621.39	56556.21
621.746	56493.84
622.101	56816.32
622.457	56518.47
622.812	56614.29
623.168	56587.17
623.523	56703.78
623.879	56706.94
624.234	56525.7
624.589	56646.83
624.945	56653.84
625.3	56695.64
625.655	56587.85
626.01	56669.43
626.365	56733.16
626.72	56603.22
627.075	56600.5
627.43	56515.99
627.785	56528.87
628.14	56546.95
628.495	56587.62
628.85	56469.89
629.205	56464.46
629.559	56602.76
629.914	56434.41
630.269	56523.9
630.623	56483.67
630.978	56378.14
631.332	56512.82
631.687	56485.25
632.041	56330.23
632.396	56414.29
632.75	56274.86
633.104	56279.16
633.459	56267.63
633.813	56119.84
634.167	56243.45
634.521	56168.42
634.875	56174.07
635.229	56129.33
635.583	55990.58
635.937	55963.01
636.291	55974.76
636.645	55944.93
636.999	55888.43
637.352	55907.87
637.706	55796.68
638.06	55905.61
638.413	55801.2
638.767	55711.26
639.121	55774.54
639.474	55647.53
639.828	55664.93
640.181	55644.6
640.534	55683.24
640.888	55490.93
641.241	55412.06
641.594	55536.12
641.947	55612.51
642.301	55451.83
642.654	55437.6
643.007	55403.02
643.36	55301.33
643.713	55345.4
644.066	55372.96
644.419	55213.87
644.771	54959.87
645.124	54758.74
645.477	54758.74
645.83	54542.7
646.182	54404.4
646.535	54291.41
646.888	54309.49
647.24	54198.31
647.593	54306.55
647.945	54315.59
648.298	54157.18
648.65	54068.59
649.002	53982.04
649.355	54112.66
649.707	53970.97
650.059	54231.75
650.411	54453.22
650.763	54487.79
651.115	54789.03
651.467	54679.2
651.819	54579.09
652.171	54569.6
652.523	54577.51
652.875	54491.18
653.227	54359.21
653.578	54556.26
653.93	54458.19
654.282	54362.37
654.633	54322.6
654.985	54348.36
655.337	54355.82
655.688	54241.47
656.039	54355.59
656.391	54070.63
656.742	54109.27
657.094	54177.29
657.445	54195.59
657.796	54090.96
658.147	53987.92
658.498	54080.57
658.849	54107.01
659.2	54001.7
659.551	53937.97
659.902	54106.33
660.253	54036.95
660.604	53971.65
660.955	53831.08
661.306	53963.28
661.656	53907.24
662.007	53956.05
662.358	53774.36
662.708	53857.98
663.059	53850.97
663.409	53647.59
663.76	53842.16
664.11	53811.42
664.461	53855.49
664.811	53785.89
665.161	53702.27
665.511	53638.1
665.862	53722.84
666.212	53860.01
666.562	53881.7
666.912	53677.87
667.262	53574.37
667.612	53601.03
667.962	53581.37
668.312	53632.22
668.662	53687.13
669.011	53596.74
669.361	53469.06
669.711	53499.79
670.06	53424.54
670.41	53346.35
670.76	53389.06
671.109	53563.97
671.459	53331.44
671.808	53352.91
672.157	53364.43
672.507	53204.21
672.856	53145.9
673.205	53195.85
673.554	53303.19
673.904	53214.38
674.253	53350.42
674.602	53192.01
674.951	52841.96
675.3	52600.61
675.649	53155.4
675.998	53079.69
676.346	53030.2
676.695	53105.45
677.044	52905.23
677.393	52926.7
677.741	53038.11
678.09	52900.04
678.438	52885.35
678.787	52944.33
679.135	52865.91
679.484	52653.49
679.832	52724.22
680.181	52599.48
680.529	52714.5
680.877	52535.07
681.225	52507.05
681.573	52678.12
681.922	52393.61
682.27	52317.68
682.618	52488.97
682.966	52225.03
683.314	52390.44
683.661	52264.8
684.009	52114.52
684.357	51962.66
684.705	51938.93
685.053	52025.71
685.4	51896.9
685.748	51759.73
686.095	51781.87
686.443	51673.85
686.79	51567.19
687.138	51572.84
687.485	51598.15
687.832	51417.59
688.18	51444.03
688.527	51290.13
688.874	51227.31
689.221	51291.94
689.568	51057.15
689.915	50970.82
690.262	50880.2
690.609	50907.09
690.956	50781
691.303	50711.84
691.65	50537.61
691.997	50494.22
692.344	50266.21
692.69	50234.34
693.037	50290.84
693.383	49919.77
693.73	50160.22
694.077	49851.98
694.423	49907.8
694.769	49687.46
695.116	49684.75
695.462	49659.67
695.808	49549.84
696.155	49478.2
696.501	49290.86
696.847	49251.32
697.193	48988.73
697.539	48985.56
697.885	48802.74
698.231	48604.33
698.577	48632.35
698.923	48505.57
699.269	48496.08
699.614	48203.66
699.96	48200.27
700.306	48186.71
700.651	47961.18
700.997	48014.29
701.342	47874.41
701.688	47717.57
702.033	47618.37
702.379	47639.38
702.724	47546.73
703.069	47595.54
703.415	47033.07
703.76	47051.83
704.105	47105.16
704.45	47030.81
704.795	46913.07
705.14	46653.87
705.485	46665.62
705.83	46432.86
706.175	46502.46
706.52	46349.25
706.865	46111.51
707.209	46125.52
707.554	45942.48
707.899	46045.53
708.243	45902.71
708.588	45893.21
708.932	45454.13
709.277	45587.01
709.621	45494.35
709.966	45223.18
710.31	45443.28
710.654	45098.21
710.998	45022.28
711.342	45090.3
711.687	44888.72
712.031	44763.53
712.375	44582.29
712.719	44625
713.063	44575.06
713.407	44572.12
713.75	44393.37
714.094	44453.93
714.438	44159.7
714.782	44103.2
715.125	43965.36
715.469	44161.96
715.812	43774.17
716.156	43664.35
716.499	43727.85
716.843	43590.45
717.186	43369.89
717.53	43667.06
717.873	43527.4
718.216	43456.22
718.559	43288.08
718.902	42935.33
719.246	43172.38
719.589	43005.15
719.932	42789.34
720.275	42790.92
720.617	42834.09
720.96	42730.36
721.303	42859.17
721.646	42701.66
721.989	42314.1
722.331	42435
722.674	42398.84
723.016	42475.22
723.359	42177.83
723.701	42206.31
724.044	42031.17
724.386	41933.09
724.729	42096.7
725.071	41664.62
725.413	41847.22
725.755	41712.31
726.097	41599.54
726.439	41362.03
726.782	41437.06
727.124	41538.75
727.465	41336.27
727.807	41236.39
728.149	41193.68
728.491	41143.96
728.833	41219.66
729.175	41056.51
729.516	40820.58
729.858	40950.52
730.199	40905.1
730.541	40786.46
730.882	40887.02
731.224	40704.88
731.565	40539.68
731.906	40707.81
732.248	40558.21
732.589	40393.02
732.93	40162.07
733.271	40137.89
733.612	40265.11
733.953	40199.8
734.294	39997.55
734.635	40024.44
734.976	39950.09
735.317	39775.18
735.658	39728.4
735.999	39779.48
736.339	39682.98
736.68	39684.11
737.021	39527.28
737.361	39466.26
737.702	39497.22
738.042	39303.56
738.383	39183.79
738.723	39313.27
739.063	39136.1
739.404	39290.45
739.744	39033.73
740.084	38976.79
740.424	39136.33
740.764	38832.83
741.104	38876.68
741.444	38752.61
741.784	38650.01
742.124	38798.71
742.464	38525.72
742.804	38517.81
743.143	38490.25
743.483	38525.72
743.823	38241.21
744.162	38076.24
744.502	38308.1
744.841	38176.35
745.181	38232.85
745.52	37975.46
745.86	37920.77
746.199	37994.44
746.538	37937.27
746.877	37975.91
747.216	37880.32
747.556	37699.53
747.895	37723.26
748.234	37693.66
748.573	37574.79
748.911	37448.46
749.25	37406.21
749.589	37160.34
749.928	37188.13
750.267	37165.31
750.605	37108.36
750.944	37048.02
751.283	37001.02
751.621	36904.75
751.96	36652.33
752.298	36804.64
752.636	36671.31
