Data from white_poster_card_FLMS001491_00039.txt Node
Date: Wed Feb 08 11:51:26 GMT 2017
User: dcchb
Spectrometer: FLMS00149
Trigger mode: 0
Integration Time (sec): 2.000000E-2
Scans to average: 10
Electric dark correction enabled: true
Nonlinearity correction enabled: false
Boxcar width: 0
XAxis mode: Wavelengths
Number of Pixels in Spectrum: 2048
>>>>>Begin Spectral Data<<<<<
341.393	-5.14
341.776	-5.14
342.16	-5.14
342.543	-72.48
342.927	-56.44
343.31	-68.64
343.693	-90.11
344.077	-79.26
344.46	-57.8
344.843	-62.31
345.226	-62.77
345.61	-22.99
345.993	-32.94
346.376	-4.46
346.759	15.42
347.142	34.18
347.525	51.58
347.908	68.98
348.291	80.28
348.674	97.91
349.057	132.93
349.44	99.49
349.823	129.77
350.206	155.08
350.588	207.06
350.971	209.32
351.354	242.31
351.737	233.04
352.119	258.58
352.502	264.68
352.884	277.11
353.267	266.49
353.65	301.29
354.032	296.09
354.414	306.04
354.797	297.9
355.179	316.43
355.562	327.05
355.944	312.36
356.326	340.16
356.709	312.82
357.091	327.96
357.473	336.54
357.855	351.01
358.238	337.45
358.62	348.07
359.002	351.23
359.384	344
359.766	353.95
360.148	352.36
360.53	332.7
360.912	355.53
361.294	327.51
361.676	332.93
362.057	352.14
362.439	335.87
362.821	328.86
363.203	310.78
363.584	311.91
363.966	326.15
364.348	333.16
364.729	332.03
365.111	323.89
365.493	305.81
365.874	325.92
366.256	317.56
366.637	313.27
367.019	315.75
367.4	300.39
367.781	343.32
368.163	331.35
368.544	304.91
368.925	318.69
369.306	326.15
369.688	303.33
370.069	314.4
370.45	299.94
370.831	307.62
371.212	293.83
371.593	288.18
371.974	324.12
372.355	297.9
372.736	301.29
373.117	320.27
373.498	329.09
373.879	322.53
374.26	311.23
374.641	318.69
375.021	317.11
375.402	322.08
375.783	330.44
376.163	348.75
376.544	318.01
376.925	326.83
377.305	328.41
377.686	332.03
378.066	329.77
378.447	337.45
378.827	327.28
379.208	346.94
379.588	308.97
379.968	337.67
380.349	327.05
380.729	331.8
381.109	345.81
381.489	352.82
381.87	358.92
382.25	340.84
382.63	351.23
383.01	345.81
383.39	355.75
383.77	345.36
384.15	351.23
384.53	357.56
384.91	344.45
385.29	324.12
385.67	354.4
386.049	363.89
386.429	352.82
386.809	358.47
387.189	342.87
387.568	349.43
387.948	341.29
388.328	382.87
388.707	354.4
389.087	370.89
389.466	375.19
389.846	373.83
390.225	374.28
390.605	398.24
390.984	380.39
391.363	386.94
391.743	384.68
392.122	404.57
392.501	404.57
392.881	404.11
393.26	386.04
393.639	391.46
394.018	400.5
394.397	433.49
394.776	418.8
395.155	400.05
395.534	418.8
395.913	400.27
396.292	421.74
396.671	424.68
397.05	425.36
397.429	429.65
397.808	428.97
398.186	428.07
398.565	433.27
398.944	410.44
399.323	416.54
399.701	415.41
400.08	449.31
400.458	434.17
400.837	431.23
401.215	450.67
401.594	456.09
401.972	436.2
402.351	440.27
402.729	473.72
403.107	472.13
403.486	449.31
403.864	457.67
404.242	466.03
404.62	488.63
404.999	489.08
405.377	481.63
405.755	490.67
406.133	494.73
406.511	506.71
406.889	509.42
407.267	508.52
407.645	529.08
408.023	523.66
408.401	540.61
408.779	541.06
409.156	546.48
409.534	545.13
409.912	567.5
410.29	564.11
410.667	604.79
411.045	611.57
411.422	593.26
411.8	619.25
412.178	620.83
412.555	637.55
412.933	623.77
413.31	652.47
413.687	691.79
414.065	684.56
414.442	720.72
414.819	739.7
415.197	730.66
415.574	724.78
415.951	785.8
416.328	776.31
416.705	773.82
417.082	785.35
417.46	822.86
417.837	823.09
418.214	834.16
418.591	853.37
418.967	872.35
419.344	875.29
419.721	883.88
420.098	890.43
420.475	921.84
420.852	943.76
421.228	969.97
421.605	965.91
421.982	969.97
422.358	981.5
422.735	996.64
423.111	1009.3
423.488	1047.26
423.864	1042.74
424.241	1049.97
424.617	1064.89
424.994	1075.96
425.37	1104.66
425.746	1103.76
426.123	1122.29
426.499	1125.45
426.875	1171.33
427.251	1186.92
427.627	1203.19
428.003	1212.45
428.379	1216.3
428.756	1229.4
429.132	1253.13
429.507	1292.68
429.883	1277.54
430.259	1332.9
430.635	1343.07
431.011	1323.41
431.387	1385.78
431.763	1396.86
432.138	1395.73
432.514	1447.25
432.89	1450.87
433.265	1475.05
433.641	1497.42
434.016	1532.67
434.392	1514.82
434.767	1553.91
435.143	1553.24
435.518	1547.59
435.894	1614.03
436.269	1633.46
436.644	1605.89
437.02	1668.71
437.395	1678.2
437.77	1695.83
438.145	1732.67
438.52	1733.57
438.895	1767.92
439.271	1738.09
439.646	1807.01
440.021	1812.44
440.395	1791.65
440.77	1810.18
441.145	1819.44
441.52	1879.56
441.895	1868.48
442.27	1895.6
442.645	1852.66
443.019	1912.32
443.394	1917.97
443.769	1912.1
444.143	1911.87
444.518	1934.69
444.892	1964.75
445.267	1951.64
445.641	1993.22
446.016	1973.79
446.39	2009.27
446.764	2039.1
447.139	2006.11
447.513	2015.37
447.887	2035.94
448.262	2026.9
448.636	2073
449.01	2148.7
449.384	2110.96
449.758	2157.97
450.132	2140.57
450.506	2145.76
450.88	2171.98
451.254	2204.29
451.628	2166.1
452.002	2244.74
452.376	2231.41
452.75	2291.52
453.123	2261.92
453.497	2303.27
453.871	2307.57
454.244	2360.67
454.618	2407.9
454.992	2466.66
455.365	2416.04
455.739	2483.83
456.112	2512.08
456.486	2502.14
456.859	2559.31
457.232	2593.66
457.606	2571.29
457.979	2605.19
458.352	2630.5
458.725	2686.99
459.099	2724.5
459.472	2763.37
459.845	2768.35
460.218	2792.75
460.591	2831.17
460.964	2866.65
461.337	2914.33
461.71	2999.75
462.083	2984.61
462.456	2997.72
462.829	2979.64
463.201	3091.95
463.574	3066.42
463.947	3112.74
464.32	3191.16
464.692	3178.96
465.065	3196.36
465.438	3272.06
465.81	3296.24
466.183	3360.19
466.555	3434.32
466.928	3449.01
467.3	3421.44
467.672	3481.09
468.045	3592.28
468.417	3582.34
468.789	3592.28
469.161	3685.61
469.534	3717.47
469.906	3797.47
470.278	3818.71
470.65	3822.1
471.022	3916.56
471.394	3984.36
471.766	3987.75
472.138	4086.5
472.51	4156.11
472.882	4172.6
473.253	4205.14
473.625	4314.97
473.997	4402.88
474.369	4445.36
474.74	4464.57
475.112	4562.2
475.484	4636.09
475.855	4663.21
476.227	4728.97
476.598	4893.04
476.97	4903.43
477.341	5026.14
477.713	5062.52
478.084	5084.22
478.455	5279.69
478.827	5283.76
479.198	5366.92
479.569	5424.32
479.94	5596.97
480.311	5592.23
480.682	5752.67
481.053	5861.15
481.424	5934.59
481.795	5991.09
482.166	6081.03
482.537	6238.31
482.908	6289.16
483.279	6405.99
483.65	6511.07
484.021	6625.19
484.391	6602.37
484.762	6783.83
485.133	6738.64
485.503	6892.3
485.874	7077.38
486.244	7099.98
486.615	7270.37
486.985	7340.2
487.356	7460.43
487.726	7482.35
488.097	7632.4
488.467	7663.36
488.837	7909.23
489.207	7967.53
489.578	8068.77
489.948	8148.77
490.318	8270.8
490.688	8259.73
491.058	8423.11
491.428	8553.05
491.798	8624.24
492.168	8792.37
492.538	8833.5
492.908	8880.05
493.278	9022.64
493.648	9035.53
494.017	9216.76
494.387	9329.75
494.757	9341.51
495.126	9501.05
495.496	9433.71
495.866	9603.87
496.235	9686.36
496.605	9758.9
496.974	9859.01
497.344	9943.07
497.713	10014.26
498.082	10107.81
498.452	10209.51
498.821	10257.19
499.19	10238.43
499.559	10427.13
499.928	10425.77
500.298	10494.24
500.667	10632.77
501.036	10642.49
501.405	10714.58
501.774	10773.11
502.143	10809.26
502.512	10958.19
502.88	11074.12
503.249	11023.95
503.618	11188.46
503.987	11228.01
504.356	11317.73
504.724	11366.76
505.093	11373.99
505.462	11460.09
505.83	11573.99
506.199	11635.68
506.567	11817.37
506.936	11776.24
507.304	11899.4
507.672	11992.74
508.041	12089.68
508.409	12129.91
508.777	12266.85
509.145	12401.31
509.514	12338.04
509.882	12508.88
510.25	12534.42
510.618	12666.39
510.986	12783.45
511.354	12842.2
511.722	12890.34
512.09	13106.38
512.458	13140.5
512.826	13203.55
513.193	13306.37
513.561	13325.36
513.929	13469.31
514.297	13604.22
514.664	13607.61
515.032	13783.87
515.4	13955.17
515.767	13921.95
516.135	14028.39
516.502	14095.05
516.869	14203.75
517.237	14259.34
517.604	14293.24
517.972	14469.05
518.339	14552.67
518.706	14640.8
519.073	14796.73
519.44	14871.53
519.808	14978.42
520.175	15001.92
520.542	15246.21
520.909	15280.11
521.276	15340.44
521.643	15471.29
522.009	15666.54
522.376	15792.18
522.743	15879.64
523.11	16051.16
523.477	16172.06
523.843	16209.12
524.21	16459.74
524.577	16600.07
524.943	16613.63
525.31	16795.1
525.676	16934.98
526.043	17037.35
526.409	17110.57
526.776	17351.46
527.142	17408.86
527.508	17540.16
527.874	17635.75
528.241	17664.22
528.607	17817.89
528.973	17998.91
529.339	18057.89
529.705	18264.44
530.071	18348.95
530.437	18379.46
530.803	18469.4
531.169	18674.37
531.535	18720.69
531.901	18740.81
532.267	18868.71
532.632	19010.18
532.998	19042.72
533.364	19157.97
533.73	19168.82
534.095	19413.56
534.461	19424.63
534.826	19572.65
535.192	19649.71
535.557	19829.82
535.923	19764.06
536.288	19885.64
536.653	19983.03
537.019	20016.93
537.384	20160.88
537.749	20182.12
538.114	20228.9
538.479	20323.82
538.845	20294.89
539.21	20329.47
539.575	20451.95
539.94	20632.51
540.305	20770.13
540.67	20747.76
541.034	20770.13
541.399	20945.04
541.764	21008.32
542.129	21061.88
542.494	21189.1
542.858	21210.57
543.223	21316.33
543.587	21373.28
543.952	21476.33
544.316	21521.3
544.681	21502.77
545.045	21522.43
545.41	21740.05
545.774	21824.79
546.138	21812.36
546.503	21916.54
546.867	21940.95
547.231	22189.08
547.595	22260.04
547.959	22239.47
548.324	22332.12
548.688	22316.98
549.052	22464.32
549.416	22545.9
549.779	22548.39
550.143	22669.06
550.507	22869.06
550.871	22893.69
551.235	22843.75
551.599	23047.36
551.962	23204.42
552.326	23183.4
552.689	23257.07
553.053	23251.42
553.417	23379.78
553.78	23616.84
554.143	23648.93
554.507	23663.84
554.87	23782.93
555.234	24048.46
555.597	23918.98
555.96	24101.34
556.323	24146.99
556.686	24145.86
557.05	24421.34
557.413	24435.57
557.776	24414.78
558.139	24693.64
558.502	24778.61
558.865	24787.2
559.228	24955.11
559.59	25137.7
559.953	25172.05
560.316	25509.22
560.679	25448.88
561.041	25560.51
561.404	25644.81
561.767	25818.59
562.129	25848.19
562.492	26142.42
562.854	26038.92
563.217	26070.78
563.579	26251.8
563.941	26431.23
564.304	26578.79
564.666	26674.61
565.028	26794.83
565.39	26722.74
565.753	26989.18
566.115	27157.08
566.477	27232.79
566.839	27219.68
567.201	27612.21
567.563	27555.72
567.925	27663.74
568.287	27642.72
568.648	27777.18
569.01	27910.96
569.372	28132.65
569.734	28050.84
570.095	28245.42
570.457	28391.17
570.819	28460.1
571.18	28541.45
571.542	28615.35
571.903	28640.21
572.265	28778.96
572.626	28801.79
572.987	28900.77
573.349	28906.19
573.71	29034.77
574.071	29082.91
574.432	29311.15
574.794	29662.1
575.155	29521.99
575.516	29391.6
575.877	29609.9
576.238	29630.69
576.599	29740.29
576.96	29832.04
577.32	29849.22
577.681	29912.26
578.042	30057.57
578.403	30026.84
578.763	29978.7
579.124	30077.91
579.485	30184.12
579.845	30258.02
580.206	30194.29
580.566	30122.43
580.927	30254.4
581.287	30455.98
581.648	30267.96
582.008	30468.41
582.368	30301.18
582.728	30528.52
583.089	30372.82
583.449	30363.1
583.809	30455.98
584.169	30566.71
584.529	30448.75
584.889	30772.35
585.249	30474.51
585.609	30377.79
585.969	30579.59
586.329	30663.21
586.688	30578.69
587.048	30535.3
587.408	30592.7
587.768	30574.62
588.127	30533.72
588.487	30575.3
588.846	30743.2
589.206	30586.37
589.565	30593.6
589.925	30788.63
590.284	30629.99
590.643	30639.93
591.003	30682.41
591.362	30795.63
591.721	30742.52
592.08	30676.31
592.44	30747.95
592.799	30712.02
593.158	30872.47
593.517	30729.64
593.876	30622.75
594.235	30739.81
594.593	30855.06
594.952	30780.72
595.311	30807.83
595.67	30844.44
596.029	31005.57
596.387	30991.56
596.746	31107.04
597.104	30923.31
597.463	30961.73
597.822	31033.14
598.18	30909.75
598.538	30972.58
598.897	31134.15
599.255	30847.38
599.613	31251.21
599.972	31107.71
600.33	31300.25
600.688	31101.84
601.046	31285.56
601.404	31203.53
601.762	31258.67
602.12	31427.7
602.478	31403.3
602.836	31429.06
603.194	31339.12
603.552	31374.37
603.91	31161.95
604.268	31488.72
604.625	31310.42
604.983	31555.38
605.341	31335.73
605.698	31654.59
606.056	31636.74
606.413	31477.19
606.771	31674.03
607.128	31711.31
607.485	31624.76
607.843	31496.4
608.2	31818.43
608.557	31858.43
608.914	31864.3
609.272	31880.35
609.629	31898.88
609.986	32016.62
610.343	31735.27
610.7	32149.72
611.057	32019.1
611.414	32053.45
611.771	32074.69
612.127	32179.1
612.484	31991.76
612.841	32195.59
613.198	32035.6
613.554	32158.98
613.911	32479.2
614.267	32281.69
614.624	32248.25
614.98	32348.58
615.337	32465.42
615.693	32458.86
616.05	32323.27
616.406	32535.25
616.762	32483.27
617.118	32427.68
617.475	32575.7
617.831	32700.21
618.187	32642.36
618.543	32582.7
618.899	32910.15
619.255	32698.86
619.611	32657.73
619.967	32731.85
620.323	32770.95
620.678	32727.11
621.034	32681.91
621.39	32749.03
621.746	32570.73
622.101	32904.73
622.457	32693.66
622.812	32872.86
623.168	33001.9
623.523	32786.99
623.879	32956.48
624.234	32765.97
624.589	32877.84
624.945	32802.81
625.3	33015.01
625.655	32894.11
626.01	32745.41
626.365	32794.9
626.72	32746.54
627.075	32939.3
627.43	32705.64
627.785	32700.44
628.14	32710.83
628.495	32878.06
628.85	32699.54
629.205	32711.74
629.559	32854.79
629.914	32506.32
630.269	32723.94
630.623	32534.12
630.978	32393.33
631.332	32645.75
631.687	32641.46
632.041	32523.04
632.396	32617.5
632.75	32413.22
633.104	32520.78
633.459	32356.27
633.813	32371.18
634.167	32370.73
634.521	32353.78
634.875	32319.66
635.229	32328.92
635.583	32131.19
635.937	32199.21
636.291	32020.68
636.645	32142.04
636.999	31941.82
637.352	32059.55
637.706	31890.52
638.06	31954.47
638.413	31918.99
638.767	31810.75
639.121	31937.75
639.474	31602.16
639.828	31553.58
640.181	31762.61
640.534	31629.51
640.888	31591.09
641.241	31429.74
641.594	31494.82
641.947	31477.65
642.301	31433.13
642.654	31436.97
643.007	31446.69
643.36	31391.55
643.713	31348.61
644.066	31392.23
644.419	31210.99
644.771	31123.08
645.124	30676.76
645.477	30739.36
645.83	30570.55
646.182	30316.55
646.535	30256.21
646.888	30347.73
647.24	30113.61
647.593	30348.64
647.945	30160.39
648.298	30017.12
648.65	29939.61
649.002	29977.35
649.355	30120.39
649.707	30087.85
650.059	29986.39
650.411	30421.86
650.763	30524.23
651.115	30698.01
651.467	30592.02
651.819	30712.24
652.171	30599.25
652.523	30531.23
652.875	30489.2
653.227	30360.16
653.578	30605.58
653.93	30486.03
654.282	30400.61
654.633	30160.17
654.985	30328.3
655.337	30349.31
655.688	30337.56
656.039	30395.42
656.391	30049.44
656.742	30224.8
657.094	30175.31
657.445	30064.8
657.796	30062.09
658.147	30029.1
658.498	30090.79
658.849	30092.15
659.2	30168.53
659.551	29998.82
659.902	29962.88
660.253	29932.15
660.604	30041.07
660.955	29775.54
661.306	29961.98
661.656	29944.58
662.007	29865.26
662.358	29749.56
662.708	29828.88
663.059	29919.95
663.409	29631.14
663.76	29852.6
664.11	29787.97
664.461	29857.58
664.811	29774.19
665.161	29803.57
665.511	29647.19
665.862	29770.8
666.212	29740.97
666.562	29739.16
666.912	29566.51
667.262	29687.64
667.612	29639.96
667.962	29657.13
668.312	29543.91
668.662	29787.07
669.011	29656.23
669.361	29498.26
669.711	29506.4
670.06	29525.61
670.41	29479.96
670.76	29353.41
671.109	29488.09
671.459	29379.4
671.808	29461.88
672.157	29412.62
672.507	29192.28
672.856	29297.14
673.205	29283.13
673.554	29344.14
673.904	29250.59
674.253	29392.5
674.602	29263.47
674.951	28840.88
675.3	28780.54
675.649	29248.78
675.998	29092.62
676.346	29114.09
676.695	29134.21
677.044	29012.63
677.393	29075.9
677.741	29072.29
678.09	28959.52
678.438	28798.17
678.787	28933.53
679.135	28945.06
679.484	28823.71
679.832	28921.78
680.181	28656.48
680.529	28664.84
680.877	28715.46
681.225	28604.5
681.573	28790.26
681.922	28694.9
682.27	28541.9
682.618	28368.35
682.966	28381.68
683.314	28498.52
683.661	28392.98
684.009	28170.16
684.357	28194.8
684.705	28049.94
685.053	28119.32
685.4	28125.42
685.748	27860.34
686.095	27914.58
686.443	27950.96
686.79	27817.18
687.138	27818.76
687.485	27880.91
687.832	27747.8
688.18	27691.76
688.527	27530.86
688.874	27562.72
689.221	27482.05
689.568	27430.52
689.915	27329.73
690.262	27261.49
690.609	27173.13
690.956	27107.14
691.303	27294.48
691.65	27042.06
691.997	27005.45
692.344	26847.26
692.69	26777.88
693.037	26809.97
693.383	26598.45
693.73	26799.35
694.077	26550.77
694.423	26597.55
694.769	26492.02
695.116	26420.6
695.462	26442.07
695.808	26277.78
696.155	26360.72
696.501	26066.04
696.847	26117.79
697.193	25934.74
697.539	26031.69
697.885	25825.37
698.231	25689.55
698.577	25857.23
698.923	25607.97
699.269	25520.74
699.614	25507.63
699.96	25296.79
700.306	25415.66
700.651	25319.84
700.997	25244.36
701.342	25230.81
701.688	25184.71
702.033	25060.64
702.379	25057.93
702.724	24851.83
703.069	24993.3
703.415	24717.6
703.76	24813.19
704.105	24718.95
704.45	24799.86
704.795	24481.9
705.14	24521.9
705.485	24385.86
705.83	24331.85
706.175	24315.8
706.52	24174.79
706.865	24143.83
707.209	24152.42
707.554	23970.73
707.899	24028.58
708.243	23994.23
708.588	23980.89
708.932	23701.13
709.277	23628.81
709.621	23737.51
709.966	23484.41
710.31	23586.1
710.654	23511.75
710.998	23420.46
711.342	23481.25
711.687	23485.99
712.031	23264.98
712.375	23227.02
712.719	23300.23
713.063	23249.16
713.407	23218.43
713.75	23060.24
714.094	23045.78
714.438	22871.77
714.782	22930.75
715.125	22900.02
715.469	22901.15
715.812	22749.29
716.156	22712.91
716.499	22777.08
716.843	22768.5
717.186	22536.64
717.53	22590.87
717.873	22712.45
718.216	22525.79
718.559	22447.6
718.902	22397.66
719.246	22335.74
719.589	22261.17
719.932	22185.91
720.275	22085.8
720.617	22195.18
720.96	22069.53
721.303	22094.84
721.646	22018.91
721.989	21990.44
722.331	22005.13
722.674	21941.4
723.016	21966.03
723.359	21889.42
723.701	21859.82
724.044	21813.95
724.386	21653.95
724.729	21827.28
725.071	21718.36
725.413	21673.16
725.755	21633.39
726.097	21566.04
726.439	21411.24
726.782	21394.52
727.124	21555.87
727.465	21395.88
727.807	21414.18
728.149	21251.02
728.491	21237.69
728.833	21332.38
729.175	21101.42
729.516	21154.75
729.858	21181.65
730.199	21197.01
730.541	20992.95
730.882	21086.96
731.224	21013.97
731.565	20985.04
731.906	20872.73
732.248	20898.49
732.589	20787.53
732.93	20792.05
733.271	20804.48
733.612	20772.84
733.953	20757.7
734.294	20681.77
734.635	20610.81
734.976	20643.58
735.317	20558.84
735.658	20571.49
735.999	20486.75
736.339	20468.67
736.68	20532.85
737.021	20461.21
737.361	20383.93
737.702	20483.81
738.042	20309.58
738.383	20281.33
738.723	20350.26
739.063	20339.63
739.404	20345.74
739.744	20252.41
740.084	20224.16
740.424	20214.89
740.764	20079.08
741.104	20239.3
741.444	20050.15
741.784	20063.03
742.124	19977.61
742.464	19942.36
742.804	19934
743.143	19935.8
743.483	19907.78
743.823	19699.65
744.162	19823.04
744.502	19696.94
744.841	19733.55
745.181	19694.23
745.52	19668.01
745.86	19610.84
746.199	19649.48
746.538	19684.28
746.877	19623.72
747.216	19524.74
747.556	19507.57
747.895	19498.98
748.234	19468.25
748.573	19386.44
748.911	19265.76
749.25	19311.41
749.589	19133.56
749.928	19372.43
750.267	19249.04
750.605	19123.85
750.944	19105.32
751.283	18981.48
751.621	19143.28
751.96	18930.86
752.298	18875.04
752.636	18919.79
752.975	18854.7
753.313	18805.21
753.651	18867.36
753.989	18681.15
754.327	18733.35
