Data from white_steel_sheet_FLMS001491_100.txt Node
Date: Tue Feb 07 10:58:51 GMT 2017
User: dcchb
Spectrometer: FLMS00149
Trigger mode: 0
Integration Time (sec): 2.000000E-2
Scans to average: 10
Electric dark correction enabled: true
Nonlinearity correction enabled: false
Boxcar width: 0
XAxis mode: Wavelengths
Number of Pixels in Spectrum: 2048
>>>>>Begin Spectral Data<<<<<
341.393	4.62
341.776	4.62
342.16	4.62
342.543	-70.18
342.927	-86
343.31	-69.05
343.693	-61.82
344.077	-79
344.46	-69.96
344.843	-51.43
345.226	-36.74
345.61	-32.67
345.993	-24.99
346.376	-15.95
346.759	17.5
347.142	32.19
347.525	59.31
347.908	38.06
348.291	69.25
348.674	97.72
349.057	127.55
349.44	128.91
349.823	139.76
350.206	167.78
350.588	187.21
350.971	211.39
351.354	233.77
351.737	234.89
352.119	241.67
352.502	277.83
352.884	261.79
353.267	267.21
353.65	288.68
354.032	295.01
354.414	309.47
354.797	316.93
355.179	322.35
355.562	328.45
355.944	330.26
356.326	356.02
356.709	328.23
357.091	345.4
357.473	338.17
357.855	353.54
358.238	342.24
358.62	340.43
359.002	332.29
359.384	332.97
359.766	349.02
360.148	354.21
360.53	343.59
360.912	335.23
361.294	349.69
361.676	335.23
362.057	328.23
362.439	349.69
362.821	326.19
363.203	310.37
363.584	319.41
363.966	330.03
364.348	325.29
364.729	335.23
365.111	319.41
365.493	319.86
365.874	326.64
366.256	321.45
366.637	316.47
367.019	311.96
367.4	302.46
367.781	329.81
368.163	319.64
368.544	319.86
368.925	324.38
369.306	336.59
369.688	337.27
370.069	316.7
370.45	322.12
370.831	345.4
371.212	327.77
371.593	321.67
371.974	326.87
372.355	329.81
372.736	340.43
373.117	321.9
373.498	317.6
373.879	306.53
374.26	313.31
374.641	323.48
375.021	326.64
375.402	326.19
375.783	342.24
376.163	346.08
376.544	356.7
376.925	360.09
377.305	350.82
377.686	364.61
378.066	330.26
378.447	361.67
378.827	352.18
379.208	342.69
379.588	345.63
379.968	357.15
380.349	355.8
380.729	335.68
381.109	374.55
381.489	364.38
381.87	344.5
382.25	372.52
382.63	366.64
383.01	366.64
383.39	353.76
383.77	341.11
384.15	391.28
384.53	369.35
384.91	356.93
385.29	355.12
385.67	370.94
386.049	370.48
386.429	377.94
386.809	393.31
387.189	391.73
387.568	396.7
387.948	401.67
388.328	410.03
388.707	424.95
389.087	397.83
389.466	421.56
389.846	413.65
390.225	398.51
390.605	396.7
390.984	425.4
391.363	428.11
391.743	409.35
392.122	422.01
392.501	415.68
392.881	448.67
393.26	433.08
393.639	432.18
394.018	450.03
394.397	461.1
394.776	437.38
395.155	444.61
395.534	467.43
395.913	500.65
396.292	467.21
396.671	483.48
397.05	502.01
397.429	486.19
397.808	511.05
398.186	502.68
398.565	488
398.944	501.33
399.323	537.03
399.701	527.32
400.08	515.34
400.458	544.04
400.837	541.78
401.215	559.63
401.594	530.48
401.972	574.32
402.351	547.43
402.729	567.32
403.107	600.54
403.486	592.63
403.864	575.45
404.242	587.2
404.62	610.25
404.999	617.26
405.377	640.08
405.755	643.7
406.133	655
406.511	659.29
406.889	677.6
407.267	649.8
407.645	669.46
408.023	694.77
408.401	713.75
408.779	734.32
409.156	740.87
409.534	756.69
409.912	749.46
410.29	777.03
410.667	767.99
411.045	792.62
411.422	791.49
411.8	802.79
412.178	819.06
412.555	840.53
412.933	850.25
413.31	826.97
413.687	880.08
414.065	892.28
414.442	881.21
414.819	885.27
415.197	900.41
415.574	921.43
415.951	925.05
416.328	945.16
416.705	951.71
417.082	920.07
417.46	948.32
417.837	962.79
418.214	1004.14
418.591	967.31
418.967	995.78
419.344	1004.59
419.721	1020.64
420.098	1016.57
420.475	1043.91
420.852	1038.94
421.228	1047.3
421.605	1076
421.982	1082.78
422.358	1101.09
422.735	1110.13
423.111	1089.56
423.488	1143.12
423.864	1171.14
424.241	1137.7
424.617	1148.09
424.994	1173.4
425.37	1177.47
425.746	1196.9
426.123	1195.32
426.499	1243.91
426.875	1228.99
427.251	1251.59
427.627	1275.09
428.003	1294.53
428.379	1306.28
428.756	1303.12
429.132	1329.1
429.507	1326.17
429.883	1363.68
430.259	1404.81
430.635	1386.73
431.011	1383.34
431.387	1457.69
431.763	1474.41
432.138	1479.38
432.514	1475.09
432.89	1475.31
433.265	1524.13
433.641	1548.53
434.016	1548.08
434.392	1580.4
434.767	1612.26
435.143	1610.45
435.518	1625.14
435.894	1661.52
436.269	1678.7
436.644	1698.59
437.02	1713.5
437.395	1709.66
437.77	1773.16
438.145	1779.04
438.52	1791.01
438.895	1808.86
439.271	1849.77
439.646	1853.16
440.021	1853.16
440.395	1855.19
440.77	1862.87
441.145	1861.29
441.52	1938.58
441.895	1933.38
442.27	1944
442.645	1962.76
443.019	1985.13
443.394	1999.14
443.769	2026.71
444.143	2022.64
444.518	2048.41
444.892	2059.03
445.267	2080.04
445.641	2102.87
446.016	2085.92
446.39	2144.68
446.764	2144.22
447.139	2139.25
447.513	2193.71
447.887	2174.28
448.262	2198.01
448.636	2200.27
449.01	2203.2
449.384	2234.16
449.758	2272.36
450.132	2312.81
450.506	2313.26
450.88	2343.77
451.254	2335.18
451.628	2381.05
452.002	2409.75
452.376	2419.47
452.75	2470.54
453.123	2487.94
453.497	2520.26
453.871	2558.45
454.244	2606.81
454.618	2555.51
454.992	2636.64
455.365	2623.76
455.739	2743.76
456.112	2715.28
456.486	2767.03
456.859	2746.92
457.232	2785.11
457.606	2796.86
457.979	2832.34
458.352	2902.85
458.725	2960.47
459.099	2970.42
459.472	2999.57
459.845	3039.57
460.218	3073.92
460.591	3096.74
460.964	3103.75
461.337	3164.31
461.71	3195.5
462.083	3294.25
462.456	3301.26
462.829	3255.61
463.201	3301.71
463.574	3388.26
463.947	3358.43
464.32	3460.35
464.692	3507.35
465.065	3515.03
465.438	3567.69
465.81	3615.82
466.183	3677.74
466.555	3781.47
466.928	3724.75
467.3	3749.38
467.672	3837.74
468.045	3935.81
468.417	3949.83
468.789	3955.25
469.161	4006.32
469.534	4061.01
469.906	4135.36
470.278	4185.07
470.65	4240.44
471.022	4293.77
471.394	4425.52
471.766	4436.37
472.138	4505.97
472.51	4562.24
472.882	4648.34
473.253	4682.69
473.625	4729.24
473.997	4865.06
474.369	4872.29
474.74	4925.17
475.112	5013.3
475.484	5084.48
475.855	5135.56
476.227	5205.39
476.598	5388.66
476.97	5427.3
477.341	5514.08
477.713	5637.46
478.084	5669.78
478.455	5809.89
478.827	5859.83
479.198	6015.08
479.569	6044.23
479.94	6203.55
480.311	6261.86
480.682	6395.64
481.053	6546.37
481.424	6620.04
481.795	6711.11
482.166	6798.34
482.537	6882.4
482.908	6993.59
483.279	7081.95
483.65	7243.98
484.021	7370.53
484.391	7412.33
484.762	7543.86
485.133	7586.11
485.503	7752.66
485.874	7884.86
486.244	7939.55
486.615	8061.58
486.985	8224.06
487.356	8295.02
487.726	8431.29
488.097	8574.11
488.467	8654.33
488.837	8807.78
489.207	8921.67
489.578	9005.29
489.948	9080.09
490.318	9220.42
490.688	9323.92
491.058	9469.68
491.428	9565.72
491.798	9720.97
492.168	9846.62
492.538	9876.9
492.908	10035.77
493.278	10125.93
493.648	10173.84
494.017	10328.64
494.387	10408.41
494.757	10541.06
495.126	10669.42
495.496	10734.05
495.866	10729.31
496.235	10822.64
496.605	11038
496.974	11033.48
497.344	11200.26
497.713	11196.87
498.082	11271.89
498.452	11486.35
498.821	11430.31
499.19	11520.7
499.559	11657.19
499.928	11753.24
500.298	11806.34
500.667	12007.24
501.036	11995.04
501.405	12126.33
501.774	12096.5
502.143	12236.16
502.512	12262.83
502.88	12493.56
503.249	12533.55
503.618	12609.26
503.987	12663.49
504.356	12706.66
504.724	12863.26
505.093	12904.17
505.462	12924.28
505.83	13006.08
506.199	13239.3
506.567	13271.16
506.936	13378.96
507.304	13602.68
507.672	13621.44
508.041	13698.95
508.409	13756.57
508.777	13922.22
509.145	14040.41
509.514	14013.74
509.882	14087.19
510.25	14274.3
510.618	14263.23
510.986	14360.63
511.354	14534.86
511.722	14674.74
512.09	14854.4
512.458	14818.24
512.826	15024.34
513.193	15076.99
513.561	15086.93
513.929	15300.04
514.297	15429.52
514.664	15523.53
515.032	15581.16
515.4	15735.73
515.767	15829.29
516.135	15969.4
516.502	15872
516.869	16175.72
517.237	16232.21
517.604	16267.24
517.972	16504.98
518.339	16594.69
518.706	16675.82
519.073	16736.83
519.44	16925.53
519.808	16999.2
520.175	17103.6
520.542	17433.76
520.909	17467.44
521.276	17491.39
521.643	17710.14
522.009	17773.64
522.376	17908.33
522.743	18071.04
523.11	18220.18
523.477	18437.35
523.843	18527.3
524.21	18724.58
524.577	18904.23
524.943	18967.96
525.31	19079.6
525.676	19216.99
526.043	19440.27
526.409	19452.69
526.776	19713.03
527.142	19826.02
527.508	19904.21
527.874	20066.69
528.241	20264.2
528.607	20198.21
528.973	20456.96
529.339	20512.1
529.705	20653.34
530.071	20845.88
530.437	20935.37
530.803	21097.62
531.169	21263.27
531.535	21259.88
531.901	21405.41
532.267	21617.61
532.632	21628.46
532.998	21673.2
533.364	21952.29
533.73	21900.09
534.095	22065.96
534.461	22217.59
534.826	22346.86
535.192	22324.71
535.557	22532.84
535.923	22599.05
536.288	22683.12
536.653	22872.49
537.019	22848.99
537.384	22836.79
537.749	23009.66
538.114	23051.92
538.479	23089.44
538.845	23318.81
539.21	23154.97
539.575	23381.63
539.94	23500.5
540.305	23604.9
540.67	23731.23
541.034	23775.97
541.399	23850.55
541.764	23945.23
542.129	24019.81
542.494	24192.91
542.858	24123.53
543.223	24189.52
543.587	24347.26
543.952	24307.71
544.316	24438.33
544.681	24440.36
545.045	24717.64
545.41	24852.33
545.774	24827.69
546.138	24935.49
546.503	25006
546.867	24964.41
547.231	25144.75
547.595	25164.41
547.959	25324.63
548.324	25328.47
548.688	25402.59
549.052	25524.63
549.416	25657.05
549.779	25575.25
550.143	25723.04
550.507	25900.21
550.871	25982.92
551.235	25921
551.599	26096.36
551.962	26217.04
552.326	26415
552.689	26534.54
553.053	26447.77
553.417	26525.05
553.78	26850.01
554.143	26718.94
554.507	26814.31
554.87	27049.56
555.234	27280.29
555.597	27085.26
555.96	27277.12
556.323	27384.92
556.686	27513.95
557.05	27636.66
557.413	27762.98
557.776	27856.99
558.139	27960.49
558.502	28057.21
558.865	28280.49
559.228	28304.44
559.59	28423.76
559.953	28539.46
560.316	28771.77
560.679	28821.26
561.041	28867.81
561.404	29068.04
561.767	29197.98
562.129	29196.17
562.492	29555.48
562.854	29453.56
563.217	29454.69
563.579	29807
563.941	29807
564.304	29993.21
564.666	30136.48
565.028	30149.59
565.39	30244.95
565.753	30633.87
566.115	30511.16
566.477	30697.14
566.839	30779.4
567.201	30923.58
567.563	30926.74
567.925	31209.67
568.287	31357.01
568.648	31425.49
569.01	31523.56
569.372	31673.62
569.734	31721.07
570.095	31717.46
570.457	31910.9
570.819	32043.32
571.18	32085.13
571.542	32352.47
571.903	32166.48
572.265	32317.22
572.626	32497.78
572.987	32524.89
573.349	32448.06
573.71	32791.33
574.071	32739.13
574.432	32951.32
574.794	33131.88
575.155	33170.07
575.516	33033.81
575.877	33106.12
576.238	33160.36
576.599	33283.97
576.96	33313.35
577.32	33355.83
577.681	33493.91
578.042	33572.1
578.403	33568.03
578.763	33648.93
579.124	33668.14
579.485	33814.8
579.845	33970.96
580.206	33845.76
580.566	33848.93
580.927	33822.94
581.287	33989.94
581.648	33830.85
582.008	34041.24
582.368	33860.68
582.728	33991.3
583.089	33849.38
583.449	33876.95
583.809	33931.41
584.169	34040.11
584.529	33922.6
584.889	34217.28
585.249	33994.46
585.609	33869.26
585.969	34204.62
586.329	34035.59
586.688	34123.5
587.048	34051.41
587.408	33990.62
587.768	33995.82
588.127	34029.94
588.487	33997.62
588.846	34250.27
589.206	33930.96
589.565	34076.49
589.925	34090.05
590.284	34023.16
590.643	34053.44
591.003	34245.75
591.362	34253.66
591.721	34195.13
592.08	34125.76
592.44	34323.26
592.799	34081.69
593.158	34206.66
593.517	34079.2
593.876	34220.22
594.235	34138.41
594.593	34235.81
594.952	34310.16
595.311	34150.39
595.67	34207.34
596.029	34286.88
596.387	34334.34
596.746	34385.64
597.104	34255.02
597.463	34257.05
597.822	34454.11
598.18	34145.19
598.538	34186.32
598.897	34452.3
599.255	34067.9
599.613	34579.3
599.972	34361.91
600.33	34434
600.688	34359.42
601.046	34470.6
601.404	34499.08
601.762	34530.49
602.12	34644.16
602.478	34579.75
602.836	34476.03
603.194	34380.89
603.552	34468.8
603.91	34372.75
604.268	34600.32
604.625	34476.25
604.983	34607.78
605.341	34363.49
605.698	34550.38
606.056	34632.41
606.413	34609.58
606.771	34692.97
607.128	34674.44
607.485	34741.11
607.843	34639.64
608.2	34772.97
608.557	34934.55
608.914	34792.18
609.272	34861.1
609.629	35015
609.986	35064.04
610.343	35088.67
610.7	35278.04
611.057	35169.57
611.414	35179.06
611.771	35135.67
612.127	35166.86
612.484	35264.03
612.841	35327.98
613.198	35214.09
613.554	35243.47
613.911	35405.95
614.267	35344.03
614.624	35372.5
614.98	35401.2
615.337	35623.12
615.693	35493.4
616.05	35558.94
616.406	35713.06
616.762	35509.9
617.118	35658.37
617.475	35643.46
617.831	35687.97
618.187	35708.31
618.543	35701.76
618.899	35947.4
619.255	35918.25
619.611	35823.79
619.967	35848.65
620.323	36113.95
620.678	35878.7
621.034	35829.89
621.39	35857.46
621.746	35787.41
622.101	36370.44
622.457	35955.99
622.812	35880.96
623.168	36087.51
623.523	36019.72
623.879	36060.62
624.234	35841.87
624.589	36128.64
624.945	36079.15
625.3	36143.78
625.655	36029.43
626.01	35920.74
626.365	36198.02
626.72	36077.79
627.075	36082.99
627.43	36012.71
627.785	35958.25
628.14	36073.27
628.495	35966.38
628.85	35944.69
629.205	35831.25
629.559	35933.17
629.914	35866.27
630.269	35954.41
630.623	35934.07
630.978	35774.98
631.332	35854.07
631.687	35811.36
632.041	35800.06
632.396	35801.19
632.75	35682.32
633.104	35711.7
633.459	35598.48
633.813	35539.73
634.167	35559.84
634.521	35419.73
634.875	35567.07
635.229	35453.18
635.583	35308.32
635.937	35346.29
636.291	35287.08
636.645	35245.27
636.999	35245.5
637.352	35287.53
637.706	35113.07
638.06	35245.5
638.413	35156.69
638.767	35024.71
639.121	34976.35
639.474	34805.29
639.828	34857.26
640.181	34838.96
640.534	34784.49
640.888	34575.69
641.241	34474.9
641.594	34647.55
641.947	34600.32
642.301	34473.09
642.654	34529.59
643.007	34531.62
643.36	34438.74
643.713	34499.76
644.066	34487.55
644.419	34238.97
644.771	34030.84
645.124	33629.5
645.477	33642.38
645.83	33520.12
646.182	33253.69
646.535	33183.63
646.888	33329.62
647.24	33090.08
647.593	33372.55
647.945	33170.75
648.298	33126.46
648.65	33108.38
649.002	33029.51
649.355	32990.42
649.707	32967.59
650.059	32947.48
650.411	33394.02
650.763	33465.43
651.115	33770.51
651.467	33617.75
651.819	33688.03
652.171	33500.69
652.523	33580.01
652.875	33463.4
653.227	33453.68
653.578	33598.31
653.93	33497.75
654.282	33292.78
654.633	33363.06
654.985	33346.57
655.337	33308.15
655.688	33292.56
656.039	33290.3
656.391	33131.66
656.742	33115.84
657.094	33178.89
657.445	33255.04
657.796	33170.98
658.147	33039.68
658.498	33115.39
658.849	33093.92
659.2	33041.04
659.551	32874.94
659.902	32972.34
660.253	32912.45
660.604	32917.65
660.955	32729.63
661.306	32797.2
661.656	32630.2
662.007	32622.97
662.358	32722.63
662.708	32694.61
663.059	32548.85
663.409	32388.85
663.76	32588.39
664.11	32587.04
664.461	32537.55
664.811	32576.64
665.161	32481.05
665.511	32206.71
665.862	32232.92
666.212	32285.8
666.562	32182.53
666.912	32131.68
667.262	31978.47
667.612	31969.88
667.962	31967.85
668.312	31853.05
668.662	31930.56
669.011	31725.37
669.361	31657.12
669.711	31544.58
670.06	31420.29
670.41	31392.49
670.76	31327.18
671.109	31363.12
671.459	31345.72
671.808	31172.39
672.157	31236.34
672.507	30874.32
672.856	30913.41
673.205	30927.2
673.554	31156.12
673.904	30819.63
674.253	30943.24
674.602	30788.89
674.951	30400.2
675.3	30136.48
675.649	30710.48
675.998	30553.19
676.346	30659.63
676.695	30726.75
677.044	30589.8
677.393	30489.24
677.741	30571.95
678.09	30498.05
678.438	30364.5
678.787	30485.85
679.135	30445.63
679.484	30299.64
679.832	30397.27
680.181	30174.22
680.529	30377.15
680.877	30243.37
681.225	30155.92
681.573	30475.46
681.922	30352.07
682.27	30193.88
682.618	30221.68
682.966	30272.75
683.314	30489.92
683.661	30332.63
684.009	30179.42
684.357	30270.94
684.705	30181
685.053	30232.07
685.4	30206.54
685.748	30154.79
686.095	30063.49
686.443	29919.54
686.79	30059.42
687.138	30171.28
687.485	30142.58
687.832	29994.11
688.18	30098.06
688.527	29952.53
688.874	29947.56
689.221	29888.8
689.568	29860.78
689.915	29936.49
690.262	29914.11
690.609	29754.12
690.956	29830.27
691.303	29826.89
691.65	29601.81
691.997	29569.26
692.344	29624.4
692.69	29588.7
693.037	29636.16
693.383	29381.93
693.73	29634.57
694.077	29382.83
694.423	29370.63
694.769	29391.64
695.116	29227.58
695.462	29138.54
695.808	29274.81
696.155	29278.65
696.501	29087.7
696.847	29073.23
697.193	29002.73
697.539	28998.43
697.885	28774.03
698.231	28691.77
698.577	28609.06
698.923	28695.39
699.269	28532.68
699.614	28441.61
699.96	28327.49
700.306	28375.85
700.651	28279.13
700.997	28118.46
701.342	28194.84
701.688	28090.43
702.033	27933.38
702.379	27902.87
702.724	27897.44
703.069	27900.61
703.415	27665.13
703.76	27649.99
704.105	27642.99
704.45	27658.58
704.795	27468.53
705.14	27315.76
705.485	27348.98
705.83	27282.55
706.175	27259.72
706.52	27118.03
706.865	27090.01
707.209	26986.28
707.554	26909.22
707.899	27055.21
708.243	26829
708.588	26754.42
708.932	26625.61
709.277	26668.1
709.621	26574.54
709.966	26506.97
710.31	26473.98
710.654	26316.02
710.998	26430.59
711.342	26339.52
711.687	26281.89
712.031	26159.64
712.375	26065.63
712.719	26158.06
713.063	26130.49
713.407	26145.63
713.75	25844.39
714.094	25856.59
714.438	25869.7
714.782	25835.8
715.125	25763.04
715.469	25824.05
715.812	25601.69
716.156	25478.98
716.499	25448.24
716.843	25490.95
717.186	25345.87
717.53	25453.21
717.873	25448.24
718.216	25352.2
718.559	25298.42
718.902	25074.92
719.246	25174.35
719.589	25017.97
719.932	25036.73
720.275	24971.19
720.617	24991.76
720.96	24886.68
721.303	24814.36
721.646	24916.51
721.989	24677.64
722.331	24817.98
722.674	24707.25
723.016	24730.75
723.359	24624.99
723.701	24709.73
724.044	24481.04
724.386	24440.59
724.729	24490.08
725.071	24430.19
725.413	24407.82
725.755	24405.33
726.097	24282.17
726.439	24122.85
726.782	24134.83
727.124	24244.66
727.465	24148.84
727.807	24119.92
728.149	24145.45
728.491	23905.01
728.833	24077.21
729.175	23922.86
729.516	23958.56
729.858	23803.77
730.199	23834.95
730.541	23785.91
730.882	23731.45
731.224	23808.51
731.565	23567.16
731.906	23610.33
732.248	23744.56
732.589	23543.21
732.93	23525.13
733.271	23484.91
733.612	23396.77
733.953	23493.49
734.294	23316.77
734.635	23339.15
734.976	23392.25
735.317	23251.01
735.658	23145.03
735.999	23168.98
736.339	23216.89
736.68	23221.86
737.021	23075.42
737.361	22920.17
737.702	23104.35
738.042	22888.99
738.383	22954.98
738.723	22984.13
739.063	22823.45
739.404	23016.44
739.744	22813.28
740.084	22718.15
740.424	22831.36
740.764	22759.95
741.104	22785.04
741.444	22689.67
741.784	22567.19
742.124	22604.48
742.464	22553.18
742.804	22450.81
743.143	22484.25
743.483	22404.03
743.823	22299.4
744.162	22192.06
744.502	22239.06
744.841	22183.7
745.181	22342.11
745.52	22156.13
745.86	22267.08
746.199	22055.56
746.538	21995
746.877	22086.3
747.216	22064.6
747.556	22078.61
747.895	21975.34
748.234	21909.13
748.573	21890.14
748.911	21853.31
749.25	21738.51
749.589	21712.3
749.928	21729.25
750.267	21749.81
750.605	21574.67
750.944	21584.16
751.283	21517.27
751.621	21483.15
751.96	21417.84
752.298	21496.93
752.636	21415.58
752.975	21343.49
753.313	21118.41
753.651	21261.91
753.989	21137.4
754.327	21249.26
