Data from White_reflection_standard_FLMS001491_060.txt Node
Date: Tue Feb 07 10:32:07 GMT 2017
User: dcchb
Spectrometer: FLMS00149
Trigger mode: 0
Integration Time (sec): 2.000000E-2
Scans to average: 10
Electric dark correction enabled: true
Nonlinearity correction enabled: false
Boxcar width: 0
XAxis mode: Wavelengths
Number of Pixels in Spectrum: 2048
>>>>>Begin Spectral Data<<<<<
341.393	-5.23
341.776	-5.23
342.16	-5.23
342.543	-38.67
342.927	-64.89
343.31	-68.05
343.693	-64.66
344.077	-45.68
344.46	-57.65
344.843	-64.89
345.226	-60.82
345.61	-28.5
345.993	-17.88
346.376	0.2
346.759	23.47
347.142	18.5
347.525	38.39
347.908	62.34
348.291	72.29
348.674	84.72
349.057	108.22
349.44	118.84
349.823	151.15
350.206	178.72
350.588	240.19
350.971	263.02
351.354	283.81
351.737	273.64
352.119	301.66
352.502	301.21
352.884	327.65
353.267	349.12
353.65	329.68
354.032	365.39
354.414	361.09
354.797	361.09
355.179	391.83
355.562	383.92
355.944	392.5
356.326	384.59
356.709	377.81
357.091	391.6
357.473	416.46
357.855	382.79
358.238	422.11
358.62	396.8
359.002	413.75
359.384	415.55
359.766	401.09
360.148	414.42
360.53	403.8
360.912	397.48
361.294	409.23
361.676	413.97
362.057	409
362.439	406.51
362.821	416.01
363.203	404.25
363.584	420.53
363.966	402.45
364.348	418.72
364.729	422.56
365.111	409.23
365.493	413.97
365.874	432.73
366.256	423.46
366.637	433.63
367.019	418.72
367.4	416.46
367.781	420.98
368.163	426.85
368.544	423.24
368.925	436.57
369.306	431.6
369.688	435.89
370.069	434.54
370.45	434.54
370.831	443.8
371.212	431.82
371.593	444.48
371.974	441.54
372.355	427.53
372.736	445.61
373.117	463.01
373.498	470.02
373.879	455.78
374.26	442.67
374.641	425.95
375.021	467.98
375.402	475.89
375.783	486.06
376.163	500.75
376.544	507.53
376.925	492.16
377.305	507.76
377.686	486.96
378.066	521.09
378.447	506.4
378.827	529.9
379.208	528.55
379.588	513.4
379.968	513.86
380.349	505.72
380.729	533.07
381.109	526.29
381.489	550.24
381.87	538.71
382.25	541.2
382.63	564.93
383.01	565.61
383.39	553.18
383.77	556.12
384.15	550.92
384.53	575.55
384.91	581.65
385.29	593.18
385.67	594.08
386.049	631.59
386.429	625.49
386.809	627.75
387.189	626.85
387.568	638.37
387.948	677.24
388.328	667.75
388.707	662.78
389.087	668.2
389.466	670.01
389.846	688.09
390.225	684.93
390.605	678.37
390.984	700.74
391.363	702.1
391.743	727.41
392.122	735.09
392.501	740.97
392.881	748.65
393.26	771.25
393.639	764.92
394.018	765.6
394.397	761.31
394.776	816.45
395.155	803.34
395.534	810.12
395.913	829.1
396.292	797.01
396.671	845.37
397.05	820.74
397.429	785.49
397.808	837.92
398.186	860.97
398.565	860.97
398.944	879.72
399.323	903.9
399.701	874.53
400.08	894.64
400.458	904.35
400.837	908.42
401.215	934.18
401.594	923.79
401.972	947.74
402.351	945.26
402.729	955.88
403.107	999.27
403.486	982.32
403.864	1015.09
404.242	1023.67
404.62	1031.36
404.999	1016.89
405.377	1044.69
405.755	1060.06
406.133	1092.6
406.511	1102.32
406.889	1071.13
407.267	1133.73
407.645	1149.32
408.023	1172.82
408.401	1137.57
408.779	1194.52
409.156	1201.3
409.534	1219.15
409.912	1214.86
410.29	1283.55
410.667	1249.88
411.045	1282.2
411.422	1312.03
411.8	1317.45
412.178	1289.43
412.555	1379.37
412.933	1377.34
413.31	1411.01
413.687	1403.1
414.065	1422.08
414.442	1430.67
414.819	1431.12
415.197	1470.44
415.574	1501.4
415.951	1506.37
416.328	1542.98
416.705	1544.11
417.082	1528.07
417.46	1560.16
417.837	1571.68
418.214	1602.64
418.591	1625.24
418.967	1618.46
419.344	1626.6
419.721	1658.23
420.098	1695.07
420.475	1707.5
420.852	1699.81
421.228	1700.49
421.605	1768.06
421.982	1736.65
422.358	1771.22
422.735	1812.58
423.111	1799.25
423.488	1844.44
423.864	1860.04
424.241	1895.29
424.617	1927.83
424.994	1902.97
425.37	1962.86
425.746	1979.13
426.123	1987.26
426.499	2033.82
426.875	2010.31
427.251	2089.63
427.627	2103.42
428.003	2162.63
428.379	2148.84
428.756	2177.54
429.132	2215.05
429.507	2262.06
429.883	2258.44
430.259	2304.77
430.635	2328.27
431.011	2377.99
431.387	2421.38
431.763	2461.38
432.138	2458.66
432.514	2504.09
432.89	2534.82
433.265	2599.23
433.641	2622.5
434.016	2648.72
434.392	2703.4
434.767	2736.62
435.143	2708.6
435.518	2762.16
435.894	2790.41
436.269	2864.98
436.644	2835.15
437.02	2889.84
437.395	2881.25
437.77	2977.75
438.145	2998.31
438.52	3051.87
438.895	3091.19
439.271	3075.37
439.646	3141.13
440.021	3167.57
440.395	3181.13
440.77	3185.88
441.145	3208.25
441.52	3252.32
441.895	3292.54
442.27	3325.99
442.645	3301.35
443.019	3317.62
443.394	3337.51
443.769	3384.74
444.143	3416.83
444.518	3467
444.892	3458.64
445.267	3516.26
445.641	3537.05
446.016	3589.71
446.39	3604.85
446.764	3652.53
447.139	3630.16
447.513	3684.62
447.887	3702.7
448.262	3726.43
448.636	3715.13
449.01	3813.66
449.384	3836.71
449.758	3832.41
450.132	3917.16
450.506	3942.24
450.88	3950.83
451.254	3950.38
451.628	4018.17
452.002	4066.08
452.376	4094.1
452.75	4150.15
453.123	4180.88
453.497	4266.53
453.871	4305.4
454.244	4360.54
454.618	4386.75
454.992	4519.4
455.365	4476.46
455.739	4644.14
456.112	4653.41
456.486	4687.76
456.859	4758.94
457.232	4835.78
457.606	4814.76
457.979	4877.81
458.352	4998.71
458.725	5099.27
459.099	5085.94
459.472	5198.71
459.845	5235.54
460.218	5262.66
460.591	5344.92
460.964	5334.97
461.337	5503.1
461.71	5558.92
462.083	5627.17
462.456	5669.65
462.829	5690.67
463.201	5739.26
463.574	5833.72
463.947	5900.16
464.32	6099.47
464.692	6131.56
465.065	6134.95
465.438	6275.29
465.81	6290.88
466.183	6398.45
466.555	6508.05
466.928	6585.34
467.3	6582.17
467.672	6698.33
468.045	6877.76
468.417	6913.24
468.789	6903.52
469.161	7094.02
469.534	7204.3
469.906	7344.19
470.278	7347.35
470.65	7523.62
471.022	7589.15
471.394	7771.97
471.766	7819.88
472.138	7957.95
472.51	8097.84
472.882	8202.24
473.253	8320.43
473.625	8433.65
473.997	8607.43
474.369	8678.16
474.74	8769.46
475.112	8933.3
475.484	9102.33
475.855	9239.5
476.227	9347.97
476.598	9611.24
476.97	9647.63
477.341	9966.94
477.713	10001.97
478.084	10169.2
478.455	10396.31
478.827	10446.93
479.198	10796.07
479.569	10854.15
479.94	11109.51
480.311	11208.72
480.682	11445.09
481.053	11687.35
481.424	11887.57
481.795	12019.54
482.166	12283.72
482.537	12452.3
482.908	12733.2
483.279	12801.44
483.65	13072.4
484.021	13368.21
484.391	13417.25
484.762	13675.54
485.133	13789.44
485.503	13887.74
485.874	14208.64
486.244	14357.56
486.615	14613.82
486.985	14860.82
487.356	15024.66
487.726	15208.16
488.097	15511.43
488.467	15548.49
488.837	15898.08
489.207	16022.38
489.578	16355.7
489.948	16465.98
490.318	16793.88
490.688	16831.85
491.058	17062.57
491.428	17254.89
491.798	17409.68
492.168	17957.01
492.538	17884.47
492.908	18009.22
493.278	18335.31
493.648	18317.23
494.017	18636.09
494.387	18844.67
494.757	18886.48
495.126	19170.99
495.496	19221.61
495.866	19345.9
496.235	19555.84
496.605	19723.75
496.974	19790.41
497.344	19972.1
497.713	20178.88
498.082	20296.61
498.452	20616.38
498.821	20688.47
499.19	20758.3
499.559	20923.26
499.928	21242.13
500.298	21304.27
500.667	21486.86
501.036	21577.48
501.405	21642.79
501.774	21739.29
502.143	22035.1
502.512	22077.13
502.88	22303.34
503.249	22343.11
503.618	22503.79
503.987	22682.54
504.356	22764.8
504.724	22860.39
505.093	23047.28
505.462	23164.11
505.83	23421.73
506.199	23618.33
506.567	23941.72
506.936	23886.12
507.304	24171.31
507.672	24235.72
508.041	24400.23
508.409	24658.76
508.777	24823.27
509.145	25074.11
509.514	25108.46
509.882	25274.11
510.25	25380.32
510.618	25587.55
510.986	25633.65
511.354	25939.85
511.722	26128.1
512.09	26415.1
512.458	26455.77
512.826	26617.58
513.193	26805.14
513.561	26941.86
513.929	27172.14
514.297	27415.97
514.664	27648.28
515.032	27659.58
515.4	28046.01
515.767	28071.32
516.135	28284.65
516.502	28120.59
516.869	28741.36
517.237	28766.22
517.604	28774.81
517.972	29172.31
518.339	29384.28
518.706	29564.39
519.073	29727.78
519.44	29926.42
519.808	30250.02
520.175	30286.63
520.542	30676
520.909	30817.69
521.276	30984.92
521.643	31262.65
522.009	31608.63
522.376	31648.18
522.743	32026.25
523.11	32217.66
523.477	32501.26
523.843	32760.69
524.21	33099.21
524.577	33220.34
524.943	33489.94
525.31	33498.98
525.676	33848.35
526.043	34226.19
526.409	34345.51
526.776	34746.18
527.142	34862.33
527.508	35045.6
527.874	35311.13
528.241	35620.05
528.607	35620.96
528.973	35962.42
529.339	35956.99
529.705	36314.95
530.071	36697.31
530.437	36685.33
530.803	36889.17
531.169	37296.39
531.535	37208.71
531.901	37385.2
532.267	37547.69
532.632	37842.14
532.998	37986.09
533.364	38251.4
533.73	38339.08
534.095	38644.83
534.461	38757.37
534.826	38859.74
535.192	39009.34
535.557	39364.81
535.923	39357.58
536.288	39618.59
536.653	39777
537.019	39774.29
537.384	39892.48
537.749	40184.45
538.114	40196.88
538.479	40352.58
538.845	40628.73
539.21	40538.79
539.575	40756.87
539.94	40852
540.305	41192.56
540.67	41114.14
541.034	41263.29
541.399	41562.72
541.764	41526.79
542.129	41803.84
542.494	41769.49
542.858	42059.88
543.223	42029.83
543.587	42407.44
543.952	42313.21
544.316	42473.88
544.681	42429.14
545.045	42685.4
545.41	42872.97
545.774	43032.29
546.138	43104.83
546.503	43431.15
546.867	43314.54
547.231	43760.4
547.595	43736
547.959	43824.81
548.324	43892.38
548.688	44046.05
549.052	44182.76
549.416	44344.12
549.779	44339.14
550.143	44602.19
550.507	44857.32
550.871	44912.46
551.235	44909.98
551.599	45316.07
551.962	45340.47
552.326	45545.21
552.689	45760.58
553.053	45556.97
553.417	45773.23
553.78	46289.6
554.143	46243.73
554.507	46245.99
554.87	46539.54
555.234	46840.55
555.597	46636.71
555.96	46926.65
556.323	47226.3
556.686	47226.3
557.05	47484.82
557.413	47530.7
557.776	47722.33
558.139	47954.87
558.502	48020.18
558.865	48165.26
559.228	48435.76
559.59	48457.45
559.953	48477.34
560.316	48954.84
560.679	49028.97
561.041	49246.59
561.404	49414.49
561.767	49712.34
562.129	49516.18
562.492	49885.21
562.854	49972.9
563.217	50008.83
563.579	50182.38
563.941	50402.94
564.304	50538.98
564.666	50841.35
565.028	50822.14
565.39	50927.67
565.753	51126.99
566.115	51282.69
566.477	51390.26
566.839	51507.32
567.201	51763.13
567.563	51780.53
567.925	51919.28
568.287	51966.29
568.648	52114.99
569.01	52179.84
569.372	52448.76
569.734	52432.04
570.095	52547.97
570.457	52735.99
570.819	52811.92
571.18	52860.05
571.542	52975.08
571.903	53052.81
572.265	53175.97
572.626	53292.13
572.987	53300.94
573.349	53387.95
573.71	53480.6
574.071	53609.86
574.432	53694.15
574.794	53814.83
575.155	53798.33
575.516	53854.6
575.877	54000.13
576.238	54025.9
576.599	54136.85
576.96	54105.89
577.32	54162.39
577.681	54234.7
578.042	54283.97
578.403	54347.24
578.763	54414.59
579.124	54389.28
579.485	54513.79
579.845	54576.16
580.206	54457.3
580.566	54521.7
580.927	54637.18
581.287	54634.02
581.648	54587.91
582.008	54810.96
582.368	54723.28
582.728	54705.65
583.089	54619.55
583.449	54734.35
583.809	54719.89
584.169	54792.88
584.529	54792.43
584.889	55024.97
585.249	54788.59
585.609	54729.61
585.969	54862.26
586.329	54704.52
586.688	54790.4
587.048	54830.62
587.408	54758.98
587.768	54778.87
588.127	54779.77
588.487	54731.87
588.846	54942.71
589.206	54693.67
589.565	54670.85
589.925	54950.62
590.284	54855.25
590.643	54940.22
591.003	54983.61
591.362	55072.65
591.721	54906.32
592.08	54999.88
592.44	55003.95
592.799	55015.93
593.158	54914.91
593.517	54897.96
593.876	54999.66
594.235	54953.1
594.593	54977.74
594.952	55075.13
595.311	54978.64
595.67	55009.37
596.029	55095.7
596.387	55247.33
596.746	55303.6
597.104	55092.08
597.463	55170.05
597.822	55215.02
598.18	55168.46
598.538	55155.58
598.897	55292.98
599.255	55061.12
599.613	55481.9
599.972	55298.86
600.33	55396.48
600.688	55205.07
601.046	55336.82
601.404	55394.9
601.762	55374.33
602.12	55445.07
602.478	55458.17
602.836	55501.34
603.194	55380.44
603.552	55521.68
603.91	55371.85
604.268	55531.84
604.625	55485.52
604.983	55591.73
605.341	55450.72
605.698	55629.7
606.056	55690.71
606.413	55640.99
606.771	55783.59
607.128	55731.61
607.485	55578.17
607.843	55706.53
608.2	55794.21
608.557	55873.98
608.914	55708.79
609.272	55926.41
609.629	55929.12
609.986	55966.64
610.343	55935.22
610.7	56094.77
611.057	56035.11
611.414	56052.96
611.771	56057.48
612.127	56231.71
612.484	56190.58
612.841	56245.95
613.198	56117.59
613.554	56130.02
613.911	56261.54
614.267	56232.17
614.624	56298.38
614.98	56321.88
615.337	56404.82
615.693	56307.87
616.05	56292.5
616.406	56458.37
616.762	56324.37
617.118	56396
617.475	56351.48
617.831	56475.1
618.187	56530.24
618.543	56492.27
618.899	56607.97
619.255	56566.85
619.611	56465.61
619.967	56618.6
620.323	56681.19
620.678	56571.14
621.034	56554.19
621.39	56553.06
621.746	56480.97
622.101	56796.44
622.457	56572.27
622.812	56606.62
623.168	56722.1
623.523	56663.79
623.879	56732.49
624.234	56514.42
624.589	56609.33
624.945	56640.29
625.3	56673.96
625.655	56619.27
626.01	56660.18
626.365	56660.85
626.72	56551.25
627.075	56569.33
627.43	56583.34
627.785	56492.72
628.14	56617.24
628.495	56559.16
628.85	56514.87
629.205	56450.24
629.559	56636
629.914	56470.8
630.269	56471.48
630.623	56369.56
630.978	56388.77
631.332	56510.35
631.687	56491.82
632.041	56259.51
632.396	56434.42
632.75	56288.66
633.104	56330.24
633.459	56173.41
633.813	56218.15
634.167	56172.96
634.521	56166.86
634.875	56193.3
635.229	56129.34
635.583	55971.16
635.937	55951.04
636.291	55909.24
636.645	55933.42
636.999	55863.59
637.352	55991.72
637.706	55776.81
638.06	55896.36
638.413	55827.43
638.767	55629.47
639.121	55704.27
639.474	55608.23
639.828	55605.29
640.181	55670.82
640.534	55694.55
640.888	55555.8
641.241	55420.21
641.594	55428.12
641.947	55527.1
642.301	55371.85
642.654	55464.28
643.007	55385.41
643.36	55363.49
643.713	55336.37
644.066	55397.84
644.419	55217.73
644.771	54979.09
645.124	54695.71
645.477	54716.05
645.83	54537.97
646.182	54391.54
646.535	54287.36
646.888	54369.16
647.24	54167.14
647.593	54316.51
647.945	54268.38
648.298	54136.4
648.65	54050.3
649.002	53924.2
649.355	54146.57
649.707	54003.3
650.059	54127.81
650.411	54442.38
650.763	54488.26
651.115	54736.84
651.467	54675.6
651.819	54592.21
652.171	54547.01
652.523	54559.67
652.875	54488.71
653.227	54358.77
653.578	54526.9
653.93	54383.17
654.282	54329.62
654.633	54246.91
654.985	54302.05
655.337	54334.59
655.688	54262.5
656.039	54364.64
656.391	54094.82
656.742	54142.95
657.094	54159.68
657.445	54174.37
657.796	54231.09
658.147	54157.42
658.498	53989.06
658.849	54122.16
659.2	54037.42
659.551	54046.01
659.902	54042.84
660.253	53952.23
660.604	54074.48
660.955	53936.86
661.306	54035.39
661.656	53928.72
662.007	53891.21
662.358	53906.58
662.708	53921.49
663.059	53829.52
663.409	53650.76
663.76	53895.73
664.11	53860.93
664.461	53843.75
664.811	53809.86
665.161	53773.02
665.511	53671.78
665.862	53655.96
666.212	53714.27
666.562	53695.28
666.912	53656.19
667.262	53674.49
667.612	53598.79
667.962	53662.52
668.312	53653.7
668.662	53723.98
669.011	53638.34
669.361	53546.36
669.711	53543.87
670.06	53435.4
670.41	53382.52
670.76	53425.23
671.109	53417.78
671.459	53393.82
671.808	53344.33
672.157	53387.95
672.507	53165.58
672.856	53303.2
673.205	53218.23
673.554	53298.68
673.904	53193.15
674.253	53377.1
674.602	53226.37
674.951	52788.19
675.3	52621.64
675.649	53143.43
675.998	53028.63
676.346	53059.82
676.695	53166.26
677.044	52887.85
677.393	52941.63
677.741	53051.68
678.09	52895.08
678.438	52881.07
678.787	52857.34
679.135	52866.83
679.484	52694.63
679.832	52822.99
680.181	52601.07
680.529	52760.62
680.877	52633.84
681.225	52594.97
681.573	52797.45
681.922	52422.77
682.27	52371.02
682.618	52475.43
682.966	52293.51
683.314	52398.82
683.661	52277.02
684.009	52051.26
684.357	52005.61
684.705	51934.65
685.053	52013.29
685.4	51950.92
685.748	51784.82
686.095	51719.74
686.443	51655.56
686.79	51565.85
687.138	51727.65
687.485	51571.05
687.832	51463.48
688.18	51431.39
688.527	51283.82
688.874	51260.32
689.221	51195.69
689.568	51094.22
689.915	51016.71
690.262	51005.41
690.609	50885.87
690.956	50666.44
691.303	50752.99
691.65	50526.55
691.997	50558.64
692.344	50256.96
692.69	50344.86
693.037	50220.57
693.383	49929.73
693.73	50134.92
694.077	49929.73
694.423	49870.07
694.769	49853.8
695.116	49760.92
695.462	49540.14
695.808	49484.09
696.155	49621.94
696.501	49192.58
696.847	49256.3
697.193	49000.49
697.539	49080.26
697.885	48769.31
698.231	48635.53
698.577	48682.08
698.923	48595.98
699.269	48443.44
699.614	48217.69
699.96	48341.07
700.306	48310.11
700.651	48050.69
700.997	47974.3
701.342	47988.54
701.688	47741.32
702.033	47810.24
702.379	47618.61
702.724	47499.06
703.069	47493.86
703.415	47003.93
703.76	47116.7
704.105	47027.44
704.45	46888.23
704.795	46732.3
705.14	46655.24
705.485	46744.28
705.83	46528.24
706.175	46518.97
706.52	46331.18
706.865	46276.72
707.209	46112.43
707.554	46020.91
707.899	46003.28
708.243	45625.21
708.588	45718.32
708.932	45556.06
709.277	45489.62
709.621	45590.19
709.966	45342.73
710.31	45421.6
710.654	44959.24
710.998	45122.85
711.342	44909.07
711.687	44928.96
712.031	44688.06
712.375	44694.16
712.719	44667.5
713.063	44621.85
713.407	44644.45
713.75	44367.84
714.094	44342.31
714.438	44206.04
714.782	44173.5
715.125	44096.67
715.469	44035.42
715.812	43893.51
716.156	43661.42
716.499	43738.26
716.843	43801.76
717.186	43433.18
717.53	43589.79
717.873	43601.31
718.216	43418.04
718.559	43218.5
718.902	43006.3
719.246	43168.1
719.589	43029.35
719.932	42814.44
720.275	42756.59
720.617	42713.2
720.96	42579.64
721.303	42641.11
721.646	42699.19
721.989	42435.92
722.331	42489.25
722.674	42399.53
723.016	42367.9
723.359	42289.26
723.701	42362.25
724.044	41839.55
724.386	41806.78
724.729	42010.17
725.071	41820.12
725.413	41832.77
725.755	41833.22
726.097	41701.7
726.439	41405.21
726.782	41539.67
727.124	41365.89
727.465	41316.17
727.807	41368.6
728.149	41165.67
728.491	41017.42
728.833	41178.78
729.175	40945.34
729.516	40885.22
729.858	40849.52
730.199	40839.12
730.541	40743.53
730.882	40730.43
731.224	40790.09
731.565	40507.38
731.906	40531.11
732.248	40396.65
732.589	40312.13
732.93	40095.41
733.271	40144.68
733.612	40338.8
733.953	40249.76
734.294	40080.5
734.635	39931.58
734.976	39958.7
735.317	39797.57
735.658	39781.98
735.999	39624.69
736.339	39606.61
736.68	39879.83
737.021	39527.29
737.361	39435.09
737.702	39525.26
738.042	39307.64
738.383	39311.71
738.723	39264.7
739.063	39185.16
739.404	39222.44
739.744	39172.95
740.084	39029.45
740.424	38959.85
740.764	38738.16
741.104	38939.51
741.444	38695.23
741.784	38528.68
742.124	38728.44
742.464	38671.5
742.804	38557.6
743.143	38451.39
743.483	38452.75
743.823	38257.27
744.162	38185.86
744.502	38151.96
744.841	38072.42
745.181	38157.84
745.52	38094.79
745.86	38074.9
746.199	37891.18
746.538	37796.04
746.877	37872.2
747.216	37733.67
747.556	37776.83
747.895	37679.43
748.234	37603.95
748.573	37462.04
748.911	37410.74
749.25	37355.6
749.589	37219.78
749.928	37192.89
750.267	37357.63
750.605	37155.6
750.944	37082.84
751.283	36859.34
751.621	36890.53
751.96	36757.65
752.298	36751.55
752.636	36642.17
