Data from white_steel_sheet_FLMS001491_038.txt Node
Date: Tue Feb 07 10:57:46 GMT 2017
User: dcchb
Spectrometer: FLMS00149
Trigger mode: 0
Integration Time (sec): 2.000000E-2
Scans to average: 10
Electric dark correction enabled: true
Nonlinearity correction enabled: false
Boxcar width: 0
XAxis mode: Wavelengths
Number of Pixels in Spectrum: 2048
>>>>>Begin Spectral Data<<<<<
341.393	-18.74
341.776	-18.74
342.16	-18.74
342.543	-62.13
342.927	-77.72
343.31	-64.16
343.693	-64.62
344.077	-42.7
344.46	-72.53
344.843	-46.54
345.226	-52.64
345.61	-26.2
345.993	-14.67
346.376	9.96
346.759	-2.92
347.142	29.39
347.525	31.65
347.908	49.96
348.291	80.01
348.674	81.14
349.057	104.87
349.44	122.5
349.823	121.14
350.206	149.84
350.588	202.95
350.971	208.14
351.354	223.74
351.737	264.87
352.119	221.93
352.502	266.67
352.884	273
353.267	286.33
353.65	303.06
354.032	309.16
354.414	299.67
354.797	309.16
355.179	328.59
355.562	313.23
355.944	311.19
356.326	346.45
356.709	335.15
357.091	336.28
357.473	338.99
357.855	355.94
358.238	354.81
358.62	326.79
359.002	324.3
359.384	344.86
359.766	366.11
360.148	343.73
360.53	349.38
360.912	317.07
361.294	362.72
361.676	335.82
362.057	336.73
362.439	340.12
362.821	330.4
363.203	334.92
363.584	350.06
363.966	322.94
364.348	326.79
364.729	317.29
365.111	327.69
365.493	328.59
365.874	325.88
366.256	321.59
366.637	351.42
367.019	307.12
367.4	324.3
367.781	317.52
368.163	334.69
368.544	329.27
368.925	319.78
369.306	315.03
369.688	331.08
370.069	335.6
370.45	334.92
370.831	336.5
371.212	331.98
371.593	313
371.974	306.22
372.355	329.05
372.736	309.38
373.117	329.5
373.498	301.48
373.879	336.05
374.26	322.49
374.641	334.02
375.021	340.8
375.402	341.7
375.783	334.69
376.163	330.63
376.544	349.16
376.925	345.54
377.305	347.35
377.686	334.02
378.066	312.1
378.447	339.21
378.827	373.11
379.208	331.98
379.588	350.97
379.968	360.23
380.349	345.09
380.729	339.44
381.109	345.09
381.489	362.49
381.87	335.15
382.25	361.36
382.63	370.63
383.01	366.78
383.39	355.26
383.77	378.31
384.15	352.1
384.53	378.76
384.91	388.25
385.29	378.08
385.67	389.38
386.049	400
386.429	384.41
386.809	360.46
387.189	393.68
387.568	388.93
387.948	397.07
388.328	382.83
388.707	414.69
389.087	412.66
389.466	405.43
389.846	390.96
390.225	399.55
390.605	410.62
390.984	434.13
391.363	426.9
391.743	422.15
392.122	435.48
392.501	425.31
392.881	435.93
393.26	440.91
393.639	448.82
394.018	432.55
394.397	445.43
394.776	438.19
395.155	450.4
395.534	460.79
395.913	466.22
396.292	470.74
396.671	486.56
397.05	491.53
397.429	512.09
397.808	500.11
398.186	509.38
398.565	512.32
398.944	528.81
399.323	527.46
399.701	541.92
400.08	520.68
400.458	530.4
400.837	570.85
401.215	561.81
401.594	552.99
401.972	570.62
402.351	565.87
402.729	587.8
403.107	577.63
403.486	615.59
403.864	597.74
404.242	614.01
404.62	611.75
404.999	618.98
405.377	637.96
405.755	651.3
406.133	645.19
406.511	682.93
406.889	673.89
407.267	682.03
407.645	693.1
408.023	700.11
408.401	726.1
408.779	735.81
409.156	728.81
409.534	736.04
409.912	758.64
410.29	770.16
410.667	797.51
411.045	815.59
411.422	801.8
411.8	824.17
412.178	811.52
412.555	821.24
412.933	834.34
413.31	874.79
413.687	885.19
414.065	890.39
414.442	916.83
414.819	917.5
415.197	905.08
415.574	943.27
415.951	945.07
416.328	942.14
416.705	960.44
417.082	977.16
417.46	1003.83
417.837	979.65
418.214	999.76
418.591	1009.71
418.967	1001.34
419.344	1028.01
419.721	1059.65
420.098	1041.57
420.475	1067.78
420.852	1076.82
421.228	1055.35
421.605	1086.77
421.982	1113.21
422.358	1098.52
422.735	1131.96
423.111	1135.8
423.488	1138.97
423.864	1162.02
424.241	1189.36
424.617	1197.95
424.994	1214.67
425.37	1169.47
425.746	1229.36
426.123	1238.85
426.499	1239.08
426.875	1262.58
427.251	1303.26
427.627	1325.63
428.003	1311.17
428.379	1353.42
428.756	1340.77
429.132	1356.14
429.507	1395.68
429.883	1419.41
430.259	1412.86
430.635	1439.52
431.011	1438.85
431.387	1488.11
431.763	1525.4
432.138	1500.54
432.514	1538.5
432.89	1561.1
433.265	1575.57
433.641	1621.44
434.016	1623.02
434.392	1642
434.767	1665.73
435.143	1667.77
435.518	1697.14
435.894	1724.26
436.269	1707.09
436.644	1787.31
437.02	1755
437.395	1786.63
437.77	1820.53
438.145	1840.19
438.52	1877.93
438.895	1881.32
439.271	1901.66
439.646	1916.8
440.021	1930.13
440.395	1907.31
440.77	1933.52
441.145	1973.97
441.52	2019.17
441.895	1975.56
442.27	2031.83
442.645	2051.26
443.019	2057.14
443.394	2033.18
443.769	2072.95
444.143	2087.64
444.518	2119.51
444.892	2118.38
445.267	2129.45
445.641	2163.35
446.016	2154.99
446.39	2178.49
446.764	2185.95
447.139	2205.61
447.513	2270.91
447.887	2254.64
448.262	2266.4
448.636	2235.89
449.01	2325.6
449.384	2330.12
449.758	2361.53
450.132	2386.62
450.506	2387.52
450.88	2410.57
451.254	2398.14
451.628	2442.21
452.002	2481.53
452.376	2512.94
452.75	2527.18
453.123	2564.92
453.497	2580.74
453.871	2575.54
454.244	2657.8
454.618	2639.04
454.992	2715.2
455.365	2710.23
455.739	2766.95
456.112	2816.44
456.486	2813.05
456.859	2844.23
457.232	2922.65
457.606	2894.63
457.979	2964.68
458.352	3000.39
458.725	3064.11
459.099	3074.74
459.472	3096.88
459.845	3149.54
460.218	3185.24
460.591	3201.96
460.964	3219.14
461.337	3258.69
461.71	3353.82
462.083	3383.65
462.456	3440.83
462.829	3425.69
463.201	3493.93
463.574	3502.52
463.947	3513.37
464.32	3610.09
464.692	3608.05
465.065	3639.47
465.438	3723.08
465.81	3732.8
466.183	3800.59
466.555	3883.53
466.928	3897.54
467.3	3901.83
467.672	3976.41
468.045	4104.09
468.417	4078.1
468.789	4122.84
469.161	4171.88
469.534	4230.86
469.906	4319.67
470.278	4318.77
470.65	4424.98
471.022	4489.61
471.394	4570.52
471.766	4628.14
472.138	4624.75
472.51	4705.65
472.882	4854.12
473.253	4839.43
473.625	4951.97
473.997	5038.75
474.369	5074.23
474.74	5142.7
475.112	5226.09
475.484	5299.08
475.855	5361.23
476.227	5463.6
476.598	5561.22
476.97	5676.93
477.341	5781.78
477.713	5878.96
478.084	5918.5
478.455	6075.11
478.827	6113.3
479.198	6313.75
479.569	6284.37
479.94	6476.23
480.311	6518.49
480.682	6631.93
481.053	6801.42
481.424	6971.81
481.795	7010.23
482.166	7105.82
482.537	7223.33
482.908	7357.33
483.279	7457.45
483.65	7523.88
484.021	7678.91
484.391	7767.95
484.762	7870.32
485.133	7994.38
485.503	8035.74
485.874	8231.89
486.244	8275.95
486.615	8478.21
486.985	8586.91
487.356	8778.54
487.726	8817.64
488.097	8901.7
488.467	8945.54
488.837	9195.03
489.207	9301.01
489.578	9477.05
489.948	9501.91
490.318	9677.95
490.688	9730.83
491.058	9877.49
491.428	9921.79
491.798	10100.31
492.168	10361.32
492.538	10360.19
492.908	10468.44
493.278	10650.81
493.648	10590.02
494.017	10798.6
494.387	10964.47
494.757	10969.44
495.126	11123.79
495.496	11116.78
495.866	11310.68
496.235	11382.31
496.605	11501.18
496.974	11598.13
497.344	11686.94
497.713	11728.75
498.082	11853.94
498.452	11952.47
498.821	12036.31
499.19	12072.24
499.559	12194.5
499.928	12279.92
500.298	12412.8
500.667	12509.29
501.036	12552.9
501.405	12661.83
501.774	12709.28
502.143	12764.88
502.512	12871.77
502.88	12952.89
503.249	13033.8
503.618	13141.14
503.987	13289.38
504.356	13288.03
504.724	13336.61
505.093	13507.23
505.462	13532.99
505.83	13634.01
506.199	13803.27
506.567	13903.38
506.936	13981.57
507.304	14175.69
507.672	14180.43
508.041	14250.71
508.409	14474.21
508.777	14539.74
509.145	14571.16
509.514	14685.96
509.882	14834.88
510.25	14868.1
510.618	15001.2
510.986	15062.44
511.354	15277.13
511.722	15385.6
512.09	15492.04
512.458	15610.9
512.826	15615.87
513.193	15762.09
513.561	15814.51
513.929	16005.69
514.297	16126.37
514.664	16275.29
515.032	16379.47
515.4	16440.49
515.767	16557.09
516.135	16614.27
516.502	16639.12
516.869	16955.27
517.237	16989.17
517.604	17016.52
517.972	17308.26
518.339	17337.19
518.706	17414.7
519.073	17584.18
519.44	17658.08
519.808	17782.15
520.175	17856.27
520.542	18147.79
520.909	18320.44
521.276	18236.37
521.643	18494.9
522.009	18594.33
522.376	18812.85
522.743	18899.86
523.11	19105.73
523.477	19246.29
523.843	19430.92
524.21	19557.47
524.577	19713.85
524.943	19809.44
525.31	19907.74
525.676	20129.43
526.043	20283.1
526.409	20362.19
526.776	20719.7
527.142	20709.98
527.508	20829.97
527.874	20973.7
528.241	21126.92
528.607	21153.81
528.973	21329.4
529.339	21383.63
529.705	21654.81
530.071	21798.09
530.437	21900.91
530.803	22066.1
531.169	22236.27
531.535	22186.78
531.901	22266.77
532.267	22456.37
532.632	22667.44
532.998	22664.28
533.364	22763.03
533.73	22984.27
534.095	23097.03
534.461	23104.49
534.826	23356.91
535.192	23445.73
535.557	23544.48
535.923	23591.03
536.288	23637.36
536.653	23903.11
537.019	23850.46
537.384	23955.77
537.749	24013.85
538.114	24062.43
538.479	24116.44
538.845	24340.84
539.21	24295.42
539.575	24464
539.94	24498.13
540.305	24742.64
540.67	24774.96
541.034	24885.24
541.399	24848.63
541.764	25049.07
542.129	25207.94
542.494	25089.98
542.858	25291.1
543.223	25282.06
543.587	25572.68
543.952	25584.2
544.316	25647.93
544.681	25619.68
545.045	25758.66
545.41	25875.49
545.774	25945.77
546.138	25943.51
546.503	26094.7
546.867	26176.05
547.231	26358.64
547.595	26356.61
547.959	26499.43
548.324	26510.05
548.688	26701.46
549.052	26799.31
549.416	26780.78
549.779	26858.06
550.143	26913.43
550.507	27202.24
550.871	27221.45
551.235	27302.12
551.599	27369.46
551.962	27518.84
552.326	27552.28
552.689	27709.79
553.053	27655.56
553.417	27712.73
553.78	28158.37
554.143	28110.69
554.507	28141.87
554.87	28280.85
555.234	28482.88
555.597	28395.65
555.96	28586.83
556.323	28682.42
556.686	28698.24
557.05	28932.59
557.413	28990.21
557.776	29015.75
558.139	29359.24
558.502	29334.38
558.865	29357.66
559.228	29494.61
559.59	29645.56
559.953	29793.81
560.316	30038.55
560.679	30094.36
561.041	30304.75
561.404	30412.1
561.767	30640.11
562.129	30568.02
562.492	30889.15
562.854	30930.95
563.217	30908.58
563.579	31153.09
563.941	31325.07
564.304	31353.77
564.666	31633.98
565.028	31664.49
565.39	31636.47
565.753	31858.61
566.115	32051.37
566.477	32136.57
566.839	32166.85
567.201	32409.11
567.563	32459.73
567.925	32663.34
568.287	32748.08
568.648	32727.97
569.01	33028.75
569.372	33225.81
569.734	33002.99
570.095	33276.43
570.457	33330.21
570.819	33505.12
571.18	33438.23
571.542	33598.9
571.903	33730.88
572.265	33898.56
572.626	33768.84
572.987	33934.26
573.349	34117.99
573.71	34321.15
574.071	34302.16
574.432	34371.54
574.794	34612.21
575.155	34660.35
575.516	34513.68
575.877	34708.25
576.238	34796.61
576.599	34757.52
576.96	34847.91
577.32	34891.53
577.681	34974.91
578.042	35113.44
578.403	35098.98
578.763	35136.94
579.124	35148.69
579.485	35200.44
579.845	35336.49
580.206	35279.54
580.566	35269.82
580.927	35357.95
581.287	35526.76
581.648	35286.09
582.008	35557.72
582.368	35376.49
582.728	35498.97
583.089	35495.58
583.449	35377.61
583.809	35670.04
584.169	35611.28
584.529	35510.04
584.889	35743.03
585.249	35491.28
585.609	35448.35
585.969	35693.09
586.329	35525.18
586.688	35679.08
587.048	35565.86
587.408	35576.48
587.768	35519.53
588.127	35489.7
588.487	35667.78
588.846	35739.64
589.206	35398.18
589.565	35466.43
589.925	35827.55
590.284	35582.81
590.643	35649.47
591.003	35638.4
591.362	35898.73
591.721	35703.48
592.08	35606.08
592.44	35801.33
592.799	35818.73
593.158	35736.02
593.517	35764.95
593.876	35597.72
594.235	35700.09
594.593	35629.81
594.952	35777.6
595.311	35745.06
595.67	35725.85
596.029	35919.07
596.387	35811.28
596.746	36038.16
597.104	35831.39
597.463	35714.33
597.822	35842.24
598.18	35733.76
598.538	35783.25
598.897	35961.1
599.255	35646.31
599.613	36238.61
599.972	35887.43
600.33	36034.32
600.688	35984.38
601.046	36052.85
601.404	36051.5
601.762	35989.35
602.12	36181.21
602.478	36200.42
602.836	36016.47
603.194	36022.12
603.552	36054.66
603.91	35973.98
604.268	36173.07
604.625	36129.01
604.983	36299.4
605.341	36065.96
605.698	36202.9
606.056	36271.83
606.413	36210.59
606.771	36287.2
607.128	36325.39
607.485	36239.06
607.843	36264.6
608.2	36396.8
608.557	36424.82
608.914	36417.81
609.272	36641.08
609.629	36717.01
609.986	36778.93
610.343	36615.1
610.7	36731.03
611.057	36830.46
611.414	36801.76
611.771	36857.12
612.127	36926.27
612.484	36860.97
612.841	36978.25
613.198	36968.76
613.554	36917.91
613.911	37192.93
614.267	37025.71
614.624	37053.05
614.98	37077.01
615.337	37272.03
615.693	37226.38
616.05	37138.7
616.406	37436.09
616.762	37189.32
617.118	37492.36
617.475	37141.64
617.831	37337.11
618.187	37419.6
618.543	37304.12
618.899	37483.1
619.255	37543.66
619.611	37596.54
619.967	37626.82
620.323	37735.75
620.678	37599.7
621.034	37532.36
621.39	37594.73
621.746	37460.95
622.101	37847.83
622.457	37666.59
622.812	37714.28
623.168	37681.51
623.523	37658.23
623.879	37886.93
624.234	37526.03
624.589	37732.58
624.945	37801.51
625.3	37793.82
625.655	37731.23
626.01	37733.94
626.365	37858.91
626.72	37735.29
627.075	37776.65
627.43	37719.93
627.785	37472.25
628.14	37789.98
628.495	37750.21
628.85	37741.17
629.205	37582.08
629.559	37818
629.914	37576.65
630.269	37668.4
630.623	37611.23
630.978	37441.52
631.332	37617.1
631.687	37691.9
632.041	37530.55
632.396	37454.4
632.75	37384.12
633.104	37425.02
633.459	37253.5
633.813	37236.1
634.167	37338.47
634.521	37235.87
634.875	37138.47
635.229	37202.65
635.583	37069.55
635.937	37055.31
636.291	37010.79
636.645	36894.64
636.999	36901.42
637.352	36946.16
637.706	36714.3
638.06	36871.14
638.413	36786.84
638.767	36678.15
639.121	36799.95
639.474	36460.98
639.828	36477.47
640.181	36553.86
640.534	36560.18
640.888	36376.91
641.241	36140.08
641.594	36269.79
641.947	36369.23
642.301	36161.55
642.654	36302.11
643.007	36295.56
643.36	36242.45
643.713	36053.98
644.066	36286.52
644.419	35964.04
644.771	35736.48
645.124	35377.84
645.477	35362.02
645.83	35106.66
646.182	34949.15
646.535	34857.63
646.888	35073.44
647.24	34722.94
647.593	34987.34
647.945	34914.35
648.298	34707.35
648.65	34673.45
649.002	34642.72
649.355	34632.32
649.707	34622.15
650.059	34727.69
650.411	35010.17
650.763	35135.59
651.115	35516.14
651.467	35226.88
651.819	35233.66
652.171	35296.04
652.523	35203.61
652.875	35370.84
653.227	35175.81
653.578	35307.11
653.93	35228.92
654.282	35080.45
654.633	34903.5
654.985	35035.48
655.337	35152.31
655.688	34975.14
656.039	35143.5
656.391	34748.03
656.742	34877.52
657.094	34855.82
657.445	34941.47
657.796	34778.53
658.147	34697.63
658.498	34702.15
658.849	34687.92
659.2	34623.74
659.551	34640.69
659.902	34713.9
660.253	34564.53
660.604	34604.3
660.955	34384.42
661.306	34430.07
661.656	34227.59
662.007	34298.1
662.358	34309.85
662.708	34255.16
663.059	34241.15
663.409	33996.41
663.76	34129.96
664.11	34142.85
664.461	34271.88
664.811	34149.17
665.161	33962.28
665.511	33828.96
665.862	33818.56
666.212	33880.25
666.562	33827.37
666.912	33707.6
667.262	33853.36
667.612	33535.86
667.962	33526.59
668.312	33327.95
668.662	33505.35
669.011	33295.86
669.361	33261.96
669.711	33162.76
670.06	33036.21
670.41	32836.44
670.76	32850.9
671.109	32892.71
671.459	32766.38
671.808	32727.29
672.157	32763.9
672.507	32540.18
672.856	32525.71
673.205	32484.36
673.554	32593.96
673.904	32458.82
674.253	32466.96
674.602	32330.01
674.951	31836.47
675.3	31775.22
675.649	32297.02
675.998	32160.98
676.346	32166.4
676.695	32219.73
677.044	32028.32
677.393	32062.22
677.741	32098.61
678.09	31996.91
678.438	31883.7
678.787	31816.58
679.135	31997.14
679.484	31837.37
679.832	31933.41
680.181	31752.85
680.529	31871.04
680.877	31777.26
681.225	31769.35
681.573	32029.23
681.922	31763.25
682.27	31631.05
682.618	31779.74
682.966	31696.36
683.314	31879.18
683.661	31738.61
684.009	31615
684.357	31657.26
684.705	31558.96
685.053	31782.68
685.4	31591.27
685.748	31416.59
686.095	31466.53
686.443	31510.82
686.79	31442.35
687.138	31613.19
687.485	31552.63
687.832	31507.89
688.18	31553.99
688.527	31527.32
688.874	31555.79
689.221	31424.95
689.568	31369.81
689.915	31339.53
690.262	31412.75
690.609	31320.55
690.956	31245.97
691.303	31349.47
691.65	31113.55
691.997	31261.34
692.344	31098.86
692.69	31104.51
693.037	31083.72
693.383	30857.73
693.73	30994.91
694.077	30921.91
694.423	30914.68
694.769	30789.26
695.116	30773.89
695.462	30831.07
695.808	30685.99
696.155	30784.06
696.501	30521.92
696.847	30598.53
697.193	30379.33
697.539	30353.11
697.885	30241.7
698.231	30140.92
698.577	30176.17
698.923	30201.03
699.269	30140.01
699.614	29939.34
699.96	29773.24
700.306	30017.53
700.651	29772.11
700.997	29672.91
701.342	29609.18
701.688	29603.08
702.033	29501.39
702.379	29474.27
702.724	29450.09
703.069	29510.88
703.415	29260.26
703.76	29216.87
704.105	29134.39
704.45	29164.45
704.795	28846.26
705.14	28947.95
705.485	28864.79
705.83	28671.35
706.175	28758.13
706.52	28739.82
706.865	28612.82
707.209	28479.04
707.554	28481.53
707.899	28561.3
708.243	28401.3
708.588	28403.56
708.932	28176
709.277	28216
709.621	28130.8
709.966	28018.26
710.31	28001.09
710.654	27833.63
710.998	27993.4
711.342	27985.49
711.687	27781.2
712.031	27696.69
712.375	27559.74
712.719	27554.09
713.063	27501.89
713.407	27609.01
713.75	27501.44
714.094	27453.76
714.438	27358.84
714.782	27438.39
715.125	27253.08
715.469	27333.76
715.812	27111.84
716.156	26928.57
716.499	27040.21
716.843	27030.94
717.186	26790.72
717.53	26948.68
717.873	26909.59
718.216	26815.13
718.559	26667.11
718.902	26552.54
719.246	26668.47
719.589	26602.7
719.932	26376.5
720.275	26515.93
720.617	26374.24
720.96	26318.64
721.303	26238.42
721.646	26331.07
721.989	26087.01
722.331	26253.79
722.674	26106.67
723.016	26201.81
723.359	26155.26
723.701	26155.48
724.044	25882.72
724.386	25819.22
724.729	25962.95
725.071	25748.49
725.413	25906.23
725.755	25701.26
726.097	25734.7
726.439	25567.93
726.782	25695.16
727.124	25733.12
727.465	25483.19
727.807	25448.38
728.149	25512.56
728.491	25427.37
728.833	25284.1
729.175	25317.31
729.516	25256.3
729.858	25328.39
730.199	25300.59
730.541	25207.71
730.882	25101.5
731.224	25171.56
731.565	24926.59
731.906	25051.11
732.248	25057.66
732.589	24872.81
732.93	24798.91
733.271	24801.4
733.612	24851.34
733.953	24877.1
734.294	24720.72
734.635	24586.94
734.976	24674.17
735.317	24568.63
735.658	24489.54
735.999	24540.84
736.339	24510.56
736.68	24447.05
737.021	24364.57
737.361	24343.55
737.702	24499.93
738.042	24228.98
738.383	24240.51
738.723	24238.47
739.063	24239.6
739.404	24226.27
739.744	24077.8
740.084	24179.04
740.424	24204.35
740.764	24029.44
741.104	24130.91
741.444	23990.12
741.784	23887.3
742.124	23980.17
742.464	23904.24
742.804	23728.2
743.143	23815.43
743.483	23793.51
743.823	23601.65
744.162	23737.47
744.502	23715.77
744.841	23570.47
745.181	23656.57
745.52	23453.18
745.86	23517.36
746.199	23513.52
746.538	23386.07
746.877	23441.66
747.216	23370.7
747.556	23362.79
747.895	23339.51
748.234	23325.28
748.573	23179.07
748.911	23203.25
749.25	23143.36
749.589	23054.32
749.928	23045.06
750.267	23094.77
750.605	22903.82
750.944	22924.84
751.283	22901.78
751.621	22808.91
751.96	22791.96
752.298	22678.51
752.636	22786.53
752.975	22585.86
753.313	22546.31
753.651	22646.65
753.989	22447.79
