Data from white_wall_FLMS001491_098.txt Node
Date: Tue Feb 07 11:06:16 GMT 2017
User: dcchb
Spectrometer: FLMS00149
Trigger mode: 0
Integration Time (sec): 2.000000E-2
Scans to average: 10
Electric dark correction enabled: true
Nonlinearity correction enabled: false
Boxcar width: 0
XAxis mode: Wavelengths
Number of Pixels in Spectrum: 2048
>>>>>Begin Spectral Data<<<<<
341.393	-16.3
341.776	-16.3
342.16	-16.3
342.543	-54.49
342.927	-95.62
343.31	-67.37
343.693	-70.31
344.077	-56.75
344.46	-70.76
344.843	-52.68
345.226	-37.77
345.61	-51.1
345.993	-12.91
346.376	15.79
346.759	12.63
347.142	30.03
347.525	44.26
347.908	68.22
348.291	56.69
348.674	93.98
349.057	98.05
349.44	118.84
349.823	130.14
350.206	169.46
350.588	187.99
350.971	232.96
351.354	244.71
351.737	252.62
352.119	253.98
352.502	286.07
352.884	311.6
353.267	296.91
353.65	323.13
354.032	317.93
354.414	338.04
354.797	349.57
355.179	338.04
355.562	329.45
355.944	320.87
356.326	355.22
356.709	378.72
357.091	354.76
357.473	378.72
357.855	369.45
358.238	366.06
358.62	359.74
359.002	376.01
359.384	362.67
359.766	369.91
360.148	365.61
360.53	374.43
360.912	362.67
361.294	363.13
361.676	344.37
362.057	347.99
362.439	373.75
362.821	350.7
363.203	367.65
363.584	342.79
363.966	348.44
364.348	364.93
364.729	349.34
365.111	347.99
365.493	348.44
365.874	332.17
366.256	339.62
366.637	354.31
367.019	335.33
367.4	322
367.781	345.95
368.163	341.43
368.544	336.23
368.925	335.78
369.306	324.48
369.688	343.24
370.069	332.39
370.45	338.27
370.831	330.13
371.212	350.7
371.593	335.1
371.974	349.57
372.355	356.12
372.736	357.93
373.117	317.93
373.498	339.85
373.879	339.17
374.26	342.11
374.641	354.99
375.021	346.18
375.402	327.19
375.783	362.9
376.163	365.84
376.544	382.56
376.925	359.51
377.305	360.41
377.686	383.01
378.066	376.69
378.447	395.22
378.827	396.12
379.208	390.92
379.588	366.74
379.968	378.72
380.349	373.3
380.729	373.3
381.109	389.79
381.489	389.57
381.87	399.06
382.25	379.85
382.63	396.57
383.01	399.28
383.39	397.93
383.77	413.97
384.15	407.42
384.53	404.25
384.91	400.64
385.29	402.9
385.67	420.3
386.049	416.23
386.429	426.63
386.809	427.98
387.189	421.66
387.568	425.5
387.948	446.51
388.328	423.24
388.707	457.81
389.087	465.72
389.466	483.8
389.846	458.26
390.225	456.91
390.605	463.69
390.984	468.89
391.363	483.8
391.743	475.44
392.122	501.88
392.501	490.35
392.881	507.53
393.26	500.52
393.639	521.99
394.018	529.9
394.397	540.3
394.776	557.47
395.155	551.82
395.534	568.54
395.913	559.73
396.292	555.44
396.671	576
397.05	588.66
397.429	606.74
397.808	587.07
398.186	640.41
398.565	623.01
398.944	645.6
399.323	650.58
399.701	670.01
400.08	674.76
400.458	685.15
400.837	684.02
401.215	668.43
401.594	731.25
401.972	713.17
402.351	743.68
402.729	765.15
403.107	784.36
403.486	764.47
403.864	813.74
404.242	798.59
404.62	822.55
404.999	843.11
405.377	868.65
405.755	872.49
406.133	902.32
406.511	899.16
406.889	933.73
407.267	952.94
407.645	961.08
408.023	965.82
408.401	958.82
408.779	1028.87
409.156	1052.6
409.534	1050.34
409.912	1078.36
410.29	1121.52
410.667	1125.59
411.045	1106.38
411.422	1178.47
411.8	1150.68
412.178	1205.59
412.555	1206.49
412.933	1219.15
413.31	1257.79
413.687	1282.2
414.065	1270.67
414.442	1271.8
414.819	1309.54
415.197	1349.77
415.574	1371.24
415.951	1380.73
416.328	1364.46
416.705	1411.01
417.082	1416.43
417.46	1437.67
417.837	1443.78
418.214	1478.58
418.591	1468.18
418.967	1496.2
419.344	1524
419.721	1514.06
420.098	1543.21
420.475	1546.37
420.852	1583.21
421.228	1597.44
421.605	1633.15
421.982	1627.27
422.358	1655.97
422.735	1682.19
423.111	1685.13
423.488	1714.73
423.864	1716.08
424.241	1764.22
424.617	1789.53
424.994	1782.07
425.37	1808.29
425.746	1849.87
426.123	1876.31
426.499	1842.86
426.875	1886.7
427.251	1890.09
427.627	1940.94
428.003	1984.33
428.379	1971.9
428.756	1996.98
429.132	2073.59
429.507	2100.26
429.883	2105.68
430.259	2123.98
430.635	2176.86
431.011	2166.92
431.387	2253.92
431.763	2291.89
432.138	2301.83
432.514	2330.76
432.89	2372.56
433.265	2388.61
433.641	2425.44
434.016	2455.27
434.392	2485.56
434.767	2520.36
435.143	2545.67
435.518	2565.1
435.894	2602.84
436.269	2609.62
436.644	2691.88
437.02	2679.68
437.395	2670.41
437.77	2732.1
438.145	2777.98
438.52	2802.38
438.895	2858.88
439.271	2872.44
439.646	2919.44
440.021	2942.04
440.395	2955.6
440.77	2925.09
441.145	2976.39
441.52	3034.47
441.895	3066.78
442.27	3081.92
442.645	3110.62
443.019	3112.21
443.394	3146.1
443.769	3183.16
444.143	3194.69
444.518	3193.33
444.892	3234.91
445.267	3273.11
445.641	3281.92
446.016	3326.89
446.39	3328.92
446.764	3418.19
447.139	3397.17
447.513	3399.2
447.887	3444.85
448.262	3504.06
448.636	3467.9
449.01	3498.41
449.384	3597.62
449.758	3604.62
450.132	3649.37
450.506	3671.51
450.88	3673.32
451.254	3737.05
451.628	3744.96
452.002	3781.34
452.376	3810.27
452.75	3872.19
453.123	3879.42
453.497	4019.98
453.871	4007.55
454.244	4066.08
454.618	4125.29
454.992	4175
455.365	4178.62
455.739	4312.4
456.112	4332.97
456.486	4349.01
456.859	4432.4
457.232	4530.7
457.606	4521.89
457.979	4556.01
458.352	4725.27
458.725	4744.93
459.099	4762.33
459.472	4885.72
459.845	4920.75
460.218	4978.82
460.591	5001.42
460.964	5071.25
461.337	5147.86
461.71	5272.6
462.083	5262.43
462.456	5370.68
462.829	5364.8
463.201	5484.8
463.574	5546.49
463.947	5579.03
464.32	5718.92
464.692	5781.51
465.065	5763.21
465.438	5873.94
465.81	5944.45
466.183	6052.02
466.555	6188.51
466.928	6300.15
467.3	6270.77
467.672	6318
468.045	6537.65
468.417	6534.49
468.789	6628.05
469.161	6689.51
469.534	6814.26
469.906	6967.02
470.278	6989.17
470.65	7028.94
471.022	7200.23
471.394	7434.35
471.766	7372.89
472.138	7548.25
472.51	7708.24
472.882	7828.01
473.253	7951.63
473.625	8065.75
473.997	8226.87
474.369	8269.58
474.74	8373.08
475.112	8532.63
475.484	8691.72
475.855	8865.5
476.227	8980.75
476.598	9163.8
476.97	9277.92
477.341	9500.74
477.713	9653.96
478.084	9685.59
478.455	9997.45
478.827	10082.42
479.198	10396.08
479.569	10390.21
479.94	10725.57
480.311	10758.56
480.682	10964.66
481.053	11286.91
481.424	11430.41
481.795	11585.66
482.166	11787.46
482.537	11907.68
482.908	12206.2
483.279	12378.18
483.65	12589.92
484.021	12923.25
484.391	12983.81
484.762	13144.26
485.133	13285.27
485.503	13454.31
485.874	13786.5
486.244	13902.88
486.615	14110.79
486.985	14277.11
487.356	14613.82
487.726	14693.37
488.097	15025.57
488.467	15160.7
488.837	15492.9
489.207	15609.5
489.578	15814.02
489.948	16015.37
490.318	16289.03
490.688	16357.51
491.058	16592.53
491.428	16896.7
491.798	16918.17
492.168	17262.12
492.538	17472.96
492.908	17628.66
493.278	17938.03
493.648	17966.96
494.017	18202.43
494.387	18383.44
494.757	18505.02
495.126	18792.02
495.496	18735.75
495.866	19041.73
496.235	19314.72
496.605	19417.77
496.974	19547.48
497.344	19712
497.713	19917.41
498.082	20014.81
498.452	20200.34
498.821	20318.76
499.19	20383.16
499.559	20589.03
499.928	20735.02
500.298	20987.67
500.667	21204.39
501.036	21062.92
501.405	21339.3
501.774	21373.87
502.143	21656.13
502.512	21753.75
502.88	22099.96
503.249	22177.69
503.618	22286.62
503.987	22380.17
504.356	22623.78
504.724	22721.63
505.093	22758.24
505.462	22914.62
505.83	23239.36
506.199	23458.34
506.567	23739.69
506.936	23752.12
507.304	23946.46
507.672	24040.47
508.041	24164.31
508.409	24418.09
508.777	24588.03
509.145	24902.14
509.514	24774.46
509.882	25071.4
510.25	25188.24
510.618	25305.97
510.986	25660.99
511.354	25807.65
511.722	26072.51
512.09	26457.13
512.458	26356.34
512.826	26559.5
513.193	26708.65
513.561	26794.07
513.929	27157
514.297	27352.02
514.664	27665.91
515.032	27655.97
515.4	27937.32
515.767	28163.98
516.135	28156.07
516.502	28161.72
516.869	28747.92
517.237	28846.9
517.604	28707.69
517.972	29185.42
518.339	29339.77
518.706	29448.24
519.073	29620.21
519.44	29819.98
519.808	30164.15
520.175	30092.06
520.542	30653.63
520.909	30751.48
521.276	30873.51
521.643	31114.41
522.009	31339.26
522.376	31549.2
522.743	31791.23
523.11	32114.38
523.477	32487.25
523.843	32612
524.21	33016.28
524.577	33195.71
524.943	33255.14
525.31	33497.17
525.676	33910.49
526.043	33900.1
526.409	34248.34
526.776	34501.89
527.142	34713.18
527.508	34989.56
527.874	35309.78
528.241	35341.87
528.607	35344.81
528.973	35945.02
529.339	35833.61
529.705	36157.89
530.071	36644.21
530.437	36716.29
530.803	36779.8
531.169	36940.02
531.535	37006.23
531.901	37203.51
532.267	37300.01
532.632	37663.39
532.998	37866.55
533.364	38027.45
533.73	38208.91
534.095	38462.69
534.461	38582.01
534.826	38880.53
535.192	38945.84
535.557	39026.29
535.923	39150.35
536.288	39151.03
536.653	39578.59
537.019	39644.81
537.384	39808.19
537.749	39990.78
538.114	40065.81
538.479	40171.57
538.845	40471.68
539.21	40224.68
539.575	40647.72
539.94	40733.14
540.305	40913.02
540.67	40855.85
541.034	41164.54
541.399	41338.32
541.764	41443.4
542.129	41597.97
542.494	41652.66
542.858	41942.82
543.223	41847.46
543.587	42273.21
543.952	42184.63
544.316	42488.8
544.681	42470.72
545.045	42745.06
545.41	42882.01
545.774	42911.39
546.138	43150.7
546.503	43222.79
546.867	43332.62
547.231	43765.37
547.595	43802.44
547.959	43926.27
548.324	43972.15
548.688	44214.18
549.052	44218.24
549.416	44506.82
549.779	44512.7
550.143	44726.48
550.507	45002.86
550.871	45069.97
551.235	45200.59
551.599	45527.81
551.962	45587.02
552.326	45783.17
552.689	46006.9
553.053	45881.25
553.417	46143.84
553.78	46627.9
554.143	46465.42
554.507	46803.71
554.87	46909.47
555.234	47269.24
555.597	47172.29
555.96	47377.48
556.323	47668.1
556.686	47601.43
557.05	47875.78
557.413	48102.21
557.776	48217.24
558.139	48492.03
558.502	48601.41
558.865	48626.49
559.228	48939.25
559.59	49011.79
559.953	49126.36
560.316	49540.82
560.679	49628.5
561.041	49780.81
561.404	50015.83
561.767	50231.42
562.129	50100.12
562.492	50534.69
562.854	50567.23
563.217	50563.39
563.579	50856.71
563.941	50979.65
564.304	51138.29
564.666	51354.33
565.028	51380.09
565.39	51453.31
565.753	51682.45
566.115	51791.83
566.477	51905.27
566.839	52004.25
567.201	52194.08
567.563	52304.13
567.925	52436.11
568.287	52511.13
568.648	52606.27
569.01	52679.26
569.372	53024.57
569.734	52932.82
570.095	53157.67
570.457	53254.62
570.819	53302.53
571.18	53303.88
571.542	53487.6
571.903	53568.51
572.265	53623.42
572.626	53666.81
572.987	53675.4
573.349	53805.56
573.71	53988.16
574.071	53961.94
574.432	54134.59
574.794	54304.98
575.155	54304.98
575.516	54252.78
575.877	54421.37
576.238	54396.96
576.599	54592.21
576.96	54659.78
577.32	54565.32
577.681	54718.31
578.042	54750.4
578.403	54742.49
578.763	54777.29
579.124	54807.8
579.485	54934.8
579.845	55088.47
580.206	54940.45
580.566	54975.02
580.927	55068.13
581.287	55142.48
581.648	55015.02
582.008	55198.07
582.368	55139.31
582.728	55161.46
583.089	55236.49
583.449	55119.2
583.809	55211.85
584.169	55295.47
584.529	55187.67
584.889	55396.26
585.249	55200.55
585.609	55129.82
585.969	55437.84
586.329	55341.34
586.688	55300.44
587.048	55342.25
587.408	55287.78
587.768	55323.49
588.127	55281
588.487	55308.8
588.846	55419.53
589.206	55399.19
589.565	55379.98
589.925	55413.88
590.284	55359.42
590.643	55397.84
591.003	55487.33
591.362	55474.45
591.721	55488.91
592.08	55433.32
592.44	55502.47
592.799	55463.37
593.158	55455.69
593.517	55517.16
593.876	55526.65
594.235	55490.72
594.593	55469.93
594.952	55619.53
595.311	55417.05
595.67	55583.14
596.029	55710.37
596.387	55694.55
596.746	55759.64
597.104	55582.47
597.463	55548.12
597.822	55796.7
598.18	55598.96
598.538	55619.98
598.897	55802.12
599.255	55574.78
599.613	55971.16
599.972	55802.12
600.33	55779.75
600.688	55693.65
601.046	55852.74
601.404	55912.85
601.762	55844.38
602.12	55904.72
602.478	55958.95
602.836	55958.5
603.194	55882.34
603.552	55952.62
603.91	55870.59
604.268	56021.1
604.625	55850.03
604.983	56054.09
605.341	55973.19
605.698	56088.44
606.056	56072.4
606.413	56112.39
606.771	56191.94
607.128	56187.19
607.485	56084.37
607.843	56128.21
608.2	56235.1
608.557	56334.31
608.914	56231.26
609.272	56405.49
609.629	56326.85
609.986	56468.09
610.343	56382.22
610.7	56576.79
611.057	56507.19
611.414	56514.19
611.771	56541.08
612.127	56648.88
612.484	56577.92
612.841	56649.78
613.198	56628.99
613.554	56636.45
613.911	56776.11
614.267	56793.05
614.624	56725.71
614.98	56800.29
615.337	56931.81
615.693	56873.96
616.05	56760.06
616.406	57023.56
616.762	56948.53
617.118	56855.43
617.475	56914.86
617.831	57013.61
618.187	57029.66
618.543	57068.3
618.899	57187.85
619.255	57105.36
619.611	57155.98
619.967	57205.47
620.323	57265.81
620.678	57178.36
621.034	57103.56
621.39	57079.83
621.746	57116.89
622.101	57391.46
622.457	57199.15
622.812	57190.11
623.168	57308.75
623.523	57286.15
623.879	57367.5
624.234	57176.32
624.589	57297.45
624.945	57312.82
625.3	57319.37
625.655	57252.7
626.01	57261.07
626.365	57300.39
626.72	57212.25
627.075	57229.43
627.43	57203.89
627.785	57220.16
628.14	57246.83
628.495	57284.12
628.85	57235.3
629.205	57199.6
629.559	57323.21
629.914	57203.44
630.269	57208.41
630.623	57142.42
630.978	57083.67
631.332	57139.49
631.687	57277.34
632.041	57162.31
632.396	57134.29
632.75	56980.17
633.104	57075.31
633.459	56974.74
633.813	56909.89
634.167	56913.28
634.521	56918.48
634.875	57002.77
635.229	56877.8
635.583	56809.55
635.937	56810.91
636.291	56751.7
636.645	56766.61
636.999	56675.77
637.352	56759.84
637.706	56588.99
638.06	56672.61
638.413	56621.76
638.767	56598.71
639.121	56730.46
639.474	56532.5
639.828	56533.17
640.181	56588.54
640.534	56537.92
640.888	56381.99
641.241	56398.49
641.594	56394.2
641.947	56483.23
642.301	56367.53
642.654	56279.4
643.007	56351.26
643.36	56318.04
643.713	56231.49
644.066	56270.13
644.419	56109.68
644.771	55936.58
645.124	55661.33
645.477	55627.44
645.83	55505.4
646.182	55385.86
646.535	55359.19
646.888	55417.27
647.24	55209.59
647.593	55424.05
647.945	55310.16
648.298	55179.54
648.65	55092.08
649.002	55070.39
649.355	55076.04
649.707	55048.47
650.059	55219.08
650.411	55545.63
650.763	55503.6
651.115	55784.49
651.467	55583.14
651.819	55663.37
652.171	55574.1
652.523	55563.48
652.875	55549.7
653.227	55451.62
653.578	55673.99
653.93	55544.5
654.282	55464.95
654.633	55264.51
654.985	55364.39
655.337	55415.24
655.688	55391.96
656.039	55502.02
656.391	55173.44
656.742	55268.8
657.094	55202.59
657.445	55331.17
657.796	55186.77
658.147	55195.81
658.498	55149.26
658.849	55219.31
659.2	55167.79
659.551	55111.97
659.902	55237.62
660.253	55124.62
660.604	55163.04
660.955	54962.59
661.306	55065.42
661.656	55037.85
662.007	55050.05
662.358	54932.76
662.708	55004.85
663.059	54930.05
663.409	54770.51
663.76	54955.14
664.11	54918.75
664.461	54987.23
664.811	54957.85
665.161	54902.48
665.511	54794.24
665.862	54859.09
666.212	54905.42
666.562	54980.67
666.912	54866.78
667.262	54824.07
667.612	54842.15
667.962	54822.26
668.312	54763.28
668.662	54856.16
669.011	54793.56
669.361	54729.38
669.711	54751.75
670.06	54622.04
670.41	54558.54
670.76	54614.35
671.109	54644.86
671.459	54589.72
671.808	54462.27
672.157	54567.8
672.507	54412.55
672.856	54370.07
673.205	54431.53
673.554	54543.85
673.904	54419.56
674.253	54534.81
674.602	54370.97
674.951	53969.63
675.3	53844.21
675.649	54324.65
675.998	54338.2
676.346	54298.66
676.695	54360.35
677.044	54123.29
677.393	54325.32
677.741	54347.24
678.09	54236.74
678.438	54084.43
678.787	54156.51
679.135	54181.15
679.484	53901.61
679.832	54068.38
680.181	53860.7
680.529	54009.85
680.877	53896.18
681.225	53791.78
681.573	53974.37
681.922	53782.29
682.27	53633.14
682.618	53678.79
682.966	53499.58
683.314	53566.25
683.661	53484.89
684.009	53299.14
684.357	53345.01
684.705	53305.91
685.053	53328.29
685.4	53284.45
685.748	53085.58
686.095	53109.54
686.443	52899.82
686.79	52914.29
687.138	52931.69
687.485	52902.54
687.832	52738.47
688.18	52755.87
688.527	52597.91
688.874	52569.21
689.221	52471.13
689.568	52483.11
689.915	52337.13
690.262	52304.59
690.609	52276.79
690.956	52115.66
691.303	52117.92
691.65	51816.69
691.997	51931.04
692.344	51795.67
692.69	51780.53
693.037	51731.49
693.383	51337.6
693.73	51630.7
694.077	51321.11
694.423	51316.14
694.769	51294.67
695.116	51164.28
695.462	51080.21
695.808	50971.29
696.155	51085.63
696.501	50705.76
696.847	50731.75
697.193	50416.73
697.539	50647.91
697.885	50419.66
698.231	50314.36
698.577	50296.05
698.923	50178.99
699.269	50108.94
699.614	49956.4
699.96	49873.91
700.306	49876.17
700.651	49588.95
700.997	49595.28
701.342	49541.49
701.688	49456.3
702.033	49389.18
702.379	49270.77
702.724	49163.42
703.069	49140.37
703.415	48646.6
703.76	48882.3
704.105	48843.66
704.45	48697.9
704.795	48452.03
705.14	48343.56
705.485	48431.47
705.83	48268.76
706.175	48271.47
706.52	48152.15
706.865	48119.16
707.209	48064.47
707.554	47817.92
707.899	47918.26
708.243	47599.17
708.588	47779.73
708.932	47431.72
709.277	47265.4
709.621	47366.86
709.966	47200.99
710.31	47207.77
710.654	46937.72
710.998	47012.07
711.342	47013.88
711.687	46880.77
712.031	46670.16
712.375	46760.32
712.719	46757.84
713.063	46445.08
713.407	46628.58
713.75	46353.33
714.094	46307.91
714.438	46319.66
714.782	46319.66
715.125	46151.3
715.469	46157.63
715.812	45797.86
716.156	45685.78
716.499	45806
716.843	45775.27
717.186	45358.55
717.53	45653.69
717.873	45518.55
718.216	45542.05
718.559	45347.03
718.902	45080.82
719.246	45164.89
719.589	45023.19
719.932	44889.64
720.275	44844.89
720.617	44789.75
720.96	44816.19
721.303	44699.36
721.646	44802.18
721.989	44413.95
722.331	44610.55
722.674	44420.72
723.016	44400.39
723.359	44322.65
723.701	44397
724.044	44147.06
724.386	43932.83
724.729	44053.05
725.071	43967.18
725.413	44017.35
725.755	43824.81
726.097	43515.44
726.439	43449.9
726.782	43614.42
727.124	43809.22
727.465	43549.11
727.807	43544.59
728.149	43338.72
728.491	43197.25
728.833	43289.68
729.175	43053.08
729.516	42948
729.858	42880.43
730.199	42962.91
730.541	42959.29
730.882	42845.4
731.224	42966.3
731.565	42675.23
731.906	42635.01
732.248	42736.93
732.589	42375.35
732.93	42364.51
733.271	42312.08
733.612	42364.28
733.953	42203.83
734.294	42114.34
734.635	42169.26
734.976	42160.9
735.317	41883.39
735.658	41859.21
735.999	41882.03
736.339	41686.56
736.68	41953.67
737.021	41593.68
737.361	41524.98
737.702	41867.57
738.042	41725.43
738.383	41502.38
738.723	41619.89
739.063	41368.6
739.404	41520.91
739.744	41329.73
740.084	41076.18
740.424	41217.65
740.764	41085.9
741.104	41219.9
741.444	40980.36
741.784	40785.57
742.124	40921.16
742.464	40930.42
742.804	40799.8
743.143	40754.61
743.483	40693.59
743.823	40387.84
744.162	40549.87
744.502	40513.26
744.841	40348.06
745.181	40409.98
745.52	40206.6
745.86	40295.86
746.199	40129.54
746.538	40122.98
746.877	40156.2
747.216	40099.71
747.556	40012.48
747.895	39954.63
748.234	39828.3
748.573	39765.71
748.911	39691.13
749.25	39725.71
749.589	39482.32
749.928	39595.09
750.267	39600.06
750.605	39444.58
750.944	39397.35
751.283	39182.9
751.621	39150.58
751.96	39029
752.298	39051.6
752.636	38925.73
752.975	38888.21
753.313	38664.04
