Data from white_wall_FLMS001491_059.txt Node
Date: Tue Feb 07 11:04:59 GMT 2017
User: dcchb
Spectrometer: FLMS00149
Trigger mode: 0
Integration Time (sec): 2.000000E-2
Scans to average: 10
Electric dark correction enabled: true
Nonlinearity correction enabled: false
Boxcar width: 0
XAxis mode: Wavelengths
Number of Pixels in Spectrum: 2048
>>>>>Begin Spectral Data<<<<<
341.393	-12.08
341.776	-12.08
342.16	-12.08
342.543	-48.69
342.927	-70.83
343.31	-79.42
343.693	-76.48
344.077	-74.45
344.46	-55.01
344.843	-42.13
345.226	-48.91
345.61	-22.02
345.993	-14.56
346.376	-10.27
346.759	11.2
347.142	40.13
347.525	47.36
347.908	63.63
348.291	81.48
348.674	85.1
349.057	94.36
349.44	131.65
349.823	124.64
350.206	168.71
350.588	193.12
350.971	204.19
351.354	243.06
351.737	235.38
352.119	247.8
352.502	260.23
352.884	293.23
353.267	297.29
353.65	292.55
354.032	289.61
354.414	312.66
354.797	327.8
355.179	319.67
355.562	327.58
355.944	321.93
356.326	319.89
356.709	325.99
357.091	333.68
357.473	318.99
357.855	353.34
358.238	359.44
358.62	335.03
359.002	345.65
359.384	328.48
359.766	336.39
360.148	356.73
360.53	337.29
360.912	349.72
361.294	339.33
361.676	317.86
362.057	333.68
362.439	328.48
362.821	332.55
363.203	322.15
363.584	318.31
363.966	332.55
364.348	313.11
364.729	325.54
365.111	320.12
365.493	336.62
365.874	312.66
366.256	316.5
366.637	316.73
367.019	316.5
367.4	316.73
367.781	309.72
368.163	303.62
368.544	312.44
368.925	322.83
369.306	331.42
369.688	335.03
370.069	297.29
370.45	313.79
370.831	308.14
371.212	318.31
371.593	312.89
371.974	320.57
372.355	317.18
372.736	329.38
373.117	322.6
373.498	321.02
373.879	314.47
374.26	310.63
374.641	318.54
375.021	322.15
375.402	321.93
375.783	308.37
376.163	348.59
376.544	333.23
376.925	346.33
377.305	326.22
377.686	336.84
378.066	312.66
378.447	343.62
378.827	325.77
379.208	327.8
379.588	341.36
379.968	329.38
380.349	343.17
380.729	339.55
381.109	353.11
381.489	367.58
381.87	344.52
382.25	356.5
382.63	335.03
383.01	358.54
383.39	347.01
383.77	359.21
384.15	333.68
384.53	374.81
384.91	347.01
385.29	340.68
385.67	346.33
386.049	369.61
386.429	358.99
386.809	364.86
387.189	383.39
387.568	360.34
387.948	374.13
388.328	377.29
388.707	375.03
389.087	384.07
389.466	401.02
389.846	400.79
390.225	377.29
390.605	417.29
390.984	391.3
391.363	412.09
391.743	408.48
392.122	407.8
392.501	408.03
392.881	405.54
393.26	425.65
393.639	423.17
394.018	460.45
394.397	422.94
394.776	448.93
395.155	443.28
395.534	455.26
395.913	452.32
396.292	463.84
396.671	462.49
397.05	483.28
397.429	479.89
397.808	486.44
398.186	498.87
398.565	511.07
398.944	502.94
399.323	511.53
399.701	522.83
400.08	528.93
400.458	500.45
400.837	507.01
401.215	557.4
401.594	557.4
401.972	576.38
402.351	561.47
402.729	579.32
403.107	589.72
403.486	601.47
403.864	612.54
404.242	568.25
404.62	584.52
404.999	645.31
405.377	616.16
405.755	631.07
406.133	636.27
406.511	655.03
406.889	649.38
407.267	687.57
407.645	687.79
408.023	698.64
408.401	723.27
408.779	711.52
409.156	709.04
409.534	733.89
409.912	770.05
410.29	772.08
410.667	767.34
411.045	800.56
411.422	793.78
411.8	804.63
412.178	818.18
412.555	838.98
412.933	842.59
413.31	862.03
413.687	887.11
414.065	879.88
414.442	890.73
414.819	915.58
415.197	915.81
415.574	928.46
415.951	941.57
416.328	940.89
416.705	958.07
417.082	961.01
417.46	964.4
417.837	980.89
418.214	980.44
418.591	1003.04
418.967	996.49
419.344	1034.22
419.721	1052.53
420.098	1030.16
420.475	1019.08
420.852	1064.73
421.228	1086.88
421.605	1093.66
421.982	1099.31
422.358	1118.74
422.735	1134.56
423.111	1157.38
423.488	1130.94
423.864	1170.72
424.241	1148.12
424.617	1161.68
424.994	1180.21
425.37	1170.04
425.746	1184.05
426.123	1215.46
426.499	1240.55
426.875	1239.87
427.251	1255.24
427.627	1292.52
428.003	1299.08
428.379	1328
428.756	1309.47
429.132	1306.08
429.507	1349.24
429.883	1377.04
430.259	1393.54
430.635	1411.16
431.011	1426.08
431.387	1459.98
431.763	1494.55
432.138	1480.09
432.514	1472.63
432.89	1487.32
433.265	1536.13
433.641	1553.98
434.016	1560.31
434.392	1613.87
434.767	1620.2
435.143	1625.85
435.518	1641.44
435.894	1684.38
436.269	1673.98
436.644	1720.53
437.02	1737.48
437.395	1732.51
437.77	1733.64
438.145	1788.1
438.52	1784.49
438.895	1783.81
439.271	1794.43
439.646	1862.45
440.021	1871.26
440.395	1866.29
440.77	1884.15
441.145	1884.15
441.52	1954.65
441.895	1952.39
442.27	1955.33
442.645	1967.76
443.019	1974.76
443.394	1973.63
443.769	2023.35
444.143	2012.96
444.518	2065.16
444.892	2031.94
445.267	2070.13
445.641	2089.56
446.016	2121.43
446.39	2117.36
446.764	2151.71
447.139	2150.35
447.513	2148.09
447.887	2175.89
448.262	2184.48
448.636	2175.66
449.01	2212.72
449.384	2239.62
449.758	2240.52
450.132	2276.9
450.506	2303.34
450.88	2314.87
451.254	2334.98
451.628	2339.95
452.002	2352.38
452.376	2385.6
452.75	2446.16
453.123	2449.1
453.497	2499.04
453.871	2490.23
454.244	2554.86
454.618	2617.46
454.992	2638.25
455.365	2582.88
455.739	2676.89
456.112	2678.93
456.486	2723.22
456.859	2739.72
457.232	2824.01
457.606	2795.31
457.979	2832.14
458.352	2873.95
458.725	2938.58
459.099	2941.52
459.472	3019.71
459.845	3011.35
460.218	3065.58
460.591	3099.03
460.964	3094.06
461.337	3200.27
461.71	3174.05
462.083	3285.92
462.456	3272.58
462.829	3328.63
463.201	3360.94
463.574	3386.48
463.947	3455.86
464.32	3547.83
464.692	3493.37
465.065	3527.04
465.438	3575.85
465.81	3670.54
466.183	3696.75
466.555	3785.34
466.928	3799.58
467.3	3797.77
467.672	3882.96
468.045	3969.06
468.417	4000.93
468.789	3998.67
469.161	4048.61
469.534	4128.61
469.906	4244.31
470.278	4269.39
470.65	4283.18
471.022	4362.72
471.394	4446.34
471.766	4510.97
472.138	4548.26
472.51	4658.54
472.882	4689.72
473.253	4810.4
473.625	4854.01
473.997	4950.28
474.369	5007
474.74	5070.28
475.112	5139.88
475.484	5268.24
475.855	5330.38
476.227	5378.74
476.598	5553.88
476.97	5526.08
477.341	5673.42
477.713	5809.69
478.084	5791.61
478.455	5968.78
478.827	6027.31
479.198	6169.23
479.569	6196.57
479.94	6400.18
480.311	6472.27
480.682	6623.23
481.053	6717.24
481.424	6861.19
481.795	6891.25
482.166	7078.36
482.537	7133.72
482.908	7277.22
483.279	7370.33
483.65	7493.94
484.021	7645.12
484.391	7689.42
484.762	7791.79
485.133	7873.14
485.503	7968.96
485.874	8168.27
486.244	8203.75
486.615	8394.93
486.985	8532.78
487.356	8696.85
487.726	8734.13
488.097	8967.35
488.467	8966.22
488.837	9201.47
489.207	9314.68
489.578	9453.44
489.948	9473.55
490.318	9685.07
490.688	9719.87
491.058	9900.21
491.428	10014.1
491.798	10048
492.168	10326.41
492.538	10295.22
492.908	10465.61
493.278	10548.55
493.648	10639.85
494.017	10854.3
494.387	10902.44
494.757	10992.83
495.126	11085.49
495.496	11127.29
495.866	11217.91
496.235	11393.73
496.605	11422.88
496.974	11521.41
497.344	11681.18
497.713	11751.46
498.082	11815.64
498.452	11966.82
498.821	12007.04
499.19	12118
499.559	12297.43
499.928	12356.64
500.298	12415.85
500.667	12595.28
501.036	12588.5
501.405	12677.31
501.774	12717.08
502.143	12882.73
502.512	12946
502.88	13092.44
503.249	13100.35
503.618	13202.94
503.987	13301.25
504.356	13458.53
504.724	13438.19
505.093	13546.89
505.462	13577.4
505.83	13629.37
506.199	13869.37
506.567	14074.11
506.936	14075.69
507.304	14174.9
507.672	14270.49
508.041	14347.32
508.409	14522.01
508.777	14603.81
509.145	14755.67
509.514	14749.12
509.882	14928.55
510.25	14942.33
510.618	15032.05
510.986	15221.42
511.354	15323.11
511.722	15386.84
512.09	15606.27
512.458	15684.23
512.826	15811.24
513.193	15735.31
513.561	15949.76
513.929	16099.82
514.297	16107.27
514.664	16372.8
515.032	16475.63
515.4	16534.61
515.767	16695.73
516.135	16730.31
516.502	16756.97
516.869	17124.2
517.237	17063.63
517.604	17053.24
517.972	17311.31
518.339	17481.48
518.706	17491.42
519.073	17605.77
519.44	17787.23
519.808	17944.74
520.175	17923.72
520.542	18173.43
520.909	18240.33
521.276	18340.44
521.643	18537.49
522.009	18689.81
522.376	18755.57
522.743	18912.4
523.11	19072.62
523.477	19257.02
523.843	19337.92
524.21	19602.78
524.577	19729.1
524.943	19753.05
525.31	19930.9
525.676	20208.41
526.043	20197.34
526.409	20421.74
526.776	20582.64
527.142	20662.63
527.508	20786.02
527.874	20949.41
528.241	21066.69
528.607	21146.24
528.973	21302.84
529.339	21315.5
529.705	21658.31
530.071	21722.04
530.437	21794.36
530.803	22025.31
531.169	22113.67
531.535	22085.87
531.901	22153.67
532.267	22428.69
532.632	22548.69
532.998	22519.76
533.364	22790.26
533.73	22830.26
534.095	22930.82
534.461	23013.53
534.826	23259.4
535.192	23256.01
535.557	23462.34
535.923	23458.95
536.288	23542.78
536.653	23696.91
537.019	23658.04
537.384	23798.82
537.749	23963.56
538.114	23994.52
538.479	24114.75
538.845	24125.82
539.21	24136.89
539.575	24347.74
539.94	24413.72
540.305	24514.51
540.67	24618.01
541.034	24657.78
541.399	24910.43
541.764	24905.01
542.129	24940.49
542.494	25100.71
542.858	25116.75
543.223	25135.74
543.587	25403.98
543.952	25370.31
544.316	25487.82
544.681	25468.61
545.045	25710.19
545.41	25820.47
545.774	25891.65
546.138	25973.68
546.503	26035.83
546.867	26109.95
547.231	26291.64
547.595	26394.46
547.959	26550.16
548.324	26587
548.688	26599.88
549.052	26812.3
549.416	26877.84
549.779	26876.93
550.143	27034.9
550.507	27318.05
550.871	27209.81
551.235	27315.79
551.599	27605.95
551.962	27606.41
552.326	27803.46
552.689	27978.37
553.053	27970.69
553.417	28068.32
553.78	28388.76
554.143	28420.85
554.507	28488.42
554.87	28573.16
555.234	28961.17
555.597	28675.08
555.96	28905.36
556.323	29028.52
556.686	29149.19
557.05	29349.64
557.413	29570.88
557.776	29539.92
558.139	29835.73
558.502	29818.33
558.865	30017.87
559.228	30139
559.59	30258.09
559.953	30344.64
560.316	30644.52
560.679	30696.5
561.041	30904.4
561.404	30930.16
561.767	31153.43
562.129	31110.04
562.492	31464.61
562.854	31447.66
563.217	31420.77
563.579	31736.92
563.941	31815.56
564.304	32045.16
564.666	32203.8
565.028	32309.56
565.39	32355.21
565.753	32415.55
566.115	32743.22
566.477	32861.64
566.839	32902.76
567.201	33106.38
567.563	33148.41
567.925	33422.75
568.287	33384.56
568.648	33546.14
569.01	33700.94
569.372	33877.43
569.734	33837.66
570.095	34162.17
570.457	34203.07
570.819	34311.77
571.18	34389.73
571.542	34550.63
571.903	34614.58
572.265	34745.88
572.626	34935.48
572.987	34837.4
573.349	34995.59
573.71	35119.66
574.071	35134.12
574.432	35350.16
574.794	35542.02
575.155	35374.11
575.516	35547.22
575.877	35657.49
576.238	35723.93
576.599	35882.35
576.96	35733.42
577.32	35911.5
577.681	35951.05
578.042	36071.95
578.403	35968.45
578.763	36203.24
579.124	36182.23
579.485	36308.1
579.845	36382.67
580.206	36240.3
580.566	36236.91
580.927	36258.38
581.287	36403.69
581.648	36400.98
582.008	36555.55
582.368	36418.15
582.728	36550.13
583.089	36559.39
583.449	36539.05
583.809	36592.16
584.169	36677.81
584.529	36609.79
584.889	37019.04
585.249	36558.94
585.609	36386.29
585.969	36816.11
586.329	36668.32
586.688	36819.27
587.048	36729.33
587.408	36654.98
587.768	36654.76
588.127	36593.06
588.487	36743.12
588.846	36833.73
589.206	36649.56
589.565	36595.1
589.925	36982.66
590.284	36725.72
590.643	36833.73
591.003	36923
591.362	36879.61
591.721	36825.15
592.08	36893.85
592.44	37036.89
592.799	37071.24
593.158	36794.41
593.517	36953.73
593.876	37082.32
594.235	36977.91
594.593	36956.67
594.952	37043.9
595.311	36983.11
595.67	37080.96
596.029	37231.24
596.387	37130.22
596.746	37284.8
597.104	37039.38
597.463	37144.91
597.822	37388.97
598.18	37061.75
598.538	37091.81
598.897	37353.95
599.255	37138.59
599.613	37670.32
599.972	37431.01
600.33	37503.55
600.688	37297.68
601.046	37504.45
601.404	37581.74
601.762	37488.41
602.12	37700.15
602.478	37585.58
602.836	37663.54
603.194	37484.34
603.552	37523.43
603.91	37565.24
604.268	37575.64
604.625	37558.24
604.983	37837.32
605.341	37554.85
605.698	37821.96
606.056	37843.65
606.413	37930.88
606.771	37896.08
607.128	37998.45
607.485	37781.05
607.843	37928.62
608.2	38063.76
608.557	38187.6
608.914	38047.94
609.272	38187.82
609.629	38234.38
609.986	38348.72
610.343	38253.58
610.7	38605.21
611.057	38386.46
611.414	38289.74
611.771	38423.52
612.127	38493.35
612.484	38696.74
612.841	38731.99
613.198	38562.5
613.554	38472.79
613.911	38756.85
614.267	38723.85
614.624	38813.8
614.98	38842.04
615.337	38868.71
615.693	38811.54
616.05	38701.03
616.406	39185.09
616.762	38873
617.118	38861.03
617.475	38911.65
617.831	39191.86
618.187	39030.51
618.543	39085.2
618.899	39262.82
619.255	39193.9
619.611	39198.87
619.967	39259.66
620.323	39401.13
620.678	39231.19
621.034	39189.38
621.39	39222.15
621.746	39136.5
622.101	39603.83
622.457	39320.22
622.812	39380.79
623.168	39441.35
623.523	39406.32
623.879	39704.62
624.234	39359.32
624.589	39424.85
624.945	39517.96
625.3	39494
625.655	39467.11
626.01	39445.19
626.365	39546.88
626.72	39376.94
627.075	39439.54
627.43	39594.11
627.785	39452.42
628.14	39543.49
628.495	39493.33
628.85	39563.38
629.205	39303.27
629.559	39578.75
629.914	39359.32
630.269	39404.97
630.623	39379.88
630.978	39325.19
631.332	39362.26
631.687	39355.93
632.041	39159.32
632.396	39362.93
632.75	39169.49
633.104	39236.84
633.459	39030.51
633.813	38862.61
634.167	39051.08
634.521	38998.88
634.875	38936.96
635.229	38881.82
635.583	38888.82
635.937	38871.2
636.291	38810.18
636.645	38804.08
636.999	38767.02
637.352	38765.89
637.706	38536.51
638.06	38781.71
638.413	38556.63
638.767	38545.1
639.121	38545.55
639.474	38317.54
639.828	38273.7
640.181	38389.63
640.534	38338.1
640.888	38230.99
641.241	38324.54
641.594	37992.57
641.947	38186.47
642.301	38078.9
642.654	38189.41
643.007	38229.63
643.36	38139.69
643.713	38012.23
644.066	38044.32
644.419	37846.36
644.771	37747.38
645.124	37231.01
645.477	37388.75
645.83	36901.76
646.182	36840.51
646.535	36704.92
646.888	36916.67
647.24	36711.25
647.593	36926.61
647.945	36754.64
648.298	36631.03
648.65	36595.32
649.002	36389.45
649.355	36470.58
649.707	36552.39
650.059	36709.22
650.411	37021.98
650.763	37127.29
651.115	37383.1
651.467	37250
651.819	37249.54
652.171	37256.32
652.523	37109.89
652.875	37090.23
653.227	36883.68
653.578	37196.66
653.93	36981.53
654.282	36933.17
654.633	36865.82
654.985	36968.42
655.337	37135.42
655.688	37005.26
656.039	37030.57
656.391	36674.19
656.742	36708.09
657.094	36720.74
657.445	36894.75
657.796	36814.98
658.147	36670.12
658.498	36439.62
658.849	36799.84
659.2	36611.59
659.551	36597.58
659.902	36645.49
660.253	36623.12
660.604	36620.63
660.955	36437.59
661.306	36620.86
661.656	36417.25
662.007	36630.12
662.358	36471.26
662.708	36384.03
663.059	36446.63
663.409	36283.47
663.76	36508.55
664.11	36365.72
664.461	36386.52
664.811	36345.39
665.161	36321.66
665.511	36207.99
665.862	36172.96
666.212	36310.36
666.562	36303.35
666.912	36096.81
667.262	36242.34
667.612	36133.87
667.962	36202.11
668.312	36227.2
668.662	36319.85
669.011	36219.97
669.361	36032.85
669.711	35848.45
670.06	36083.02
670.41	35869.92
670.76	35922.57
671.109	35986.53
671.459	36030.37
671.808	35861.56
672.157	35899.07
672.507	35848
672.856	35778.17
673.205	35733.2
673.554	35846.42
673.904	35790.15
674.253	36014.77
674.602	35785.4
674.951	35272.87
675.3	35013.22
675.649	35627.89
675.998	35620.43
676.346	35484.39
676.695	35674.67
677.044	35395.58
677.393	35434
677.741	35556.93
678.09	35346.99
678.438	35344.96
678.787	35345.19
679.135	35319.2
679.484	35079.2
679.832	35273.78
680.181	35025.65
680.529	35209.6
680.877	34954.91
681.225	34900
681.573	35113.78
681.922	34828.36
682.27	34855.03
682.618	34825.88
682.966	34763.73
683.314	34794.69
683.661	34651.65
684.009	34481.03
684.357	34372.56
684.705	34250.07
685.053	34376.17
685.4	34356.29
685.748	34171.43
686.095	34008.05
686.443	33980.25
686.79	33980.7
687.138	34034.71
687.485	34036.97
687.832	33945
688.18	33939.57
688.527	33776.41
688.874	33790.65
689.221	33493.71
689.568	33430.43
689.915	33347.05
690.262	33441.28
690.609	33282.19
690.956	33123.32
691.303	33217.78
691.65	33060.5
691.997	32930.56
692.344	32822.31
692.69	32717.68
693.037	32816.67
693.383	32481.76
693.73	32486.05
694.077	32389.11
694.423	32404.47
694.769	32285.61
695.116	32241.09
695.462	32173.97
695.808	31970.81
696.155	32027.31
696.501	31827.54
696.847	31751.16
697.193	31526.53
697.539	31687.88
697.885	31502.35
698.231	31416.93
698.577	31464.38
698.923	31368.34
699.269	31233.66
699.614	31015.36
699.96	31116.82
700.306	30977.84
700.651	30840.22
700.997	30702.6
701.342	30812.42
701.688	30663.5
702.033	30568.14
702.379	30530.4
702.724	30388.48
703.069	30515.71
703.415	30145.78
703.76	30116.17
704.105	30240.24
704.45	30127.02
704.795	29930.87
705.14	29913.24
705.485	29861.49
705.83	29699.23
706.175	29700.14
706.52	29538.79
706.865	29530.2
707.209	29511.67
707.554	29423.53
707.899	29398.45
708.243	29414.95
708.588	29217.89
708.932	29021.51
709.277	29115.97
709.621	29008.18
709.966	28886.83
710.31	29035.3
710.654	28682.08
710.998	28702.42
711.342	28683.67
711.687	28710.78
712.031	28511.02
712.375	28466.5
712.719	28553.05
713.063	28328.87
713.407	28441.87
713.75	28327.52
714.094	28351.25
714.438	28086.85
714.782	28142.44
715.125	28034.42
715.469	28179.27
715.812	27929.11
716.156	27890.69
716.499	27889.79
716.843	27806.4
717.186	27685.5
717.53	27824.71
717.873	27633.75
718.216	27691.6
718.559	27534.09
718.902	27414.32
719.246	27510.36
719.589	27383.81
719.932	27218.39
720.275	27324.38
720.617	27233.99
720.96	27109.47
721.303	27213.2
721.646	27102.69
721.989	27013.65
722.331	27135.23
722.674	26983.6
723.016	27057.49
723.359	26950.6
723.701	26976.82
724.044	26705.41
724.386	26646.21
724.729	26758.52
725.071	26624.29
725.413	26507.68
725.755	26535.47
726.097	26424.07
726.439	26444.18
726.782	26336.38
727.124	26414.35
727.465	26328.02
727.807	26272.43
728.149	26263.39
728.491	26129.84
728.833	26214.81
729.175	26131.42
729.516	26015.49
729.858	25942.95
730.199	26027.47
730.541	25930.52
730.882	25914.93
731.224	25911.08
731.565	25899.33
731.906	25853.46
732.248	25739.79
732.589	25633.35
732.93	25548.38
733.271	25554.71
733.612	25537.31
733.953	25559.23
734.294	25496.41
734.635	25415.5
734.976	25543.64
735.317	25420.93
735.658	25426.58
735.999	25345
736.339	25261.84
736.68	25342.96
737.021	25169.86
737.361	25045.8
737.702	25302.29
738.042	25267.03
738.383	25037.43
738.723	25165.12
739.063	25015.29
739.404	24983.2
739.744	24999.47
740.084	24903.88
740.424	24911.79
740.764	24838.8
741.104	25008.74
741.444	24688.07
741.784	24761.28
742.124	24803.99
742.464	24704.56
742.804	24716.09
743.143	24578.01
743.483	24568.97
743.823	24505.47
744.162	24467.05
744.502	24485.36
744.841	24385.25
745.181	24442.65
745.52	24350.9
745.86	24321.75
746.199	24269.32
746.538	24253.27
746.877	24263.67
747.216	24198.81
747.556	24067.74
747.895	24095.99
748.234	24070
748.573	24025.48
748.911	23935.09
749.25	23890.57
749.589	23848.77
749.928	23867.52
750.267	23778.71
750.605	23651.26
750.944	23669.79
751.283	23566.74
751.621	23611.71
751.96	23536.46
752.298	23545.5
752.636	23483.13
752.975	23363.13
753.313	23248.33
753.651	23404.71
753.989	23280.19
