Data from White_paper_FLMS001491_076.txt Node
Date: Tue Feb 07 10:35:32 GMT 2017
User: dcchb
Spectrometer: FLMS00149
Trigger mode: 0
Integration Time (sec): 2.000000E-2
Scans to average: 10
Electric dark correction enabled: true
Nonlinearity correction enabled: false
Boxcar width: 0
XAxis mode: Wavelengths
Number of Pixels in Spectrum: 2048
>>>>>Begin Spectral Data<<<<<
341.393	-9.56
341.776	-9.56
342.16	-9.56
342.543	-81.65
342.927	-61.76
343.31	-87.98
343.693	-64.93
344.077	-55.44
344.46	-73.97
344.843	-52.27
345.226	-31.26
345.61	-17.7
345.993	-2.78
346.376	2.19
346.759	13.26
347.142	20.04
347.525	39.02
347.908	46.26
348.291	81.28
348.674	91
349.057	93.26
349.44	108.63
349.823	138.91
350.206	162.41
350.588	208.96
350.971	245.35
351.354	260.71
351.737	246.02
352.119	295.29
352.502	267.27
352.884	304.78
353.267	296.19
353.65	317.66
354.032	295.06
354.414	328.06
354.797	330.99
355.179	333.03
355.562	341.62
355.944	340.71
356.326	354.95
356.709	363.31
357.091	346.81
357.473	358.11
357.855	366.02
358.238	372.57
358.62	342.29
359.002	379.81
359.384	373.7
359.766	376.42
360.148	365.34
360.53	381.84
360.912	361.95
361.294	350.88
361.676	352.24
362.057	352.46
362.439	366.93
362.821	371.45
363.203	370.99
363.584	327.83
363.966	359.02
364.348	389.98
364.729	368.73
365.111	356.76
365.493	347.04
365.874	373.48
366.256	367.15
366.637	360.82
367.019	354.04
367.4	334.84
367.781	363.31
368.163	376.42
368.544	357.66
368.925	357.21
369.306	360.82
369.688	359.02
370.069	379.58
370.45	366.7
370.831	375.06
371.212	356.53
371.593	368.06
371.974	360.6
372.355	362.86
372.736	363.54
373.117	350.2
373.498	359.02
373.879	362.18
374.26	381.39
374.641	353.59
375.021	374.61
375.402	373.03
375.783	388.62
376.163	397.21
376.544	404.89
376.925	394.95
377.305	380.03
377.686	373.25
378.066	380.71
378.447	396.3
378.827	405.12
379.208	407.15
379.588	399.69
379.968	407.38
380.349	397.89
380.729	391.56
381.109	396.98
381.489	417.77
381.87	445.57
382.25	433.14
382.63	420.48
383.01	430.88
383.39	425.68
383.77	418
384.15	447.38
384.53	443.53
384.91	455.06
385.29	442.63
385.67	429.07
386.049	436.3
386.429	446.92
386.809	462.06
387.189	449.18
387.568	453.25
387.948	460.03
388.328	481.95
388.707	473.14
389.087	462.97
389.466	500.48
389.846	477.43
390.225	480.82
390.605	492.8
390.984	486.92
391.363	503.42
391.743	490.31
392.122	534.6
392.501	511.1
392.881	527.83
393.26	544.77
393.639	521.95
394.018	519.01
394.397	552.23
394.776	565.34
395.155	543.87
395.534	574.38
395.913	550.65
396.292	580.25
396.671	586.13
397.05	567.82
397.429	603.3
397.808	591.78
398.186	606.02
398.565	632.68
398.944	625.68
399.323	642.4
399.701	624.32
400.08	650.31
400.458	639.91
400.837	650.99
401.215	674.94
401.594	668.39
401.972	702.51
402.351	684.21
402.729	704.09
403.107	700.25
403.486	721.04
403.864	744.09
404.242	752.9
404.62	725.33
404.999	738.22
405.377	778.44
405.755	790.64
406.133	827.93
406.511	834.71
406.889	838.1
407.267	826.8
407.645	864.99
408.023	887.14
408.401	888.04
408.779	946.8
409.156	949.73
409.534	975.72
409.912	998.55
410.29	1011.65
410.667	1067.02
411.045	1080.35
411.422	1085.32
411.8	1116.28
412.178	1154.25
412.555	1181.82
412.933	1230.63
413.31	1255.26
413.687	1288.94
414.065	1271.76
414.442	1310.18
414.819	1377.52
415.197	1399.89
415.574	1405.09
415.951	1435.15
416.328	1472.89
416.705	1515.82
417.082	1497.52
417.46	1507.69
417.837	1570.74
418.214	1608.47
418.591	1609.6
418.967	1642.6
419.344	1674.69
419.721	1687.34
420.098	1718.53
420.475	1743.61
420.852	1767.11
421.228	1808.47
421.605	1810.5
421.982	1873.1
422.358	1869.94
422.735	1896.38
423.111	1926.43
423.488	1954.68
423.864	1977.96
424.241	1982.25
424.617	2007.11
424.994	2073.77
425.37	2078.74
425.746	2103.15
426.123	2165.3
426.499	2144.05
426.875	2191.06
427.251	2228.35
427.627	2279.64
428.003	2333.2
428.379	2295.24
428.756	2347.89
429.132	2406.65
429.507	2424.95
429.883	2486.42
430.259	2539.52
430.635	2530.26
431.011	2565.06
431.387	2635.57
431.763	2640.31
432.138	2699.52
432.514	2725.73
432.89	2730.48
433.265	2848.89
433.641	2862.23
434.016	2886.18
434.392	2965.28
434.767	3005.05
435.143	3000.08
435.518	3019.96
435.894	3070.81
436.269	3093.18
436.644	3181.99
437.02	3183.8
437.395	3214.31
437.77	3292.27
438.145	3318.26
438.52	3326.62
438.895	3362.78
439.271	3393.96
439.646	3461.08
440.021	3502.21
440.395	3554.64
440.77	3474.64
441.145	3529.33
441.52	3618.37
441.895	3620.85
442.27	3658.14
442.645	3690.68
443.019	3705.37
443.394	3735.65
443.769	3758.7
444.143	3772.49
444.518	3812.94
444.892	3835.31
445.267	3860.39
445.641	3879.83
446.016	3922.31
446.39	3923.44
446.764	3968.19
447.139	3921.41
447.513	3998.92
447.887	4027.39
448.262	4087.05
448.636	4044.57
449.01	4092.25
449.384	4147.39
449.758	4179.93
450.132	4236.2
450.506	4249.99
450.88	4278.01
451.254	4273.04
451.628	4327.5
452.002	4377.22
452.376	4431
452.75	4383.77
453.123	4506.48
453.497	4558.91
453.871	4598.9
454.244	4688.17
454.618	4695.85
454.992	4779.92
455.365	4807.26
455.739	4850.65
456.112	4946.47
456.486	4956.18
456.859	5016.52
457.232	5112.56
457.606	5081.38
457.979	5184.43
458.352	5297.87
458.725	5389.84
459.099	5372.22
459.472	5485.43
459.845	5500.35
460.218	5637.75
460.591	5666.22
460.964	5671.64
461.337	5817.86
461.71	5939.43
462.083	5956.16
462.456	6009.49
462.829	6032.09
463.201	6143.04
463.574	6132.65
463.947	6251.52
464.32	6395.24
464.692	6426.88
465.065	6433.88
465.438	6530.83
465.81	6705.97
466.183	6707.55
466.555	6835.23
466.928	6932.63
467.3	6940.31
467.672	7046.75
468.045	7287.87
468.417	7281.55
468.789	7330.13
469.161	7417.81
469.534	7544.59
469.906	7725.38
470.278	7750.23
470.65	7802.44
471.022	7960.17
471.394	8114.07
471.766	8251.92
472.138	8345.02
472.51	8467.28
472.882	8613.71
473.253	8668.18
473.625	8796.31
473.997	9015.29
474.369	9108.84
474.74	9159.01
475.112	9388.61
475.484	9474.71
475.855	9675.83
476.227	9691.65
476.598	10021.13
476.97	10076.73
477.341	10389.26
477.713	10402.14
478.084	10499.54
478.455	10881
478.827	10920.77
479.198	11201.44
479.569	11301.55
479.94	11520.08
480.311	11677.36
480.682	11895.21
481.053	12142.89
481.424	12384.01
481.795	12439.15
482.166	12656.32
482.537	12841.4
482.908	13132.24
483.279	13147.38
483.65	13473.02
484.021	13700.81
484.391	13822.84
484.762	13957.3
485.133	14130.86
485.503	14380.57
485.874	14599.55
486.244	14729.94
486.615	15030.72
486.985	15159.76
487.356	15495.79
487.726	15639.74
488.097	15911.15
488.467	16001.99
488.837	16333.06
489.207	16479.72
489.578	16678.81
489.948	16783.22
490.318	17045.13
490.688	17189.31
491.058	17389.3
491.428	17629.75
491.798	17726.92
492.168	18113.13
492.538	18218.21
492.908	18335.72
493.278	18647.57
493.648	18672.21
494.017	18889.15
494.387	19033.1
494.757	19207.11
495.126	19472.86
495.496	19482.35
495.866	19607.1
496.235	19873.31
496.605	19953.08
496.974	20057.03
497.344	20254.54
497.713	20460.41
498.082	20548.77
498.452	20703.34
498.821	20786.73
499.19	20941.53
499.559	21201.18
499.928	21259.03
500.298	21466.94
500.667	21656.99
501.036	21568.4
501.405	21813.14
501.774	21864.21
502.143	22134.94
502.512	22164.54
502.88	22476.63
503.249	22445.44
503.618	22625.1
503.987	22725.43
504.356	22820.8
504.724	22975.14
505.093	23061.02
505.462	23269.83
505.83	23409.03
506.199	23623.49
506.567	23956.14
506.936	23745.52
507.304	24271.16
507.672	24213.98
508.041	24385.5
508.409	24571.94
508.777	24682.22
509.145	24944.36
509.514	24834.3
509.882	25174.86
510.25	25218.7
510.618	25337.12
510.986	25530.78
511.354	25878.34
511.722	26021.17
512.09	26076.53
512.458	26167.38
512.826	26440.36
513.193	26488.27
513.561	26664.09
513.929	26873.57
514.297	27107.47
514.664	27220.91
515.032	27452.77
515.4	27557.85
515.767	27608.24
516.135	27911.74
516.502	27743.38
516.869	28293.65
517.237	28213.88
517.604	28260.43
517.972	28730.25
518.339	28804.82
518.706	28829
519.073	29143.12
519.44	29253.85
519.808	29641.18
520.175	29520.96
520.542	30063.77
520.909	30088.18
521.276	30092.92
521.643	30362.75
522.009	30698.33
522.376	30950.75
522.743	31089.96
523.11	31289.05
523.477	31645.65
523.843	31846.1
524.21	32127.45
524.577	32408.57
524.943	32503.93
525.31	32646.3
525.676	32908.22
526.043	33032.06
526.409	33241.54
526.776	33617.35
527.142	33633.4
527.508	33840.4
527.874	34109.99
528.241	34288.07
528.607	34446.71
528.973	34630.21
529.339	34723.54
529.705	35274.48
530.071	35352.45
530.437	35606.45
530.803	35634.02
531.169	35875.82
531.535	36028.36
531.901	36050.28
532.267	36291.63
532.632	36523.49
532.998	36586.54
533.364	36869.69
533.73	37066.53
534.095	37308.78
534.461	37257.48
534.826	37598.71
535.192	37694.76
535.557	37973.85
535.923	37835.09
536.288	38132.26
536.653	38380.84
537.019	38335.42
537.384	38553.49
537.749	38677.78
538.114	38803.2
538.479	38862.64
538.845	39139.24
539.21	38935.18
539.575	39223.76
539.94	39303.53
540.305	39518.21
540.67	39507.14
541.034	39817.19
541.399	39916.39
541.764	40084.75
542.129	40227.8
542.494	40224.63
542.858	40538.52
543.223	40593.89
543.587	40796.82
543.952	40795.92
544.316	40982.13
544.681	41003.15
545.045	41293.53
545.41	41458.5
545.774	41435
546.138	41571.04
546.503	41689.45
546.867	41838.15
547.231	42127.86
547.595	42188.42
547.959	42311.59
548.324	42424.35
548.688	42468.19
549.052	42622.54
549.416	42691.01
549.779	42843.77
550.143	42973.26
550.507	43241.5
550.871	43245.12
551.235	43335.06
551.599	43630.65
551.962	43870.87
552.326	43820.02
552.689	44096.4
553.053	43864.31
553.417	44100.69
553.78	44532.54
554.143	44342.94
554.507	44653.9
554.87	44835.59
555.234	45209.81
555.597	44955.36
555.96	45175.69
556.323	45304.27
556.686	45314.67
557.05	45692.06
557.413	45736.35
557.776	45856.12
558.139	46204.59
558.502	46130.47
558.865	46387.64
559.228	46600.74
559.59	46737.91
559.953	46759.83
560.316	47142.87
560.679	47231.23
561.041	47448.63
561.404	47544.22
561.767	47740.82
562.129	47692.46
562.492	48085.22
562.854	48127.93
563.217	48237.08
563.579	48430.52
563.941	48453.34
564.304	48717.52
564.666	48867.57
565.028	48975.82
565.39	49064.63
565.753	49304.62
566.115	49376.48
566.477	49777.38
566.839	49763.37
567.201	50006.3
567.563	49970.37
567.925	50238.16
568.287	50181.66
568.648	50254.43
569.01	50518.6
569.372	50772.61
569.734	50649.9
570.095	50914.3
570.457	51052.82
570.819	51162.43
571.18	51130.11
571.542	51332.14
571.903	51416.2
572.265	51508.86
572.626	51724.9
572.987	51768.29
573.349	51866.36
573.71	51942.74
574.071	52071.78
574.432	52158.33
574.794	52415.95
575.155	52272.91
575.516	52275.39
575.877	52372.34
576.238	52476.52
576.599	52689.17
576.96	52748.37
577.32	52676.06
577.681	52872.89
578.042	52959.89
578.403	52943.4
578.763	53029.27
579.124	52978.42
579.485	53180.23
579.845	53332.76
580.206	53196.95
580.566	53263.84
580.927	53309.94
581.287	53509.26
581.648	53365.53
582.008	53588.12
582.368	53509.26
582.728	53580.22
583.089	53525.98
583.449	53578.86
583.809	53585.41
584.169	53728.69
584.529	53602.14
584.889	53837.84
585.249	53635.58
585.609	53646.43
585.969	53893.43
586.329	53749.48
586.688	53809.36
587.048	53808.01
587.408	53774.11
587.768	53803.26
588.127	53781.57
588.487	53784.05
588.846	54035.12
589.206	53836.03
589.565	53929.13
589.925	54053.65
590.284	53964.39
590.643	54024.5
591.003	54145.4
591.362	54155.57
591.721	54078.06
592.08	54129.58
592.44	54148.56
592.799	54191.05
593.158	54113.08
593.517	54153.76
593.876	54230.14
594.235	54247.32
594.593	54225.4
594.952	54262.68
595.311	54262.01
595.67	54277.82
596.029	54437.37
596.387	54458.38
596.746	54529.8
597.104	54361.89
597.463	54358.95
597.822	54469.68
598.18	54476.01
598.538	54321.44
598.897	54540.64
599.255	54329.12
599.613	54816.57
599.972	54533.86
600.33	54591.04
600.688	54569.57
601.046	54706.74
601.404	54745.16
601.762	54680.98
602.12	54787.42
602.478	54776.34
602.836	54798.71
603.194	54668.32
603.552	54800.07
603.91	54675.1
604.268	54861.76
604.625	54775.44
604.983	54899.95
605.341	54740.41
605.698	54911.25
606.056	54971.59
606.413	54982.66
606.771	54984.47
607.128	55054.53
607.485	54930.46
607.843	54996.68
608.2	55122.55
608.557	55217.01
608.914	55108.54
609.272	55173.85
609.629	55250
609.986	55355.31
610.343	55299.94
610.7	55413.16
611.057	55316.44
611.414	55398.7
611.771	55347.63
612.127	55469.43
612.484	55475.53
612.841	55537.9
613.198	55423.56
613.554	55485.48
613.911	55635.53
614.267	55506.04
614.624	55526.38
614.98	55695.64
615.337	55724.57
615.693	55684.57
616.05	55608.41
616.406	55780.84
616.762	55654.06
617.118	55648.18
617.475	55691.35
617.831	55800.27
618.187	55809.76
618.543	55863.09
618.899	55971.57
619.255	55827.16
619.611	55839.59
619.967	55922.07
620.323	56010.89
620.678	55878.46
621.034	55856.99
621.39	55831.46
621.746	55828.29
622.101	56206.36
622.457	55923.43
622.812	55921.4
623.168	56003.88
623.523	56079.58
623.879	56020.38
624.234	55936.99
624.589	56092.92
624.945	56040.72
625.3	56104.44
625.655	56026.48
626.01	56065.8
626.365	56113.93
626.72	56036.2
627.075	55984.9
627.43	56040.26
627.785	55973.15
628.14	56079.36
628.495	56065.12
628.85	56014.95
629.205	55992.36
629.559	56154.61
629.914	55976.99
630.269	56012.47
630.623	56023.99
630.978	55928.18
631.332	56025.57
631.687	56143.76
632.041	55983.77
632.396	56023.32
632.75	55924.56
633.104	55890.89
633.459	55860.38
633.813	55833.49
634.167	55858.12
634.521	55767.95
634.875	55887.5
635.229	55810.21
635.583	55780.61
635.937	55742.87
636.291	55696.32
636.645	55731.35
636.999	55708.3
637.352	55774.96
637.706	55511.01
638.06	55663.55
638.413	55657
638.767	55630.33
639.121	55575.19
639.474	55464.01
639.828	55542.2
640.181	55484.8
640.534	55551.24
640.888	55491.35
641.241	55369.32
641.594	55445.25
641.947	55487.74
642.301	55366.61
642.654	55491.8
643.007	55403.9
643.36	55421.07
643.713	55414.29
644.066	55459.49
644.419	55233.51
644.771	55056.11
645.124	54857.92
645.477	54792.61
645.83	54566.4
646.182	54614.76
646.535	54457.03
646.888	54497.93
647.24	54307.43
647.593	54583.13
647.945	54482.34
648.298	54308.78
648.65	54289.12
649.002	54220.88
649.355	54333.42
649.707	54310.59
650.059	54478.27
650.411	54751.26
650.763	54860.86
651.115	55061.08
651.467	54924.13
651.819	54951.03
652.171	54935.66
652.523	54831.48
652.875	54876.45
653.227	54701.77
653.578	55043.45
653.93	54834.42
654.282	54812.5
654.633	54732.5
654.985	54700.19
655.337	54761.65
655.688	54767.75
656.039	54846.62
656.391	54596.46
656.742	54626.74
657.094	54663.8
657.445	54764.59
657.796	54662.9
658.147	54659.28
658.498	54643.01
658.849	54673.75
659.2	54610.02
659.551	54578.83
659.902	54609.11
660.253	54551.94
660.604	54655.89
660.955	54525.05
661.306	54569.57
661.656	54532.05
662.007	54626.52
662.358	54525.73
662.708	54463.36
663.059	54558.04
663.409	54297.94
663.76	54552.85
664.11	54493.86
664.461	54556.01
664.811	54523.69
665.161	54456.58
665.511	54311.95
665.862	54416.35
666.212	54488.67
666.562	54470.59
666.912	54424.04
667.262	54377.03
667.612	54272.17
667.962	54317.6
668.312	54262.01
668.662	54414.54
669.011	54431.72
669.361	54236.02
669.711	54235.79
670.06	54179.97
670.41	54142.01
670.76	54158.96
671.109	54268.56
671.459	54141.1
671.808	54047.1
672.157	54142.46
672.507	53946.08
672.856	53946.99
673.205	53985.18
673.554	54043.71
673.904	53944.95
674.253	54062.46
674.602	54019.53
674.951	53589.71
675.3	53354.23
675.649	53907.21
675.998	53833.54
676.346	53889.36
676.695	53931.62
677.044	53632.87
677.393	53863.82
677.741	53778.18
678.09	53654.34
678.438	53592.87
678.787	53656.6
679.135	53626.77
679.484	53404.17
679.832	53465.87
680.181	53314.69
680.529	53499.09
680.877	53285.53
681.225	53248.02
681.573	53441.69
681.922	53231.3
682.27	53153.33
682.618	53097.97
682.966	53083.51
683.314	53088.7
683.661	52999.21
684.009	52838.54
684.357	52868.37
684.705	52724.19
685.053	52792.67
685.4	52694.59
685.748	52579.79
686.095	52547.25
686.443	52339.12
686.79	52351.32
687.138	52403.07
687.485	52325.11
687.832	52286.46
688.18	52241.49
688.527	52090.54
688.874	51992.69
689.221	51860.94
689.568	51855.52
689.915	51742.3
690.262	51785.23
690.609	51696.42
690.956	51533.26
691.303	51520.83
691.65	51365.13
691.997	51359.93
692.344	51137.57
692.69	51070.22
693.037	51130.34
693.383	50996.55
693.73	50837.69
694.077	50758.82
694.423	50789.1
694.769	50633.85
695.116	50529.9
695.462	50496.23
695.808	50419.85
696.155	50409.23
696.501	50080.65
696.847	50163.36
697.193	49954.55
697.539	49978.5
697.885	49743.71
698.231	49588.91
698.577	49679.98
698.923	49540.1
699.269	49411.29
699.614	49230.27
699.96	49290.16
700.306	49075.25
700.651	49038.41
700.997	48903.28
701.342	48885.88
701.688	48875.25
702.033	48712.09
702.379	48661.47
702.724	48464.64
703.069	48566.11
703.415	48100.81
703.76	48200.47
704.105	48286.12
704.45	47910.53
704.795	47844.32
705.14	47720.48
705.485	47722.06
705.83	47570.43
706.175	47615.85
706.52	47568.85
706.865	47353.94
707.209	47329.98
707.554	47197.56
707.899	47365.01
708.243	47049.54
708.588	46908.3
708.932	46632.6
709.277	46706.27
709.621	46686.84
709.966	46367.07
710.31	46491.36
710.654	46179.28
710.998	46428.54
711.342	46200.3
711.687	46159.62
712.031	46112.39
712.375	45984.03
712.719	45929.57
713.063	45829.46
713.407	45944.71
713.75	45746.07
714.094	45643.7
714.438	45499.07
714.782	45528.22
715.125	45382.69
715.469	45379.98
715.812	45153.09
716.156	45109.93
716.499	45069.03
716.843	45052.3
717.186	44704.06
717.53	44948.35
717.873	44969.14
718.216	44723.05
718.559	44681.92
718.902	44398.08
719.246	44502.71
719.589	44352.21
719.932	44138.88
720.275	44343.4
720.617	44067.7
720.96	44081.26
721.303	44182.04
721.646	44088.94
721.989	43721.04
722.331	43925.78
722.674	43835.16
723.016	43714.94
723.359	43687.14
723.701	43693.7
724.044	43374.83
724.386	43246.02
724.729	43470.65
725.071	43421.84
725.413	43246.93
725.755	43162.86
726.097	43041.06
726.439	42882.87
726.782	42983.21
727.124	43111.11
727.465	42803.32
727.807	42781.18
728.149	42674.97
728.491	42570.56
728.833	42676.1
729.175	42541.41
729.516	42498.02
729.858	42229.55
730.199	42346.39
730.541	42350.45
730.882	42126.51
731.224	42291.92
731.565	41955.44
731.906	42094.42
732.248	42069.33
732.589	41960.18
732.93	41837.7
733.271	41810.13
733.612	41796.8
733.953	41705.05
734.294	41611.49
734.635	41488.33
734.976	41606.29
735.317	41372.17
735.658	41371.72
735.999	41375.34
736.339	41184.38
736.68	41378.73
737.021	41239.07
737.361	41067.1
737.702	41184.38
738.042	40923.6
738.383	41033.2
738.723	41113.88
739.063	40858.29
739.404	40920.21
739.744	40770.38
740.084	40648.35
740.424	40558.64
740.764	40590.05
741.104	40829.14
741.444	40467.57
741.784	40372.65
742.124	40332.43
742.464	40383.5
742.804	40394.35
743.143	40114.35
743.483	40183.51
743.823	40009.72
744.162	39932.89
744.502	40023.28
744.841	39889.5
745.181	40045.2
745.52	39817.41
745.86	39983.28
746.199	39794.82
746.538	39775.61
746.877	39703.97
747.216	39688.6
747.556	39584.43
747.895	39541.71
748.234	39262.85
748.573	39432.34
748.911	39214.72
749.25	39168.84
749.589	39113.7
749.928	39124.55
750.267	39211.78
750.605	39001.39
750.944	38922.3
751.283	38800.94
751.621	38925.46
751.96	38555.3
752.298	38620.16
752.636	38613.15
752.975	38310.33
