Data from white_steel_sheet_FLMS001491_092.txt Node
Date: Tue Feb 07 10:58:49 GMT 2017
User: dcchb
Spectrometer: FLMS00149
Trigger mode: 0
Integration Time (sec): 2.000000E-2
Scans to average: 10
Electric dark correction enabled: true
Nonlinearity correction enabled: false
Boxcar width: 0
XAxis mode: Wavelengths
Number of Pixels in Spectrum: 2048
>>>>>Begin Spectral Data<<<<<
341.393	-24.1
341.776	-24.1
342.16	-24.1
342.543	-55.06
342.927	-56.86
343.31	-69.74
343.693	-55.06
344.077	-67.48
344.46	-75.62
344.843	-58.67
345.226	-44.89
345.61	-27.03
345.993	-13.93
346.376	-12.8
346.759	23.13
347.142	42.8
347.525	43.7
347.908	62.46
348.291	52.51
348.674	98.16
349.057	102.45
349.44	104.49
349.823	145.62
350.206	181.55
350.588	210.93
350.971	216.12
351.354	224.71
351.737	240.98
352.119	248.44
352.502	275.78
352.884	290.47
353.267	280.08
353.65	295.9
354.032	308.33
354.414	299.51
354.797	346.97
355.179	321.21
355.562	306.52
355.944	327.53
356.326	359.17
356.709	337.7
357.091	335.9
357.473	328.66
357.855	347.42
358.238	335.67
358.62	356.46
359.002	350.81
359.384	346.52
359.766	334.54
360.148	350.36
360.53	348.55
360.912	343.35
361.294	337.7
361.676	347.42
362.057	356.23
362.439	326.86
362.821	347.42
363.203	341.54
363.584	336.8
363.966	346.74
364.348	337.93
364.729	345.16
365.111	331.6
365.493	316.91
365.874	337.25
366.256	321.43
366.637	318.72
367.019	345.39
367.4	337.7
367.781	323.92
368.163	322.79
368.544	301.77
368.925	344.93
369.306	326.86
369.688	329.79
370.069	324.14
370.45	320.98
370.831	327.08
371.212	327.53
371.593	329.12
371.974	328.89
372.355	333.18
372.736	346.97
373.117	333.18
373.498	332.73
373.879	341.32
374.26	325.05
374.641	330.02
375.021	339.28
375.402	341.09
375.783	339.74
376.163	333.18
376.544	333.86
376.925	354.88
377.305	335.44
377.686	334.77
378.066	351.04
378.447	351.94
378.827	332.05
379.208	349.23
379.588	381.54
379.968	359.17
380.349	352.39
380.729	356.23
381.109	370.24
381.489	374.31
381.87	355.56
382.25	354.43
382.63	362.34
383.01	364.59
383.39	372.5
383.77	369.79
384.15	382.45
384.53	356.69
384.91	371.83
385.29	366.63
385.67	399.4
386.049	397.14
386.429	383.35
386.809	382.9
387.189	393.97
387.568	396.23
387.948	390.58
388.328	377.7
388.707	401.2
389.087	384.93
389.466	414.99
389.846	403.24
390.225	415.89
390.605	412.05
390.984	427.64
391.363	413.86
391.743	425.16
392.122	427.64
392.501	430.81
392.881	451.82
393.26	458.83
393.639	445.04
394.018	443.01
394.397	445.04
394.776	452.73
395.155	457.47
395.534	464.93
395.913	484.59
396.292	473.52
396.671	479.85
397.05	502.44
397.429	499.96
397.808	500.86
398.186	489.56
398.565	494.08
398.944	519.39
399.323	525.95
399.701	521.2
400.08	513.29
400.458	535.89
400.837	556.91
401.215	569.79
401.594	566.17
401.972	546.96
402.351	572.27
402.729	570.01
403.107	601.88
403.486	580.63
403.864	620.86
404.242	624.7
404.62	616.11
404.999	615.89
405.377	646.4
405.755	635.55
406.133	646.85
406.511	655.89
406.889	670.12
407.267	672.84
407.645	704.7
408.023	699.5
408.401	718.71
408.779	718.03
409.156	725.72
409.534	728.88
409.912	742.89
410.29	756.9
410.667	757.13
411.045	797.35
411.422	810.01
411.8	819.05
412.178	834.41
412.555	828.99
412.933	852.04
413.31	843.23
413.687	854.07
414.065	885.71
414.442	892.72
414.819	904.69
415.197	892.26
415.574	912.15
415.951	920.06
416.328	930.91
416.705	930.68
417.082	925.71
417.46	951.7
417.837	976.33
418.214	973.39
418.591	1000.06
418.967	1019.72
419.344	1018.82
419.721	1031.47
420.098	1044.35
420.475	1032.6
420.852	1062.43
421.228	1053.84
421.605	1086.61
421.982	1082.09
422.358	1083.45
422.735	1118.25
423.111	1133.39
423.488	1126.83
423.864	1122.09
424.241	1152.82
424.617	1158.92
424.994	1168.64
425.37	1199.6
425.746	1193.5
426.123	1234.63
426.499	1208.64
426.875	1226.49
427.251	1264.46
427.627	1263.33
428.003	1286.83
428.379	1321.18
428.756	1289.09
429.132	1321.63
429.507	1334.96
429.883	1398.92
430.259	1407.51
430.635	1407.96
431.011	1420.84
431.387	1449.09
431.763	1487.28
432.138	1472.14
432.514	1513.49
432.89	1516.66
433.265	1534.28
433.641	1549.42
434.016	1560.27
434.392	1584.45
434.767	1633.71
435.143	1593.94
435.518	1633.71
435.894	1640.49
436.269	1712.58
436.644	1697.67
437.02	1721.4
437.395	1748.97
437.77	1736.99
438.145	1744.9
438.52	1792.81
438.895	1798.91
439.271	1809.75
439.646	1832.13
440.021	1867.15
440.395	1878
440.77	1886.59
441.145	1872.8
441.52	1942.18
441.895	1933.14
442.27	1965.68
442.645	1958.68
443.019	1989.18
443.394	1993.25
443.769	1998.45
444.143	2031.9
444.518	2057.88
444.892	2028.96
445.267	2070.31
445.641	2128.39
446.016	2092.91
446.39	2124.1
446.764	2134.94
447.139	2129.07
447.513	2136.07
447.887	2176.52
448.262	2200.03
448.636	2204.09
449.01	2254.04
449.384	2216.52
449.758	2284.54
450.132	2301.27
450.506	2317.31
450.88	2317.31
451.254	2379.01
451.628	2363.19
452.002	2379.46
452.376	2421.72
452.75	2438.66
453.123	2433.47
453.497	2479.34
453.871	2489.74
454.244	2552.33
454.618	2573.35
454.992	2642.73
455.365	2644.76
455.739	2673.91
456.112	2721.14
456.486	2702.61
456.859	2755.27
457.232	2797.3
457.606	2779.67
457.979	2887.92
458.352	2924.3
458.725	2938.54
459.099	2920.23
459.472	3009.5
459.845	3034.13
460.218	3058.08
460.591	3083.39
460.964	3100.79
461.337	3173.79
461.71	3202.71
462.083	3266.21
462.456	3263.05
462.829	3289.72
463.201	3352.76
463.574	3363.16
463.947	3409.71
464.32	3465.3
464.692	3519.31
465.065	3530.61
465.438	3586.88
465.81	3641.12
466.183	3662.81
466.555	3749.36
466.928	3760.44
467.3	3740.55
467.672	3849.48
468.045	3917.27
468.417	3909.36
468.789	3934.9
469.161	4010.37
469.534	4091.5
469.906	4202.23
470.278	4175.12
470.65	4251.27
471.022	4300.99
471.394	4379.18
471.766	4383.7
472.138	4474.09
472.51	4540.76
472.882	4663.46
473.253	4679.28
473.625	4699.85
473.997	4841.54
474.369	4863.23
474.74	4918.83
475.112	5003.12
475.484	5092.15
475.855	5202.21
476.227	5260.29
476.598	5364.92
476.97	5399.49
477.341	5520.17
477.713	5601.07
478.084	5657.34
478.455	5843.55
478.827	5841.29
479.198	6042.86
479.569	6002.19
479.94	6208.51
480.311	6277.66
480.682	6400.82
481.053	6502.74
481.424	6651.89
481.795	6635.62
482.166	6801.49
482.537	6916.74
482.908	7035.83
483.279	7074.7
483.65	7199.9
484.021	7348.37
484.391	7384.98
484.762	7535.25
485.133	7594.91
485.503	7677.4
485.874	7875.58
486.244	7978.18
486.615	8078.52
486.985	8184.28
487.356	8318.74
487.726	8416.81
488.097	8594.66
488.467	8621.78
488.837	8871.04
489.207	8877.37
489.578	9060.41
489.948	9128.43
490.318	9221.76
490.688	9316.68
491.058	9443.9
491.428	9560.51
491.798	9697
492.168	9827.62
492.538	9893.16
492.908	9965.7
493.278	10111.91
493.648	10105.81
494.017	10266.71
494.387	10420.38
494.757	10506.02
495.126	10594.38
495.496	10661.95
495.866	10744.21
496.235	10829.4
496.605	11012.68
496.974	11036.4
497.344	11164.54
497.713	11130.19
498.082	11357.53
498.452	11442.27
498.821	11497.41
499.19	11570.18
499.559	11644.07
499.928	11684.3
500.298	11840.45
500.667	12004.51
501.036	11891.75
501.405	12129.71
501.774	12101.46
502.143	12235.47
502.512	12346.43
502.88	12450.83
503.249	12442.02
503.618	12586.42
503.987	12641.79
504.356	12722.69
504.724	12852.85
505.093	12891.05
505.462	12972.85
505.83	13087.42
506.199	13214.65
506.567	13331.26
506.936	13313.18
507.304	13554.98
507.672	13592.95
508.041	13659.84
508.409	13670.01
508.777	13837.91
509.145	13956.1
509.514	14050.11
509.882	14068.87
510.25	14232.03
510.618	14390.67
510.986	14382.76
511.354	14561.28
511.722	14678.79
512.09	14706.59
512.458	14784.1
512.826	15036.07
513.193	14967.83
513.561	15153.58
513.929	15259.57
514.297	15388.38
514.664	15439.9
515.032	15594.25
515.4	15750.41
515.767	15850.74
516.135	15923.51
516.502	15860.91
516.869	16192.43
517.237	16226.1
517.604	16158.53
517.972	16442.36
518.339	16516.26
518.706	16601.23
519.073	16738.63
519.44	16812.3
519.808	17055.46
520.175	17018.85
520.542	17382.9
520.909	17458.16
521.276	17451.15
521.643	17669.22
522.009	17810.69
522.376	17842.33
522.743	18039.38
523.11	18299.72
523.477	18388.53
523.843	18462.65
524.21	18715.52
524.577	18828.06
524.943	19024.9
525.31	19027.38
525.676	19291.78
526.043	19323.64
526.409	19522.96
526.776	19611.77
527.142	19676.4
527.508	19856.51
527.874	20052.66
528.241	20213.11
528.607	20181.7
528.973	20421.92
529.339	20446.1
529.705	20627.34
530.071	20867.56
530.437	20923.83
530.803	21078.63
531.169	21266.19
531.535	21192.75
531.901	21389.35
532.267	21479.07
532.632	21694.43
532.998	21604.26
533.364	21935.1
533.73	21860.53
534.095	22047.19
534.461	22178.03
534.826	22270.91
535.192	22322.21
535.557	22468.42
535.923	22458.25
536.288	22664.35
536.653	22848.75
537.019	22683.1
537.384	22822.99
537.749	22993.6
538.114	23054.17
538.479	23084.9
538.845	23324.67
539.21	23296.42
539.575	23371
539.94	23439.02
540.305	23568.5
540.67	23506.59
541.034	23624.77
541.399	23809.4
541.764	23892.34
542.129	24009.17
542.494	23978.66
542.858	24225.21
543.223	24176.62
543.587	24366.45
543.952	24298.2
544.316	24577.74
544.681	24567.12
545.045	24637.18
545.41	24716.05
545.774	24799.43
546.138	24907.68
546.503	24795.82
546.867	24974.34
547.231	25220.89
547.595	25135.02
547.959	25255.69
548.324	25355.12
548.688	25378.17
549.052	25498.85
549.416	25515.12
549.779	25636.92
550.143	25774.77
550.507	25920.31
550.871	26048.21
551.235	26033.3
551.599	26212.05
551.962	26192.39
552.326	26153.52
552.689	26514.87
553.053	26417.24
553.417	26583.57
553.78	26875.99
554.143	26773.17
554.507	26897.91
554.87	26917.12
555.234	27270.55
555.597	27001.86
555.96	27337.67
556.323	27280.5
556.686	27381.74
557.05	27678.23
557.413	27748.28
557.776	27623.77
558.139	27970.42
558.502	28069.4
558.865	28148.72
559.228	28269.85
559.59	28484.76
559.953	28362.5
560.316	28782.83
560.679	28881.81
561.041	29042.03
561.404	29047.91
561.767	29324.29
562.129	29224.18
562.492	29547.78
562.854	29555.69
563.217	29538.74
563.579	29586.43
563.941	29826.65
564.304	29971.95
564.666	30067.09
565.028	30190.48
565.39	30235.45
565.753	30382.56
566.115	30562.9
566.477	30766.28
566.839	30754.08
567.201	31051.47
567.563	30943.68
567.925	31194.07
568.287	31187.74
568.648	31226.83
569.01	31383.21
569.372	31627.73
569.734	31434.06
570.095	31787.5
570.457	31861.17
570.819	31943.43
571.18	32018.45
571.542	32158.79
571.903	32260.93
572.265	32278.56
572.626	32371.66
572.987	32506.57
573.349	32483.07
573.71	32543.18
574.071	32829.73
574.432	32866.11
574.794	33165.54
575.155	33061.14
575.516	32867.92
575.877	33130.97
576.238	33166.67
576.599	33214.58
576.96	33281.92
577.32	33290.06
577.681	33402.14
578.042	33555.36
578.403	33542.71
578.763	33496.38
579.124	33697.05
579.485	33775.47
579.845	33827.9
580.206	33602.82
580.566	33862.02
580.927	33860.89
581.287	33869.48
581.648	33857.73
582.008	33938.4
582.368	33861.34
582.728	33969.59
583.089	33982.24
583.449	33937.95
583.809	33978.85
584.169	34015.46
584.529	33821.34
584.889	34155.8
585.249	34025.63
585.609	33930.72
585.969	34122.8
586.329	33900.89
586.688	33988.34
587.048	33942.24
587.408	33957.84
587.768	34007.78
588.127	34016.82
588.487	33951.73
588.846	34220.88
589.206	33918.06
589.565	33967.55
589.925	34170.03
590.284	34011.62
590.643	34109.02
591.003	34140.88
591.362	34200.32
591.721	34130.71
592.08	34159.19
592.44	34111.96
592.799	34161.9
593.158	34025.4
593.517	34121.45
593.876	34207.77
594.235	33950.15
594.593	34143.37
594.952	34159.19
595.311	34103.37
595.67	34266.53
596.029	34350.59
596.387	34252.29
596.746	34373.42
597.104	34254.55
597.463	34116.02
597.822	34304.27
598.18	34132.29
598.538	34099.3
598.897	34290.71
599.255	34067.89
599.613	34642.56
599.972	34319.63
600.33	34438.05
600.688	34233.08
601.046	34423.36
601.404	34493.42
601.762	34432.17
602.12	34571.83
602.478	34506.75
602.836	34509.01
603.194	34345.62
603.552	34485.51
603.91	34333.65
604.268	34401.44
604.625	34343.14
604.983	34482.34
605.341	34421.33
605.698	34601.43
606.056	34629.68
606.413	34538.16
606.771	34648.44
607.128	34773.86
607.485	34466.75
607.843	34570.25
608.2	34641.21
608.557	34838.26
608.914	34791.94
609.272	34813.63
609.629	34975.89
609.986	35149.44
610.343	34957.81
610.7	35158.71
611.057	35056.79
611.414	35155.09
611.771	34997.36
612.127	35252.04
612.484	35207.52
612.841	35377.01
613.198	35176.33
613.554	35198.71
613.911	35441.64
614.267	35427.85
614.624	35408.19
614.98	35511.69
615.337	35470.56
615.693	35493.61
616.05	35391.7
616.406	35711.91
616.762	35598.7
617.118	35689.09
617.475	35716.21
617.831	35753.95
618.187	35583.1
618.543	35710.78
618.899	36066.26
619.255	35907.84
619.611	35865.58
619.967	35960.5
620.323	36035.97
620.678	35870.55
621.034	35719.37
621.39	35873.04
621.746	35869.65
622.101	36103.99
622.457	35859.03
622.812	36016.99
623.168	36154.61
623.523	36087.05
623.879	36108.97
624.234	35898.12
624.589	36028.97
624.945	36083.43
625.3	36089.53
625.655	35972.92
626.01	36017.67
626.365	36049.98
626.72	35972.7
627.075	36014.05
627.43	35933.6
627.785	35976.77
628.14	35953.04
628.495	36081.62
628.85	35963.88
629.205	35835.07
629.559	36120.94
629.914	35858.8
630.269	35946.94
630.623	35894.96
630.978	35731.8
631.332	35953.04
631.687	35995.97
632.041	35751.91
632.396	35714.85
632.75	35592.37
633.104	35725.7
633.459	35491.81
633.813	35600.5
634.167	35523.67
634.521	35545.36
634.875	35447.51
635.229	35379.04
635.583	35312.38
635.937	35256.33
636.291	35244.81
636.645	35290
636.999	35226.5
637.352	35346.27
637.706	35081.65
638.06	35239.38
638.413	35071.48
638.767	34925.04
639.121	35126.84
639.474	34720.53
639.828	34866.51
640.181	34938.6
640.534	34801.2
640.888	34675.56
641.241	34531.61
641.594	34488.44
641.947	34767.31
642.301	34520.76
642.654	34487.77
643.007	34452.29
643.36	34457.03
643.713	34297.71
644.066	34448.22
644.419	34234.21
644.771	34020.21
645.124	33781.8
645.477	33596.72
645.83	33319.89
646.182	33184.97
646.535	33227.23
646.888	33311.07
647.24	33045.09
647.593	33283.73
647.945	33220
648.298	33081.7
648.65	32980.01
649.002	33010.29
649.355	33165.99
649.707	32902.5
650.059	33000.12
650.411	33457.74
650.763	33430.39
651.115	33929.81
651.467	33704.06
651.819	33522.59
652.171	33679.43
652.523	33551.52
652.875	33537.73
653.227	33410.28
653.578	33663.38
653.93	33449.15
654.282	33223.62
654.633	33440.56
654.985	33390.39
655.337	33268.14
655.688	33225.43
656.039	33385.2
656.391	33030.85
656.742	33114.02
657.094	33144.52
657.445	33248.93
657.796	33083.06
658.147	33034.7
658.498	32923.29
658.849	33148.37
659.2	32945.89
659.551	32868.15
659.902	32945.89
660.253	32869.73
660.604	32994.02
660.955	32711.54
661.306	32843.06
661.656	32715.38
662.007	32768.71
662.358	32670.64
662.708	32750.18
663.059	32560.58
663.409	32339.8
663.76	32664.99
664.11	32544.54
664.461	32534.37
664.811	32477.42
665.161	32474.71
665.511	32244.66
665.862	32240.37
666.212	32283.08
666.562	32193.59
666.912	32144.78
667.262	31953.37
667.612	31988.17
667.962	31899.81
668.312	31860.49
668.662	31933.26
669.011	31736.43
669.361	31632.7
669.711	31557.22
670.06	31422.99
670.41	31387.96
670.76	31141.86
671.109	31488.75
671.459	31332.14
671.808	31182.09
672.157	31131.47
672.507	31048.53
672.856	30901.87
673.205	31058.48
673.554	30889.22
673.904	30879.95
674.253	31048.53
674.602	30933.96
674.951	30330.13
675.3	30202.23
675.649	30752.95
675.998	30585.5
676.346	30597.25
676.695	30724.7
677.044	30503.46
677.393	30616.45
677.741	30585.04
678.09	30568.77
678.438	30398.16
678.787	30413.3
679.135	30484.71
679.484	30371.94
679.832	30344.6
680.181	30173.3
680.529	30445.16
680.877	30317.93
681.225	30185.05
681.573	30516.8
681.922	30402.68
682.27	30234.09
682.618	30205.84
682.966	30194.55
683.314	30202.68
683.661	30343.02
684.009	30261.21
684.357	30168.78
684.705	30112.74
685.053	30299.85
685.4	30132.85
685.748	30106.41
686.095	30225.5
686.443	29948
686.79	30014.44
687.138	29950.26
687.485	30078.16
687.832	30046.53
688.18	30122.46
688.527	30032.06
688.874	29985.06
689.221	29975.34
689.568	29883.14
689.915	29945.06
690.262	29883.37
690.609	29829.81
690.956	29739.42
691.303	29712.75
691.65	29777.83
691.997	29682.69
692.344	29568.12
692.69	29644.5
693.037	29658.06
693.383	29329.26
693.73	29569.48
694.077	29346.43
694.423	29415.36
694.769	29415.13
695.116	29322.93
695.462	29305.75
695.808	29256.49
696.155	29283.61
696.501	29035.93
696.847	29109.38
697.193	28910.96
697.539	29044.74
697.885	28733.79
698.231	28618.32
698.577	28942.37
698.923	28614.93
699.269	28579.45
699.614	28420.58
699.96	28335.84
700.306	28364.76
700.651	28268.27
700.997	28208.61
701.342	28070.08
701.688	28128.61
702.033	28025.56
702.379	27932.46
702.724	27956.19
703.069	27981.72
703.415	27609.08
703.76	27676.87
704.105	27656.98
704.45	27650.43
704.795	27474.16
705.14	27308.29
705.485	27234.4
705.83	27076.89
706.175	27314.62
706.52	27187.39
706.865	27018.81
707.209	27084.12
707.554	26882.09
707.899	26841.64
708.243	26853.84
708.588	26790.79
708.932	26596.67
709.277	26659.95
709.621	26650.46
709.966	26438.26
710.31	26622.21
710.654	26253.63
710.998	26425.6
711.342	26444.36
711.687	26351.93
712.031	26111.94
712.375	26116.46
712.719	26003.92
713.063	26073.98
713.407	26123.47
713.75	25915.11
714.094	25841.44
714.438	25859.29
714.782	25907.43
715.125	25591.28
715.469	25696.36
715.812	25612.07
716.156	25461.34
716.499	25524.61
716.843	25534.1
717.186	25272.64
717.53	25489.13
717.873	25440.77
718.216	25492.97
718.559	25258.86
718.902	25109.93
719.246	25237.39
719.589	24982.7
719.932	24947.68
720.275	24946.55
720.617	24915.36
720.96	24841.01
721.303	24942.25
721.646	24936.83
721.989	24751.52
722.331	24932.54
722.674	24730.73
723.016	24650.28
723.359	24562.15
723.701	24676.05
724.044	24625.65
724.386	24425.21
724.729	24516.95
725.071	24449.61
725.413	24351.08
725.755	24293.23
726.097	24263.85
726.439	24222.05
726.782	24252.1
727.124	24323.74
727.465	24100.47
727.807	24054.14
728.149	24027.25
728.491	24037.64
728.833	23973.69
729.175	23952
729.516	23803.07
729.858	23818.22
730.199	23953.58
730.541	23804.43
730.882	23828.16
731.224	23789.06
731.565	23535.29
731.906	23660.25
732.248	23619.12
732.589	23535.74
732.93	23450.09
733.271	23485.34
733.612	23400.37
733.953	23502.74
734.294	23316.76
734.635	23260.49
734.976	23344.78
735.317	23225.01
735.658	23253.03
735.999	23216.42
736.339	23127.84
736.68	23141.62
737.021	23052.36
737.361	22938.01
737.702	23063.43
738.042	22987.73
738.383	22946.15
738.723	22997.67
739.063	22908.41
739.404	22953.15
739.744	22920.84
740.084	22771.24
740.424	22735.08
740.764	22606.72
741.104	22834.74
741.444	22656.66
741.784	22510.91
742.124	22648.53
742.464	22567.17
742.804	22445.82
743.143	22478.14
743.483	22480.62
743.823	22308.42
744.162	22193.4
744.502	22257.35
744.841	22182.78
745.181	22294.87
745.52	22205.83
745.86	22206.28
746.199	22041.54
746.538	22068.21
746.877	22024.82
747.216	22103.68
747.556	22011.71
747.895	21938.94
748.234	21983.01
748.573	21913.18
748.911	21849.91
749.25	21845.16
749.589	21682.45
749.928	21619.63
750.267	21657.14
750.605	21604.71
750.944	21694.88
751.283	21535.11
751.621	21626.41
751.96	21404.95
752.298	21366.98
752.636	21478.84
752.975	21350.71
753.313	21252.18
753.651	21298.96
753.989	21142.58
