Data from white_steel_sheet_FLMS001491_093.txt Node
Date: Tue Feb 07 10:58:50 GMT 2017
User: dcchb
Spectrometer: FLMS00149
Trigger mode: 0
Integration Time (sec): 2.000000E-2
Scans to average: 10
Electric dark correction enabled: true
Nonlinearity correction enabled: false
Boxcar width: 0
XAxis mode: Wavelengths
Number of Pixels in Spectrum: 2048
>>>>>Begin Spectral Data<<<<<
341.393	-8.18
341.776	-8.18
342.16	-8.18
342.543	-56.09
342.927	-66.71
343.31	-81.85
343.693	-72.58
344.077	-73.49
344.46	-65.58
344.843	-43.88
345.226	-37.33
345.61	-36.43
345.993	-29.87
346.376	4.25
346.759	9.9
347.142	53.06
347.525	33.63
347.908	57.36
348.291	85.15
348.674	98.26
349.057	99.39
349.44	135.32
349.823	163.8
350.206	165.83
350.588	181.2
350.971	202.66
351.354	208.54
351.737	233.62
352.119	252.61
352.502	267.3
352.884	268.65
353.267	294.19
353.65	279.5
354.032	298.71
354.414	311.14
354.797	336.9
355.179	289.22
355.562	331.7
355.944	317.01
356.326	331.47
356.709	359.04
357.091	349.1
357.473	356.78
357.855	352.72
358.238	350
358.62	366.28
359.002	351.13
359.384	335.99
359.766	363.34
360.148	354.98
360.53	344.36
360.912	335.99
361.294	332.15
361.676	341.87
362.057	317.46
362.439	326.28
362.821	323.11
363.203	340.97
363.584	343.68
363.966	337.12
364.348	347.29
364.729	335.77
365.111	320.4
365.493	323.34
365.874	323.79
366.256	325.6
366.637	311.59
367.019	349.1
367.4	338.03
367.781	326.05
368.163	337.12
368.544	329.89
368.925	315.88
369.306	326.73
369.688	338.93
370.069	318.59
370.45	337.35
370.831	324.69
371.212	330.8
371.593	337.8
371.974	335.32
372.355	323.34
372.736	348.2
373.117	325.82
373.498	325.15
373.879	322.89
374.26	351.59
374.641	329.44
375.021	326.5
375.402	331.93
375.783	332.15
376.163	330.57
376.544	348.88
376.925	350.91
377.305	362.43
377.686	373.51
378.066	342.77
378.447	355.43
378.827	357.46
379.208	357.91
379.588	329.21
379.968	328.76
380.349	350.68
380.729	372.38
381.109	364.02
381.489	371.25
381.87	384.35
382.25	359.04
382.63	375.31
383.01	361.08
383.39	373.51
383.77	361.53
384.15	383.9
384.53	375.31
384.91	371.02
385.29	376.9
385.67	384.58
386.049	376.9
386.429	387.52
386.809	388.2
387.189	390
387.568	390.91
387.948	393.85
388.328	396.78
388.707	407.4
389.087	392.26
389.466	401.98
389.846	423.9
390.225	418.03
390.605	429.1
390.984	404.24
391.363	445.14
391.743	433.62
392.122	412.15
392.501	434.3
392.881	445.37
393.26	430.45
393.639	443.34
394.018	469.55
394.397	459.38
394.776	472.71
395.155	471.58
395.534	462.54
395.913	465.93
396.292	484.46
396.671	495.99
397.05	510.68
397.429	486.27
397.808	507.51
398.186	506.16
398.565	491.02
398.944	523.56
399.323	519.72
399.701	531.7
400.08	527.63
400.458	547.74
400.837	564.24
401.215	568.76
401.594	556.78
401.972	568.76
402.351	597.91
402.729	573.73
403.107	580.06
403.486	586.16
403.864	613.5
404.242	598.59
404.62	628.19
404.999	601.3
405.377	648.75
405.755	670.45
406.133	631.81
406.511	662.77
406.889	660.28
407.267	679.26
407.645	700.73
408.023	715.65
408.401	715.19
408.779	719.71
409.156	716.1
409.534	741.86
409.912	749.99
410.29	763.1
410.667	773.72
411.045	783.67
411.422	812.37
411.8	811.01
412.178	809.2
412.555	852.59
412.933	839.94
413.31	833.61
413.687	845.36
414.065	879.03
414.442	891.23
414.819	893.72
415.197	907.5
415.574	908.18
415.951	938.01
416.328	928.75
416.705	949.54
417.082	963.32
417.46	962.87
417.837	959.25
418.214	994.06
418.591	1004.9
418.967	982.53
419.344	1024.11
419.721	1005.81
420.098	1001.51
420.475	1044.45
420.852	1045.58
421.228	1041.51
421.605	1085.35
421.982	1098.01
422.358	1089.65
422.735	1100.04
423.111	1127.39
423.488	1105.69
423.864	1161.06
424.241	1164.9
424.617	1171.68
424.994	1187.72
425.37	1210.1
425.746	1200.38
426.123	1210.77
426.499	1219.13
426.875	1214.16
427.251	1256.87
427.627	1250.55
428.003	1290.55
428.379	1291
428.756	1301.84
429.132	1329.41
429.507	1347.27
429.883	1374.38
430.259	1376.87
430.635	1383.42
431.011	1401.05
431.387	1420.26
431.763	1475.17
432.138	1455.06
432.514	1483.53
432.89	1479.47
433.265	1496.19
433.641	1560.82
434.016	1567.83
434.392	1602.85
434.767	1633.59
435.143	1616.19
435.518	1632.68
435.894	1643.3
436.269	1686.92
436.644	1693.92
437.02	1714.26
437.395	1737.99
437.77	1740.02
438.145	1794.71
438.52	1786.35
438.895	1814.83
439.271	1829.29
439.646	1844.2
440.021	1876.74
440.395	1888.72
440.77	1879.46
441.145	1902.28
441.52	1947.25
441.895	1945.44
442.27	1948.38
442.645	1939.57
443.019	1999.23
443.394	1992.9
443.769	2009.62
444.143	2014.37
444.518	2055.95
444.892	2047.81
445.267	2069.28
445.641	2081.03
446.016	2099.11
446.39	2151.09
446.764	2165.1
447.139	2127.81
447.513	2168.04
447.887	2198.54
448.262	2200.35
448.636	2213.68
449.01	2236.06
449.384	2238.99
449.758	2283.29
450.132	2293.91
450.506	2311.99
450.88	2337.3
451.254	2328.71
451.628	2377.75
452.002	2379.78
452.376	2413
452.75	2441.02
453.123	2467.69
453.497	2512.89
453.871	2544.07
454.244	2583.84
454.618	2575.48
454.992	2636.5
455.365	2610.06
455.739	2703.16
456.112	2711.07
456.486	2741.13
456.859	2761.69
457.232	2839.88
457.606	2833.33
457.979	2842.14
458.352	2878.3
458.725	2895.25
459.099	2920.11
459.472	3017.96
459.845	3037.62
460.218	3075.81
460.591	3070.16
460.964	3102.02
461.337	3201.23
461.71	3194.68
462.083	3266.99
462.456	3266.99
462.829	3275.8
463.201	3375.69
463.574	3361.9
463.947	3405.07
464.32	3483.03
464.692	3460.43
465.065	3533.88
465.438	3574.78
465.81	3619.52
466.183	3658.39
466.555	3731.61
466.928	3775.45
467.3	3738.62
467.672	3818.39
468.045	3955.33
468.417	3958.72
468.789	3995.78
469.161	4007.54
469.534	4067.2
469.906	4144.48
470.278	4152.84
470.65	4221.77
471.022	4349.22
471.394	4385.83
471.766	4404.14
472.138	4506.73
472.51	4563.91
472.882	4669.44
473.253	4724.58
473.625	4768.87
473.997	4862.88
474.369	4838.7
474.74	4899.94
475.112	4993.95
475.484	5162.31
475.855	5194.17
476.227	5244.79
476.598	5366.82
476.97	5425.35
477.341	5565.46
477.713	5638.45
478.084	5676.87
478.455	5820.37
478.827	5834.15
479.198	6036.64
479.569	6016.52
479.94	6165.67
480.311	6223.52
480.682	6400.47
481.053	6553.23
481.424	6595.26
481.795	6689.95
482.166	6792.77
482.537	6914.58
482.908	6974.92
483.279	7089.71
483.65	7214.91
484.021	7355.47
484.391	7448.12
484.762	7472.3
485.133	7567.67
485.503	7673.43
485.874	7917.72
486.244	7975.79
486.615	8077.71
486.985	8248.55
487.356	8362.9
487.726	8485.84
488.097	8594.53
488.467	8628.88
488.837	8767.64
489.207	8961.53
489.578	9045.14
489.948	9123.79
490.318	9235.65
490.688	9248.53
491.058	9467.28
491.428	9516.77
491.798	9654.39
492.168	9857.1
492.538	9890.55
492.908	10013.71
493.278	10123.53
493.648	10199.46
494.017	10293.47
494.387	10382.28
494.757	10527.14
495.126	10639.45
495.496	10640.58
495.866	10751.99
496.235	10925.77
496.605	10996.28
496.974	11115.6
497.344	11212.09
497.713	11238.31
498.082	11397.85
498.452	11441.46
498.821	11489.6
499.19	11579.99
499.559	11712.42
499.928	11766.65
500.298	11853.66
500.667	11954.67
501.036	11935.24
501.405	12146.98
501.774	12146.98
502.143	12178.39
502.512	12275.79
502.88	12548.1
503.249	12443.92
503.618	12548.78
503.987	12625.16
504.356	12749.9
504.724	12849.11
505.093	12830.81
505.462	12970.46
505.83	13078.03
506.199	13170.68
506.567	13304.47
506.936	13343.56
507.304	13577.23
507.672	13542.2
508.041	13632.37
508.409	13788.97
508.777	13876.43
509.145	14025.13
509.514	14052.24
509.882	14134.73
510.25	14217.66
510.618	14251.56
510.986	14422.63
511.354	14532
511.722	14628.95
512.09	14749.4
512.458	14796.63
512.826	14876.4
513.193	15080.92
513.561	15064.65
513.929	15206.34
514.297	15417.63
514.664	15478.19
515.032	15553
515.4	15761.8
515.767	15779.66
516.135	15933.32
516.502	15881.12
516.869	16216.93
517.237	16228.01
517.604	16195.24
517.972	16498.51
518.339	16561.56
518.706	16566.53
519.073	16655.11
519.44	16877.71
519.808	17059.17
520.175	17132.84
520.542	17342.33
520.909	17479.27
521.276	17434.08
521.643	17597.46
522.009	17744.8
522.376	17903.44
522.743	17980.28
523.11	18289.87
523.477	18418.91
523.843	18502.3
524.21	18705.45
524.577	18825.9
524.943	18904.32
525.31	19085.33
525.676	19289.17
526.043	19339.79
526.409	19493.46
526.776	19632.89
527.142	19746.33
527.508	19847.12
527.874	20026.32
528.241	20138.86
528.607	20128.92
528.973	20455.01
529.339	20444.62
529.705	20775.46
530.071	20867.21
530.437	20884.38
530.803	21065.84
531.169	21232.17
531.535	21256.8
531.901	21356.46
532.267	21358.49
532.632	21595.32
532.998	21723.23
533.364	21860.17
533.73	21915.09
534.095	22035.99
534.461	22090.45
534.826	22248.86
535.192	22344.68
535.557	22525.47
535.923	22423.32
536.288	22685.91
536.653	22606.82
537.019	22855.4
537.384	22884.33
537.749	22886.14
538.114	23053.14
538.479	23013.82
538.845	23222.4
539.21	23190.31
539.575	23335.62
539.94	23369.96
540.305	23728.6
540.67	23689.05
541.034	23652.22
541.399	23925.43
541.764	23964.98
542.129	23993.68
542.494	24066.67
542.858	24078.42
543.223	24194.8
543.587	24348.24
543.952	24349.37
544.316	24462.37
544.681	24459.2
545.045	24608.35
545.41	24847.44
545.774	24855.58
546.138	24830.94
546.503	24960.66
546.867	24957.27
547.231	25315.45
547.595	25158.84
547.959	25203.81
548.324	25329.24
548.688	25340.99
549.052	25476.8
549.416	25564.94
549.779	25644.48
550.143	25645.84
550.507	25935.55
550.871	25980.52
551.235	26022.55
551.599	26091.25
551.962	26112.27
552.326	26261.19
552.689	26528.98
553.053	26340.73
553.417	26536.44
553.78	26941.4
554.143	26666.83
554.507	26870.21
554.87	27137.1
555.234	27218
555.597	27027.95
555.96	27329.86
556.323	27448.28
556.686	27481.95
557.05	27631.1
557.413	27787.25
557.776	27780.92
558.139	28095.26
558.502	28111.53
558.865	28164.19
559.228	28338.2
559.59	28465.2
559.953	28513.56
560.316	28827
560.679	28765.3
561.041	28837.62
561.404	29094.11
561.767	29168
562.129	29269.24
562.492	29574.32
562.854	29538.39
563.217	29574.77
563.579	29659.06
563.941	29784.03
564.304	29823.81
564.666	30102.22
565.028	30172.27
565.39	30345.15
565.753	30463.34
566.115	30541.75
566.477	30674.86
566.839	30715.76
567.201	31015.64
567.563	31082.98
567.925	31144.68
568.287	31256.54
568.648	31409.08
569.01	31513.03
569.372	31562.74
569.734	31548.73
570.095	31734.04
570.457	31966.12
570.819	32023.52
571.18	32008.83
571.542	32291.99
571.903	32194.37
572.265	32399.33
572.626	32510.29
572.987	32521.36
573.349	32519.78
573.71	32604.07
574.071	32824.86
574.432	32927.45
574.794	33041.8
575.155	32978.53
575.516	33002.25
575.877	33215.58
576.238	33096.71
576.599	33246.54
576.96	33315.01
577.32	33208.58
577.681	33399.53
578.042	33504.39
578.403	33506.42
578.763	33648.79
579.124	33688.34
579.485	33824.38
579.845	33885.39
580.206	33782.8
580.566	33789.13
580.927	33809.69
581.287	33890.59
581.648	33875.23
582.008	34021.66
582.368	33757.49
582.728	34128.33
583.089	33941.89
583.449	33948.44
583.809	33955.67
584.169	33929.01
584.529	33876.13
584.889	34240.64
585.249	33877.48
585.609	33938.5
585.969	33986.18
586.329	34025.5
586.688	33909.12
587.048	33991.15
587.408	33904.15
587.768	34027.09
588.127	34032.74
588.487	34025.05
588.846	34292.39
589.206	33936.69
589.565	33907.77
589.925	34373.97
590.284	34008.55
590.643	34070.7
591.003	34118.83
591.362	34084.94
591.721	34100.08
592.08	34073.64
592.44	34240.19
592.799	34229.11
593.158	34109.57
593.517	34303.46
593.876	34214.88
594.235	34156.8
594.593	34204.48
594.952	34238.38
595.311	34126.97
595.67	34151.6
596.029	34339.62
596.387	34264.82
596.746	34295.78
597.104	34244.48
597.463	34294.2
597.822	34321.32
598.18	34148.89
598.538	34279.28
598.897	34350.24
599.255	34104.15
599.613	34648.76
599.972	34261.88
600.33	34338.49
600.688	34364.7
601.046	34404.48
601.404	34593.17
601.762	34502.55
602.12	34576.22
602.478	34588.2
602.836	34664.13
603.194	34375.32
603.552	34498.71
603.91	34297.13
604.268	34531.71
604.625	34431.82
604.983	34622.78
605.341	34326.06
605.698	34567.18
606.056	34799.95
606.413	34491.03
606.771	34618.03
607.128	34707.52
607.485	34545.94
607.843	34597.01
608.2	34748.87
608.557	34902.54
608.914	34705.49
609.272	34909.32
609.629	34993.16
609.986	35216.88
610.343	34940.73
610.7	35181.41
611.057	35050.79
611.414	35127.85
611.771	35135.98
612.127	35150.45
612.484	35196.09
612.841	35320.61
613.198	35123.33
613.554	35222.08
613.911	35333.49
614.267	35408.52
614.624	35405.58
614.98	35335.53
615.337	35522.64
615.693	35509.53
616.05	35600.83
616.406	35634.95
616.762	35534.62
617.118	35620.49
617.475	35596.76
617.831	35627.04
618.187	35843.99
618.543	35717.89
618.899	35935.28
619.255	35893.03
619.611	35860.71
619.967	36033.81
620.323	35986.58
620.678	35900.93
621.034	35852.35
621.39	35809.64
621.746	35856.64
622.101	36288.04
622.457	35897.09
622.812	35898.22
623.168	36176.63
623.523	36024.1
623.879	36109.06
624.234	35980.48
624.589	36030.2
624.945	35881.05
625.3	35955.17
625.655	35963.76
626.01	36084.88
626.365	35927.37
626.72	36010.08
627.075	35976.86
627.43	35975.73
627.785	35944.1
628.14	36018.22
628.495	36022.29
628.85	35952.46
629.205	35715.18
629.559	36187.25
629.914	35940.93
630.269	35943.42
630.623	35768.73
630.978	35762.18
631.332	35880.37
631.687	35886.02
632.041	35770.54
632.396	35855.74
632.75	35622.52
633.104	35617.33
633.459	35417.11
633.813	35434.73
634.167	35576.88
634.521	35440.83
634.875	35460.95
635.229	35476.31
635.583	35222.76
635.937	35302.53
636.291	35247.62
636.645	35288.97
636.999	35161.52
637.352	35355.64
637.706	35103.67
638.06	35147.73
638.413	35073.16
638.767	34834.75
639.121	35039.04
639.474	34774.64
639.828	34825.26
640.181	34771.92
640.534	34786.16
640.888	34711.14
641.241	34537.81
641.594	34665.26
641.947	34646.28
642.301	34388.21
642.654	34562.89
643.007	34570.8
643.36	34422.56
643.713	34293.75
644.066	34456.23
644.419	34234.09
644.771	34068.89
645.124	33683.37
645.477	33500.32
645.83	33365.86
646.182	33227.78
646.535	33194.34
646.888	33265.98
647.24	33103.27
647.593	33273.88
647.945	33266.2
648.298	33153.89
648.65	33117.73
649.002	32939.43
649.355	33059.43
649.707	32945.08
650.059	33188.01
650.411	33350.04
650.763	33527.89
651.115	33786.41
651.467	33689.92
651.819	33660.99
652.171	33493.09
652.523	33512.3
652.875	33605.63
653.227	33323.38
653.578	33586.87
653.93	33533.77
654.282	33341.23
654.633	33296.48
654.985	33359.08
655.337	33299.2
655.688	33297.61
656.039	33449.25
656.391	33117.28
656.742	33193.44
657.094	33040.67
657.445	33222.36
657.796	33206.09
658.147	33254
658.498	33008.81
658.849	33103.95
659.2	32988.24
659.551	32835.25
659.902	32944.4
660.253	32890.17
660.604	32811.3
660.955	32550.06
661.306	32717.97
661.656	32725.2
662.007	32748.48
662.358	32713.22
662.708	32607.01
663.059	32633
663.409	32444.75
663.76	32616.05
664.11	32515.26
664.461	32563.17
664.811	32342.84
665.161	32423.51
665.511	32210.41
665.862	32277.3
666.212	32274.36
666.562	32273.69
666.912	32103.29
667.262	31983.07
667.612	31872.79
667.962	31901.27
668.312	31786.01
668.662	31947.14
669.011	31790.08
669.361	31525
669.711	31552.8
670.06	31535.85
670.41	31422.41
670.76	31361.39
671.109	31455.18
671.459	31346.7
671.808	31222.19
672.157	31231
672.507	30907.17
672.856	30907.85
673.205	31024.68
673.554	31089.99
673.904	30847.28
674.253	31011.35
674.602	30828.3
674.951	30351.25
675.3	30240.29
675.649	30659.26
675.998	30610.45
676.346	30684.35
676.695	30796.21
677.044	30547.4
677.393	30642.32
677.741	30624.24
678.09	30608.64
678.438	30499.95
678.787	30489.1
679.135	30374.3
679.484	30246.17
679.832	30446.84
680.181	30240.07
680.529	30485.48
680.877	30314.64
681.225	30240.52
681.573	30503.34
681.922	30270.8
682.27	30285.49
682.618	30168.66
682.966	30218.15
683.314	30266.05
683.661	30327.75
684.009	30208.88
684.357	30153.06
684.705	30204.81
685.053	30259.27
685.4	30305.15
685.748	29976.12
686.095	30130.92
686.443	30030.13
686.79	30078.26
687.138	30145.61
687.485	30176.79
687.832	29904.93
688.18	30128.88
688.527	29950.81
688.874	29988.1
689.221	29913.3
689.568	29888.66
689.915	29903.8
690.262	29892.96
690.609	29889.34
690.956	29819.06
691.303	29725.05
691.65	29701.78
691.997	29646.86
692.344	29511.27
692.69	29619.97
693.037	29678.73
693.383	29426.3
693.73	29556.47
694.077	29304.95
694.423	29389.24
694.769	29283.71
695.116	29388.56
695.462	29276.93
695.808	29241
696.155	29278.06
696.501	29018.18
696.847	29189.92
697.193	28896.37
697.539	29026.99
697.885	28801.69
698.231	28687.56
698.577	28759.88
698.923	28725.53
699.269	28623.16
699.614	28448.7
699.96	28309.04
700.306	28384.52
700.651	28288.93
700.997	28255.26
701.342	28132.1
701.688	28090.74
702.033	28033.8
702.379	27974.82
702.724	27811.88
703.069	27911.99
703.415	27656.63
703.76	27611.44
704.105	27705.9
704.45	27478.33
704.795	27453.25
705.14	27333.02
705.485	27300.71
705.83	27203.99
706.175	27305.23
706.52	27124.22
706.865	27085.35
707.209	27067.27
707.554	26966.93
707.899	26926.03
708.243	26813.72
708.588	26800.83
708.932	26609.43
709.277	26616.66
709.621	26681.52
709.966	26510.67
710.31	26598.35
710.654	26309.77
710.998	26367.85
711.342	26333.28
711.687	26317.68
712.031	26191.81
712.375	26116.56
712.719	26150
713.063	25923.57
713.407	26036.34
713.75	25932.84
714.094	25874.98
714.438	25760.18
714.782	25806.28
715.125	25741.88
715.469	25780.97
715.812	25627.08
716.156	25436.58
716.499	25505.73
716.843	25434.09
717.186	25328.78
717.53	25599.28
717.873	25522.9
718.216	25276.58
718.559	25319.74
718.902	25037.49
719.246	25074.55
719.589	25117.49
719.932	24969.24
720.275	25000.66
720.617	25015.8
720.96	24889.25
721.303	24896.93
721.646	24928.57
721.989	24689.7
722.331	24821.68
722.674	24750.95
723.016	24746.2
723.359	24708.91
723.701	24736.48
724.044	24605.64
724.386	24463.27
724.729	24452.2
725.071	24505.75
725.413	24417.39
725.755	24438.64
726.097	24344.63
726.439	24183.95
726.782	24192.54
727.124	24382.14
727.465	24115.71
727.807	24070.29
728.149	24091.3
728.491	23959.33
728.833	23922.94
729.175	23866.22
729.516	23882.72
729.858	23819.44
730.199	23987.8
730.541	23833.68
730.882	23800.91
731.224	23833.23
731.565	23630.3
731.906	23663.52
732.248	23765.43
732.589	23574.25
732.93	23509.4
733.271	23368.16
733.612	23522.95
733.953	23395.95
734.294	23394.14
734.635	23312.56
734.976	23430.98
735.317	23268.05
735.658	23238.22
735.999	23171.55
736.339	23183.75
736.68	23113.7
737.021	23110.76
737.361	22993.03
737.702	23123.19
738.042	22998.67
738.383	22949.64
738.723	23039.58
739.063	22877.32
739.404	22897.66
739.744	22781.05
740.084	22709.64
740.424	22770.21
740.764	22796.42
741.104	22770.43
741.444	22637.78
741.784	22540.83
742.124	22518.24
742.464	22569.31
742.804	22474.17
743.143	22397.11
743.483	22428.52
743.823	22301.29
744.162	22247.51
744.502	22341.07
744.841	22208.41
745.181	22265.36
745.52	22145.59
745.86	22201.18
746.199	22171.35
746.538	22091.13
746.877	22092.71
747.216	22091.35
747.556	22031.69
747.895	22014.97
748.234	21891.59
748.573	21903.56
748.911	21796.22
749.25	21861.98
749.589	21635.32
749.928	21753.06
750.267	21639.61
750.605	21680.07
750.944	21593.51
751.283	21534.31
751.621	21483.91
751.96	21405.95
752.298	21466.06
752.636	21416.8
752.975	21240.53
753.313	21207.31
753.651	21249.34
753.989	21186.29
754.327	21255.22
754.666	21011.16
