Data from White_reflection_standard_FLMS001491_053.txt Node
Date: Tue Feb 07 10:32:05 GMT 2017
User: dcchb
Spectrometer: FLMS00149
Trigger mode: 0
Integration Time (sec): 2.000000E-2
Scans to average: 10
Electric dark correction enabled: true
Nonlinearity correction enabled: false
Boxcar width: 0
XAxis mode: Wavelengths
Number of Pixels in Spectrum: 2048
>>>>>Begin Spectral Data<<<<<
341.393	-27.73
341.776	-27.73
342.16	-27.73
342.543	-69.76
342.927	-67.95
343.31	-58.23
343.693	-87.61
344.077	-56.2
344.46	-72.02
344.843	-56.65
345.226	-32.7
345.61	-39.7
345.993	-6.26
346.376	1.88
346.759	0.97
347.142	44.82
347.525	33.06
347.908	54.31
348.291	79.39
348.674	81.88
349.057	113.06
349.44	117.36
349.823	143.12
350.206	152.61
350.588	239.84
350.971	229.67
351.354	291.81
351.737	282.78
352.119	306.73
352.502	306.05
352.884	339.72
353.267	320.29
353.65	339.5
354.032	345.6
354.414	357.35
354.797	388.53
355.179	370.68
355.562	391.92
355.944	390.12
356.326	390.12
356.709	371.81
357.091	393.73
357.473	399.16
357.855	403.22
358.238	398.03
358.62	380.85
359.002	400.96
359.384	403.45
359.766	412.72
360.148	391.92
360.53	425.14
360.912	407.97
361.294	400.51
361.676	405.94
362.057	403.68
362.439	415.88
362.821	386.95
363.203	415.65
363.584	406.16
363.966	426.5
364.348	421.98
364.729	405.94
365.111	417.46
365.493	402.32
365.874	415.43
366.256	406.61
366.637	418.82
367.019	417.91
367.4	404.13
367.781	400.06
368.163	427.86
368.544	415.88
368.925	450.23
369.306	434.18
369.688	433.51
370.069	454.97
370.45	436.44
370.831	436.22
371.212	453.39
371.593	449.55
371.974	450
372.355	453.17
372.736	465.14
373.117	451.36
373.498	473.28
373.879	449.1
374.26	436.22
374.641	431.7
375.021	445.93
375.402	450
375.783	487.52
376.163	504.24
376.544	501.75
376.925	491.81
377.305	492.71
377.686	493.16
378.066	500.85
378.447	509.21
378.827	521.19
379.208	512.6
379.588	524.12
379.968	504.46
380.349	513.73
380.729	560.73
381.109	516.44
381.489	540.17
381.87	524.12
382.25	553.05
382.63	563.9
383.01	546.95
383.39	560.96
383.77	553.95
384.15	563.9
384.53	580.39
384.91	571.13
385.29	594.63
385.67	582.88
386.049	599.38
386.429	615.2
386.809	627.62
387.189	609.77
387.568	631.47
387.948	659.04
388.328	631.47
388.707	655.65
389.087	671.24
389.466	650.67
389.846	674.18
390.225	655.42
390.605	711.46
390.984	713.95
391.363	710.33
391.743	702.2
392.122	725.48
392.501	742.42
392.881	726.83
393.26	765.25
393.639	781.97
394.018	756.89
394.397	765.02
394.776	787.62
395.155	788.75
395.534	801.41
395.913	803.21
396.292	816.55
396.671	837.56
397.05	831.91
397.429	847.51
397.808	829.2
398.186	842.99
398.565	872.36
398.944	871.23
399.323	877.34
399.701	882.53
400.08	915.07
400.458	904.23
400.837	934.28
401.215	919.14
401.594	942.42
401.972	955.75
402.351	933.61
402.729	948.07
403.107	972.47
403.486	980.61
403.864	958.92
404.242	1000.04
404.62	1024.9
404.999	1052.25
405.377	1060.16
405.755	1059.7
406.133	1067.84
406.511	1074.17
406.889	1077.56
407.267	1120.49
407.645	1148.97
408.023	1134.28
408.401	1136.76
408.779	1167.27
409.156	1198.01
409.534	1203.65
409.912	1227.83
410.29	1235.97
410.667	1284.1
411.045	1290.21
411.422	1287.27
411.8	1294.05
412.178	1331.11
412.555	1358.68
412.933	1352.8
413.31	1398.23
413.687	1406.59
414.065	1419.69
414.442	1421.73
414.819	1463.99
415.197	1448.85
415.574	1501.73
415.951	1490.88
416.328	1523.42
416.705	1549.86
417.082	1530.2
417.46	1559.35
417.837	1575.62
418.214	1590.54
418.591	1628.05
418.967	1637.09
419.344	1667.82
419.721	1627.82
420.098	1668.73
420.475	1719.57
420.852	1694.94
421.228	1728.84
421.605	1768.39
421.982	1775.84
422.358	1816.97
422.735	1822.85
423.111	1826.01
423.488	1821.27
423.864	1847.25
424.241	1901.72
424.617	1895.16
424.994	1936.06
425.37	1923.18
425.746	1959.12
426.123	1977.87
426.499	1988.49
426.875	2048.38
427.251	2101.71
427.627	2118.43
428.003	2115.5
428.379	2127.92
428.756	2195.49
429.132	2191.43
429.507	2247.7
429.883	2276.17
430.259	2283.85
430.635	2349.39
431.011	2358.65
431.387	2430.74
431.763	2405.21
432.138	2465.54
432.514	2489.72
432.89	2534.02
433.265	2551.19
433.641	2606.33
434.016	2646.55
434.392	2658.31
434.767	2744.63
435.143	2696.27
435.518	2756.61
435.894	2763.16
436.269	2835.93
436.644	2877.74
437.02	2876.15
437.395	2891.75
437.77	2981.69
438.145	3021.23
438.52	3018.97
438.895	3096.03
439.271	3070.95
439.646	3140.33
440.021	3150.04
440.395	3172.19
440.77	3131.06
441.145	3231.62
441.52	3255.8
441.895	3259.65
442.27	3303.03
442.645	3327.44
443.019	3366.31
443.394	3346.88
443.769	3417.16
444.143	3405.63
444.518	3461.22
444.892	3440.88
445.267	3495.57
445.641	3545.97
446.016	3550.26
446.39	3554.78
446.764	3622.35
447.139	3618.51
447.513	3626.19
447.887	3643.59
448.262	3701.89
448.636	3733.31
449.01	3756.13
449.384	3809.46
449.758	3844.04
450.132	3908.89
450.506	3904.15
450.88	3975.79
451.254	3971.49
451.628	4007.2
452.002	4079.29
452.376	4088.55
452.75	4148.21
453.123	4190.92
453.497	4260.3
453.871	4289.45
454.244	4389.56
454.618	4411.25
454.992	4449.22
455.365	4451.93
455.739	4584.36
456.112	4635.88
456.486	4689.44
456.859	4729.44
457.232	4818.93
457.606	4832.03
457.979	4905.25
458.352	4987.51
458.725	5062.76
459.099	5109.77
459.472	5202.87
459.845	5210.78
460.218	5265.47
460.591	5336.43
460.964	5392.47
461.337	5463.88
461.71	5536.65
462.083	5595.63
462.456	5643.54
462.829	5661.84
463.201	5799.92
463.574	5823.19
463.947	5932.57
464.32	6023.42
464.692	6067.48
465.065	6133.69
465.438	6261.6
465.81	6333.69
466.183	6370.98
466.555	6513.8
466.928	6563.74
467.3	6614.36
467.672	6741.81
468.045	6865.2
468.417	6907.69
468.789	6971.41
469.161	7077.4
469.534	7137.51
469.906	7315.58
470.278	7368.69
470.65	7431.06
471.022	7650.94
471.394	7782.92
471.766	7798.51
472.138	7945.62
472.51	8106.75
472.882	8245.05
473.253	8236.69
473.625	8446.85
473.997	8682.78
474.369	8680.07
474.74	8743.34
475.112	8912.38
475.484	9149.89
475.855	9245.7
476.227	9377
476.598	9593.49
476.97	9727.27
477.341	9944.89
477.713	10028.96
478.084	10108.96
478.455	10419.91
478.827	10457.42
479.198	10847.69
479.569	10869.62
479.94	11114.35
480.311	11208.36
480.682	11458.07
481.053	11673.89
481.424	11966.31
481.795	12043.82
482.166	12225.96
482.537	12414.66
482.908	12665.5
483.279	12802.45
483.65	13063
484.021	13268.65
484.391	13462.32
484.762	13602.65
485.133	13627.06
485.503	13917.67
485.874	14261.62
486.244	14342.07
486.615	14674.04
486.985	14774.37
487.356	15104.08
487.726	15230.86
488.097	15529.38
488.467	15654.35
488.837	16000.55
489.207	16141.12
489.578	16335.91
489.948	16485.51
490.318	16670.59
490.688	16805.5
491.058	17028.1
491.428	17277.58
491.798	17425.38
492.168	17861.97
492.538	17845.93
492.908	18125.24
493.278	18291.57
493.648	18340.15
494.017	18593.93
494.387	18814.49
494.757	18874.38
495.126	19195.27
495.496	19212.67
495.866	19343.74
496.235	19569.5
496.605	19844.29
496.974	19885.2
497.344	20112.76
497.713	20180.33
498.082	20414.45
498.452	20559.3
498.821	20727.21
499.19	20826.87
499.559	20940.99
499.928	21171.27
500.298	21257.82
500.667	21501.65
501.036	21456.46
501.405	21769.67
501.774	21791.36
502.143	21950.23
502.512	22047.4
502.88	22311.8
503.249	22337.34
503.618	22605.13
503.987	22710.66
504.356	22761.96
504.724	22983.65
505.093	23053.48
505.462	23187.26
505.83	23489.85
506.199	23618.88
506.567	23882.38
506.936	23796.96
507.304	24120.79
507.672	24274.46
508.041	24434.46
508.409	24607.11
508.777	24840.32
509.145	25028.57
509.514	25135
509.882	25194.44
510.25	25372.28
510.618	25646.18
510.986	25781.31
511.354	25967.07
511.722	26158.03
512.09	26341.75
512.458	26436.66
512.826	26675.75
513.193	26835.3
513.561	26862.64
513.929	27133.82
514.297	27362.06
514.664	27595.28
515.032	27784.88
515.4	27990.07
515.767	28123.85
516.135	28333.56
516.502	28256.5
516.869	28714.34
517.237	28926.09
517.604	28859.88
517.972	29249.25
518.339	29383.93
518.706	29594.32
519.073	29606.75
519.44	29884.48
519.808	30164.02
520.175	30310.69
520.542	30723.78
520.909	30844.68
521.276	30800.62
521.643	31287.16
522.009	31467.04
522.376	31727.37
522.743	31900.25
523.11	32217.3
523.477	32664.75
523.843	32714.01
524.21	33011.18
524.577	33242.81
524.943	33401.9
525.31	33596.02
525.676	33994.66
526.043	34172.05
526.409	34440.29
526.776	34825.37
527.142	34783.79
527.508	35091.35
527.874	35236.43
528.241	35513.94
528.607	35617.21
528.973	36033.02
529.339	36015.39
529.705	36401.15
530.071	36617.86
530.437	36793.91
530.803	36982.83
531.169	37242.03
531.535	37255.59
531.901	37346.21
532.267	37566.77
532.632	38009.47
532.998	37941.22
533.364	38277.93
533.73	38338.72
534.095	38700.52
534.461	38666.62
534.826	38965.37
535.192	39129.21
535.557	39348.87
535.923	39296.89
536.288	39498.92
536.653	39721.74
537.019	39615.07
537.384	39864.11
537.749	40179.13
538.114	40251.67
538.479	40391.1
538.845	40587.93
539.21	40582.05
539.575	40707.47
539.94	40925.55
540.305	41116.96
540.67	41064.75
541.034	41337.06
541.399	41352.88
541.764	41682.36
542.129	41773.44
542.494	41876.94
542.858	42005.97
543.223	41972.07
543.587	42257.26
543.952	42310.6
544.316	42460.42
544.681	42419.29
545.045	42785.84
545.41	43096.34
545.774	43117.13
546.138	43051.82
546.503	43167.3
546.867	43387.18
547.231	43711.92
547.595	43703.33
547.959	43942.42
548.324	43901.06
548.688	44143.77
549.052	44200.26
549.416	44371.79
549.779	44251.34
550.143	44671.21
550.507	44818.1
550.871	45097.64
551.235	44971.32
551.599	45389.84
551.962	45335.83
552.326	45430.51
552.689	45778.53
553.053	45686.33
553.417	45678.87
553.78	46336.48
554.143	46152.76
554.507	46397.95
554.87	46475.46
555.234	46747.99
555.597	46676.36
555.96	46875.45
556.323	47028.21
556.686	47303.46
557.05	47365.38
557.413	47674.07
557.776	47652.15
558.139	48003.78
558.502	48114.29
558.865	48063.21
559.228	48417.78
559.59	48523.99
559.953	48604.89
560.316	49095.73
560.679	49044.2
561.041	49271.32
561.404	49545.66
561.767	49639.67
562.129	49445.55
562.492	49970.73
562.854	49937.97
563.217	49960.34
563.579	50174.57
563.941	50462.47
564.304	50550.61
564.666	50704.5
565.028	50946.08
565.39	50927.55
565.753	51116.69
566.115	51366.63
566.477	51413.86
566.839	51428.55
567.201	51637.58
567.563	51766.62
567.925	51938.82
568.287	51959.83
568.648	52088.19
569.01	52251.13
569.372	52397.56
569.734	52287.74
570.095	52629.87
570.457	52633.94
570.819	52758.01
571.18	52723.66
571.542	53017.43
571.903	53014.95
572.265	53128.62
572.626	53224.21
572.987	53253.81
573.349	53352.34
573.71	53540.81
574.071	53571.77
574.432	53686.34
574.794	53861.71
575.155	53869.61
575.516	53808.15
575.877	53936.73
576.238	54065.54
576.599	54110.06
576.96	54212.88
577.32	54151.64
577.681	54247.46
578.042	54301.02
578.403	54279.77
578.763	54330.17
579.124	54398.41
579.485	54490.16
579.845	54600.44
580.206	54545.08
580.566	54578.3
580.927	54658.75
581.287	54761.12
581.648	54614.91
582.008	54759.08
582.368	54615.13
582.728	54688.8
583.089	54679.31
583.449	54700.78
583.809	54811.28
584.169	54785.3
584.529	54741.68
584.889	54953.65
585.249	54785.75
585.609	54670.27
585.969	54842.47
586.329	54772.19
586.688	54827.1
587.048	54762.25
587.408	54770.38
587.768	54754.34
588.127	54777.16
588.487	54785.97
588.846	54988.46
589.206	54799.53
589.565	54785.07
589.925	54859.19
590.284	54824.39
590.643	54882.02
591.003	54937.61
591.362	55028.45
591.721	54950.94
592.08	54903.26
592.44	55021.67
592.799	55028.68
593.158	54932.41
593.517	54903.03
593.876	55033.2
594.235	54937.38
594.593	55010.6
594.952	54990.04
595.311	54979.42
595.67	54984.84
596.029	55171.95
596.387	55130.6
596.746	55295.79
597.104	55111.16
597.463	55054.89
597.822	55227.09
598.18	55078.4
598.538	55021.22
598.897	55339.86
599.255	55024.39
599.613	55473.19
599.972	55254.66
600.33	55323.36
600.688	55194.1
601.046	55297.37
601.404	55447.43
601.762	55347.32
602.12	55515.45
602.478	55459.86
602.836	55569.91
603.194	55406.52
603.552	55453.98
603.91	55447.88
604.268	55560.42
604.625	55443.13
604.983	55626.4
605.341	55382.8
605.698	55642
606.056	55679.74
606.413	55626.4
606.771	55743.92
607.128	55728.1
607.485	55631.6
607.843	55660.75
608.2	55851.94
608.557	55869.56
608.914	55779.17
609.272	55985.27
609.629	55974.19
609.986	56031.37
610.343	55937.36
610.7	56072.49
611.057	56004.93
611.414	56068.65
611.771	56080.4
612.127	56211.25
612.484	56168.54
612.841	56203.79
613.198	56165.37
613.554	56199.72
613.911	56330.79
614.267	56269.33
614.624	56253.28
614.98	56259.38
615.337	56391.13
615.693	56393.16
616.05	56300.06
616.406	56501.41
616.762	56372.37
617.118	56322.21
617.475	56339.15
617.831	56522.43
618.187	56460.96
618.543	56552.93
618.899	56604.91
619.255	56651.01
619.611	56518.58
619.967	56620.73
620.323	56669.32
620.678	56501.18
621.034	56485.14
621.39	56579.37
621.746	56456.44
622.101	56807.62
622.457	56511.35
622.812	56609.66
623.168	56622.08
623.523	56670.44
623.879	56686.49
624.234	56500.73
624.589	56608.3
624.945	56669.32
625.3	56735.3
625.655	56634.06
626.01	56701.86
626.365	56645.36
626.72	56693.5
627.075	56566.49
627.43	56566.27
627.785	56592.48
628.14	56641.97
628.495	56665.02
628.85	56574.4
629.205	56423.45
629.559	56608.3
629.914	56500.96
630.269	56514.06
630.623	56430.23
630.978	56385.71
631.332	56495.76
631.687	56532.82
632.041	56262.77
632.396	56437.68
632.75	56326.27
633.104	56381.41
633.459	56232.26
633.813	56208.31
634.167	56180.29
634.521	56104.13
634.875	56237.46
635.229	56120.63
635.583	55981.65
635.937	55934.87
636.291	55942.78
636.645	55910.92
636.999	55939.62
637.352	55951.82
637.706	55791.82
638.06	55945.04
638.413	55870.69
638.767	55785.27
639.121	55747.53
639.474	55628.89
639.828	55635.22
640.181	55672.05
640.534	55629.34
640.888	55614.2
641.241	55392.74
641.594	55433.64
641.947	55532.62
642.301	55412.17
642.654	55415.79
643.007	55407.88
643.36	55371.27
643.713	55351.16
644.066	55458.27
644.419	55228.67
644.771	55031.62
645.124	54695.13
645.477	54667.79
645.83	54540.11
646.182	54407.45
646.535	54294.46
646.888	54377.85
647.24	54210.17
647.593	54257.18
647.945	54301.47
648.298	54122.49
648.65	54078.87
649.002	53987.35
649.355	54131.08
649.707	54099.67
650.059	54141.02
650.411	54473.89
650.763	54496.26
651.115	54811.51
651.467	54666.2
651.819	54670.05
652.171	54531.74
652.523	54561.35
652.875	54537.62
653.227	54368.36
653.578	54537.17
653.93	54461.24
654.282	54327.23
654.633	54336.27
654.985	54316.61
655.337	54269.15
655.688	54303.28
656.039	54330.39
656.391	54089.72
656.742	54150.51
657.094	54142.38
657.445	54269.83
657.796	54189.83
658.147	54077.52
658.498	54033.23
658.849	54079.78
659.2	54052.66
659.551	53930.63
659.902	54065.99
660.253	53912.78
660.604	54014.92
660.955	53832.55
661.306	54005.2
661.656	53957.97
662.007	53906
662.358	53890.41
662.708	53902.38
663.059	53822.61
663.409	53608.6
663.76	53880.46
664.11	53778.09
664.461	53803.4
664.811	53717.53
665.161	53730.86
665.511	53710.75
665.862	53764.76
666.212	53740.8
666.562	53707.81
666.912	53630.75
667.262	53672.78
667.612	53668.49
667.962	53661.71
668.312	53518.89
668.662	53682.05
669.011	53690.18
669.361	53495.61
669.711	53531.09
670.06	53489.74
670.41	53473.01
670.76	53345.79
671.109	53554.59
671.459	53367.48
671.808	53310.08
672.157	53350.98
672.507	53177.66
672.856	53198.9
673.205	53203.19
673.554	53403.64
673.904	53134.94
674.253	53398.21
674.602	53248.61
674.951	52831
675.3	52633.71
675.649	53067.38
675.998	52958
676.346	53173.81
676.695	53127.26
677.044	52914.16
677.393	53068.51
677.741	52935.4
678.09	52917.55
678.438	52887.27
678.787	52917.78
679.135	52839.59
679.484	52621.96
679.832	52794.39
680.181	52557.78
680.529	52690.21
680.877	52600.72
681.225	52562.76
681.573	52733.37
681.922	52393.04
682.27	52365.7
682.618	52431.91
682.966	52312.59
683.314	52292.48
683.661	52250.45
684.009	52077.35
684.357	52030.57
684.705	51845.04
685.053	51953.05
685.4	51971.36
685.748	51840.74
686.095	51740.18
686.443	51611.37
686.79	51643.23
687.138	51567.08
687.485	51475.78
687.832	51470.13
688.18	51465.84
688.527	51222.9
688.874	51330.25
689.221	51302.45
689.568	51057.94
689.915	51031.05
690.262	50918.05
690.609	50821.79
690.956	50774.78
691.303	50572.53
691.65	50563.49
691.997	50561.23
692.344	50298.86
692.69	50266.77
693.037	50313.32
693.383	49952.88
693.73	50122.59
694.077	49869.27
694.423	49900.68
694.769	49757.41
695.116	49609.16
695.462	49590.63
695.808	49479.9
696.155	49538.88
696.501	49217.08
696.847	49264.09
697.193	48933.47
697.539	49143.19
697.885	48841.05
698.231	48757.43
698.577	48657.77
698.923	48682.86
699.269	48442.41
699.614	48266.6
699.96	48263.89
700.306	48197
700.651	48004.01
700.997	48005.36
701.342	47794.52
701.688	47794.75
702.033	47772.15
702.379	47626.39
702.724	47544.36
703.069	47551.81
703.415	47097.14
703.76	47086.52
704.105	47065.73
704.45	46931.94
704.795	46859.18
705.14	46569.47
705.485	46628.9
705.83	46413.09
706.175	46459.87
706.52	46270.49
706.865	46296.25
707.209	46082.25
707.554	45927
707.899	46126.77
708.243	45855.59
708.588	45764.74
708.932	45542.6
709.277	45432.55
709.621	45564.07
709.966	45243.17
710.31	45386.9
710.654	45019.68
710.998	45108.04
711.342	45117.98
711.687	44866.91
712.031	44737.65
712.375	44592.8
712.719	44566.13
713.063	44521.16
713.407	44598.67
713.75	44510.76
714.094	44361.84
714.438	44102.19
714.782	44311.9
715.125	43972.25
715.469	44172.92
715.812	43764.57
716.156	43636.44
716.499	43629.43
716.843	43634.63
717.186	43478.7
717.53	43552.6
717.873	43590.34
718.216	43355.99
718.559	43164.59
718.902	43046.17
719.246	43029.45
719.589	42939.73
719.932	42770.92
720.275	42851.6
720.617	42671.49
720.96	42654.32
721.303	42776.57
721.646	42711.94
721.989	42372.06
722.331	42498.39
722.674	42415.23
723.016	42365.28
723.359	42205.06
723.701	42064.95
724.044	41986.99
724.386	41915.13
724.729	41965.97
725.071	41905.86
725.413	41860.66
725.755	41697.28
726.097	41570.73
726.439	41557.4
726.782	41446.44
727.124	41490.28
727.465	41330.51
727.807	41273.79
728.149	41160.34
728.491	41187.69
728.833	41127.12
729.175	40983.63
729.516	40889.16
729.858	40882.84
730.199	40943.4
730.541	40766
730.882	40637.65
731.224	40850.07
731.565	40556.74
731.906	40585.44
732.248	40464.54
732.589	40266.81
732.93	40203.99
733.271	40147.04
733.612	40242.85
733.953	40327.15
734.294	40017.55
734.635	39929.87
734.976	40021.62
735.317	39778.01
735.658	39801.96
735.999	39641.97
736.339	39625.02
736.68	39819.59
737.021	39536.88
737.361	39372.37
737.702	39567.84
738.042	39468.19
738.383	39253.95
738.723	39338.02
739.063	39123.11
739.404	39124.24
739.744	39190.9
740.084	38893.29
740.424	38907.52
740.764	38880.63
741.104	38924.24
741.444	38596.8
741.784	38659.62
742.124	38840.41
742.464	38568.1
742.804	38493.07
743.143	38494.88
743.483	38501.66
743.823	38282.23
744.162	38182.57
744.502	38304.37
744.841	38156.36
745.181	38115.68
745.52	38057.83
745.86	37962.46
746.199	37966.3
746.538	37957.26
746.877	38032.06
747.216	37874.55
747.556	37710.94
747.895	37698.29
748.234	37551.4
748.573	37367.45
748.911	37491.29
749.25	37472.98
749.589	37211.97
749.928	37158.19
750.267	37227.79
750.605	37098.08
750.944	37150.73
751.283	36838.2
751.621	36998.42
751.96	36663.74
752.298	36688.15
