Data from white_wall_FLMS001491_048.txt Node
Date: Tue Feb 07 11:04:35 GMT 2017
User: dcchb
Spectrometer: FLMS00149
Trigger mode: 0
Integration Time (sec): 2.000000E-2
Scans to average: 10
Electric dark correction enabled: true
Nonlinearity correction enabled: false
Boxcar width: 0
XAxis mode: Wavelengths
Number of Pixels in Spectrum: 2048
>>>>>Begin Spectral Data<<<<<
341.393	-12.25
341.776	-12.25
342.16	-12.25
342.543	-66.71
342.927	-80.49
343.31	-73.71
343.693	-74.39
344.077	-70.55
344.46	-38.23
344.843	-50.44
345.226	-56.54
345.61	-26.26
345.993	-14.73
346.376	4.48
346.759	6.51
347.142	24.59
347.525	33.4
347.908	72.72
348.291	77.7
348.674	88.32
349.057	97.13
349.44	124.7
349.823	144.59
350.206	149.78
350.588	220.74
350.971	223.23
351.354	252.83
351.737	256
352.119	257.35
352.502	284.47
352.884	286.5
353.267	303.45
353.65	313.4
354.032	297.8
354.414	317.01
354.797	303
355.179	315.43
355.562	333.28
355.944	348.2
356.326	341.64
356.709	349.33
357.091	347.97
357.473	350
357.855	352.72
358.238	359.72
358.62	358.82
359.002	350.68
359.384	371.7
359.766	341.87
360.148	335.99
360.53	369.67
360.912	350
361.294	341.19
361.676	338.71
362.057	368.54
362.439	352.26
362.821	346.39
363.203	355.43
363.584	340.06
363.966	333.73
364.348	335.54
364.729	357.24
365.111	329.44
365.493	328.08
365.874	323.56
366.256	335.32
366.637	323.34
367.019	333.96
367.4	320.4
367.781	313.62
368.163	329.44
368.544	327.18
368.925	324.02
369.306	319.27
369.688	346.62
370.069	318.59
370.45	329.67
370.831	316.79
371.212	324.69
371.593	335.09
371.974	357.69
372.355	348.65
372.736	339.16
373.117	343.68
373.498	345.26
373.879	353.39
374.26	332.15
374.641	334.64
375.021	339.38
375.402	356.78
375.783	336.45
376.163	379.16
376.544	349.55
376.925	330.57
377.305	332.38
377.686	323.56
378.066	355.88
378.447	337.35
378.827	331.47
379.208	351.81
379.588	349.78
379.968	354.52
380.349	366.95
380.729	378.03
381.109	372.15
381.489	374.41
381.87	357.01
382.25	385.48
382.63	356.11
383.01	362.43
383.39	369.89
383.77	372.38
384.15	400.63
384.53	375.31
384.91	369.44
385.29	396.11
385.67	382.77
386.049	391.81
386.429	403.79
386.809	379.83
387.189	394.98
387.568	400.63
387.948	371.02
388.328	381.64
388.707	410.79
389.087	431.58
389.466	432.26
389.846	422.55
390.225	438.82
390.605	440.17
390.984	447.4
391.363	423.22
391.743	451.02
392.122	457.57
392.501	447.4
392.881	477.46
393.26	473.62
393.639	456.67
394.018	472.71
394.397	456.89
394.776	489.66
395.155	495.31
395.534	485.59
395.913	471.13
396.292	491.24
396.671	527.4
397.05	518.36
397.429	540.28
397.808	519.04
398.186	541.19
398.565	571.02
398.944	567.17
399.323	571.92
399.701	582.99
400.08	575.54
400.458	615.99
400.837	612.37
401.215	647.17
401.594	614.18
401.972	639.49
402.351	644.01
402.729	647.4
403.107	659.6
403.486	675.42
403.864	668.41
404.242	678.58
404.62	719.26
404.999	721.75
405.377	697.79
405.755	724.46
406.133	745.25
406.511	756.55
406.889	780.28
407.267	804.46
407.645	820.5
408.023	818.47
408.401	830.67
408.779	849.2
409.156	849.88
409.534	878.13
409.912	904.11
410.29	937.11
410.667	911.8
411.045	942.76
411.422	959.03
411.8	952.7
412.178	1013.26
412.555	1009.42
412.933	992.7
413.31	1041.06
413.687	1035.86
414.065	1058.91
414.442	1076.31
414.819	1091.68
415.197	1088.29
415.574	1100.27
415.951	1141.62
416.328	1128.06
416.705	1173.03
417.082	1145.24
417.46	1166.48
417.837	1203.77
418.214	1219.81
418.591	1210.55
418.967	1229.3
419.344	1222.52
419.721	1244.22
420.098	1268.17
420.475	1290.55
420.852	1260.04
421.228	1296.65
421.605	1304.78
421.982	1347.27
422.358	1350.88
422.735	1359.24
423.111	1371.22
423.488	1370.09
423.864	1398.11
424.241	1411.9
424.617	1421.16
424.994	1440.15
425.37	1438.34
425.746	1482.63
426.123	1514.27
426.499	1493.03
426.875	1514.49
427.251	1513.14
427.627	1561.72
428.003	1595.4
428.379	1592.91
428.756	1625.68
429.132	1657.09
429.507	1676.98
429.883	1717.88
430.259	1719.46
430.635	1706.81
431.011	1757.65
431.387	1796.75
431.763	1833.58
432.138	1858.67
432.514	1874.48
432.89	1819.8
433.265	1889.85
433.641	1955.61
434.016	1949.51
434.392	2001.94
434.767	2025.44
435.143	2011.66
435.518	2036.97
435.894	2035.84
436.269	2090.07
436.644	2131.43
437.02	2163.97
437.395	2151.31
437.77	2191.76
438.145	2246
438.52	2237.86
438.895	2278.99
439.271	2262.72
439.646	2294.36
440.021	2305.43
440.395	2341.14
440.77	2307.47
441.145	2380.01
441.52	2414.58
441.895	2417.52
442.27	2422.72
442.645	2475.15
443.019	2486.67
443.394	2467.69
443.769	2505.65
444.143	2506.33
444.518	2544.52
444.892	2528.48
445.267	2584.3
445.641	2640.34
446.016	2622.71
446.39	2661.58
446.764	2654.35
447.139	2650.96
447.513	2713.33
447.887	2712.88
448.262	2744.74
448.636	2735.7
449.01	2806.89
449.384	2805.08
449.758	2839.66
450.132	2879.43
450.506	2869.49
450.88	2903.61
451.254	2909.03
451.628	3005.08
452.002	3010.05
452.376	3028.13
452.75	3086.66
453.123	3093.21
453.497	3123.04
453.871	3149.48
454.244	3236.03
454.618	3249.36
454.992	3315.8
455.365	3297.95
455.739	3434.9
456.112	3425.86
456.486	3429.92
456.859	3517.61
457.232	3530.49
457.606	3547.43
457.979	3625.85
458.352	3682.12
458.725	3710.59
459.099	3765.28
459.472	3824.94
459.845	3835.11
460.218	3873.3
460.591	3936.58
460.964	3967.76
461.337	4010.02
461.71	4096.8
462.083	4186.29
462.456	4203.46
462.829	4202.78
463.201	4275.33
463.574	4352.16
463.947	4393.51
464.32	4446.39
464.692	4490.46
465.065	4514.87
465.438	4600.51
465.81	4659.5
466.183	4728.42
466.555	4790.79
466.928	4830.79
467.3	4849.1
467.672	4893.61
468.045	5065.59
468.417	5047.28
468.789	5142.2
469.161	5138.35
469.534	5261.29
469.906	5416.76
470.278	5461.96
470.65	5514.16
471.022	5661.28
471.394	5737.89
471.766	5778.56
472.138	5840.93
472.51	5994.38
472.882	6048.84
473.253	6173.35
473.625	6282.05
473.997	6365.21
474.369	6402.5
474.74	6452.9
475.112	6583.06
475.484	6724.53
475.855	6823.28
476.227	6905.09
476.598	7099.88
476.97	7205.87
477.341	7356.83
477.713	7443.38
478.084	7469.14
478.455	7702.58
478.827	7762.47
479.198	8011.27
479.569	8022.35
479.94	8217.82
480.311	8323.35
480.682	8517.25
481.053	8732.16
481.424	8854.41
481.795	8872.04
482.166	9090.57
482.537	9218.47
482.908	9363.1
483.279	9505.47
483.65	9735.29
484.021	9919.24
484.391	10052.12
484.762	10143.87
485.133	10116.75
485.503	10444.43
485.874	10550.87
486.244	10723.29
486.615	10969.84
486.985	11032.66
487.356	11316.27
487.726	11278.31
488.097	11649.82
488.467	11633.1
488.837	11923.03
489.207	12020.66
489.578	12227.21
489.948	12300.88
490.318	12475.34
490.688	12564.15
491.058	12816.8
491.428	12971.14
491.798	13091.59
492.168	13373.62
492.538	13491.58
492.908	13644.12
493.278	13814.96
493.648	13814.96
494.017	14014.05
494.387	14106.03
494.757	14244.55
495.126	14406.13
495.496	14443.65
495.866	14641.38
496.235	14830.75
496.605	14950.75
496.974	15002.5
497.344	15182.38
497.713	15308.03
498.082	15373.34
498.452	15529.72
498.821	15697.17
499.19	15699.43
499.559	15908.01
499.928	16050.84
500.298	16121.34
500.667	16323.14
501.036	16327.66
501.405	16579.86
501.774	16503.03
502.143	16723.13
502.512	16770.36
502.88	16986.63
503.249	16992.96
503.618	17122.9
503.987	17270.69
504.356	17419.16
504.724	17507.97
505.093	17628.65
505.462	17695.54
505.83	17950.22
506.199	18040.61
506.567	18274.73
506.936	18238.8
507.304	18492.13
507.672	18500.94
508.041	18686.47
508.409	18817.99
508.777	18985.67
509.145	19102.28
509.514	19102.73
509.882	19408.94
510.25	19485.77
510.618	19617.97
510.986	19762.83
511.354	19868.59
511.722	20062.48
512.09	20337.5
512.458	20251.4
512.826	20466.09
513.193	20682.58
513.561	20773.65
513.929	20949.01
514.297	21120.76
514.664	21263.58
515.032	21353.52
515.4	21523.69
515.767	21677.13
516.135	21866.95
516.502	21657.47
516.869	22183.78
517.237	22174.06
517.604	22198.47
517.972	22491.12
518.339	22716.65
518.706	22758
519.073	22836.19
519.44	22975.85
519.808	23366.57
520.175	23343.98
520.542	23648.83
520.909	23736.96
521.276	23873.23
521.643	24178.76
522.009	24272.31
522.376	24369.03
522.743	24548.24
523.11	24843.37
523.477	25103.03
523.843	25181.89
524.21	25423.24
524.577	25661.43
524.943	25792.95
525.31	26013.74
525.676	26263.9
526.043	26324.46
526.409	26373.5
526.776	26746.15
527.142	26787.95
527.508	27052.35
527.874	27205.12
528.241	27333.48
528.607	27494.15
528.973	27770.07
529.339	27765.78
529.705	28101.37
530.071	28251.87
530.437	28337.07
530.803	28526.21
531.169	28585.42
531.535	28643.95
531.901	28850.5
532.267	28923.26
532.632	29113.77
532.998	29239.19
533.364	29410.71
533.73	29443.93
534.095	29780.64
534.461	29892.73
534.826	29996.23
535.192	30125.27
535.557	30440.06
535.923	30377.46
536.288	30617.23
536.653	30682.09
537.019	30691.35
537.384	30801.86
537.749	31026.94
538.114	31182.19
538.479	31120.27
538.845	31503.99
539.21	31431.22
539.575	31508.06
539.94	31691.33
540.305	31924.09
540.67	31681.84
541.034	31881.38
541.399	32150.07
541.764	32310.97
542.129	32429.16
542.494	32515.71
542.858	32652.88
543.223	32572.66
543.587	32897.85
543.952	32962.25
544.316	32966.32
544.681	32994.34
545.045	33199.99
545.41	33269.59
545.774	33480.89
546.138	33507.55
546.503	33625.74
546.867	33805.17
547.231	34119.96
547.595	34123.58
547.959	34349.79
548.324	34465.04
548.688	34432.95
549.052	34568.54
549.416	34690.8
549.779	34867.06
550.143	34871.58
550.507	35118.36
550.871	35197.68
551.235	35326.03
551.599	35649.19
551.962	35700.71
552.326	35906.58
552.689	36181.61
553.053	36082.4
553.417	36150.19
553.78	36584.76
554.143	36475.83
554.507	36841.25
554.87	36884.41
555.234	37350.61
555.597	37062.49
555.96	37308.13
556.323	37510.84
556.686	37579.99
557.05	37820.66
557.413	38051.39
557.776	38210.48
558.139	38530.02
558.502	38488.21
558.865	38587.42
559.228	39000.51
559.59	39116.67
559.953	39163.9
560.316	39562.76
560.679	39520.05
561.041	39818.12
561.404	39988.28
561.767	40279.8
562.129	40064.89
562.492	40434.37
562.854	40505.33
563.217	40602.73
563.579	40804.76
563.941	41086.79
564.304	41254.92
564.666	41469.38
565.028	41615.81
565.39	41572.88
565.753	41817.84
566.115	42078.85
566.477	42101
566.839	42277.04
567.201	42462.8
567.563	42561.55
567.925	42819.62
568.287	42947.3
568.648	42868.89
569.01	43377.8
569.372	43338.03
569.734	43344.13
570.095	43735.08
570.457	43803.78
570.819	43916.32
571.18	43978.69
571.542	44349.07
571.903	44241.05
572.265	44569.86
572.626	44558.79
572.987	44621.61
573.349	44762.17
573.71	44948.61
574.071	44997.64
574.432	45257.52
574.794	45334.58
575.155	45381.82
575.516	45359.89
575.877	45437.86
576.238	45611.19
576.599	45669.94
576.96	45668.14
577.32	45662.94
577.681	45827.45
578.042	46028.13
578.403	45934.57
578.763	45900.45
579.124	46059.99
579.485	46198.97
579.845	46298.4
580.206	46235.35
580.566	46250.72
580.927	46249.81
581.287	46504.95
581.648	46400.55
582.008	46602.8
582.368	46448.68
582.728	46607.77
583.089	46645.74
583.449	46494.1
583.809	46727.32
584.169	46650.03
584.529	46545.85
584.889	46819.97
585.249	46625.62
585.609	46624.72
585.969	46888.22
586.329	46642.57
586.688	46950.59
587.048	46869.69
587.408	46742.46
587.768	46928.89
588.127	46651.16
588.487	46722.34
588.846	46944.71
589.206	46751.72
589.565	46798.73
589.925	46943.13
590.284	46804.15
590.643	46859.74
591.003	46972.96
591.362	47061.32
591.721	46904.49
592.08	46932.96
592.44	47003.47
592.799	47095.44
593.158	46887.54
593.517	47003.02
593.876	47019.51
594.235	46910.36
594.593	47025.39
594.952	47187.19
595.311	46987.42
595.67	47116.68
596.029	47360.07
596.387	47325.72
596.746	47324.14
597.104	47134.54
597.463	47273.06
597.822	47281.43
598.18	47097.7
598.538	47189.45
598.897	47369.33
599.255	47090.47
599.613	47594.41
599.972	47269.68
600.33	47546.5
600.688	47327.53
601.046	47562.55
601.404	47664.02
601.762	47391.03
602.12	47756.89
602.478	47640.74
602.836	47808.19
603.194	47613.17
603.552	47556.9
603.91	47614.07
604.268	47806.16
604.625	47725.48
604.983	47893.16
605.341	47679.16
605.698	47965.7
606.056	47871.69
606.413	48134.06
606.771	48052.48
607.128	48238.92
607.485	48023.78
607.843	48021.29
608.2	48308.97
608.557	48342.19
608.914	48316.65
609.272	48424.67
609.629	48505.8
609.986	48545.8
610.343	48360.72
610.7	48628.51
611.057	48540.38
611.414	48516.2
611.771	48623.76
612.127	48649.75
612.484	48702.63
612.841	48924.32
613.198	48642.07
613.554	48775.17
613.911	48943.76
614.267	48948.28
614.624	48805.68
614.98	49011.1
615.337	49146.91
615.693	49000.93
616.05	49136.07
616.406	49216.74
616.762	49159.79
617.118	49127.48
617.475	49234.14
617.831	49240.02
618.187	49333.35
618.543	49359.11
618.899	49442.05
619.255	49472.33
619.611	49410.64
619.967	49601.14
620.323	49605.43
620.678	49467.36
621.034	49391.88
621.39	49450.41
621.746	49427.58
622.101	49797.52
622.457	49479.33
622.812	49558.65
623.168	49659.67
623.523	49670.29
623.879	49759.55
624.234	49410.64
624.589	49554.36
624.945	49578.09
625.3	49624.42
625.655	49649.73
626.01	49666.45
626.365	49692.21
626.72	49620.12
627.075	49615.83
627.43	49722.72
627.785	49484.08
628.14	49755.03
628.495	49606.79
628.85	49663.96
629.205	49441.14
629.559	49673.91
629.914	49504.19
630.269	49542.38
630.623	49457.87
630.978	49247.7
631.332	49490.63
631.687	49565.21
632.041	49337.64
632.396	49400.24
632.75	49237.53
633.104	49385.1
633.459	49144.65
633.813	49165.22
634.167	49226.01
634.521	49101.04
634.875	49239.57
635.229	48998.44
635.583	48840.93
635.937	48944.89
636.291	48861.5
636.645	48899.24
636.999	48735.85
637.352	48940.59
637.706	48727.72
638.06	48833.7
638.413	48701.28
638.767	48656.76
639.121	48682.97
639.474	48428.97
639.828	48552.13
640.181	48522.75
640.534	48424.22
640.888	48360.95
641.241	48267.16
641.594	48332.92
641.947	48386.71
642.301	48362.08
642.654	48401.85
643.007	48275.3
643.36	48130.67
643.713	48074.4
644.066	48379.93
644.419	48120.05
644.771	47784.01
645.124	47422.67
645.477	47251.6
645.83	47112.39
646.182	46923.47
646.535	46809.8
646.888	46979.06
647.24	46703.81
647.593	46946.07
647.945	46806.41
648.298	46513.54
648.65	46443.26
649.002	46362.13
649.355	46613.65
649.707	46630.37
650.059	46654.32
650.411	46994.43
650.763	47049.57
651.115	47415.43
651.467	47233.97
651.819	47313.52
652.171	47136.35
652.523	47187.42
652.875	47205.27
653.227	46871.49
653.578	47252.73
653.93	47115.1
654.282	46854.32
654.633	46839.18
654.985	46797.6
655.337	46909.01
655.688	46937.71
656.039	46974.32
656.391	46544.27
656.742	46765.96
657.094	46782
657.445	46900.65
657.796	46732.29
658.147	46656.36
658.498	46640.99
658.849	46660.2
659.2	46655.23
659.551	46520.99
659.902	46561.45
660.253	46503.82
660.604	46565.06
660.955	46317.16
661.306	46447.1
661.656	46308.8
662.007	46392.18
662.358	46306.31
662.708	46299.76
663.059	46239.42
663.409	46030.16
663.76	46470.83
664.11	46371.85
664.461	46414.33
664.811	46334.11
665.161	46257.27
665.511	46179.08
665.862	46309.02
666.212	46435.35
666.562	46307.89
666.912	46261.79
667.262	46001.46
667.612	46157.84
667.962	46177.05
668.312	46216.14
668.662	46226.54
669.011	46076.03
669.361	45960.11
669.711	45982.25
670.06	45842.82
670.41	45830.84
670.76	45729.15
671.109	45900.9
671.459	45730.73
671.808	45825.87
672.157	45943.83
672.507	45635.37
672.856	45556.73
673.205	45779.09
673.554	45805.76
673.904	45440.34
674.253	45738.19
674.602	45535.03
674.951	45075.61
675.3	44682.4
675.649	45320.35
675.998	45387.92
676.346	45377.52
676.695	45542.26
677.044	45215.49
677.393	45266.11
677.741	45234.25
678.09	45083.74
678.438	45140.24
678.787	45125.1
679.135	45064.99
679.484	44746.13
679.832	44911.09
680.181	44888.95
680.529	44889.62
680.877	44711.55
681.225	44716.75
681.573	44874.71
681.922	44612.57
682.27	44375.06
682.618	44642.17
682.966	44349.75
683.314	44403.54
683.661	44278.79
684.009	44074.96
684.357	43905.92
684.705	43778.24
685.053	43932.81
685.4	43828.41
685.748	43631.35
686.095	43749.77
686.443	43544.12
686.79	43429.32
687.138	43542.99
687.485	43501.64
687.832	43412.6
688.18	43349.78
688.527	43029.33
688.874	43202.66
689.221	43150.24
689.568	42893.07
689.915	42818.04
690.262	42822.79
690.609	42622.57
690.956	42589.8
691.303	42386.87
691.65	42307.77
691.997	42325.85
692.344	42147.55
692.69	42112.3
693.037	42048.57
693.383	41745.07
693.73	41902.36
694.077	41699.43
694.423	41591.86
694.769	41489.04
695.116	41268.7
695.462	41324.75
695.808	41134.7
696.155	41235.71
696.501	40953.46
696.847	41038.43
697.193	40560.25
697.539	40791.43
697.885	40465.33
698.231	40293.59
698.577	40367.48
698.923	40412.45
699.269	40163.87
699.614	40084.55
699.96	40098.79
700.306	40016.08
700.651	39772.47
700.997	39603.44
701.342	39505.36
701.688	39604.34
702.033	39291.81
702.379	39303.33
702.724	39216.33
703.069	39269.66
703.415	38916.67
703.76	38923.91
704.105	38868.99
704.45	38872.83
704.795	38537.7
705.14	38411.6
705.485	38611.6
705.83	38182.23
706.175	38270.36
706.52	38229.69
706.865	38106.3
707.209	38015.91
707.554	37916.93
707.899	38175.45
708.243	37786.99
708.588	37660.21
708.932	37516.49
709.277	37492.98
709.621	37561
709.966	37309.94
710.31	37408.69
710.654	37015.71
710.998	37105.42
711.342	37156.27
711.687	37101.81
712.031	36799.22
712.375	36757.86
712.719	36851.19
713.063	36580.92
713.407	36764.64
713.75	36601.03
714.094	36486.46
714.438	36405.1
714.782	36443.07
715.125	36201.72
715.469	36276.29
715.812	35998.56
716.156	35927.83
716.499	35993.81
716.843	36000.37
717.186	35718.79
717.53	35950.42
717.873	35890.99
718.216	35668.62
718.559	35603.99
718.902	35492.36
719.246	35552.02
719.589	35342.76
719.932	35189.54
720.275	35232.93
720.617	35240.39
720.96	35224.57
721.303	35057.11
721.646	35000.39
721.989	34979.83
722.331	35075.19
722.674	34872.94
723.016	34915.88
723.359	34823.9
723.701	34735.54
724.044	34556.56
724.386	34445.38
724.729	34694.19
725.071	34473.4
725.413	34493.29
725.755	34292.16
726.097	34293.29
726.439	34122.22
726.782	34007.43
727.124	34205.84
727.465	34166.97
727.807	34063.47
728.149	34027.99
728.491	33840.88
728.833	33809.46
729.175	33693.76
729.516	33649.24
729.858	33698.73
730.199	33742.57
730.541	33633.88
730.882	33525.18
731.224	33598.85
731.565	33258.97
731.906	33375.35
732.248	33416.93
732.589	33148.24
732.93	33061.01
733.271	33138.07
733.612	33152.53
733.953	33064.17
734.294	32961.12
734.635	32927
734.976	32973.33
735.317	32780.34
735.658	32885.87
735.999	32825.31
736.339	32644.75
736.68	32748.93
737.021	32609.95
737.361	32494.24
737.702	32721.13
738.042	32562.04
738.383	32424.19
738.723	32459.9
739.063	32415.38
739.404	32336.28
739.744	32347.13
740.084	32174.25
740.424	32124.76
740.764	32135.84
741.104	32235.95
741.444	31998.44
741.784	31931.32
742.124	31880.48
742.464	31855.62
742.804	31757.09
743.143	31695.17
743.483	31668.73
743.823	31460.6
744.162	31597.54
744.502	31609.52
744.841	31445.68
745.181	31530.43
745.52	31331.34
745.86	31465.57
746.199	31434.39
746.538	31351.45
746.877	31265.12
747.216	31167.05
747.556	31214.5
747.895	31080.04
748.234	30967.73
748.573	30906.26
748.911	30901.74
749.25	30890.44
749.589	30741.3
749.928	30911.91
750.267	30839.37
750.605	30620.4
750.944	30557.35
751.283	30499.27
751.621	30489.33
751.96	30290.01
752.298	30411.59
752.636	30314.64
752.975	30240.07
753.313	30093.86
