Data from white_wall_FLMS001491_056.txt Node
Date: Tue Feb 07 11:04:58 GMT 2017
User: dcchb
Spectrometer: FLMS00149
Trigger mode: 0
Integration Time (sec): 2.000000E-2
Scans to average: 10
Electric dark correction enabled: true
Nonlinearity correction enabled: false
Boxcar width: 0
XAxis mode: Wavelengths
Number of Pixels in Spectrum: 2048
>>>>>Begin Spectral Data<<<<<
341.393	0.97
341.776	0.97
342.16	0.97
342.543	-69.31
342.927	-76.09
343.31	-53.94
343.693	-78.12
344.077	-76.31
344.46	-50.55
344.843	-62.07
345.226	-44.22
345.61	-29.08
345.993	-22.75
346.376	-17.33
346.759	8.21
347.142	34.65
347.525	35.55
347.908	73.97
348.291	75.55
348.674	98.83
349.057	107.64
349.44	139.5
349.823	134.08
350.206	167.07
350.588	178.6
350.971	236.9
351.354	222.44
351.737	250.91
352.119	251.36
352.502	280.29
352.884	275.32
353.267	278.93
353.65	293.17
354.032	306.05
354.414	314.41
354.797	317.8
355.179	335.43
355.562	336.11
355.944	328.42
356.326	325.94
356.709	340.4
357.091	339.27
357.473	339.5
357.855	360.29
358.238	350.57
358.62	373.39
359.002	349.44
359.384	330.46
359.766	340.85
360.148	347.41
360.53	343.34
360.912	342.89
361.294	342.43
361.676	330.23
362.057	353.06
362.439	359.16
362.821	350.34
363.203	331.81
363.584	341.08
363.966	352.38
364.348	335.43
364.729	324.36
365.111	325.94
365.493	320.29
365.874	313.06
366.256	311.7
366.637	317.12
367.019	322.55
367.4	327.07
367.781	324.13
368.163	309.89
368.544	301.53
368.925	314.19
369.306	310.57
369.688	323
370.069	310.34
370.45	325.03
370.831	324.81
371.212	305.15
371.593	317.58
371.974	307.63
372.355	313.28
372.736	311.7
373.117	300.4
373.498	310.57
373.879	324.13
374.26	340.17
374.641	306.5
375.021	317.58
375.402	330.68
375.783	316.22
376.163	317.8
376.544	318.93
376.925	347.63
377.305	320.29
377.686	334.07
378.066	343.56
378.447	353.96
378.827	332.49
379.208	348.76
379.588	326.39
379.968	317.8
380.349	351.93
380.729	348.31
381.109	350.57
381.489	354.64
381.87	355.99
382.25	367.97
382.63	367.29
383.01	344.69
383.39	358.48
383.77	358.71
384.15	362.09
384.53	373.39
384.91	356.9
385.29	363.45
385.67	368.42
386.049	371.13
386.429	384.92
386.809	364.81
387.189	386.95
387.568	396.44
387.948	384.02
388.328	397.35
388.707	369.55
389.087	381.53
389.466	396.9
389.846	404.81
390.225	411.13
390.605	403.68
390.984	388.08
391.363	412.04
391.743	424.69
392.122	397.12
392.501	427.18
392.881	428.76
393.26	443.67
393.639	410.23
394.018	450.45
394.397	449.78
394.776	435.77
395.155	457.69
395.534	437.35
395.913	462.88
396.292	463.34
396.671	477.12
397.05	486.39
397.429	474.18
397.808	492.04
398.186	478.02
398.565	483.67
398.944	484.8
399.323	537.68
399.701	516.44
400.08	539.27
400.458	518.7
400.837	538.36
401.215	552.6
401.594	548.53
401.972	580.39
402.351	564.35
402.729	575.87
403.107	594.86
403.486	587.85
403.864	590.79
404.242	612.26
404.62	597.12
404.999	605.48
405.377	642.09
405.755	673.73
406.133	656.1
406.511	673.05
406.889	693.61
407.267	686.38
407.645	714.85
408.023	707.85
408.401	718.24
408.779	722.99
409.156	740.84
409.534	734.06
409.912	765.93
410.29	773.16
410.667	787.17
411.045	776.55
411.422	817.45
411.8	802.54
412.178	841.86
412.555	832.14
412.933	852.93
413.31	872.82
413.687	867.17
414.065	876.43
414.442	889.76
414.819	907.62
415.197	904.23
415.574	933.15
415.951	946.94
416.328	937
416.705	950.55
417.082	966.6
417.46	993.26
417.837	990.1
418.214	1002.3
418.591	1005.24
418.967	990.33
419.344	1040.95
419.721	1062.87
420.098	1044.34
420.475	1065.35
420.852	1073.94
421.228	1048.18
421.605	1087.95
421.982	1101.06
422.358	1109.87
422.735	1138.57
423.111	1115.97
423.488	1157.1
423.864	1145.58
424.241	1155.97
424.617	1189.19
424.994	1196.42
425.37	1225.35
425.746	1208.63
426.123	1212.24
426.499	1236.42
426.875	1248.4
427.251	1258.34
427.627	1302.64
428.003	1294.5
428.379	1337.89
428.756	1340.37
429.132	1336.08
429.507	1361.39
429.883	1391.9
430.259	1414.5
430.635	1403.42
431.011	1423.54
431.387	1445.23
431.763	1484.78
432.138	1473.48
432.514	1492.01
432.89	1525.68
433.265	1577.43
433.641	1597.32
434.016	1579.46
434.392	1607.49
434.767	1595.96
435.143	1656.3
435.518	1636.86
435.894	1671.44
436.269	1679.8
436.644	1745.34
437.02	1742.85
437.395	1756.18
437.77	1757.54
438.145	1790.53
438.52	1792.57
438.895	1819.91
439.271	1820.81
439.646	1894.48
440.021	1871.43
440.395	1902.39
440.77	1896.97
441.145	1892.9
441.52	1925.22
441.895	1945.56
442.27	1952.34
442.645	1955.73
443.019	1981.26
443.394	1983.97
443.769	2043.18
444.143	2017.87
444.518	2066.23
444.892	2047.7
445.267	2073.91
445.641	2089.73
446.016	2124.08
446.39	2123.4
446.764	2113.46
447.139	2141.71
447.513	2171.99
447.887	2163.63
448.262	2183.74
448.636	2189.39
449.01	2236.4
449.384	2291.54
449.758	2269.39
450.132	2267.58
450.506	2325.43
450.88	2374.25
451.254	2324.76
451.628	2346
452.002	2423.96
452.376	2444.98
452.75	2452.66
453.123	2451.31
453.497	2499.67
453.871	2506.9
454.244	2557.52
454.618	2604.75
454.992	2612.43
455.365	2643.39
455.739	2690.17
456.112	2698.08
456.486	2745.99
456.859	2741.24
457.232	2825.08
457.606	2797.29
457.979	2844.06
458.352	2918.19
458.725	2908.69
459.099	2971.97
459.472	2996.6
459.845	3035.02
460.218	3060.1
460.591	3090.38
460.964	3094.45
461.337	3216.71
461.71	3256.71
462.083	3310.94
462.456	3344.84
462.829	3324.73
463.201	3378.06
463.574	3411.28
463.947	3438.4
464.32	3485.63
464.692	3531.05
465.065	3622.8
465.438	3624.61
465.81	3668.22
466.183	3714.78
466.555	3828.9
466.928	3858.05
467.3	3844.26
467.672	3902.79
468.045	4027.08
468.417	3990.25
468.789	4040.64
469.161	4103.92
469.534	4153.18
469.906	4216.68
470.278	4275.44
470.65	4362.89
471.022	4377.36
471.394	4484.47
471.766	4502.78
472.138	4607.86
472.51	4706.61
472.882	4765.82
473.253	4803.33
473.625	4871.81
473.997	4953.61
474.369	5037.68
474.74	5075.42
475.112	5163.1
475.484	5223.44
475.855	5346.37
476.227	5378.23
476.598	5584.78
476.97	5620.04
477.341	5751.11
477.713	5817.32
478.084	5819.58
478.455	6027.93
478.827	6069.74
479.198	6248.04
479.569	6244.88
479.94	6391.31
480.311	6488.71
480.682	6676.96
481.053	6782.49
481.424	6849.61
481.795	6959.89
482.166	7074.69
482.537	7195.81
482.908	7271.29
483.279	7371.63
483.65	7546.31
484.021	7677.16
484.391	7786.31
484.762	7880.09
485.133	7933.87
485.503	8007.77
485.874	8242.11
486.244	8287.31
486.615	8412.5
486.985	8559.85
487.356	8705.6
487.726	8772.5
488.097	8953.06
488.467	9013.62
488.837	9225.82
489.207	9307.4
489.578	9427.62
489.948	9568.41
490.318	9695.63
490.688	9741.51
491.058	9824.67
491.428	10005.46
491.798	10168.84
492.168	10350.31
492.538	10333.81
492.908	10562.5
493.278	10633.24
493.648	10666.23
494.017	10803.63
494.387	10942.83
494.757	11072.77
495.126	11152.55
495.496	11213.34
495.866	11314.58
496.235	11530.39
496.605	11473.67
496.974	11500.11
497.344	11675.92
497.713	11805.18
498.082	11933.99
498.452	12044.27
498.821	12046.76
499.19	12067.32
499.559	12321.55
499.928	12332.85
500.298	12437.03
500.667	12581.89
501.036	12509.35
501.405	12796.34
501.774	12741.43
502.143	12954.76
502.512	12978.49
502.88	13143.23
503.249	13114.53
503.618	13250.8
503.987	13385.26
504.356	13484.69
504.724	13543.9
505.093	13598.36
505.462	13658.24
505.83	13784.11
506.199	13942.53
506.567	14113.37
506.936	14112.69
507.304	14314.5
507.672	14331.45
508.041	14379.58
508.409	14552.68
508.777	14656.18
509.145	14813.24
509.514	14773.69
509.882	14999.22
510.25	15008.04
510.618	15106.34
510.986	15264.08
511.354	15356.95
511.722	15507.91
512.09	15671.97
512.458	15697.51
512.826	15822.93
513.193	15886.21
513.561	15951.97
513.929	16111.74
514.297	16266.31
514.664	16392.63
515.032	16473.54
515.4	16615
515.767	16718.73
516.135	16854.77
516.502	16790.82
516.869	17106.06
517.237	17118.72
517.604	17181.31
517.972	17405.94
518.339	17518.48
518.706	17562.77
519.073	17636.9
519.44	17902.2
519.808	17986.94
520.175	17964.34
520.542	18227.39
520.909	18367.72
521.276	18387.61
521.643	18699.92
522.009	18715.28
522.376	18933.58
522.743	18979.23
523.11	19227.59
523.477	19335.16
523.843	19322.95
524.21	19644.3
524.577	19826.22
524.943	19855.14
525.31	19983.5
525.676	20224.4
526.043	20366.99
526.409	20448.35
526.776	20649.7
527.142	20684.5
527.508	20869.35
527.874	21036.81
528.241	21145.73
528.607	21197.71
528.973	21376.68
529.339	21363.58
529.705	21663.68
530.071	21739.39
530.437	21896.22
530.803	22123.56
531.169	22251.24
531.535	22229.99
531.901	22297.79
532.267	22377.56
532.632	22583.43
532.998	22623.66
533.364	22865.01
533.73	22890.09
534.095	23082.85
534.461	23185.9
534.826	23273.81
535.192	23372.56
535.557	23592.22
535.923	23695.27
536.288	23662.73
536.653	23764.87
537.019	23708.6
537.384	23860.01
537.749	24010.96
538.114	24170.28
538.479	24110.62
538.845	24326.21
539.21	24244.86
539.575	24337.51
539.94	24573.44
540.305	24699.99
540.67	24662.7
541.034	24690.72
541.399	24919.64
541.764	24989.7
542.129	25083.93
542.494	25176.58
542.858	25354.66
543.223	25232.63
543.587	25333.87
543.952	25574.54
544.316	25605.5
544.681	25541.77
545.045	25858.37
545.41	25954.64
545.774	25998.03
546.138	26117.8
546.503	26203.68
546.867	26287.29
547.231	26579.03
547.595	26452.93
547.959	26687.05
548.324	26649.99
548.688	26732.93
549.052	26967.95
549.416	27020.15
549.779	27086.82
550.143	27162.52
550.507	27342.18
550.871	27470.08
551.235	27388.05
551.599	27685.9
551.962	27749.85
552.326	27928.6
552.689	28203.85
553.053	28035.27
553.417	28180.57
553.78	28547.57
554.143	28391.41
554.507	28690.16
554.87	28672.99
555.234	28945.75
555.597	28816.94
555.96	29003.15
556.323	29190.04
556.686	29171.73
557.05	29542.8
557.413	29650.14
557.776	29712.51
558.139	29836.57
558.502	29891.71
558.865	30012.16
559.228	30222.78
559.59	30447.18
559.953	30364.7
560.316	30795.87
560.679	30841.97
561.041	31092.59
561.404	31181.62
561.767	31313.15
562.129	31270.43
562.492	31462.75
562.854	31524.21
563.217	31661.61
563.579	31950.87
563.941	31904.32
564.304	32173.24
564.666	32246.23
565.028	32370.97
565.39	32596.95
565.753	32675.37
566.115	32716.27
566.477	33015.25
566.839	33007.34
567.201	33318.06
567.563	33349.93
567.925	33454.33
568.287	33611.62
568.648	33619.53
569.01	33843.7
569.372	33988.33
569.734	34047.54
570.095	34297.93
570.457	34459.05
570.819	34417.47
571.18	34495.89
571.542	34751.93
571.903	34700.85
572.265	34829.66
572.626	34929.77
572.987	35009.32
573.349	35097.45
573.71	35200.95
574.071	35388.29
574.432	35481.62
574.794	35792.12
575.155	35680.49
575.516	35669.64
575.877	35760.26
576.238	35861.73
576.599	35844.1
576.96	35793.93
577.32	35957.09
577.681	36214.49
578.042	36257.42
578.403	36300.59
578.763	36261.72
579.124	36308.95
579.485	36397.53
579.845	36458.1
580.206	36310.98
580.566	36425.78
580.927	36479.11
581.287	36576.74
581.648	36519.56
582.008	36631.42
582.368	36500.58
582.728	36638.88
583.089	36629.16
583.449	36664.19
583.809	36785.54
584.169	36805.66
584.529	36741.03
584.889	36935.14
585.249	36614.02
585.609	36684.3
585.969	36867.35
586.329	36753.23
586.688	36864.64
587.048	36806.56
587.408	36748.03
587.768	36872.77
588.127	36798.65
588.487	36753.91
588.846	36967.23
589.206	36715.72
589.565	36800.01
589.925	36978.76
590.284	36948.7
590.643	36899.21
591.003	37179.43
591.362	37164.07
591.721	37011.53
592.08	36997.52
592.44	37223.72
592.799	37048.36
593.158	37053.79
593.517	37044.52
593.876	37120.68
594.235	37033.9
594.593	37096.72
594.952	37350.5
595.311	36990.74
595.67	37171.3
596.029	37305.3
596.387	37272.54
596.746	37318.19
597.104	37187.34
597.463	37189.38
597.822	37364.06
598.18	37344.17
598.538	37173.78
598.897	37663.94
599.255	37215.82
599.613	37811.51
599.972	37473.44
600.33	37511.63
600.688	37336.49
601.046	37523.15
601.404	37798.4
601.762	37569.03
602.12	37851.96
602.478	37802.92
602.836	37705.29
603.194	37653.32
603.552	37756.59
603.91	37559.99
604.268	37714.33
604.625	37689.25
604.983	37898.06
605.341	37705.97
605.698	38027.09
606.056	38078.39
606.413	37977.83
606.771	38171.72
607.128	38199.97
607.485	38010.14
607.843	38046.53
608.2	38233.19
608.557	38347.76
608.914	38204.49
609.272	38350.25
609.629	38389.12
609.986	38483.13
610.343	38379.4
610.7	38636.34
611.057	38523.35
611.414	38423.02
611.771	38609.68
612.127	38779.84
612.484	38749.11
612.841	38824.59
613.198	38670.24
613.554	38636.34
613.911	38938.03
614.267	38886.73
614.624	38883.79
614.98	38950.23
615.337	39104.13
615.693	38943.45
616.05	38917.47
616.406	39236.78
616.762	39055.31
617.118	39145.03
617.475	38990.68
617.831	39106.39
618.187	39265.48
618.543	39228.64
618.899	39424.34
619.255	39305.25
619.611	39401.75
619.967	39477.45
620.323	39460.73
620.678	39323.78
621.034	39314.29
621.39	39282.2
621.746	39431.12
622.101	39669.31
622.457	39302.09
622.812	39468.19
623.168	39632.25
623.523	39573.95
623.879	39668.18
624.234	39459.82
624.589	39594.51
624.945	39618.46
625.3	39773.94
625.655	39557.22
626.01	39617.11
626.365	39599.93
626.72	39662.76
627.075	39493.5
627.43	39469.09
627.785	39628.41
628.14	39592.93
628.495	39656.88
628.85	39553.61
629.205	39564.91
629.559	39787.5
629.914	39571.01
630.269	39571.23
630.623	39517
630.978	39384.12
631.332	39538.47
631.687	39509.09
632.041	39331.01
632.396	39524.46
632.75	39290.56
633.104	39200.17
633.459	39240.62
633.813	39185.25
634.167	39192.94
634.521	39152.49
634.875	39253.73
635.229	39180.51
635.583	39056.9
635.937	39060.96
636.291	38924.24
636.645	38989.33
636.999	38755.89
637.352	38886.96
637.706	38753.4
638.06	38952.94
638.413	38767.86
638.767	38672.95
639.121	38721.31
639.474	38406.29
639.828	38469.12
640.181	38560.19
640.534	38488.1
640.888	38354.77
641.241	38236.58
641.594	38339.18
641.947	38303.47
642.301	38244.26
642.654	38162.23
643.007	38247.2
643.36	38282.91
643.713	38084.94
644.066	38385.73
644.419	38082.69
644.771	37685.18
645.124	37473.44
645.477	37372.42
645.83	37182.14
646.182	37025.99
646.535	36969.27
646.888	37029.61
647.24	36681.82
647.593	37052.43
647.945	36955.03
648.298	36718.43
648.65	36687.69
649.002	36659.67
649.355	36770.63
649.707	36695.15
650.059	36770.86
650.411	37225.76
650.763	37158.42
651.115	37647.89
651.467	37473.21
651.819	37416.94
652.171	37258.53
652.523	37212.2
652.875	37235.7
653.227	37044.52
653.578	37354.79
653.93	37181.69
654.282	36962.49
654.633	37059.44
654.985	36970.4
655.337	36955.71
655.688	36971.53
656.039	37138.3
656.391	36860.34
656.742	36859.67
657.094	37007.01
657.445	36936.95
657.796	36869.84
658.147	36864.41
658.498	36727.47
658.849	36834.81
659.2	36757.97
659.551	36751.87
659.902	36843.4
660.253	36622.38
660.604	36791.65
660.955	36593.01
661.306	36781.02
661.656	36599.79
662.007	36588.04
662.358	36524.76
662.708	36546.91
663.059	36576.06
663.409	36310.98
663.76	36464.2
664.11	36649.28
664.461	36474.14
664.811	36526.57
665.161	36513.91
665.511	36245.9
665.862	36361.6
666.212	36553.69
666.562	36413.12
666.912	36400.92
667.262	36347.36
667.612	36327.48
667.962	36339.23
668.312	36375.84
668.662	36394.82
669.011	36318.89
669.361	36166.8
669.711	36138.1
670.06	36123.64
670.41	36160.7
670.76	36080.03
671.109	36155.73
671.459	36038.67
671.808	36084.32
672.157	36143.98
672.507	35937.88
672.856	35923.65
673.205	35932.91
673.554	35985.34
673.904	35806.81
674.253	36035.06
674.602	35846.59
674.951	35348.75
675.3	35261.52
675.649	35711.22
675.998	35565.92
676.346	35637.78
676.695	35821.73
677.044	35474.39
677.393	35607.5
677.741	35652.24
678.09	35513.71
678.438	35516.42
678.787	35460.61
679.135	35382.87
679.484	35266.04
679.832	35443.43
680.181	35071.46
680.529	35249.77
680.877	35055.19
681.225	35156.43
681.573	35223.55
681.922	35156.43
682.27	34893.39
682.618	34863.33
682.966	34833.05
683.314	34876.89
683.661	34808.19
684.009	34521.65
684.357	34548.77
684.705	34475.55
685.053	34443.23
685.4	34379.96
685.748	34226.29
686.095	34271.71
686.443	34108.33
686.79	34012.74
687.138	34167.99
687.485	34220.87
687.832	34072.62
688.18	33896.81
688.527	33775.68
688.874	33811.38
689.221	33790.14
689.568	33534.78
689.915	33388.35
690.262	33443.03
690.609	33413.43
690.956	33284.62
691.303	33262.25
691.65	33005.98
691.997	33099.54
692.344	32919.66
692.69	32872.88
693.037	32879.21
693.383	32486
693.73	32757.18
694.077	32593.34
694.423	32490.52
694.769	32374.81
695.116	32254.36
695.462	32347.24
695.808	32109.73
696.155	32167.13
696.501	31858.89
696.847	31975.95
697.193	31725.56
697.539	31912.23
697.885	31596.75
698.231	31579.35
698.577	31512.01
698.923	31565.57
699.269	31331.22
699.614	31234.5
699.96	31197.67
700.306	31135.07
700.651	30888.75
700.997	30943.44
701.342	30937.34
701.688	30935.75
702.033	30637.68
702.379	30781.86
702.724	30616.89
703.069	30595.2
703.415	30455.77
703.76	30351.14
704.105	30276.34
704.45	30233.17
704.795	30160.41
705.14	30056.46
705.485	30083.12
705.83	29803.58
706.175	29862.79
706.52	29751.38
706.865	29654.21
707.209	29690.82
707.554	29426.87
707.899	29566.98
708.243	29460.31
708.588	29274.78
708.932	29227.78
709.277	29218.06
709.621	29304.61
709.966	28926.54
710.31	28992.75
710.654	28768.81
710.998	28847.67
711.342	28777.85
711.687	28768.13
712.031	28609.94
712.375	28562.26
712.719	28478.42
713.063	28462.37
713.407	28645.19
713.75	28380.34
714.094	28385.54
714.438	28248.82
714.782	28260.12
715.125	28231.42
715.469	28209.27
715.812	28056.06
716.156	27793.24
716.499	27952.33
716.843	27963.4
717.186	27814.71
717.53	27871.88
717.873	27796.4
718.216	27845.21
718.559	27570.42
718.902	27503.08
719.246	27593.47
719.589	27493.36
719.932	27374.49
720.275	27484.32
720.617	27333.14
720.96	27413.14
721.303	27275.06
721.646	27372.68
721.989	27104.67
722.331	27280.94
722.674	27205.46
723.016	27054.73
723.359	26993.26
723.701	27080.49
724.044	26778.12
724.386	26780.61
724.729	26943.54
725.071	26791.91
725.413	26760.04
725.755	26736.99
726.097	26458.36
726.439	26521.18
726.782	26461.07
727.124	26577.45
727.465	26329.77
727.807	26393.95
728.149	26384.46
728.491	26315.76
728.833	26340.85
729.175	26129.55
729.516	26077.58
729.858	26047.07
730.199	26012.72
730.541	26018.37
730.882	25998.48
731.224	26019.27
731.565	25923.23
731.906	25941.54
732.248	25878.49
732.589	25679.85
732.93	25644.14
733.271	25643.92
733.612	25702.22
733.953	25658.15
734.294	25538.38
734.635	25532.05
734.976	25569.12
735.317	25418.16
735.658	25472.62
735.999	25471.72
736.339	25288.45
736.68	25400.76
737.021	25342
737.361	25126.87
737.702	25391.04
738.042	25158.05
738.383	25170.03
738.723	25293.42
739.063	25190.37
739.404	25105.63
739.744	25080.09
740.084	24931.39
740.424	25100.65
740.764	24907.21
741.104	25041.67
741.444	24908.12
741.784	24855.46
742.124	24789.93
742.464	24895.01
742.804	24820.43
743.143	24687.78
743.483	24700.44
743.823	24562.81
744.162	24622.93
744.502	24486.43
744.841	24406.66
745.181	24554.91
745.52	24513.55
745.86	24558.07
746.199	24462.03
746.538	24280.11
746.877	24427.45
747.216	24243.73
747.556	24141.58
747.895	24142.49
748.234	24057.74
748.573	24092.77
748.911	23995.6
749.25	24028.82
749.589	23922.38
749.928	23905.66
750.267	23876.05
750.605	23818.43
750.944	23754.47
751.283	23663.86
751.621	23704.31
751.96	23589.96
752.298	23564.65
752.636	23665.44
752.975	23507.02
753.313	23467.7
753.651	23430.41
753.989	23312.45
