Data from white_wall_FLMS001491_072.txt Node
Date: Tue Feb 07 11:05:45 GMT 2017
User: dcchb
Spectrometer: FLMS00149
Trigger mode: 0
Integration Time (sec): 2.000000E-2
Scans to average: 10
Electric dark correction enabled: true
Nonlinearity correction enabled: false
Boxcar width: 0
XAxis mode: Wavelengths
Number of Pixels in Spectrum: 2048
>>>>>Begin Spectral Data<<<<<
341.393	-8.25
341.776	-8.25
342.16	-8.25
342.543	-54.35
342.927	-66.55
343.31	-65.65
343.693	-76.5
344.077	-53.9
344.46	-48.7
344.843	-41.24
345.226	-45.08
345.61	-26.55
345.993	-9.6
346.376	-6.44
346.759	1.24
347.142	33.11
347.525	28.81
347.908	53.9
348.291	49.83
348.674	105.65
349.057	101.13
349.44	130.73
349.823	149.71
350.206	161.92
350.588	204.18
350.971	244.17
351.354	241.69
351.737	255.93
352.119	247.34
352.502	281.24
352.884	294.57
353.267	286.21
353.65	315.36
354.032	318.75
354.414	330.05
354.797	342.02
355.179	334.34
355.562	352.42
355.944	353.1
356.326	355.13
356.709	354
357.091	363.95
357.473	351.06
357.855	351.74
358.238	362.36
358.62	358.3
359.002	353.78
359.384	363.95
359.766	361.01
360.148	332.99
360.53	357.62
360.912	353.32
361.294	361.91
361.676	355.81
362.057	357.84
362.439	364.17
362.821	326.88
363.203	339.09
363.584	331.63
363.966	347.9
364.348	347.9
364.729	325.08
365.111	347
365.493	325.98
365.874	325.53
366.256	335.47
366.637	330.73
367.019	332.31
367.4	341.57
367.781	335.25
368.163	353.55
368.544	337.73
368.925	330.95
369.306	355.36
369.688	347.67
370.069	331.4
370.45	333.21
370.831	344.51
371.212	347.22
371.593	339.31
371.974	331.4
372.355	336.6
372.736	348.35
373.117	307.68
373.498	330.95
373.879	340.67
374.26	332.76
374.641	337.05
375.021	350.61
375.402	333.66
375.783	333.89
376.163	369.82
376.544	345.87
376.925	351.06
377.305	360.56
377.686	347.22
378.066	348.58
378.447	364.4
378.827	358.52
379.208	356.71
379.588	348.13
379.968	361.01
380.349	367.56
380.729	369.14
381.109	374.34
381.489	378.18
381.87	359.65
382.25	365.75
382.63	386.32
383.01	390.84
383.39	405.07
383.77	373.89
384.15	375.24
384.53	358.75
384.91	387
385.29	410.05
385.67	386.77
386.049	395.58
386.429	400.78
386.809	384.96
387.189	398.29
387.568	419.54
387.948	402.36
388.328	431.06
388.707	419.09
389.087	409.82
389.466	427.9
389.846	431.06
390.225	437.16
390.605	434
390.984	428.12
391.363	475.13
391.743	449.37
392.122	475.35
392.501	484.85
392.881	469.48
393.26	483.26
393.639	488.24
394.018	490.04
394.397	498.18
394.776	505.64
395.155	491.85
395.534	509.93
395.913	537.73
396.292	515.13
396.671	546.77
397.05	546.09
397.429	554.45
397.808	553.32
398.186	555.8
398.565	559.42
398.944	580.66
399.323	601.45
399.701	604.39
400.08	609.81
400.458	622.24
400.837	625.41
401.215	626.31
401.594	643.03
401.972	634.9
402.351	658.85
402.729	697.04
403.107	672.41
403.486	703.37
403.864	741.34
404.242	721.45
404.62	748.34
404.999	737.95
405.377	721.22
405.755	761.22
406.133	804.84
406.511	816.59
406.889	817.72
407.267	829.24
407.645	842.58
408.023	859.53
408.401	854.1
408.779	881.9
409.156	914.21
409.534	922.8
409.912	944.72
410.29	960.99
410.667	966.42
411.045	984.27
411.422	988.56
411.8	1020.88
412.178	1022.91
412.555	1055.68
412.933	1044.83
413.31	1065.17
413.687	1104.49
414.065	1079.63
414.442	1116.92
414.819	1144.04
415.197	1148.11
415.574	1175.22
415.951	1218.84
416.328	1218.84
416.705	1217.26
417.082	1230.82
417.46	1247.54
417.837	1257.03
418.214	1252.96
418.591	1293.86
418.967	1283.92
419.344	1274.43
419.721	1287.31
420.098	1327.76
420.475	1323.24
420.852	1374.77
421.228	1374.09
421.605	1376.57
421.982	1373.18
422.358	1412.96
422.735	1424.48
423.111	1407.31
423.488	1445.72
423.864	1473.07
424.241	1480.53
424.617	1478.72
424.994	1545.84
425.37	1521.65
425.746	1549.68
426.123	1573.4
426.499	1577.92
426.875	1600.75
427.251	1632.84
427.627	1654.08
428.003	1681.2
428.379	1711.25
428.756	1712.16
429.132	1742.67
429.507	1759.39
429.883	1785.38
430.259	1825.38
430.635	1819.27
431.011	1863.57
431.387	1887.3
431.763	1955.09
432.138	1923.45
432.514	1968.87
432.89	1979.72
433.265	2007.74
433.641	2038.93
434.016	2031.25
434.392	2076.89
434.767	2124.12
435.143	2136.55
435.518	2136.78
435.894	2147.63
436.269	2198.47
436.644	2252.48
437.02	2224.46
437.395	2275.31
437.77	2311.24
438.145	2329.09
438.52	2334.97
438.895	2377.68
439.271	2397.79
439.646	2436.66
440.021	2484.79
440.395	2487.96
440.77	2467.17
441.145	2490.67
441.52	2554.4
441.895	2548.29
442.27	2589.88
442.645	2578.58
443.019	2674.62
443.394	2635.52
443.769	2694.05
444.143	2682.53
444.518	2721.4
444.892	2728.63
445.267	2726.37
445.641	2761.17
446.016	2750.32
446.39	2785.35
446.764	2834.84
447.139	2815.41
447.513	2886.36
447.887	2865.12
448.262	2893.14
448.636	2935.4
449.01	2995.51
449.384	2980.83
449.758	3027.38
450.132	3064.21
450.506	3059.69
450.88	3124.78
451.254	3108.96
451.628	3140.37
452.002	3227.82
452.376	3193.93
452.75	3254.26
453.123	3270.31
453.497	3334.71
453.871	3381.27
454.244	3459.91
454.618	3423.07
454.992	3531.32
455.365	3488.83
455.739	3605.67
456.112	3664.65
456.486	3673.24
456.859	3703.74
457.232	3784.19
457.606	3766.79
457.979	3834.81
458.352	3871.2
458.725	3940.12
459.099	3970.86
459.472	4044.3
459.845	4084.3
460.218	4151.87
460.591	4160.46
460.964	4203.39
461.337	4299.66
461.71	4360.45
462.083	4421.24
462.456	4442.26
462.829	4486.1
463.201	4584.85
463.574	4534.68
463.947	4628.24
464.32	4724.96
464.692	4762.47
465.065	4814
465.438	4880.21
465.81	4931.51
466.183	5051.28
466.555	5098.06
466.928	5213.76
467.3	5218.05
467.672	5262.35
468.045	5392.06
468.417	5446.07
468.789	5432.74
469.161	5472.74
469.534	5642.9
469.906	5719.06
470.278	5793.41
470.65	5823.01
471.022	5952.05
471.394	6081.31
471.766	6118.14
472.138	6258.71
472.51	6314.98
472.882	6426.61
473.253	6506.16
473.625	6635.64
473.997	6760.61
474.369	6836.09
474.74	6921.96
475.112	7074.05
475.484	7146.14
475.855	7259.81
476.227	7319.02
476.598	7545.45
476.97	7636.97
477.341	7794.94
477.713	7964.88
478.084	7976.63
478.455	8216.62
478.827	8189.05
479.198	8509.49
479.569	8529.15
479.94	8818.86
480.311	8875.59
480.682	9120.33
481.053	9304.05
481.424	9458.17
481.795	9552.18
482.166	9691.61
482.537	9834.88
482.908	10080.98
483.279	10136.57
483.65	10366.39
484.021	10526.62
484.391	10651.58
484.762	10781.07
485.133	10924.35
485.503	11103.1
485.874	11313.71
486.244	11337.89
486.615	11565.46
486.985	11828.5
487.356	11983.07
487.726	12084.09
488.097	12280.24
488.467	12341.03
488.837	12681.81
489.207	12864.18
489.578	13035.25
489.948	13171.97
490.318	13345.07
490.688	13425.52
491.058	13653.09
491.428	13841.33
491.798	13955
492.168	14132.62
492.538	14303.69
492.908	14498.04
493.278	14712.95
493.648	14751.36
494.017	14864.13
494.387	15044.24
494.757	15200.62
495.126	15392.25
495.496	15468.86
495.866	15582.75
496.235	15683.99
496.605	15843.76
496.974	16015.29
497.344	16242.4
497.713	16274.94
498.082	16409.85
498.452	16599.9
498.821	16769.62
499.19	16798.54
499.559	16825.43
499.928	17023.17
500.298	17193.79
500.667	17365.53
501.036	17394.23
501.405	17559.43
501.774	17574.11
502.143	17792.64
502.512	17858.63
502.88	18067.43
503.249	18193.76
503.618	18251.16
503.987	18318.95
504.356	18524.6
504.724	18765.5
505.093	18762.56
505.462	18900.63
505.83	19038.26
506.199	19226.27
506.567	19498.36
506.936	19473.73
507.304	19787.62
507.672	19928.18
508.041	19867.61
508.409	20095.63
508.777	20212.91
509.145	20394.15
509.514	20460.14
509.882	20622.17
510.25	20736.52
510.618	20909.85
510.986	21008.15
511.354	21320
511.722	21411.3
512.09	21679.32
512.458	21603.61
512.826	21947.56
513.193	21979.87
513.561	21991.4
513.929	22242.47
514.297	22439.3
514.664	22625.73
515.032	22660.53
515.4	22941.88
515.767	23228.43
516.135	23158.6
516.502	23234.08
516.869	23638.81
517.237	23717.91
517.604	23644.01
517.972	24006.94
518.339	24167.39
518.706	24304.11
519.073	24431.56
519.44	24649.41
519.808	24869.29
520.175	24851.89
520.542	25247.58
520.909	25455.04
521.276	25365.32
521.643	25713.79
522.009	25966.66
522.376	26057.51
522.743	26306.54
523.11	26471.73
523.477	26764.61
523.843	26945.17
524.21	27162.34
524.577	27349.68
524.943	27413.63
525.31	27619.05
525.676	27974.52
526.043	28086.83
526.409	28253.16
526.776	28427.16
527.142	28656.31
527.508	28815.4
527.874	28979.01
528.241	29248.61
528.607	29222.17
528.973	29551.88
529.339	29526.12
529.705	29818.31
530.071	30147.12
530.437	30205.19
530.803	30352.54
531.169	30501.23
531.535	30498.52
531.901	30751.85
532.267	30855.8
532.632	31075.23
532.998	31230.25
533.364	31430.47
533.73	31539.85
534.095	31745.94
534.461	31862.33
534.826	31945.71
535.192	32097.35
535.557	32418.24
535.923	32435.87
536.288	32509.31
536.653	32735.98
537.019	32620.95
537.384	32821.85
537.749	33077.21
538.114	33102.07
538.479	33149.75
538.845	33404.88
539.21	33426.8
539.575	33577.99
539.94	33543.86
540.305	33861.6
540.67	33862.73
541.034	33937.98
541.399	34280.57
541.764	34398.76
542.129	34449.83
542.494	34505.65
542.858	34711.52
543.223	34766.88
543.587	34890.5
543.952	34998.74
544.316	35198.51
544.681	35159.41
545.045	35467.43
545.41	35683.92
545.774	35648.89
546.138	35712.85
546.503	35923.01
546.867	36040.75
547.231	36342.43
547.595	36321.64
547.959	36468.53
548.324	36617.46
548.688	36730.45
549.052	36840.73
549.416	37071.68
549.779	37014.73
550.143	37163.66
550.507	37479.81
550.871	37606.81
551.235	37503.99
551.599	38082.95
551.962	38001.15
552.326	38113.91
552.689	38412.66
553.053	38270.29
553.417	38451.98
553.78	39065.75
554.143	38781.47
554.507	38991.18
554.87	39365.86
555.234	39635.68
555.597	39582.8
555.96	39583.03
556.323	39904.83
556.686	39982.11
557.05	40316.57
557.413	40486.73
557.776	40365.61
558.139	40742.32
558.502	40822.54
558.865	41000.16
559.228	41235.64
559.59	41494.39
559.953	41458.68
560.316	41951.78
560.679	41897.99
561.041	42207.14
561.404	42490.3
561.767	42604.64
562.129	42508.37
562.492	43088.25
562.854	43033.11
563.217	43129.83
563.579	43353.1
563.941	43598.29
564.304	43814.78
564.666	44001.44
565.028	44078.5
565.39	44177.26
565.753	44405.5
566.115	44563.01
566.477	44707.64
566.839	44762.33
567.201	45105.59
567.563	45141.3
567.925	45315.31
568.287	45420.61
568.648	45367.96
569.01	45647.27
569.372	45956.64
569.734	45923.65
570.095	46242.29
570.457	46364.09
570.819	46490.19
571.18	46616.29
571.542	46730.18
571.903	46739.45
572.265	47004.3
572.626	47088.82
572.987	47058.99
573.349	47170.4
573.71	47470.5
574.071	47517.51
574.432	47708.01
574.794	47846.76
575.155	47816.03
575.516	47822.81
575.877	47992.3
576.238	48057.61
576.599	48202.01
576.96	48241.78
577.32	48155.68
577.681	48416.69
578.042	48558.16
578.403	48380.08
578.763	48500.31
579.124	48416.69
579.485	48644.26
579.845	48705.05
580.206	48721.77
580.566	48665.73
580.927	48729.68
581.287	48987.07
581.648	48807.19
582.008	48949.56
582.368	48877.7
582.728	48904.36
583.089	48808.55
583.449	48945.72
583.809	48996.34
584.169	49173.74
584.529	48977.36
584.889	49270.23
585.249	49055.09
585.609	49047.86
585.969	49292.38
586.329	49100.97
586.688	49143.23
587.048	49212.38
587.408	49055.77
587.768	49116.11
588.127	49124.25
588.487	48993.85
588.846	49352.71
589.206	49076.34
589.565	49161.76
589.925	49293.51
590.284	49170.35
590.643	49340.74
591.003	49296.9
591.362	49444.46
591.721	49315.2
592.08	49310.45
592.44	49496.66
592.799	49321.3
593.158	49344.13
593.517	49476.33
593.876	49364.69
594.235	49243.34
594.593	49419.83
594.952	49500.73
595.311	49316.78
595.67	49454.63
596.029	49582.54
596.387	49723.1
596.746	49723.78
597.104	49585.7
597.463	49494.18
597.822	49654.4
598.18	49387.29
598.538	49490.34
598.897	49716.09
599.255	49507.29
599.613	49983.21
599.972	49704.12
600.33	49655.53
600.688	49653.72
601.046	49905.02
601.404	49884
601.762	49986.14
602.12	50005.13
602.478	50019.59
602.836	50140.26
603.194	49894.62
603.552	49901.63
603.91	49952.25
604.268	50024.11
604.625	50038.8
604.983	50028.18
605.341	50027.05
605.698	50221.39
606.056	50260.49
606.413	50204.22
606.771	50380.94
607.128	50357.88
607.485	50214.16
607.843	50294.61
608.2	50483.31
608.557	50621.61
608.914	50309.52
609.272	50499.35
609.629	50683.3
609.986	50807.59
610.343	50558.78
610.7	50907.25
611.057	50753.35
611.414	50781.15
611.771	50882.39
612.127	50936.4
612.484	50904.31
612.841	51030.64
613.198	50874.48
613.554	50978.66
613.911	51154.02
614.267	51041.48
614.624	51074.48
614.98	51202.16
615.337	51293.68
615.693	51201.48
616.05	51195.83
616.406	51463.39
616.762	51191.08
617.118	51220.69
617.475	51298.88
617.831	51377.75
618.187	51438.53
618.543	51545.65
618.899	51676.04
619.255	51533.67
619.611	51502.94
619.967	51552.2
620.323	51749.49
620.678	51523.73
621.034	51534.58
621.39	51502.26
621.746	51536.39
622.101	51861.12
622.457	51657.06
622.812	51675.36
623.168	51729.83
623.523	51816.6
623.879	51811.18
624.234	51550.62
624.589	51716.27
624.945	51751.97
625.3	51785.42
625.655	51736.15
626.01	51789.49
626.365	51896.6
626.72	51718.98
627.075	51786.1
627.43	51624.29
627.785	51642.6
628.14	51760.33
628.495	51758.75
628.85	51781.35
629.205	51606.44
629.559	51748.81
629.914	51615.7
630.269	51562.83
630.623	51542.49
630.978	51443.51
631.332	51535.93
631.687	51615.25
632.041	51445.77
632.396	51549.04
632.75	51387.69
633.104	51407.35
633.459	51254.81
633.813	51362.38
634.167	51260.69
634.521	51277.86
634.875	51250.97
635.229	51230.18
635.583	51090.75
635.937	51068.15
636.291	51061.6
636.645	51101.14
636.999	50959.45
637.352	51089.39
637.706	50877.65
638.06	50961.26
638.413	50866.8
638.767	50811.88
639.121	50742.51
639.474	50662.74
639.828	50692.11
640.181	50624.77
640.534	50678.33
640.888	50677.2
641.241	50394.72
641.594	50511.33
641.947	50564.89
642.301	50371.22
642.654	50448.28
643.007	50383.2
643.36	50371.22
643.713	50382.29
644.066	50441.27
644.419	50149.75
644.771	49948.86
645.124	49645.59
645.477	49624.8
645.83	49427.51
646.182	49198.59
646.535	49101.87
646.888	49179.38
647.24	48972.61
647.593	49284.24
647.945	49100.52
648.298	48907.98
648.65	48901.88
649.002	48780.3
649.355	48854.65
649.707	48755.67
650.059	48875.66
650.411	49296.67
650.763	49398.14
651.115	49769.65
651.467	49719.94
651.819	49597.68
652.171	49605.59
652.523	49496.66
652.875	49465.71
653.227	49324.69
653.578	49655.08
653.93	49430.68
654.282	49353.84
654.633	49251.25
654.985	49224.13
655.337	49305.71
655.688	49247.86
656.039	49323.11
656.391	49073.17
656.742	49054.87
657.094	49188.42
657.445	49184.13
657.796	49058.71
658.147	49079.05
658.498	48990.24
658.849	49091.25
659.2	48896.68
659.551	48899.39
659.902	49044.25
660.253	48914.99
660.604	48980.97
660.955	48833.41
661.306	48950.92
661.656	48734.42
662.007	48795.89
662.358	48716.8
662.708	48688.1
663.059	48646.74
663.409	48439.29
663.76	48841.31
664.11	48630.02
664.461	48671.83
664.811	48645.61
665.161	48660.75
665.511	48517.48
665.862	48633.41
666.212	48711.15
666.562	48583.24
666.912	48504.37
667.262	48552.96
667.612	48523.58
667.962	48453.3
668.312	48460.08
668.662	48648.55
669.011	48501.66
669.361	48336.7
669.711	48359.07
670.06	48346.41
670.41	48302.8
670.76	48202.24
671.109	48425.51
671.459	48405.17
671.808	48245.62
672.157	48260.31
672.507	47913.88
672.856	48029.13
673.205	48169.02
673.554	48189.58
673.904	47984.16
674.253	48161.78
674.602	48052.86
674.951	47448.36
675.3	47254.46
675.649	47939.19
675.998	47755.92
676.346	47772.19
676.695	47993.88
677.044	47589.82
677.393	47856.26
677.741	47782.59
678.09	47632.76
678.438	47474.57
678.787	47618.3
679.135	47607.67
679.484	47263.95
679.832	47524.06
680.181	47286.55
680.529	47364.74
680.877	47248.59
681.225	47173.56
681.573	47466.66
681.922	47072.77
682.27	46973.12
682.618	47040.46
682.966	46829.39
683.314	46911.65
683.661	46745.78
684.009	46459.68
684.357	46477.08
684.705	46461.04
685.053	46449.06
685.4	46387.37
685.748	46139.01
686.095	46146.02
686.443	45961.62
686.79	45939.02
687.138	46003.42
687.485	45932.24
687.832	45817.89
688.18	45879.58
688.527	45682.3
688.874	45610.67
689.221	45456.77
689.568	45340.39
689.915	45318.47
690.262	45327.28
690.609	45071.24
690.956	45008.65
691.303	44977.46
691.65	44791.7
691.997	44750.8
692.344	44592.39
692.69	44457.02
693.037	44509.9
693.383	44095.45
693.73	44246.41
694.077	44141.33
694.423	44083.7
694.769	43925.06
695.116	43988.11
695.462	43735.01
695.808	43629.7
696.155	43699.3
696.501	43281.46
696.847	43468.12
697.193	43254.79
697.539	43276.94
697.885	42958.76
698.231	42796.5
698.577	42809.16
698.923	42742.04
699.269	42657.3
699.614	42288.94
699.96	42301.37
700.306	42308.38
700.651	42067.71
700.997	42097.31
701.342	41817.32
701.688	41893.93
702.033	41780.26
702.379	41583.65
702.724	41523.09
703.069	41676.08
703.415	41285.58
703.76	41237.45
704.105	41318.57
704.45	41135.08
704.795	40878.36
705.14	40890.79
705.485	40699.16
705.83	40548.65
706.175	40674.3
706.52	40465.72
706.865	40411.71
707.209	40355.66
707.554	40172.16
707.899	40219.17
708.243	40018.72
708.588	40003.35
708.932	39842.46
709.277	39740.31
709.621	39744.38
709.966	39468.45
710.31	39673.87
710.654	39433.43
710.998	39565.85
711.342	39437.72
711.687	39223.94
712.031	39113.66
712.375	39048.35
712.719	39185.3
713.063	38915.02
713.407	38963.38
713.75	38814.01
714.094	38845.87
714.438	38604.3
714.782	38624.63
715.125	38412.89
715.469	38428.03
715.812	38115.04
716.156	38179.22
716.499	38143.06
716.843	38217.87
717.186	37957.08
717.53	38038.66
717.873	38111.2
718.216	37974.26
718.559	37811.32
718.902	37626.47
719.246	37622.85
719.589	37478.22
719.932	37303.76
720.275	37332.69
720.617	37367.49
720.96	37128.63
721.303	37162.75
721.646	37285.01
721.989	36984.68
722.331	37096.54
722.674	37014.28
723.016	36903.1
723.359	37004.11
723.701	37152.58
724.044	36795.76
724.386	36578.36
724.729	36648.87
725.071	36646.83
725.413	36732.71
725.755	36522.54
726.097	36426.27
726.439	36200.97
726.782	36362.77
727.124	36449.78
727.465	36210.69
727.807	36061.99
728.149	36048.88
728.491	36008.88
728.833	35989.22
729.175	35885.05
729.516	35843.01
729.858	35715.11
730.199	35744.71
730.541	35773.41
730.882	35699.74
731.224	35658.38
731.565	35396.47
731.906	35530.48
732.248	35455.23
732.589	35231.05
732.93	35348.56
733.271	35095.01
733.612	35277.38
733.953	35229.7
734.294	35188.57
734.635	35001.68
734.976	34918.29
735.317	34864.06
735.658	34843.94
735.999	34719.43
736.339	34849.82
736.68	34848.69
737.021	34686.66
737.361	34648.92
737.702	34761.91
738.042	34514.01
738.383	34508.13
738.723	34610.73
739.063	34466.1
739.404	34386.33
739.744	34323.96
740.084	34180.46
740.424	34219.1
740.764	34118.54
741.104	34322.15
741.444	34021.82
741.784	33907.92
742.124	34090.52
742.464	33926.9
742.804	33827.02
743.143	33855.04
743.483	33751.99
743.823	33668.61
744.162	33614.82
744.502	33642.39
744.841	33458.89
745.181	33675.16
745.52	33600.13
745.86	33542.96
746.199	33347.71
746.538	33304.1
746.877	33415.05
747.216	33317.88
747.556	33159.92
747.895	33216.87
748.234	33096.42
748.573	32981.17
748.911	32987.04
749.25	32945.24
749.589	32744.79
749.928	32764.45
750.267	32779.82
750.605	32594.06
750.944	32606.26
751.283	32521.07
751.621	32559.03
751.96	32352.48
752.298	32246.04
752.636	32368.75
752.975	32212.37
753.313	32099.16
