Data from white_steel_sheet_FLMS001491_047.txt Node
Date: Tue Feb 07 10:57:55 GMT 2017
User: dcchb
Spectrometer: FLMS00149
Trigger mode: 0
Integration Time (sec): 2.000000E-2
Scans to average: 10
Electric dark correction enabled: true
Nonlinearity correction enabled: false
Boxcar width: 0
XAxis mode: Wavelengths
Number of Pixels in Spectrum: 2048
>>>>>Begin Spectral Data<<<<<
341.393	-15.04
341.776	-15.04
342.16	-15.04
342.543	-62.95
342.927	-66.11
343.31	-77.19
343.693	-57.53
344.077	-45.1
344.46	-63.85
344.843	-46.23
345.226	-46.45
345.61	-25.21
345.993	-17.08
346.376	-7.81
346.759	-7.36
347.142	18.18
347.525	48.46
347.908	63.83
348.291	83.94
348.674	72.87
349.057	106.54
349.44	136.82
349.823	118.06
350.206	164.16
350.588	209.58
350.971	226.53
351.354	229.02
351.737	257.95
352.119	256.82
352.502	284.61
352.884	255.23
353.267	297.94
353.65	310.15
354.032	317.6
354.414	297.27
354.797	295.91
355.179	333.42
355.562	317.83
355.944	328.45
356.326	339.75
356.709	342.46
357.091	356.25
357.473	356.93
357.855	350.82
358.238	361.22
358.62	354.67
359.002	341.33
359.384	344.5
359.766	351.95
360.148	331.84
360.53	360.32
360.912	339.52
361.294	339.07
361.676	322.35
362.057	341.11
362.439	347.66
362.821	332.52
363.203	351.05
363.584	333.2
363.966	342.46
364.348	334.1
364.729	305.63
365.111	343.82
365.493	319.86
365.874	336.81
366.256	303.14
366.637	305.18
367.019	327.77
367.4	311.96
367.781	332.29
368.163	301.11
368.544	329.13
368.925	331.39
369.306	333.42
369.688	331.84
370.069	302.92
370.45	331.16
370.831	339.98
371.212	322.58
371.593	323.71
371.974	335.01
372.355	336.81
372.736	309.92
373.117	328.23
373.498	333.2
373.879	346.98
374.26	343.59
374.641	331.39
375.021	355.57
375.402	335.46
375.783	337.94
376.163	323.25
376.544	346.3
376.925	319.64
377.305	316.02
377.686	349.69
378.066	346.76
378.447	344.5
378.827	340.43
379.208	364.38
379.588	360.99
379.968	360.09
380.349	354.89
380.729	333.88
381.109	360.54
381.489	355.34
381.87	354.44
382.25	342.69
382.63	385.63
383.01	365.74
383.39	374.78
383.77	359.86
384.15	368.68
384.53	381.78
384.91	385.63
385.29	370.03
385.67	395.57
386.049	388.56
386.429	381.56
386.809	387.43
387.189	404.38
387.568	396.02
387.948	397.15
388.328	398.05
388.707	380.65
389.087	412.74
389.466	419.07
389.846	405.96
390.225	402.12
390.605	425.17
390.984	425.4
391.363	428.56
391.743	443.93
392.122	441.67
392.501	435.12
392.881	454.55
393.26	447.54
393.639	447.54
394.018	461.78
394.397	457.26
394.776	476.24
395.155	462.91
395.534	490.03
395.913	478.73
396.292	485.28
396.671	468.34
397.05	486.87
397.429	478.96
397.808	514.21
398.186	507.2
398.565	505.62
398.944	510.59
399.323	514.89
399.701	539.97
400.08	538.16
400.458	558.73
400.837	541.78
401.215	542.68
401.594	573.64
401.972	556.69
402.351	567.77
402.729	586.98
403.107	602.79
403.486	588.33
403.864	611.83
404.242	623.13
404.62	632.17
404.999	641.44
405.377	642.79
405.755	643.7
406.133	656.13
406.511	664.94
406.889	700.19
407.267	709.68
407.645	698.39
408.023	709.68
408.401	734.99
408.779	744.94
409.156	731.83
409.534	752.62
409.912	786.52
410.29	765.28
410.667	779.06
411.045	820.19
411.422	798.72
411.8	822.45
412.178	839.85
412.555	866.06
412.933	840.75
413.31	895.22
413.687	877.14
414.065	894.76
414.442	901.54
414.819	904.48
415.197	914.43
415.574	923.69
415.951	948.77
416.328	938.83
416.705	953.29
417.082	942
417.46	1007.08
417.837	1021.54
418.214	1017.93
418.591	1012.5
418.967	1033.07
419.344	1046.17
419.721	1065.38
420.098	1060.41
420.475	1069.22
420.852	1069.9
421.228	1076.91
421.605	1084.59
421.982	1114.42
422.358	1137.92
422.735	1124.14
423.111	1143.8
423.488	1182.67
423.864	1151.26
424.241	1170.69
424.617	1189.67
424.994	1209.78
425.37	1217.69
425.746	1214.53
426.123	1255.21
426.499	1235.77
426.875	1279.16
427.251	1277.13
427.627	1306.96
428.003	1343.79
428.379	1330.91
428.756	1320.74
429.132	1381.76
429.507	1375.66
429.883	1405.71
430.259	1404.58
430.635	1443.68
431.011	1437.58
431.387	1501.53
431.763	1533.17
432.138	1506.5
432.514	1555.09
432.89	1534.3
433.265	1593.5
433.641	1578.81
434.016	1597.8
434.392	1645.93
434.767	1695.87
435.143	1668.3
435.518	1673.95
435.894	1689.32
436.269	1742.88
436.644	1759.15
437.02	1756.21
437.395	1760.05
437.77	1816.55
438.145	1834.63
438.52	1870.56
438.895	1870.11
439.271	1883.21
439.646	1906.72
440.021	1924.57
440.395	1938.8
440.77	1918.92
441.145	1938.8
441.52	2002.98
441.895	2016.54
442.27	2032.81
442.645	2018.58
443.019	2046.6
443.394	2036.2
443.769	2098.12
444.143	2096.99
444.518	2113.49
444.892	2101.06
445.267	2129.76
445.641	2169.08
446.016	2131.57
446.39	2204.11
446.764	2187.84
447.139	2208.18
447.513	2238.46
447.887	2232.36
448.262	2237.55
448.636	2255.41
449.01	2292.92
449.384	2314.39
449.758	2335.4
450.132	2373.82
450.506	2392.35
450.88	2393.93
451.254	2430.54
451.628	2439.13
452.002	2447.94
452.376	2512.8
452.75	2493.14
453.123	2566.13
453.497	2583.31
453.871	2621.95
454.244	2631.67
454.618	2643.42
454.992	2716.19
455.365	2718.45
455.739	2769.29
456.112	2779.91
456.486	2809.97
456.859	2816.97
457.232	2884.09
457.606	2876.86
457.979	2920.25
458.352	2990.75
458.725	3035.27
459.099	3041.15
459.472	3106.23
459.845	3095.84
460.218	3155.95
460.591	3193.24
460.964	3193.46
461.337	3296.96
461.71	3317.07
462.083	3393.91
462.456	3383.06
462.829	3417.41
463.201	3453.79
463.574	3455.83
463.947	3520.68
464.32	3573.79
464.692	3629.16
465.065	3636.39
465.438	3687.01
465.81	3722.49
466.183	3783.73
466.555	3869.83
466.928	3897.17
467.3	3906.21
467.672	3939.2
468.045	4069.6
468.417	4043.83
468.789	4068.92
469.161	4141.46
469.534	4226.43
469.906	4310.49
470.278	4317.05
470.65	4394.79
471.022	4423.49
471.394	4511.84
471.766	4548.23
472.138	4634.33
472.51	4691.73
472.882	4794.78
473.253	4883.13
473.625	4950.7
473.997	5033.86
474.369	5054.43
474.74	5086.74
475.112	5192.96
475.484	5335.1
475.855	5405.83
476.227	5411.26
476.598	5528.32
476.97	5613.51
477.341	5755.88
477.713	5876.55
478.084	5837.01
478.455	5976.66
478.827	6052.6
479.198	6282.42
479.569	6232.25
479.94	6448.97
480.311	6504.56
480.682	6643.54
481.053	6802.86
481.424	6855.29
481.795	6959.01
482.166	7012.8
482.537	7178.22
482.908	7292.56
483.279	7401.94
483.65	7494.59
484.021	7674.93
484.391	7747.69
484.762	7826.11
485.133	7914.69
485.503	7971.19
485.874	8241.92
486.244	8229.26
486.615	8372.08
486.985	8499.08
487.356	8671.28
487.726	8757.16
488.097	8954.89
488.467	8949.24
488.837	9120.76
489.207	9252.74
489.578	9433.07
489.948	9428.1
490.318	9601.88
490.688	9619.96
491.058	9813.17
491.428	9949.67
491.798	9975.88
492.168	10210.45
492.538	10188.31
492.908	10433.5
493.278	10493.16
493.648	10559.6
494.017	10755.52
494.387	10804.79
494.757	10913.71
495.126	11000.94
495.496	11027.15
495.866	11167.71
496.235	11337.88
496.605	11284.32
496.974	11462.17
497.344	11513.02
497.713	11620.81
498.082	11691.54
498.452	11896.51
498.821	11917.3
499.19	11930.18
499.559	12092.21
499.928	12161.81
500.298	12307.57
500.667	12470.73
501.036	12375.14
501.405	12535.14
501.774	12517.96
502.143	12737.62
502.512	12682.03
502.88	12875.47
503.249	12875.69
503.618	13023.03
503.987	13042.47
504.356	13154.78
504.724	13223.25
505.093	13464.83
505.462	13430.03
505.83	13521.78
506.199	13679.97
506.567	13891.49
506.936	13880.41
507.304	14055.32
507.672	14156.56
508.041	14133.51
508.409	14225.26
508.777	14386.84
509.145	14543.9
509.514	14535.99
509.882	14726.72
510.25	14764
510.618	14844
510.986	14907.28
511.354	15046.26
511.722	15172.81
512.09	15336.87
512.458	15368.51
512.826	15544.1
513.193	15683.53
513.561	15681.95
513.929	15765.79
514.297	16024.08
514.664	16098.21
515.032	16094.36
515.4	16394.02
515.767	16406.67
516.135	16540.68
516.502	16443.06
516.869	16831.97
517.237	16877.85
517.604	16849.6
517.972	17046.43
518.339	17210.04
518.706	17267.22
519.073	17288.46
519.44	17539.75
519.808	17690.26
520.175	17697.03
520.542	18006.86
520.909	18018.38
521.276	18127.53
521.643	18312.61
522.009	18327.07
522.376	18606.84
522.743	18641.42
523.11	18998.92
523.477	19039.82
523.843	19155.08
524.21	19499.93
524.577	19607.49
524.943	19634.84
525.31	19896.52
525.676	19886.81
526.043	20275.5
526.409	20259
526.776	20423.97
527.142	20407.92
527.508	20610.4
527.874	20889.95
528.241	20832.09
528.607	20965.65
528.973	21187.34
529.339	21231.41
529.705	21504.84
530.071	21643.37
530.437	21639.08
530.803	21893.53
531.169	21947.32
531.535	21908.68
531.901	22106.41
532.267	22279.97
532.632	22312.28
532.998	22433.18
533.364	22676.34
533.73	22692.84
534.095	22860.29
534.461	22936.9
534.826	23157.68
535.192	23103.22
535.557	23328.98
535.923	23303.44
536.288	23441.97
536.653	23560.16
537.019	23553.38
537.384	23723.09
537.749	23933.03
538.114	23902.75
538.479	23868.4
538.845	24094.83
539.21	24114.04
539.575	24173.7
539.94	24266.13
540.305	24515.16
540.67	24480.36
541.034	24503.41
541.399	24761.48
541.764	24829.73
542.129	24856.85
542.494	24864.76
542.858	24994.47
543.223	25116.95
543.587	25157.18
543.952	25267.91
544.316	25395.36
544.681	25284.63
545.045	25495.47
545.41	25745.41
545.774	25643.72
546.138	25685.75
546.503	25807.56
546.867	25813.21
547.231	26001.45
547.595	26184.95
547.959	26213.19
548.324	26290.71
548.688	26348.56
549.052	26380.87
549.416	26578.84
549.779	26672.84
550.143	26724.37
550.507	26857.92
550.871	26922.1
551.235	26913.97
551.599	27118.93
551.962	27153.74
552.326	27207.07
552.689	27442.54
553.053	27339.27
553.417	27423.78
553.78	27759.59
554.143	27620.16
554.507	27812.93
554.87	27952.81
555.234	28240.49
555.597	28137.21
555.96	28350.54
556.323	28421.05
556.686	28488.84
557.05	28743.75
557.413	28745.78
557.776	28739.46
558.139	29122.05
558.502	29013.8
558.865	29072.1
559.228	29272.78
559.59	29438.19
559.953	29529.49
560.316	29945.3
560.679	29868.24
561.041	30095.8
561.404	30203.37
561.767	30442.01
562.129	30368.79
562.492	30761.32
562.854	30532.4
563.217	30569.01
563.579	30795.45
563.941	31037.47
564.304	31147.53
564.666	31245.38
565.028	31390.46
565.39	31421.42
565.753	31482.43
566.115	31634.07
566.477	31855.53
566.839	32019.14
567.201	32061.85
567.563	32054.4
567.925	32409.64
568.287	32319.7
568.648	32544.1
569.01	32569.64
569.372	32826.35
569.734	32658.9
570.095	33027.03
570.457	33147.93
570.819	33189.73
571.18	33079.91
571.542	33378.43
571.903	33334.59
572.265	33469.95
572.626	33561.48
572.987	33615.03
573.349	33739.32
573.71	33970.05
574.071	33968.02
574.432	34091.18
574.794	34319.87
575.155	34177.96
575.516	34134.79
575.877	34298.86
576.238	34354.22
576.599	34525.52
576.96	34515.35
577.32	34611.17
577.681	34689.81
578.042	34843.48
578.403	34677.38
578.763	34707.21
579.124	35018.39
579.485	34916.24
579.845	35092.28
580.206	35063.58
580.566	34973.19
580.927	34991.5
581.287	35090.25
581.648	35130.93
582.008	35120.53
582.368	35122.57
582.728	35241.66
583.089	35030.82
583.449	35219.74
583.809	35270.36
584.169	35304.93
584.529	35126.18
584.889	35412.05
585.249	35117.59
585.609	35192.62
585.969	35398.04
586.329	35278.49
586.688	35229.23
587.048	35334.31
587.408	35282.56
587.768	35165.28
588.127	35123.24
588.487	35165.73
588.846	35404.37
589.206	35110.14
589.565	35298.61
589.925	35502.67
590.284	35268.55
590.643	35322.56
591.003	35443.01
591.362	35445.49
591.721	35342.67
592.08	35425.83
592.44	35416.57
592.799	35303.35
593.158	35400.52
593.517	35355.1
593.876	35472.61
594.235	35448.21
594.593	35385.84
594.952	35443.69
595.311	35469.9
595.67	35539.73
596.029	35653.85
596.387	35518.04
596.746	35556.23
597.104	35478.94
597.463	35469.45
597.822	35633.74
598.18	35516.68
598.538	35444.14
598.897	35591.48
599.255	35405.04
599.613	35877.8
599.972	35601.42
600.33	35545.38
600.688	35494.31
601.046	35659.27
601.404	35788.08
601.762	35745.37
602.12	35800.51
602.478	35898.36
602.836	35733.85
603.194	35652.04
603.552	35644.13
603.91	35598.26
604.268	35817.69
604.625	35678.48
604.983	35618.15
605.341	35574.98
605.698	35992.15
606.056	35892.26
606.413	35878.03
606.771	36089.77
607.128	36046.61
607.485	36004.35
607.843	35909.21
608.2	36024.24
608.557	36189.66
608.914	36086.83
609.272	36287.05
609.629	36327.96
609.986	36359.59
610.343	36108.98
610.7	36461.29
611.057	36442.3
611.414	36389.88
611.771	36492.7
612.127	36660.15
612.484	36509.87
612.841	36611.11
613.198	36556.88
613.554	36607.05
613.911	36652.02
614.267	36743.31
614.624	36659.02
614.98	36906.47
615.337	36938.56
615.693	36980.6
616.05	36777.66
616.406	37119.12
616.762	36950.54
617.118	36961.16
617.475	37029.18
617.831	37157.77
618.187	37180.59
618.543	37097.88
618.899	37265.56
619.255	37254.03
619.611	37210.65
619.967	37359.57
620.323	37434.82
620.678	37201.38
621.034	37206.58
621.39	37341.94
621.746	37122.96
622.101	37668.49
622.457	37372.22
622.812	37398.89
623.168	37383.07
623.523	37451.09
623.879	37491.99
624.234	37237.31
624.589	37449.74
624.945	37393.92
625.3	37472.11
625.655	37348.95
626.01	37476.85
626.365	37513.69
626.72	37424.88
627.075	37336.74
627.43	37374.26
627.785	37305.33
628.14	37286.35
628.495	37365.67
628.85	37395.95
629.205	37119.8
629.559	37348.04
629.914	37242.96
630.269	37342.85
630.623	37206.13
630.978	37083.64
631.332	37220.59
631.687	37224.43
632.041	37089.07
632.396	37115.51
632.75	37142.17
633.104	37022.18
633.459	36837.55
633.813	36792.13
634.167	36857.43
634.521	36870.54
634.875	36771.11
635.229	36785.8
635.583	36642.53
635.937	36676.87
636.291	36526.14
636.645	36571.11
636.999	36404.34
637.352	36596.65
637.706	36366.37
638.06	36429.2
638.413	36402.76
638.767	36355.53
639.121	36334.28
639.474	36130.45
639.828	36112.6
640.181	36297.68
640.534	36093.16
640.888	35967.97
641.241	35882.09
641.594	35950.11
641.947	36023.33
642.301	35908.76
642.654	35901.3
643.007	35884.13
643.36	35632.38
643.713	35529.79
644.066	35761.19
644.419	35577.47
644.771	35280.08
645.124	35030.59
645.477	34897.26
645.83	34740.88
646.182	34567.33
646.535	34492.3
646.888	34552.86
647.24	34310.84
647.593	34620.88
647.945	34435.35
648.298	34335.69
648.65	34288.46
649.002	34289.59
649.355	34362.36
649.707	34230.84
650.059	34395.58
650.411	34670.37
650.763	34529.81
651.115	35061.1
651.467	34898.62
651.819	35005.73
652.171	34916.47
652.523	34808.45
652.875	34847.77
653.227	34716.93
653.578	34859.75
653.93	34751.73
654.282	34712.41
654.633	34552.86
654.985	34551.73
655.337	34595.12
655.688	34570.49
656.039	34697.04
656.391	34292.3
656.742	34394
657.094	34491.4
657.445	34682.8
657.796	34522.81
658.147	34342.92
658.498	34365.52
658.849	34371.4
659.2	34274.45
659.551	34082.82
659.902	34283.94
660.253	34022.03
660.604	34100.22
660.955	33898.19
661.306	33941.13
661.656	34001.69
662.007	33907
662.358	33941.81
662.708	33871.98
663.059	33905.87
663.409	33607.35
663.76	33802.37
664.11	33833.79
664.461	33633.34
664.811	33729.38
665.161	33695.48
665.511	33518.31
665.862	33521.25
666.212	33428.37
666.562	33470.41
666.912	33356.74
667.262	33299.79
667.612	33155.61
667.962	33293.01
668.312	32996.52
668.662	33090.98
669.011	32889.18
669.361	32828.16
669.711	32705.91
670.06	32720.82
670.41	32608.51
670.76	32418.91
671.109	32493.26
671.459	32552.01
671.808	32297.78
672.157	32375.97
672.507	32121.06
672.856	32223.88
673.205	32117.9
673.554	32298.68
673.904	32095.98
674.253	32144.34
674.602	31949.54
674.951	31533.51
675.3	31353.62
675.649	31810.34
675.998	31802.65
676.346	31823.89
676.695	31922.65
677.044	31694.41
677.393	31820.28
677.741	31684.92
678.09	31661.19
678.438	31601.53
678.787	31571.92
679.135	31692.82
679.484	31410.8
679.832	31547.52
680.181	31414.64
680.529	31361.31
680.877	31274.76
681.225	31453.28
681.573	31658.48
681.922	31527.18
682.27	31386.62
682.618	31430.91
682.966	31365.38
683.314	31416.67
683.661	31346.85
684.009	31293.51
684.357	31221.65
684.705	31185.04
685.053	31370.57
685.4	31316.79
685.748	31169.22
686.095	31281.99
686.443	31177.58
686.79	31205.15
687.138	31264.36
687.485	31136
687.832	31254.64
688.18	31268.66
688.527	31061.66
688.874	31139.39
689.221	31106.4
689.568	31013.29
689.915	30958.61
690.262	30986.18
690.609	30963.8
690.956	30859.17
691.303	30782.11
691.65	30740.53
691.997	30950.47
692.344	30827.76
692.69	30643.59
693.037	30733.98
693.383	30568.33
693.73	30588.67
694.077	30318.4
694.423	30481.33
694.769	30501.9
695.116	30265.52
695.462	30355.23
695.808	30395.91
696.155	30406.76
696.501	30088.35
696.847	30159.76
697.193	29915.24
697.539	30225.29
697.885	29966.32
698.231	29809.26
698.577	29849.71
698.923	29778.07
699.269	29694.23
699.614	29599.77
699.96	29393.22
700.306	29633.9
700.651	29380.57
700.997	29375.15
701.342	29390.29
701.688	29194.59
702.033	29073.01
702.379	29116.17
702.724	29094.48
703.069	29121.14
703.415	28749.4
703.76	28758.44
704.105	28795.05
704.45	28595.28
704.795	28516.19
705.14	28375.4
705.485	28366.81
705.83	28246.36
706.175	28381.27
706.52	28271.67
706.865	28082.3
707.209	28130.88
707.554	28095.86
707.899	28198.45
708.243	27975.41
708.588	27968.18
708.932	27704.68
709.277	27627.17
709.621	27721.63
709.966	27513.73
710.31	27666.94
710.654	27306.27
710.998	27428.3
711.342	27283.22
711.687	27383.56
712.031	27260.85
712.375	27130.68
712.719	27132.27
713.063	27166.62
713.407	27105.37
713.75	26960.75
714.094	27024.7
714.438	26931.82
714.782	26906.51
715.125	26823.35
715.469	26806.63
715.812	26759.62
716.156	26593.98
716.499	26603.02
716.843	26504.94
717.186	26348.11
717.53	26517.59
717.873	26506.52
718.216	26313.98
718.559	26206.87
718.902	26113.31
719.246	26124.61
719.589	26126.19
719.932	25979.3
720.275	25955.12
720.617	25964.39
720.96	25931.17
721.303	25844.62
721.646	25946.99
721.989	25758.07
722.331	25783.38
722.674	25699.08
723.016	25625.19
723.359	25567.34
723.701	25663.83
724.044	25438.3
724.386	25384.52
724.729	25404.18
725.071	25334.12
725.413	25335.25
725.755	25431.52
726.097	25287.8
726.439	25177.29
726.782	25219.77
727.124	25259.77
727.465	25148.59
727.807	25100
728.149	25053.45
728.491	24937.97
728.833	24947.01
729.175	24983.62
729.516	24854.59
729.858	24697.53
730.199	24819.56
730.541	24799.9
730.882	24767.36
731.224	24840.58
731.565	24649.62
731.906	24627.93
732.248	24540.7
732.589	24424.54
732.93	24360.14
733.271	24423.64
733.612	24502.73
733.953	24425.9
734.294	24385.67
734.635	24256.18
734.976	24225.22
735.317	24139.58
735.658	24156.53
735.999	24134.61
736.339	24048.05
736.68	24081.5
737.021	24058
737.361	23873.82
737.702	23989.98
738.042	23949.3
738.383	23811.22
738.723	23836.99
739.063	23857.78
739.404	23743.88
739.744	23666.6
740.084	23632.02
740.424	23692.36
740.764	23537.11
741.104	23662.75
741.444	23441.97
741.784	23512.25
742.124	23557.67
742.464	23428.64
742.804	23414.85
743.143	23308.64
743.483	23421.63
743.823	23224.12
744.162	23275.42
744.502	23255.31
744.841	23214.63
745.181	23156.33
745.52	23087.63
745.86	23131.92
746.199	23073.16
746.538	23031.58
746.877	23012.83
747.216	22987.52
747.556	22952.94
747.895	22870.91
748.234	22849.89
748.573	22761.99
748.911	22740.74
749.25	22749.78
749.589	22645.15
749.928	22605.38
750.267	22569.67
750.605	22493.07
750.944	22467.08
751.283	22472.73
751.621	22477.47
751.96	22384.6
752.298	22319.06
752.636	22293.98
752.975	22179.4
753.313	22124.26
753.651	22248.55
