Data from whiteboard_FLMS001491_00006.txt Node
Date: Wed Feb 08 11:24:55 GMT 2017
User: dcchb
Spectrometer: FLMS00149
Trigger mode: 0
Integration Time (sec): 2.000000E-2
Scans to average: 10
Electric dark correction enabled: true
Nonlinearity correction enabled: false
Boxcar width: 0
XAxis mode: Wavelengths
Number of Pixels in Spectrum: 2048
>>>>>Begin Spectral Data<<<<<
341.393	-3.91
341.776	-3.91
342.16	-3.91
342.543	-71.26
342.927	-64.48
343.31	-86.62
343.693	-75.77
344.077	-74.87
344.46	-36.68
344.843	-61.99
345.226	-40.52
345.61	-29.22
345.993	-24.25
346.376	16.43
346.759	4.22
347.142	38.57
347.525	46.48
347.908	65.69
348.291	62.3
348.674	93.71
349.057	102.53
349.44	115.63
349.823	143.65
350.206	186.82
350.588	207.61
350.971	254.61
351.354	253.93
351.737	272.69
352.119	288.96
352.502	288.06
352.884	318.11
353.267	333.03
353.65	324.21
354.032	319.47
354.414	361.5
354.797	339.13
355.179	360.82
355.562	356.3
355.944	351.56
356.326	364.44
356.709	401.27
357.091	379.13
357.473	381.39
357.855	373.48
358.238	390.43
358.62	394.04
359.002	384.1
359.384	381.39
359.766	378.22
360.148	403.76
360.53	400.14
360.912	371.45
361.294	392.24
361.676	378.68
362.057	374.83
362.439	404.66
362.821	384.78
363.203	391.56
363.584	366.47
363.966	385.91
364.348	378.68
364.729	369.41
365.111	381.39
365.493	382.97
365.874	376.42
366.256	391.33
366.637	389.75
367.019	386.13
367.4	381.39
367.781	393.37
368.163	381.61
368.544	384.1
368.925	371.45
369.306	392.01
369.688	417.55
370.069	392.24
370.45	399.47
370.831	390.88
371.212	394.95
371.593	415.96
371.974	402.63
372.355	398.56
372.736	408.05
373.117	401.73
373.498	399.24
373.879	382.74
374.26	387.72
374.641	380.71
375.021	410.54
375.402	408.51
375.783	408.73
376.163	446.25
376.544	410.99
376.925	431.78
377.305	422.97
377.686	417.32
378.066	420.48
378.447	440.37
378.827	454.61
379.208	422.74
379.588	447.6
379.968	446.92
380.349	460.26
380.729	461.61
381.109	450.99
381.489	449.41
381.87	469.52
382.25	460.26
382.63	459.8
383.01	450.31
383.39	482.63
383.77	494.15
384.15	478.79
384.53	504.1
384.91	494.38
385.29	481.05
385.67	502.97
386.049	509.97
386.429	520.82
386.809	520.59
387.189	492.12
387.568	514.49
387.948	551.1
388.328	533.93
388.707	558.78
389.087	540.71
389.466	552.01
389.846	556.52
390.225	574.83
390.605	580.71
390.984	603.53
391.363	574.83
391.743	610.53
392.122	628.39
392.501	609.86
392.881	607.82
393.26	615.96
393.639	634.26
394.018	650.31
394.397	633.59
394.776	661.83
395.155	654.15
395.534	670.19
395.913	672.68
396.292	696.86
396.671	708.16
397.05	700.7
397.429	713.81
397.808	698.89
398.186	705.67
398.565	736.63
398.944	750.19
399.323	748.16
399.701	775.28
400.08	767.59
400.458	801.04
400.837	802.62
401.215	815.05
401.594	813.47
401.972	848.95
402.351	853.92
402.729	844.88
403.107	858.89
403.486	867.7
403.864	886.91
404.242	910.41
404.62	912.9
404.999	923.07
405.377	940.24
405.755	979.79
406.133	962.62
406.511	993.58
406.889	1029.96
407.267	1041.71
407.645	1050.52
408.023	1064.76
408.401	1046.23
408.779	1102.95
409.156	1127.13
409.534	1132.33
409.912	1169.62
410.29	1189.95
410.667	1207.81
411.045	1227.92
411.422	1271.99
411.8	1243.29
412.178	1304.53
412.555	1316.28
412.933	1361.48
413.31	1333
413.687	1385.43
414.065	1422.04
414.442	1409.61
414.819	1431.53
415.197	1465.88
415.574	1493.9
415.951	1509.27
416.328	1517.86
416.705	1553.11
417.082	1570.28
417.46	1567.57
417.837	1631.52
418.214	1619.32
418.591	1643.05
418.967	1659.32
419.344	1660.68
419.721	1702.48
420.098	1720.11
420.475	1735.93
420.852	1724.4
421.228	1734.12
421.605	1804.4
421.982	1826.55
422.358	1869.03
422.735	1911.29
423.111	1902.93
423.488	1909.71
423.864	1936.6
424.241	1986.09
424.617	2007.33
424.994	2010.05
425.37	2014.11
425.746	2029.93
426.123	2077.61
426.499	2059.08
426.875	2158.29
427.251	2164.84
427.627	2236.25
428.003	2246.2
428.379	2245.75
428.756	2239.87
429.132	2311.28
429.507	2330.04
429.883	2361.45
430.259	2431.28
430.635	2434.22
431.011	2483.93
431.387	2555.12
431.763	2564.61
432.138	2606.19
432.514	2645.51
432.89	2642.35
433.265	2716.69
433.641	2738.61
434.016	2779.29
434.392	2812.51
434.767	2896.58
435.143	2916.24
435.518	2948.33
435.894	2998.04
436.269	2997.36
436.644	3005.27
437.02	3078.94
437.395	3109.68
437.77	3148.32
438.145	3209.11
438.52	3234.65
438.895	3284.81
439.271	3269.22
439.646	3333.4
440.021	3352.61
440.395	3370.24
440.77	3416.56
441.145	3459.05
441.52	3549.67
441.895	3496.56
442.27	3531.36
442.645	3532.27
443.019	3599.38
443.394	3617.69
443.769	3643.68
444.143	3602.55
444.518	3691.58
444.892	3696.78
445.267	3767.29
445.641	3777.91
446.016	3793.73
446.39	3868.08
446.764	3859.71
447.139	3854.52
447.513	3930
447.887	3962.31
448.262	3966.15
448.636	3993.04
449.01	4064.23
449.384	4088.86
449.758	4152.81
450.132	4156.88
450.506	4226.94
450.88	4255.18
451.254	4255.64
451.628	4341.28
452.002	4384.9
452.376	4429.87
452.75	4445.91
453.123	4476.2
453.497	4600.03
453.871	4630.09
454.244	4728.39
454.618	4735.85
454.992	4838.9
455.365	4806.58
455.739	4974.49
456.112	5008.84
456.486	5036.41
456.859	5112.56
457.232	5149.62
457.606	5214.26
457.979	5315.95
458.352	5425.1
458.725	5462.38
459.099	5527.47
459.472	5611.99
459.845	5648.37
460.218	5758.2
460.591	5802.26
460.964	5854.24
461.337	6007.68
461.71	6071.18
462.083	6113.67
462.456	6190.28
462.829	6169.71
463.201	6305.07
463.574	6349.37
463.947	6392.76
464.32	6603.82
464.692	6629.36
465.065	6676.36
465.438	6758.62
465.81	6916.81
466.183	7002.46
466.555	7151.83
466.928	7160.65
467.3	7194.54
467.672	7230.93
468.045	7509.79
468.417	7492.16
468.789	7572.39
469.161	7656.23
469.534	7793.85
469.906	8019.38
470.278	8073.62
470.65	8169.43
471.022	8346.6
471.394	8492.81
471.766	8535.98
472.138	8673.6
472.51	8946.81
472.882	8986.81
473.253	9090.76
473.625	9253.02
473.997	9502.73
474.369	9474.93
474.74	9592.67
475.112	9802.16
475.484	9977.29
475.855	10175.26
476.227	10211.19
476.598	10557.39
476.97	10690.27
477.341	10906.54
477.713	11127.77
478.084	11181.78
478.455	11515.56
478.827	11494.09
479.198	11948.32
479.569	11916.9
479.94	12312.6
480.311	12424.91
480.682	12699.71
481.053	13005.69
481.424	13166.36
481.795	13325.23
482.166	13563.87
482.537	13652.68
482.908	13979.22
483.279	14129.28
483.65	14483.16
484.021	14625.31
484.391	14807
484.762	15035.92
485.133	15070.72
485.503	15393.87
485.874	15677.94
486.244	15788.89
486.615	16077.25
486.985	16275.66
487.356	16681.3
487.726	16778.02
488.097	17087.16
488.467	17234.73
488.837	17572.57
489.207	17870.65
489.578	18121.94
489.948	18180.92
490.318	18513.11
490.688	18576.39
491.058	18880.11
491.428	19199.65
491.798	19424.05
492.168	19776.13
492.538	19854.32
492.908	20040.76
493.278	20424.25
493.648	20440.07
494.017	20696.79
494.387	20800.06
494.757	21089.77
495.126	21314.17
495.496	21419.93
495.866	21665.35
496.235	21806.81
496.605	22091.55
496.974	22123.42
497.344	22407.48
497.713	22537.42
498.082	22790.52
498.452	23009.49
498.821	23065.54
499.19	23116.84
499.559	23279.09
499.928	23526.54
500.298	23638.18
500.667	23832.07
501.036	23881.79
501.405	24069.13
501.774	24232.29
502.143	24468.44
502.512	24500.08
502.88	24799.73
503.249	24731.26
503.618	25038.37
503.987	25132.83
504.356	25313.84
504.724	25499.6
505.093	25536.43
505.462	25776.65
505.83	25944.11
506.199	26102.07
506.567	26406.69
506.936	26448.95
507.304	26924.19
507.672	26834.03
508.041	27151.98
508.409	27434.24
508.777	27676.04
509.145	27774.34
509.514	27834.23
509.882	28111.28
510.25	28155.35
510.618	28479.18
510.986	28521.67
511.354	28811.38
511.722	29135.21
512.09	29428.99
512.458	29535.2
512.826	29791.69
513.193	29784.23
513.561	30019.71
513.929	30219.25
514.297	30451.11
514.664	30683.19
515.032	30858.1
515.4	31158.66
515.767	31284.53
516.135	31439.1
516.502	31396.62
516.869	31995.7
517.237	32107.79
517.604	32172.87
517.972	32527.66
518.339	32583.25
518.706	32865.73
519.073	33034.32
519.44	33247.87
519.808	33449.45
520.175	33513.62
520.542	34004.91
520.909	34194.28
521.276	34243.32
521.643	34575.07
522.009	34801.05
522.376	35188.16
522.743	35347.93
523.11	35622.95
523.477	35943.84
523.843	36084.86
524.21	36379.99
524.577	36815.23
524.943	36969.8
525.31	37125.73
525.676	37442.11
526.043	37687.3
526.409	37836
526.776	38315.98
527.142	38414.51
527.508	38537.22
527.874	38816.54
528.241	39174.94
528.607	39357.76
528.973	39628.04
529.339	39601.15
529.705	39971.31
530.071	40400.68
530.437	40527.68
530.803	40712.31
531.169	41126.08
531.535	41079.75
531.901	41207.43
532.267	41513.64
532.632	41804.71
532.998	41984.59
533.364	42147.3
533.73	42221.87
534.095	42574.63
534.461	42885.58
534.826	42906.82
535.192	43118.12
535.557	43383.65
535.923	43359.69
536.288	43653.47
536.653	43878.1
537.019	43805.33
537.384	44071.76
537.749	44311.53
538.114	44342.27
538.479	44530.06
538.845	44740.45
539.21	44827.45
539.575	44909.48
539.94	45022.02
540.305	45324.39
540.67	45180.89
541.034	45541.78
541.399	45523.93
541.764	45735.45
542.129	45996.46
542.494	46094.99
542.858	46037.59
543.223	46098.6
543.587	46363.23
543.952	46423.79
544.316	46466.96
544.681	46593.28
545.045	46729.77
545.41	47078.47
545.774	46996.43
546.138	47014.06
546.503	47118.01
546.867	47138.8
547.231	47488.85
547.595	47405.69
547.959	47697.43
548.324	47667.83
548.688	47765
549.052	47940.14
549.416	48100.81
549.779	48015.62
550.143	48207.7
550.507	48542.38
550.871	48644.98
551.235	48610.85
551.599	48881.81
551.962	49028.24
552.326	49065.53
552.689	49187.56
553.053	49100.33
553.417	49337.16
553.78	49792.74
554.143	49567.21
554.507	49801.11
554.87	49931.5
555.234	50397.7
555.597	50189.8
555.96	50463.91
556.323	50537.13
556.686	50639.28
557.05	50877.46
557.413	50992.26
557.776	51101.41
558.139	51295.98
558.502	51387.28
558.865	51516.31
559.228	51794.05
559.59	51948.62
559.953	52045.34
560.316	52339.57
560.679	52358.78
561.041	52587.93
561.404	52730.97
561.767	52927.58
562.129	52855.71
562.492	53155.14
562.854	53101.58
563.217	53210.73
563.579	53352.42
563.941	53544.96
564.304	53756.26
564.666	53772.98
565.028	53816.59
565.39	53905.63
565.753	54064.04
566.115	54123.48
566.477	54268.11
566.839	54271.27
567.201	54491.83
567.563	54512.62
567.925	54693.63
568.287	54662.67
568.648	54730.24
569.01	54922.78
569.372	55073.96
569.734	54911.03
570.095	55118.93
570.457	55150.12
570.819	55257.91
571.18	55241.87
571.542	55400.96
571.903	55478.47
572.265	55544.01
572.626	55557.34
572.987	55678.69
573.349	55722.31
573.71	55760.5
574.071	55863.09
574.432	55995.97
574.794	56058.57
575.155	56112.58
575.516	56056.08
575.877	56184.21
576.238	56212.46
576.599	56317.09
576.96	56407.71
577.32	56384.21
577.681	56547.82
578.042	56617.42
578.403	56564.32
578.763	56649.74
579.124	56628.27
579.485	56820.36
579.845	56900.81
580.206	56810.64
580.566	56894.93
580.927	56856.97
581.287	57030.29
581.648	56939.45
582.008	57082.95
582.368	57122.95
582.728	57169.95
583.089	57170.18
583.449	57171.53
583.809	57219.44
584.169	57232.1
584.529	57205.2
584.889	57468.25
585.249	57228.48
585.609	57207.92
585.969	57443.16
586.329	57262.15
586.688	57290.63
587.048	57343.73
587.408	57338.08
587.768	57272.1
588.127	57249.05
588.487	57249.27
588.846	57407.46
589.206	57287.69
589.565	57298.76
589.925	57407.91
590.284	57354.58
590.643	57342.38
591.003	57441.81
591.362	57444.29
591.721	57425.76
592.08	57349.61
592.44	57471.41
592.799	57379.21
593.158	57413.34
593.517	57417.4
593.876	57435.26
594.235	57362.49
594.593	57407.46
594.952	57403.84
595.311	57326.11
595.67	57476.61
596.029	57554.12
596.387	57542.37
596.746	57521.58
597.104	57424.41
597.463	57384.64
597.822	57530.39
598.18	57429.15
598.538	57392.32
598.897	57575.59
599.255	57434.35
599.613	57726.32
599.972	57583.27
600.33	57664.63
600.688	57496.04
601.046	57676.83
601.404	57745.76
601.762	57676.38
602.12	57813.55
602.478	57805.64
602.836	57872.76
603.194	57662.59
603.552	57783.04
603.91	57673.44
604.268	57812.65
604.625	57776.49
604.983	57879.31
605.341	57759.09
605.698	57834.79
606.056	57887.22
606.413	57830.95
606.771	57931.74
607.128	58029.14
607.485	57912.3
607.843	57976.03
608.2	58142.58
608.557	58177.83
608.914	58064.17
609.272	58262.35
609.629	58258.06
609.986	58303.03
610.343	58155.24
610.7	58372.18
611.057	58394.1
611.414	58337.6
611.771	58360.2
612.127	58432.97
612.484	58348.23
612.841	58533.53
613.198	58382.58
613.554	58350.26
613.911	58534.44
614.267	58532.4
614.624	58538.5
614.98	58540.99
615.337	58660.31
615.693	58588.9
616.05	58526.07
616.406	58660.08
616.762	58609.69
617.118	58594.77
617.475	58609.46
617.831	58732.4
618.187	58748.44
618.543	58799.29
618.899	58829.12
619.255	58781.21
619.611	58807.42
619.967	58882.22
620.323	58865.73
620.678	58777.14
621.034	58765.39
621.39	58789.34
621.746	58742.57
622.101	59063.24
622.457	58856.69
622.812	58938.04
623.168	58923.8
623.523	58850.36
623.879	58964.03
624.234	58811.49
624.589	58935.55
624.945	58893.52
625.3	58969.45
625.655	58947.08
626.01	58938.72
626.365	58990.24
626.72	58891.26
627.075	58867.99
627.43	58821.21
627.785	58805.61
628.14	58902.56
628.495	58924.26
628.85	58852.62
629.205	58785.5
629.559	58952.96
629.914	58796.8
630.269	58848.33
630.623	58706.63
630.978	58702.57
631.332	58743.47
631.687	58778.04
632.041	58657.82
632.396	58741.89
632.75	58582.12
633.104	58594.09
633.459	58429.58
633.813	58447.88
634.167	58374.21
634.521	58501.89
634.875	58353.2
635.229	58340.77
635.583	58195.91
635.937	58210.38
636.291	58190.72
636.645	58298.28
636.999	58089.48
637.352	58173.77
637.706	58026.43
638.06	58076.82
638.413	58017.16
638.767	57899.88
639.121	58032.98
639.474	57798.86
639.828	57848.58
640.181	57866.43
640.534	57913.43
640.888	57767.68
641.241	57663.27
641.594	57666.89
641.947	57699.66
642.301	57641.58
642.654	57591.64
643.007	57625.76
643.36	57594.12
643.713	57524.07
644.066	57602.26
644.419	57451.98
644.771	57296.05
645.124	57061.48
645.477	57142.38
645.83	57000.24
646.182	56817.42
646.535	56740.36
646.888	56758.44
647.24	56641.83
647.593	56703.98
647.945	56708.49
648.298	56610.42
648.65	56532.91
649.002	56528.61
649.355	56645.67
649.707	56599.57
650.059	56747.14
650.411	57067.36
650.763	57084.53
651.115	57341.92
651.467	57207.01
651.819	57264.64
652.171	57106.22
652.523	57104.87
652.875	57116.62
653.227	57102.38
653.578	57231.87
653.93	57160.23
654.282	57058.77
654.633	56996.17
654.985	57078.65
655.337	57023.97
655.688	57076.85
656.039	57076.39
656.391	56924.08
656.742	56931.99
657.094	56899.45
657.445	57019
657.796	56870.3
658.147	56844.31
658.498	56875.04
658.849	56819
659.2	56762.96
659.551	56739.23
659.902	56760.02
660.253	56637.76
660.604	56731.09
660.955	56579.23
661.306	56583.07
661.656	56483.87
662.007	56443.64
662.358	56445.9
662.708	56431.44
663.059	56441.61
663.409	56214.04
663.76	56433.93
664.11	56354.83
664.461	56327.49
664.811	56294.95
665.161	56287.94
665.511	56237.55
665.862	56176.76
666.212	56311.22
666.562	56217.66
666.912	56145.12
667.262	56088.4
667.612	56095.18
667.962	56176.31
668.312	56017.67
668.662	56179.02
669.011	56000.49
669.361	56003.65
669.711	56010.43
670.06	55957.78
670.41	55940.38
670.76	55918.91
671.109	56044.78
671.459	55945.13
671.808	55889.31
672.157	55950.32
672.507	55720.95
672.856	55767.28
673.205	55795.75
673.554	55970.89
673.904	55712.81
674.253	55851.34
674.602	55778.58
674.951	55388.08
675.3	55271.02
675.649	55810.21
675.998	55695.19
676.346	55680.27
676.695	55753.27
677.044	55566.15
677.393	55698.58
677.741	55702.87
678.09	55653.38
678.438	55642.76
678.787	55617
679.135	55544.23
679.484	55452.93
679.832	55515.98
680.181	55345.14
680.529	55370.9
680.877	55280.06
681.225	55351.02
681.573	55449.77
681.922	55295.42
682.27	55185.82
682.618	55174.07
682.966	55187.4
683.314	55196.44
683.661	55042.1
684.009	54856.79
684.357	54851.59
684.705	54887.98
685.053	54828.32
685.4	54773.18
685.748	54626.06
686.095	54690.92
686.443	54586.29
686.79	54530.92
687.138	54553.3
687.485	54494.77
687.832	54487.99
688.18	54445.96
688.527	54244.6
688.874	54131.61
689.221	54095.68
689.568	54022.24
689.915	53923.03
690.262	53964.39
690.609	53792.64
690.956	53666.31
691.303	53616.82
691.65	53507.22
691.997	53500.67
692.344	53287.79
692.69	53220.45
693.037	53187.23
693.383	52955.83
693.73	53150.85
694.077	52837.41
694.423	52838.77
694.769	52727.58
695.116	52722.61
695.462	52650.07
695.808	52596.96
696.155	52536.85
696.501	52313.58
696.847	52306.58
697.193	52162.85
697.539	52225.45
697.885	51964.66
698.231	51799.02
698.577	51827.49
698.923	51851.45
699.269	51605.35
699.614	51552.47
699.96	51529.65
700.306	51516.31
700.651	51299.37
700.997	51178.24
701.342	51129.21
701.688	51046.04
702.033	51060.06
702.379	50912.49
702.724	50778.48
703.069	50866.39
703.415	50633.4
703.76	50722.44
704.105	50585.27
704.45	50551.82
704.795	50307.76
705.14	50258.72
705.485	50204.71
705.83	49973.53
706.175	50018.95
706.52	49972.85
706.865	49799.75
707.209	49857.15
707.554	49705.52
707.899	49827.55
708.243	49571.28
708.588	49539.87
708.932	49223.49
709.277	49242.93
709.621	49192.31
709.966	48989.83
710.31	49063.72
710.654	48785.54
710.998	48832.54
711.342	48821.47
711.687	48548.48
712.031	48525.21
712.375	48400.01
712.719	48409.5
713.063	48291.31
713.407	48353.46
713.75	48087.25
714.094	48098.33
714.438	47951.66
714.782	47994.83
715.125	47891.1
715.469	47790.31
715.812	47621.73
716.156	47442.75
716.499	47369.98
716.843	47379.93
717.186	47038.01
717.53	47229.65
717.873	47207.28
718.216	46948.53
718.559	46812.03
718.902	46581.98
719.246	46688.87
719.589	46487.52
719.932	46356.22
720.275	46385.6
720.617	46338.15
720.96	45989.45
721.303	46274.19
721.646	46111.03
721.989	45892.73
722.331	46038.49
722.674	45933.18
723.016	46036.01
723.359	45754.21
723.701	45811.83
724.044	45570.03
724.386	45328.23
724.729	45518.28
725.071	45447.77
725.413	45303.37
725.755	45315.12
726.097	45073.77
726.439	44856.15
726.782	44901.35
727.124	45120.32
727.465	44916.71
727.807	44831.97
728.149	44730.5
728.491	44616.16
728.833	44741.8
729.175	44522.6
729.516	44432.89
729.858	44156.51
730.199	44437.63
730.541	44351.53
730.882	44191.08
731.224	44239.67
731.565	43981.82
731.906	44089.17
732.248	43970.75
732.589	43595.62
732.93	43639.69
733.271	43541.38
733.612	43540.93
733.953	43647.6
734.294	43482.18
734.635	43429.52
734.976	43442.18
735.317	43231.79
735.658	43392.23
735.999	43417.77
736.339	43355.17
736.68	43293.93
737.021	43239.02
737.361	43173.26
737.702	43175.07
738.042	42998.8
738.383	42911.34
738.723	43075.18
739.063	42800.39
739.404	42970.1
739.744	42764.68
740.084	42734.17
740.424	42608.53
740.764	42591.58
741.104	42716.32
741.444	42461.19
741.784	42326.73
742.124	42301.19
742.464	42264.58
742.804	42298.7
743.143	42062.1
743.483	42243.11
743.823	41946.17
744.162	41824.82
744.502	41948.66
744.841	41799.96
745.181	41847.19
745.52	41658.95
745.86	41648.55
746.199	41557.48
746.538	41596.8
746.877	41449.01
747.216	41519.97
747.556	41388.22
747.895	41308
748.234	41174.21
748.573	40968.34
748.911	41027.33
749.25	40954.56
749.589	40682.7
749.928	40823.94
750.267	40893.09
750.605	40701.91
750.944	40562.03
751.283	40437.06
751.621	40536.49
751.96	40135.37
752.298	40201.36
