Data from white_steel_sheet_FLMS001491_076.txt Node
Date: Tue Feb 07 10:58:26 GMT 2017
User: dcchb
Spectrometer: FLMS00149
Trigger mode: 0
Integration Time (sec): 2.000000E-2
Scans to average: 10
Electric dark correction enabled: true
Nonlinearity correction enabled: false
Boxcar width: 0
XAxis mode: Wavelengths
Number of Pixels in Spectrum: 2048
>>>>>Begin Spectral Data<<<<<
341.393	-4.89
341.776	-4.89
342.16	-4.89
342.543	-41.5
342.927	-41.27
343.31	-66.58
343.693	-55.73
344.077	-79.91
344.46	-60.03
344.843	-51.89
345.226	-42.63
345.61	-23.87
345.993	-17.99
346.376	-18.67
346.759	17.94
347.142	6.86
347.525	42.57
347.908	78.05
348.291	67.2
348.674	84.38
349.057	120.31
349.44	144.49
349.823	168.22
350.206	168.44
350.588	224.26
350.971	216.58
351.354	265.61
351.737	248.67
352.119	278.72
352.502	271.94
352.884	293.64
353.267	302.22
353.65	305.39
354.032	311.04
354.414	295.22
354.797	322.34
355.179	323.92
355.562	340.41
355.944	346.97
356.326	362.11
356.709	361.88
357.091	371.83
357.473	372.28
357.855	344.03
358.238	351.04
358.62	363.69
359.002	368.66
359.384	353.97
359.766	363.01
360.148	351.71
360.53	366.4
360.912	370.24
361.294	361.88
361.676	352.17
362.057	357.14
362.439	366.4
362.821	345.16
363.203	370.92
363.584	353.75
363.966	331.83
364.348	342.9
364.729	359.17
365.111	331.6
365.493	345.84
365.874	345.61
366.256	356.01
366.637	331.83
367.019	335.9
367.4	336.57
367.781	342
368.163	345.16
368.544	352.39
368.925	335.67
369.306	329.57
369.688	349.68
370.069	332.51
370.45	337.7
370.831	340.87
371.212	328.89
371.593	341.54
371.974	342.22
372.355	342
372.736	369.34
373.117	339.51
373.498	342.9
373.879	342.9
374.26	339.51
374.641	326.86
375.021	342.67
375.402	335.22
375.783	348.55
376.163	384.48
376.544	355.56
376.925	358.95
377.305	370.7
377.686	372.73
378.066	359.85
378.447	367.08
378.827	372.05
379.208	390.36
379.588	372.96
379.968	351.04
380.349	369.79
380.729	380.19
381.109	372.73
381.489	382
381.87	374.76
382.25	395.33
382.63	385.16
383.01	384.48
383.39	383.58
383.77	376.35
384.15	398.72
384.53	375.89
384.91	389.23
385.29	390.13
385.67	399.4
386.049	415.44
386.429	413.18
386.809	396.91
387.189	421.54
387.568	428.77
387.948	415.89
388.328	411.6
388.707	425.16
389.087	445.27
389.466	425.84
389.846	424.93
390.225	440.75
390.605	443.91
390.984	433.97
391.363	430.13
391.743	451.15
392.122	456.8
392.501	464.48
392.881	466.97
393.26	493.41
393.639	482.78
394.018	494.54
394.397	481.88
394.776	488.66
395.155	494.76
395.534	502.9
395.913	502.9
396.292	527.08
396.671	514.87
397.05	519.39
397.429	524.82
397.808	554.42
398.186	535.44
398.565	570.47
398.944	543.8
399.323	557.36
399.701	567.53
400.08	582.67
400.458	586.96
400.837	573.63
401.215	609.33
401.594	626.06
401.972	614.98
402.351	626.51
402.729	613.18
403.107	660.86
403.486	631.71
403.864	652.5
404.242	681.87
404.62	663.8
404.999	704.02
405.377	698.6
405.755	693.85
406.133	716.22
406.511	736.56
406.889	748.09
407.267	739.73
407.645	774.98
408.023	786.73
408.401	793.28
408.779	804.81
409.156	789.89
409.534	847.97
409.912	833.74
410.29	835.54
410.667	870.57
411.045	864.47
411.422	873.96
411.8	877.58
412.178	914.86
412.555	931.81
412.933	931.59
413.31	936.11
413.687	966.84
414.065	982.88
414.442	983.56
414.819	1016.1
415.197	997.12
415.574	1037.8
415.951	1018.36
416.328	1055.2
416.705	1052.94
417.082	1077.57
417.46	1092.49
417.837	1102.88
418.214	1103.33
418.591	1134.52
418.967	1103.33
419.344	1160.28
419.721	1163.9
420.098	1161.86
420.475	1187.62
420.852	1186.04
421.228	1216.55
421.605	1227.17
421.982	1233.72
422.358	1239.6
422.735	1262.42
423.111	1264.23
423.488	1288.41
423.864	1318.47
424.241	1304.91
424.617	1341.29
424.994	1354.85
425.37	1368.18
425.746	1346.26
426.123	1329.54
426.499	1379.03
426.875	1385.36
427.251	1436.88
427.627	1451.35
428.003	1475.75
428.379	1470.1
428.756	1523.89
429.132	1496.54
429.507	1569.76
429.883	1533.83
430.259	1587.16
430.635	1593.72
431.011	1623.54
431.387	1663.54
431.763	1715.29
432.138	1679.14
432.514	1707.61
432.89	1709.87
433.265	1773.82
433.641	1796.65
434.016	1795.29
434.392	1851.34
434.767	1853.14
435.143	1853.82
435.518	1900.83
435.894	1925.91
436.269	1923.65
436.644	1982.63
437.02	1971.78
437.395	1981.95
437.77	2021.5
438.145	2056.98
438.52	2067.6
438.895	2084.1
439.271	2085.68
439.646	2152.8
440.021	2149.18
440.395	2143.31
440.77	2146.24
441.145	2188.95
441.52	2246.58
441.895	2245.45
442.27	2283.87
442.645	2263.75
443.019	2302.4
443.394	2310.31
443.769	2343.75
444.143	2318.22
444.518	2381.27
444.892	2374.26
445.267	2409.74
445.641	2401.83
446.016	2411.32
446.39	2452.68
446.764	2486.12
447.139	2434.15
447.513	2520.02
447.887	2496.97
448.262	2544.65
448.636	2563.41
449.01	2587.81
449.384	2599.79
449.758	2618.1
450.132	2661.03
450.506	2688.83
450.88	2701.03
451.254	2731.31
451.628	2745.55
452.002	2834.36
452.376	2807.69
452.75	2802.27
453.123	2815.6
453.497	2888.82
453.871	2924.08
454.244	2993
454.618	3022.83
454.992	3054.24
455.365	3044.75
455.739	3109.61
456.112	3134.92
456.486	3183.5
456.859	3216.27
457.232	3311.18
457.606	3297.17
457.979	3312.99
458.352	3402.48
458.725	3416.94
459.099	3409.94
459.472	3504.85
459.845	3558.64
460.218	3571.52
460.591	3607.67
460.964	3670.72
461.337	3723.15
461.71	3785.07
462.083	3781.45
462.456	3800.44
462.829	3859.64
463.201	3925.86
463.574	3951.39
463.947	3995.01
464.32	4085.18
464.692	4077.72
465.065	4159.07
465.438	4235
465.81	4229.35
466.183	4353.42
466.555	4416.69
466.928	4438.39
467.3	4432.74
467.672	4510.02
468.045	4601.32
468.417	4592.73
468.789	4656.91
469.161	4697.81
469.534	4844.48
469.906	4886.51
470.278	4890.8
470.65	4978.48
471.022	5084.24
471.394	5211.47
471.766	5247.4
472.138	5271.13
472.51	5407.17
472.882	5470.45
473.253	5552.93
473.625	5561.29
473.997	5711.8
474.369	5743.66
474.74	5800.61
475.112	5929.19
475.484	5987.95
475.855	6151.11
476.227	6217.1
476.598	6347.94
476.97	6436.53
477.341	6565.11
477.713	6686.91
478.084	6708.16
478.455	6895.27
478.827	6905.89
479.198	7126.45
479.569	7120.12
479.94	7303.85
480.311	7424.75
480.682	7610.73
481.053	7715.36
481.424	7917.39
481.795	8012.08
482.166	8068.57
482.537	8220.43
482.908	8400.99
483.279	8469.47
483.65	8623.81
484.021	8863.81
484.391	8822
484.762	8983.58
485.133	9056.34
485.503	9159.62
485.874	9388.31
486.244	9464.24
486.615	9643.9
486.985	9776.32
487.356	9986.49
487.726	10009.54
488.097	10226.93
488.467	10268.29
488.837	10485.91
489.207	10638.68
489.578	10756.41
489.948	10944.88
490.318	11087.93
490.688	11054.48
491.058	11264.65
491.428	11395.49
491.798	11524.08
492.168	11729.95
492.538	11794.58
492.908	11962.26
493.278	12160.22
493.648	12156.6
494.017	12320.44
494.387	12456.03
494.757	12503.48
495.126	12709.13
495.496	12757.94
495.866	12858.05
496.235	12953.42
496.605	13130.81
496.974	13249.91
497.344	13361.09
497.713	13395.89
498.082	13491.48
498.452	13700.06
498.821	13704.81
499.19	13811.47
499.559	13950.68
499.928	14080.17
500.298	14105.25
500.667	14290.33
501.036	14336.66
501.405	14483.77
501.774	14569.65
502.143	14631.34
502.512	14738.45
502.88	14902.07
503.249	14896.42
503.618	15106.58
503.987	15107.71
504.356	15220.25
504.724	15277.88
505.093	15381.83
505.462	15399
505.83	15676.73
506.199	15781.59
506.567	16034.01
506.936	15929.38
507.304	16248.25
507.672	16295.48
508.041	16414.79
508.409	16433.55
508.777	16601.91
509.145	16775.46
509.514	16750.6
509.882	16956.93
510.25	17022.91
510.618	17179.97
510.986	17235.56
511.354	17435.78
511.722	17616.57
512.09	17758.26
512.458	17692.5
512.826	17887.07
513.193	18070.34
513.561	18142.21
513.929	18344.24
514.297	18465.36
514.664	18659.03
515.032	18665.81
515.4	18899.25
515.767	18909.64
516.135	19140.82
516.502	19044.56
516.869	19463.53
517.237	19459.46
517.604	19543.3
517.972	19665.33
518.339	19864.65
518.706	19942.61
519.073	20170.18
519.44	20298.99
519.808	20447.91
520.175	20369.94
520.542	20754.79
520.909	20907.33
521.276	20912.76
521.643	21161.11
522.009	21368.34
522.376	21471.16
522.743	21642.23
523.11	21898.04
523.477	21976.46
523.843	22154.76
524.21	22429.33
524.577	22616.67
524.943	22638.81
525.31	22888.97
525.676	23092.13
526.043	23276.99
526.409	23407.15
526.776	23638.11
527.142	23711.55
527.508	23919
527.874	24010.3
528.241	24318.99
528.607	24277.64
528.973	24587.23
529.339	24640.34
529.705	24836.04
530.071	24971.18
530.437	25234.45
530.803	25299.08
531.169	25436.25
531.535	25519.41
531.901	25589.47
532.267	25742.01
532.632	25889.35
532.998	25979.97
533.364	26180.19
533.73	26223.12
534.095	26504.7
534.461	26500.4
534.826	26796.67
535.192	26869.21
535.557	26865.14
535.923	27087.51
536.288	27165.47
536.653	27332.02
537.019	27332.47
537.384	27447.5
537.749	27567.04
538.114	27553.94
538.479	27733.37
538.845	27844.55
539.21	27823.53
539.575	28032.12
539.94	27995.51
540.305	28274.82
540.67	28327.7
541.034	28446.34
541.399	28534.7
541.764	28720.46
542.129	28835.94
542.494	28862.83
542.858	28855.37
543.223	28976.27
543.587	29221.46
543.952	29185.08
544.316	29276.83
544.681	29389.59
545.045	29486.77
545.41	29685.18
545.774	29713.65
546.138	29856.02
546.503	29918.62
546.867	29870.49
547.231	30172.62
547.595	30261.89
547.959	30428.66
548.324	30408.1
548.688	30488.32
549.052	30644.48
549.416	30668.2
549.779	30842.21
550.143	30875.21
550.507	31100.74
550.871	31179.15
551.235	31105.03
551.599	31539.37
551.962	31461.18
552.326	31497.56
552.689	31673.38
553.053	31655.07
553.417	31746.37
553.78	32198.56
554.143	32019.58
554.507	32271.55
554.87	32247.82
555.234	32668.38
555.597	32469.06
555.96	32648.72
556.323	32827.24
556.686	32839.45
557.05	33118.08
557.413	33172.32
557.776	33313.11
558.139	33584.51
558.502	33476.27
558.865	33683.49
559.228	33876.03
559.59	34055.01
559.953	33958.97
560.316	34485.28
560.679	34335.68
561.041	34557.37
561.404	34704.03
561.767	34880.52
562.129	34758.27
562.492	35342.43
562.854	35250.23
563.217	35387.85
563.579	35439.15
563.941	35716.66
564.304	35727.28
564.666	36047.27
565.028	36114.16
565.39	36220.38
565.753	36469.63
566.115	36588.95
566.477	36651.55
566.839	36830.08
567.201	36973.58
567.563	36957.98
567.925	37251.31
568.287	37250.63
568.648	37427.35
569.01	37580.11
569.372	37835.02
569.734	37715.93
570.095	38024.62
570.457	38214
570.819	38397.27
571.18	38228.68
571.542	38460.99
571.903	38409.92
572.265	38586.64
572.626	38742.79
572.987	38818.73
573.349	38899.4
573.71	39070.02
574.071	39130.58
574.432	39439.05
574.794	39500.74
575.155	39465.26
575.516	39357.69
575.877	39614.86
576.238	39624.81
576.599	39724.01
576.96	39899.83
577.32	39967.4
577.681	39904.8
578.042	40037.22
578.403	40048.52
578.763	40119.03
579.124	40008.75
579.485	40441.28
579.845	40286.94
580.206	40262.53
580.566	40341.4
580.927	40285.81
581.287	40432.02
581.648	40194.73
582.008	40539.13
582.368	40400.38
582.728	40504.33
583.089	40559.7
583.449	40538.23
583.809	40608.96
584.169	40563.54
584.529	40653.71
584.889	40892.34
585.249	40465.01
585.609	40477.66
585.969	40644.89
586.329	40705.23
586.688	40672.46
587.048	40634.04
587.408	40662.97
587.768	40786.58
588.127	40513.14
588.487	40488.51
588.846	40956.97
589.206	40423.88
589.565	40701.61
589.925	40788.84
590.284	40625.46
590.643	40629.98
591.003	40780.71
591.362	40747.94
591.721	40680.37
592.08	40709.75
592.44	40733.7
592.799	40820.71
593.158	40750.65
593.517	40767.15
593.876	40846.24
594.235	40820.93
594.593	40826.13
594.952	40848.28
595.311	40806.02
595.67	40884.21
596.029	40951.1
596.387	40960.36
596.746	41089.17
597.104	40887.82
597.463	41039.23
597.822	41093.69
598.18	40972.57
598.538	41004.43
598.897	41087.82
599.255	40773.25
599.613	41323.07
599.972	41142.05
600.33	41114.26
600.688	40976.86
601.046	41049.17
601.404	41223.86
601.762	41055.95
602.12	41354.7
602.478	41211.88
602.836	41430.18
603.194	41148.83
603.552	41134.14
603.91	41175.27
604.268	41371.43
604.625	41121.04
604.983	41372.56
605.341	41098.89
605.698	41272.22
606.056	41519.22
606.413	41335.95
606.771	41556.51
607.128	41603.51
607.485	41401.03
607.843	41449.84
608.2	41592.89
608.557	41768.48
608.914	41531.87
609.272	41777.74
609.629	41913.56
609.986	41862.94
610.343	41755.15
610.7	42067.23
611.057	42009.6
611.414	41861.58
611.771	42048.7
612.127	42090.05
612.484	41971.41
612.841	42174.57
613.198	42130.95
613.554	42288.46
613.911	42304.74
614.267	42362.13
614.624	42426.54
614.98	42414.56
615.337	42514.67
615.693	42488.91
616.05	42362.59
616.406	42712.18
616.762	42569.59
617.118	42570.26
617.475	42674.67
617.831	42586.31
618.187	42690.94
618.543	42840.54
618.899	42955.11
619.255	42981.78
619.611	42878.05
619.967	43014.09
620.323	42984.27
620.678	42882.8
621.034	42901.33
621.39	42827.66
621.746	42828.79
622.101	43273.3
622.457	43007.54
622.812	43213.86
623.168	43247.54
623.523	43123.92
623.879	43105.84
624.234	43014.55
624.589	43170.25
624.945	43132.28
625.3	43071.04
625.655	43218.84
626.01	43220.19
626.365	43233.3
626.72	43199.85
627.075	43122.34
627.43	42959.41
627.785	42998.05
628.14	43131.83
628.495	43153.53
628.85	43002.57
629.205	42987.2
629.559	43098.39
629.914	43044.38
630.269	42911.05
630.623	42866.75
630.978	42726.64
631.332	43003.02
631.687	42990.14
632.041	42740.43
632.396	42753.99
632.75	42571.39
633.104	42769.58
633.459	42532.53
633.813	42514
634.167	42647.55
634.521	42583.37
634.875	42538.4
635.229	42431.96
635.583	42260.89
635.937	42306.77
636.291	42292.08
636.645	42279.2
636.999	42222.7
637.352	42291.85
637.706	42007.34
638.06	42072.88
638.413	42038.98
638.767	41961.02
639.121	41844.63
639.474	41727.8
639.828	41703.17
640.181	41797.4
640.534	41686.45
640.888	41615.94
641.241	41468.37
641.594	41501.82
641.947	41627.46
642.301	41438.32
642.654	41404.19
643.007	41317.87
643.36	41276.06
643.713	41309.96
644.066	41449.16
644.419	41155.84
644.771	40982.51
645.124	40618.9
645.477	40483.77
645.83	40207.16
646.182	40040.39
646.535	40021.86
646.888	40127.39
647.24	39769.66
647.593	40099.6
647.945	39971.24
648.298	39742.54
648.65	39695.76
649.002	39504.13
649.355	39692.83
649.707	39565.37
650.059	39702.32
650.411	40229.99
650.763	40092.14
651.115	40593.82
651.467	40472.01
651.819	40396.99
652.171	40407.16
652.523	40112.25
652.875	40281.06
653.227	40173.04
653.578	40333.26
653.93	40161.29
654.282	40121.97
654.633	39924.23
654.985	40075.42
655.337	40041.07
655.688	40027.28
656.039	40003.55
656.391	39838.81
656.742	39911.13
657.094	39878.81
657.445	40038.58
657.796	39765.14
658.147	39803.56
658.498	39730.79
658.849	39799.49
659.2	39752.03
659.551	39561.76
659.902	39610.79
660.253	39586.39
660.604	39612.83
660.955	39373.51
661.306	39401.08
661.656	39262.33
662.007	39378.94
662.358	39374.87
662.708	39299.39
663.059	39294.87
663.409	39008.78
663.76	39114.54
664.11	39130.13
664.461	39101.43
664.811	39192.73
665.161	39058.04
665.511	38794.54
665.862	38886.52
666.212	38868.67
666.562	38814.43
666.912	38676.13
667.262	38614.66
667.612	38487.89
667.962	38462.12
668.312	38293.32
668.662	38480.88
669.011	38307.33
669.361	38097.39
669.711	38078.18
670.06	38007.22
670.41	37869.37
670.76	37749.15
671.109	37729.26
671.459	37810.16
671.808	37624.18
672.157	37552.54
672.507	37318.88
672.856	37239.56
673.205	37323.4
673.554	37299.22
673.904	37192.78
674.253	37338.76
674.602	37161.37
674.951	36718.67
675.3	36422.86
675.649	37028.04
675.998	36993.91
676.346	36994.14
676.695	37128.83
677.044	36740.59
677.393	36862.39
677.741	36790.53
678.09	36721.61
678.438	36671.21
678.787	36757.54
679.135	36726.35
679.484	36500.59
679.832	36619.23
680.181	36560.93
680.529	36680.25
680.877	36565.45
681.225	36420.6
681.573	36713.47
681.922	36592.57
682.27	36299.24
682.618	36418.56
682.966	36515.06
683.314	36616.52
683.661	36489.07
684.009	36356.64
684.357	36261.28
684.705	36291.33
685.053	36228.96
685.4	36346.02
685.748	36376.98
686.095	36306.93
686.443	36223.77
686.79	36155.74
687.138	36233.03
687.485	36273.03
687.832	36084.11
688.18	36184.22
688.527	36099.47
688.874	36208.17
689.221	36105.12
689.568	35961.17
689.915	35970.44
690.262	35967.27
690.609	35837.56
690.956	35861.74
691.303	35770.9
691.65	35616.55
691.997	35705.81
692.344	35583.1
692.69	35656.32
693.037	35667.17
693.383	35353.51
693.73	35676.66
694.077	35333.17
694.423	35484.12
694.769	35285.26
695.116	35330.68
695.462	35358.93
695.808	35137.24
696.155	35329.78
696.501	35129.78
696.847	35029.22
697.193	34852.5
697.539	35024.7
697.885	34844.82
698.231	34593.75
698.577	34813.86
698.923	34690.92
699.269	34443.02
699.614	34304.27
699.96	34465.85
700.306	34342.68
700.651	34251.61
700.997	34133.42
701.342	34054.33
701.688	34118.06
702.033	33830.61
702.379	33808.91
702.724	33873.77
703.069	33880.78
703.415	33556.04
703.76	33554.91
704.105	33364.18
704.45	33351.52
704.795	33233.11
705.14	33076.96
705.485	33005.32
705.83	32870.41
706.175	33025.43
706.52	32888.94
706.865	32734.82
707.209	32733.46
707.554	32594.48
707.899	32669.06
708.243	32436.52
708.588	32561.71
708.932	32241.95
709.277	32242.17
709.621	32300.7
709.966	32090.09
710.31	32286.47
710.654	31932.35
710.998	32062.74
711.342	31912.24
711.687	31862.75
712.031	31757.67
712.375	31587.95
712.719	31710.21
713.063	31747.05
713.407	31702.98
713.75	31437
714.094	31503.21
714.438	31287.4
714.782	31371.92
715.125	31238.36
715.469	31298.47
715.812	31123.33
716.156	31029.1
716.499	30991.36
716.843	30982.77
717.186	30687.87
717.53	30938.48
717.873	30853.51
718.216	30813.29
718.559	30675.66
718.902	30338.27
719.246	30614.42
719.589	30482.9
719.932	30321.32
720.275	30434.76
720.617	30338.95
720.96	30299.18
721.303	30146.41
721.646	30183.02
721.989	30033.87
722.331	30006.53
722.674	30123.59
723.016	30122.46
723.359	29931.05
723.701	30011.95
724.044	29831.84
724.386	29563.15
724.729	29686.54
725.071	29767.44
725.413	29727.66
725.755	29741.9
726.097	29587.33
726.439	29451.06
726.782	29461.46
727.124	29607.22
727.465	29302.59
727.807	29293.55
728.149	29267.79
728.491	29257.62
728.833	29265.76
729.175	29135.14
729.516	29044.29
729.858	28898.53
730.199	28920.68
730.541	29000.9
730.882	28850.4
731.224	28817.41
731.565	28705.77
731.906	28691.31
732.248	28709.84
732.589	28503.06
732.93	28424.65
733.271	28587.13
733.612	28470.07
733.953	28529.96
734.294	28278.89
734.635	28426
734.976	28379.23
735.317	28151.43
735.658	28153.02
735.999	28259
736.339	28136.97
736.68	28175.39
737.021	28121.83
737.361	27942.17
737.702	28215.61
738.042	28007.48
738.383	27856.3
738.723	28056.52
739.063	27881.84
739.404	27913.48
739.744	27808.62
740.084	27732.91
740.424	27640.49
740.764	27659.24
741.104	27688.4
741.444	27550.55
741.784	27454.28
742.124	27604.1
742.464	27403.88
742.804	27351.68
743.143	27265.81
743.483	27461.96
743.823	27307.39
744.162	27196.43
744.502	27194.62
744.841	27060.16
745.181	27172.7
745.52	27027.62
745.86	27063.33
746.199	26942.65
746.538	26960.73
746.877	26918.47
747.216	26897.23
747.556	26840.28
747.895	26884.35
748.234	26660.4
748.573	26592.61
748.911	26702.66
749.25	26712.38
749.589	26503.57
749.928	26512.61
750.267	26576.56
750.605	26347.64
750.944	26314.65
751.283	26199.17
751.621	26274.87
751.96	26007.31
752.298	26149
752.636	26211.15
752.975	26028.55
753.313	26007.54
753.651	25921.21
