Data from white_poster_card_FLMS001491_00091.txt Node
Date: Wed Feb 08 11:52:17 GMT 2017
User: dcchb
Spectrometer: FLMS00149
Trigger mode: 0
Integration Time (sec): 2.000000E-2
Scans to average: 10
Electric dark correction enabled: true
Nonlinearity correction enabled: false
Boxcar width: 0
XAxis mode: Wavelengths
Number of Pixels in Spectrum: 2048
>>>>>Begin Spectral Data<<<<<
341.393	-18.25
341.776	-18.25
342.16	-18.25
342.543	-62.09
342.927	-89.21
343.31	-55.76
343.693	-81.07
344.077	-54.18
344.46	-53.28
344.843	-56.89
345.226	-61.18
345.61	-28.87
345.993	-15.54
346.376	-5.37
346.759	8.42
347.142	33.05
347.525	35.76
347.908	72.14
348.291	47.51
348.674	97
349.057	118.25
349.44	113.5
349.823	141.97
350.206	170
350.588	177.23
350.971	200.05
351.354	205.25
351.737	209.32
352.119	255.64
352.502	263.55
352.884	268.98
353.267	294.74
353.65	299.71
354.032	303.1
354.414	294.29
354.797	339.48
355.179	334.06
355.562	323.21
355.944	340.16
356.326	312.14
356.709	346.49
357.091	351.69
357.473	322.53
357.855	316.21
358.238	330.44
358.62	333.61
359.002	353.27
359.384	339.93
359.766	333.83
360.148	332.93
360.53	346.04
360.912	346.04
361.294	343.32
361.676	329.09
362.057	327.51
362.439	318.69
362.821	325.25
363.203	337.9
363.584	344
363.966	328.41
364.348	338.13
364.729	333.16
365.111	319.6
365.493	345.81
365.874	343.32
366.256	341.06
366.637	307.62
367.019	299.71
367.4	312.14
367.781	295.42
368.163	306.04
368.544	316.21
368.925	321.86
369.306	327.05
369.688	319.82
370.069	328.18
370.45	304.46
370.831	323.21
371.212	325.47
371.593	307.62
371.974	330.22
372.355	334.74
372.736	321.4
373.117	325.25
373.498	323.66
373.879	320.73
374.26	322.76
374.641	318.69
375.021	301.52
375.402	320.95
375.783	330.67
376.163	320.73
376.544	318.01
376.925	298.58
377.305	321.86
377.686	326.38
378.066	318.92
378.447	314.4
378.827	355.98
379.208	314.17
379.588	336.54
379.968	315.3
380.349	329.99
380.729	351.69
381.109	329.09
381.489	344.68
381.87	336.32
382.25	337.67
382.63	358.92
383.01	337.45
383.39	320.95
383.77	341.52
384.15	345.36
384.53	358.47
384.91	341.29
385.29	366.37
385.67	371.57
386.049	351.69
386.429	336.09
386.809	365.7
387.189	358.47
387.568	363.89
387.948	352.36
388.328	377.67
388.707	365.02
389.087	344.45
389.466	371.12
389.846	365.24
390.225	373.61
390.605	368.18
390.984	381.06
391.363	386.94
391.743	381.29
392.122	381.52
392.501	388.29
392.881	384.91
393.26	393.27
393.639	413.6
394.018	398.92
394.397	410.22
394.776	385.81
395.155	397.56
395.534	412.02
395.913	417.22
396.292	411.35
396.671	421.74
397.05	412.25
397.429	402.76
397.808	414.51
398.186	419.93
398.565	410.44
398.944	407.28
399.323	435.98
399.701	412.25
400.08	428.29
400.458	437.79
400.837	434.17
401.215	426.03
401.594	430.55
401.972	432.81
402.351	453.15
402.729	438.92
403.107	451.57
403.486	456.32
403.864	466.71
404.242	461.97
404.62	457.45
404.999	478.24
405.377	501.06
405.755	477.11
406.133	471.23
406.511	486.6
406.889	506.03
407.267	525.47
407.645	516.2
408.023	531.34
408.401	536.99
408.779	511.46
409.156	531.57
409.534	551.68
409.912	572.47
410.29	583.77
410.667	569.76
411.045	594.84
411.422	584.45
411.8	584.22
412.178	636.42
412.555	627.16
412.933	654.05
413.31	658.57
413.687	659.47
414.065	667.16
414.442	685.69
414.819	691.34
415.197	699.47
415.574	697.67
415.951	754.84
416.328	762.3
416.705	753.93
417.082	773.37
417.46	770.66
417.837	786.02
418.214	819.7
418.591	837.55
418.967	836.87
419.344	854.27
419.721	856.98
420.098	849.53
420.475	887.49
420.852	907.6
421.228	908.51
421.605	920.48
421.982	933.37
422.358	966.58
422.735	996.87
423.111	976.3
423.488	991.22
423.864	1023.76
424.241	1054.94
424.617	1011.78
424.994	1042.74
425.37	1089.07
425.746	1061.72
426.123	1104.43
426.499	1063.53
426.875	1107.15
427.251	1118.22
427.627	1153.47
428.003	1163.19
428.379	1199.8
428.756	1198.67
429.132	1195.28
429.507	1232.57
429.883	1234.6
430.259	1255.84
430.635	1282.73
431.011	1309.17
431.387	1315.95
431.763	1354.6
432.138	1346.01
432.514	1370.19
432.89	1402.05
433.265	1413.58
433.641	1427.36
434.016	1435.05
434.392	1452.22
434.767	1524.99
435.143	1501.94
435.518	1538.1
435.894	1531.99
436.269	1568.15
436.644	1583.29
437.02	1616.06
437.395	1611.54
437.77	1652.44
438.145	1621.26
438.52	1647.7
438.895	1693.35
439.271	1670.3
439.646	1734.93
440.021	1721.37
440.395	1730.18
440.77	1741.71
441.145	1766.56
441.52	1785.32
441.895	1769.95
442.27	1796.85
442.645	1795.26
443.019	1816.28
443.394	1801.37
443.769	1846.56
444.143	1822.83
444.518	1885.66
444.892	1854.25
445.267	1889.05
445.641	1903.06
446.016	1910.74
446.39	1923.17
446.764	1941.02
447.139	1929.95
447.513	1954.81
447.887	1961.81
448.262	1976.73
448.636	2025.77
449.01	2024.18
449.384	2011.53
449.758	2053.56
450.132	2082.26
450.506	2083.39
450.88	2110.51
451.254	2099.44
451.628	2114.58
452.002	2151.41
452.376	2182.6
452.75	2167.68
453.123	2198.64
453.497	2253.56
453.871	2258.98
454.244	2294.01
454.618	2304.18
454.992	2344.63
455.365	2314.57
455.739	2395.25
456.112	2407
456.486	2422.14
456.859	2415.13
457.232	2492.87
457.606	2485.64
457.979	2505.3
458.352	2540.1
458.725	2590.04
459.099	2619.42
459.472	2631.17
459.845	2691.29
460.218	2695.58
460.591	2702.58
460.964	2768.35
461.337	2761.57
461.71	2817.38
462.083	2871.17
462.456	2879.75
462.829	2912.3
463.201	2940.54
463.574	2945.52
463.947	3006.53
464.32	3032.07
464.692	3067.32
465.065	3095.34
465.438	3132.4
465.81	3164.72
466.183	3167.43
466.555	3274.55
466.928	3278.84
467.3	3344.6
467.672	3335.56
468.045	3426.18
468.417	3425.05
468.789	3452.4
469.161	3454.43
469.534	3564.03
469.906	3638.6
470.278	3623.01
470.65	3686.29
471.022	3746.17
471.394	3825.04
471.766	3852.61
472.138	3887.86
472.51	3979.16
472.882	3979.16
473.253	4089.89
473.625	4118.59
473.997	4189.32
474.369	4235.88
474.74	4256.67
475.112	4282.88
475.484	4420.05
475.855	4476.1
476.227	4532.59
476.598	4679.48
476.97	4624.57
477.341	4820.27
477.713	4845.58
478.084	4883.77
478.455	4999.47
478.827	5013.71
479.198	5182.07
479.569	5156.76
479.94	5337.09
480.311	5342.29
480.682	5438.33
481.053	5582.51
481.424	5621.38
481.795	5687.14
482.166	5812.11
482.537	5878.09
482.908	5973.68
483.279	6055.26
483.65	6177.52
484.021	6220.46
484.391	6375.48
484.762	6404.63
485.133	6484.41
485.503	6516.5
485.874	6704.51
486.244	6745.64
486.615	6836.94
486.985	6932.53
487.356	7106.54
487.726	7135.91
488.097	7346.3
488.467	7320.09
488.837	7525.96
489.207	7506.98
489.578	7656.8
489.948	7709.23
490.318	7815.22
490.688	7912.84
491.058	8000.98
491.428	8131.59
491.798	8196
492.168	8353.06
492.538	8366.39
492.908	8507.4
493.278	8555.09
493.648	8614.29
494.017	8772.71
494.387	8822.2
494.757	8902.65
495.126	8995.07
495.496	9036.2
495.866	9117.56
496.235	9199.36
496.605	9304.22
496.974	9395.29
497.344	9459.24
497.713	9543.53
498.082	9590.31
498.452	9700.37
498.821	9727.26
499.19	9828.05
499.559	9900.59
499.928	9987.59
500.298	9991.88
500.667	10114.59
501.036	10100.81
501.405	10208.83
501.774	10199.56
502.143	10317.3
502.512	10391.87
502.88	10481.81
503.249	10527.92
503.618	10601.36
503.987	10676.84
504.356	10698.76
504.724	10781.02
505.093	10872.54
505.462	10907.57
505.83	10968.36
506.199	11122.93
506.567	11219.2
506.936	11256.26
507.304	11336.93
507.672	11432.3
508.041	11496.48
508.409	11578.96
508.777	11678.85
509.145	11840.65
509.514	11779.41
509.882	11877.03
510.25	11966.07
510.618	11974.2
510.986	12062.11
511.354	12175.33
511.722	12311.15
512.09	12440.41
512.458	12447.41
512.826	12599.95
513.193	12606.5
513.561	12691.93
513.929	12827.74
514.297	12942.77
514.664	13018.47
515.032	13124.91
515.4	13208.3
515.767	13250.33
516.135	13307.28
516.502	13304.57
516.869	13576.65
517.237	13517.44
517.604	13578
517.972	13770.99
518.339	13865
518.706	13976.41
519.073	14014.15
519.44	14087.14
519.808	14222.96
520.175	14326.69
520.542	14363.75
520.909	14565.32
521.276	14597.64
521.643	14717.18
522.009	14738.43
522.376	14936.84
522.743	15040.11
523.11	15197.4
523.477	15394.91
523.843	15397.84
524.21	15575.69
524.577	15705.63
524.943	15821.34
525.31	15950.15
525.676	16097.94
526.043	16187.88
526.409	16206.41
526.776	16388.78
527.142	16507.42
527.508	16672.61
527.874	16710.13
528.241	16794.64
528.607	16887.52
528.973	17121.41
529.339	17163.9
529.705	17177.68
530.071	17454.29
530.437	17460.39
530.803	17553.95
531.169	17754.17
531.535	17721.62
531.901	17754.17
532.267	17966.82
532.632	17982.86
532.998	18074.84
533.364	18228.73
533.73	18260.59
534.095	18391.21
534.461	18416.07
534.826	18560.47
535.192	18649.28
535.557	18730.41
535.923	18772.67
536.288	18899.9
536.653	18982.16
537.019	18894.25
537.384	19021.7
537.749	19103.06
538.114	19124.07
538.479	19201.59
538.845	19359.1
539.21	19269.61
539.575	19456.04
539.94	19614.23
540.305	19709.37
540.67	19630.95
541.034	19752.31
541.399	19921.79
541.764	19989.59
542.129	19989.81
542.494	20058.29
542.858	20213.76
543.223	20200.88
543.587	20332.63
543.952	20355.68
544.316	20390.48
544.681	20446.3
545.045	20504.15
545.41	20732.62
545.774	20699.63
546.138	20783.69
546.503	20875.67
546.867	20860.52
547.231	21150.01
547.595	21056.45
547.959	21138.48
548.324	21263.9
548.688	21238.14
549.052	21301.19
549.416	21371.92
549.779	21472.03
550.143	21535.31
550.507	21708.64
550.871	21698.69
551.235	21736.21
551.599	21915.64
551.962	21889.88
552.326	22025.24
552.689	22221.85
553.053	22017.1
553.417	22199.92
553.78	22483.08
554.143	22352.01
554.507	22477.21
554.87	22641.95
555.234	22875.39
555.597	22631.55
555.96	22906.35
556.323	22962.84
556.686	23064.99
557.05	23203.74
557.413	23244.87
557.776	23349.05
558.139	23361.02
558.502	23561.7
558.865	23507.24
559.228	23655.48
559.59	23806.21
559.953	23893.89
560.316	24140.89
560.679	24128.69
561.041	24213.66
561.404	24318.97
561.767	24568.68
562.129	24544.72
562.492	24742.46
562.854	24638.5
563.217	24734.1
563.579	24928.21
563.941	25192.84
564.304	25094.09
564.666	25336.11
565.028	25470.8
565.39	25453.17
565.753	25599.84
566.115	25750.11
566.477	25832.82
566.839	25898.36
567.201	26110.56
567.563	26188.07
567.925	26246.15
568.287	26286.14
568.648	26435.07
569.01	26553.03
569.372	26749.86
569.734	26630.77
570.095	26841.84
570.457	26908.05
570.819	27031.21
571.18	26977.2
571.542	27154.37
571.903	27178.1
572.265	27280.7
572.626	27299.23
572.987	27514.59
573.349	27606.11
573.71	27618.77
574.071	27776.73
574.432	27808.82
574.794	28065.31
575.155	28039.55
575.516	27866.67
575.877	28116.38
576.238	28050.39
576.599	28190.05
576.96	28184.4
577.32	28291.52
577.681	28383.26
578.042	28498.06
578.403	28358.86
578.763	28353.89
579.124	28564.73
579.485	28653.99
579.845	28820.32
580.206	28609.47
580.566	28685.86
580.927	28872.97
581.287	28766.53
581.648	28727.21
582.008	28772.41
582.368	28957.94
582.728	28917.04
583.089	28941.67
583.449	28979.86
583.809	28709.13
584.169	28956.36
584.529	28872.97
584.889	29152.28
585.249	28906.42
585.609	28790.71
585.969	28957.71
586.329	28843.82
586.688	29063.93
587.048	28963.81
587.408	29057.15
587.768	28980.31
588.127	29077.94
588.487	28930.82
588.846	29183.92
589.206	28942.12
589.565	28957.04
589.925	29079.07
590.284	29025.73
590.643	29018.73
591.003	29202
591.362	29311.38
591.721	29100.53
592.08	29280.64
592.44	29267.99
592.799	29144.15
593.158	29163.13
593.517	29186.41
593.876	29267.08
594.235	29261.21
594.593	29285.16
594.952	29217.82
595.311	29067.99
595.67	29273.19
596.029	29432.95
596.387	29308.66
596.746	29357.48
597.104	29253.52
597.463	29307.53
597.822	29382.56
598.18	29286.29
598.538	29415.33
598.897	29570.58
599.255	29294.88
599.613	29701.65
599.972	29542.56
600.33	29509.56
600.688	29544.59
601.046	29569.67
601.404	29730.8
601.762	29533.07
602.12	29830.01
602.478	29784.13
602.836	29765.38
603.194	29644.02
603.552	29827.52
603.91	29629.33
604.268	29758.37
604.625	29642.21
604.983	29885.15
605.341	29741.65
605.698	29827.97
606.056	30064.35
606.413	29891.7
606.771	29935.77
607.128	30060.96
607.485	29914.75
607.843	30006.73
608.2	30210.11
608.557	30137.57
608.914	30173.95
609.272	30228.87
609.629	30235.19
609.986	30373.72
610.343	30322.65
610.7	30507.5
611.057	30423.21
611.414	30351.12
611.771	30439.71
612.127	30441.97
612.484	30495.75
612.841	30637.67
613.198	30555.41
613.554	30515.19
613.911	30695.29
614.267	30667.95
614.624	30769.42
614.98	30675.86
615.337	30838.34
615.693	30743.88
616.05	30740.72
616.406	30930.99
616.762	30775.97
617.118	30773.94
617.475	30714.96
617.831	30902.97
618.187	30907.27
618.543	30891.9
618.899	30996.3
619.255	31019.58
619.611	31064.32
619.967	31008.05
620.323	31058.45
620.678	31042.63
621.034	30955.85
621.39	31021.39
621.746	30843.09
622.101	31307.03
622.457	30983.65
622.812	31162.4
623.168	31156.53
623.523	31180.71
623.879	31201.5
624.234	31079.69
624.589	31171.89
624.945	31252.57
625.3	31204.89
625.655	31083.31
626.01	31149.75
626.365	31330.31
626.72	31212.8
627.075	31045.57
627.43	31220.93
627.785	31098.67
628.14	31050.77
628.495	31078.79
628.85	31046.47
629.205	30972.58
629.559	31135.06
629.914	30961.28
630.269	31037.88
630.623	30801.51
630.978	30814.39
631.332	30949.98
631.687	30990.88
632.041	30742.07
632.396	30968.73
632.75	30690.55
633.104	30756.08
633.459	30547.28
633.813	30666.37
634.167	30585.92
634.521	30668.18
634.875	30696.65
635.229	30451.46
635.583	30489.2
635.937	30367.62
636.291	30364.46
636.645	30454.4
636.999	30270.67
637.352	30372.59
637.706	30260.05
638.06	30311.12
638.413	30263.89
638.767	30112.49
639.121	30179.15
639.474	30066.38
639.828	30010.79
640.181	30070.68
640.534	29902.55
640.888	30054.63
641.241	29803.11
641.594	29789.56
641.947	29910.23
642.301	29740.29
642.654	29959.27
643.007	29848.76
643.36	29640.18
643.713	29641.54
644.066	29814.41
644.419	29663.23
644.771	29458.72
645.124	29140.76
645.477	29077.03
645.83	28904.61
646.182	28813.76
646.535	28730.15
646.888	28748.91
647.24	28592.53
647.593	28653.99
647.945	28605.63
648.298	28418.29
648.65	28445.18
649.002	28283.38
649.355	28404.06
649.707	28385.75
650.059	28478.63
650.411	28844.95
650.763	28915.23
651.115	29121.55
651.467	28931.95
651.819	29045.85
652.171	28962.68
652.523	28811.5
652.875	28928.11
653.227	28661.22
653.578	28791.84
653.93	28895.57
654.282	28785.29
654.633	28694.9
654.985	28690.38
655.337	28698.51
655.688	28570.38
656.039	28784.84
656.391	28480.44
656.742	28534.22
657.094	28472.98
657.445	28721.11
657.796	28509.36
658.147	28554.33
658.498	28386.2
658.849	28627.1
659.2	28372.64
659.551	28229.14
659.902	28399.31
660.253	28396.6
660.604	28378.07
660.955	28132.42
661.306	28356.37
661.656	28268.01
662.007	28355.92
662.358	28202.25
662.708	28196.6
663.059	28272.08
663.409	28083.39
663.76	28204.74
664.11	28133.1
664.461	28118.41
664.811	28147.34
665.161	28178.75
665.511	28178.52
665.862	28141.46
666.212	28157.73
666.562	28214.46
666.912	28159.54
667.262	28014.69
667.612	28083.16
667.962	28192.54
668.312	28030.51
668.662	28189.15
669.011	28054.23
669.361	27950.06
669.711	28060.79
670.06	27991.41
670.41	27877.97
670.76	27942.37
671.109	27947.12
671.459	27841.36
671.808	27840.23
672.157	27945.08
672.507	27635.26
672.856	27712.1
673.205	27793
673.554	27889.72
673.904	27607.92
674.253	27808.59
674.602	27573.34
674.951	27340.81
675.3	27094.94
675.649	27580.12
675.998	27555.26
676.346	27575.38
676.695	27658.31
677.044	27474.36
677.393	27595.49
677.741	27592.33
678.09	27482.27
678.438	27379
678.787	27488.37
679.135	27458.09
679.484	27185.56
679.832	27342.16
680.181	27101.04
680.529	27235.95
680.877	27157.31
681.225	27195.95
681.573	27350.75
681.922	27280.24
682.27	27050.87
682.618	26877.32
682.966	26902.17
683.314	26910.76
683.661	26849.07
684.009	26697.89
684.357	26670.32
684.705	26654.04
685.053	26685.91
685.4	26659.02
685.748	26487.04
686.095	26483.2
686.443	26481.39
686.79	26357.33
687.138	26421.28
687.485	26287.73
687.832	26253.6
688.18	26266.48
688.527	26234.17
688.874	26187.62
689.221	26089.09
689.568	25891.58
689.915	25897
690.262	25851.58
690.609	25810.9
690.956	25727.97
691.303	25765.71
691.65	25561.64
691.997	25567.97
692.344	25386.06
692.69	25371.14
693.037	25378.15
693.383	25193.97
693.73	25222.44
694.077	25073.97
694.423	25102.45
694.769	25017.48
695.116	24982
695.462	24858.61
695.808	24746.52
696.155	24840.08
696.501	24589.01
696.847	24743.36
697.193	24346.31
697.539	24464.27
697.885	24231.28
698.231	24308.57
698.577	24256.37
698.923	24276.25
699.269	24128.24
699.614	24083.27
699.96	23949.03
700.306	24021.57
700.651	23988.35
700.997	23876.26
701.342	23780
701.688	23661.13
702.033	23697.06
702.379	23551.53
702.724	23599.89
703.069	23672.65
703.415	23329.16
703.76	23307.24
704.105	23398.31
704.45	23300.46
704.795	23105.44
705.14	23057.76
705.485	23006.23
705.83	23022.73
706.175	23013.46
706.52	22877.65
706.865	22784.77
707.209	22821.38
707.554	22745.9
707.899	22834.48
708.243	22682.17
708.588	22640.14
708.932	22409.86
709.277	22410.54
709.621	22477.66
709.966	22295.06
710.31	22383.65
710.654	22146.59
710.998	22135.29
711.342	22161.73
711.687	22103.2
712.031	22115.18
712.375	21898.24
712.719	21930.78
713.063	21916.09
713.407	21957.22
713.75	21817.56
714.094	21795.64
714.438	21705.25
714.782	21650.33
715.125	21684.46
715.469	21648.07
715.812	21496.67
716.156	21446.05
716.499	21451.24
716.843	21493.05
717.186	21171.03
717.53	21375.99
717.873	21341.42
718.216	21290.34
718.559	21223
718.902	20933.52
719.246	21081.76
719.589	21052.61
719.932	20989.56
720.275	20921.54
720.617	20921.54
720.96	20816.23
721.303	20899.85
721.646	20969
721.989	20676.12
722.331	20829.57
722.674	20695.33
723.016	20633.19
723.359	20665.5
723.701	20666.63
724.044	20376.92
724.386	20434.1
724.729	20536.01
725.071	20348.45
725.413	20443.81
725.755	20332.4
726.097	20318.17
726.439	20184.38
726.782	20281.56
727.124	20322.46
727.465	20110.94
727.807	20183.03
728.149	20229.81
728.491	20085.4
728.833	20128.11
729.175	20034.56
729.516	19842.47
729.858	20007.21
730.199	19956.59
730.541	19922.02
730.882	19842.47
731.224	19902.81
731.565	19660.78
731.906	19727.67
732.248	19712.31
732.589	19656.71
732.93	19648.81
733.271	19496.94
733.612	19606.55
733.953	19614.23
734.294	19613.55
734.635	19383.05
734.976	19530.84
735.317	19404.97
735.658	19374.24
735.999	19360.45
736.339	19290.4
736.68	19294.24
737.021	19204.98
737.361	19222.6
737.702	19317.06
738.042	19203.39
738.383	19128.14
738.723	19203.39
739.063	19098.09
739.404	19113.45
739.744	19117.75
740.084	18846.34
740.424	18974.92
740.764	18981.7
741.104	19014.92
741.444	18972.66
741.784	18929.95
742.124	18865.55
742.464	18898.99
742.804	18796.4
743.143	18728.15
743.483	18714.37
743.823	18538.78
744.162	18678.66
744.502	18618.1
744.841	18562.96
745.181	18629.62
745.52	18560.47
745.86	18593.69
746.199	18573.13
746.538	18522.73
746.877	18527.48
747.216	18450.19
747.556	18285.9
747.895	18332.68
748.234	18314.83
748.573	18260.59
748.911	18189.18
749.25	18172.69
749.589	18105.34
749.928	18144.44
750.267	18200.71
750.605	18007.49
750.944	18109.86
751.283	17982.63
751.621	17970.21
751.96	17871.45
752.298	17900.6
752.636	17863.09
752.975	17768.18
753.313	17715.97
753.651	17724.11
753.989	17645.24
754.327	17667.84
754.666	17600.27
