Data from white_poster_card_FLMS001491_00084.txt Node
Date: Wed Feb 08 11:52:07 GMT 2017
User: dcchb
Spectrometer: FLMS00149
Trigger mode: 0
Integration Time (sec): 2.000000E-2
Scans to average: 10
Electric dark correction enabled: true
Nonlinearity correction enabled: false
Boxcar width: 0
XAxis mode: Wavelengths
Number of Pixels in Spectrum: 2048
>>>>>Begin Spectral Data<<<<<
341.393	3.94
341.776	3.94
342.16	3.94
342.543	-79
342.927	-84.64
343.31	-67.02
343.693	-73.12
344.077	-52.78
344.46	-45.55
344.843	-35.61
345.226	-31.31
345.61	-27.25
345.993	-20.69
346.376	-10.75
346.759	4.84
347.142	28.57
347.525	21.12
347.908	38.97
348.291	76.93
348.674	89.36
349.057	104.28
349.44	145.86
349.823	138.85
350.206	170.94
350.588	212.3
350.971	214.1
351.354	217.27
351.737	251.62
352.119	264.5
352.502	263.82
352.884	260.21
353.267	288
353.65	297.72
354.032	306.31
354.414	325.06
354.797	328.9
355.179	318.73
355.562	322.35
355.944	347.43
356.326	360.99
356.709	349.47
357.091	339.98
357.473	356.93
357.855	342.01
358.238	355.57
358.62	351.05
359.002	354.44
359.384	343.82
359.766	351.95
360.148	348.56
360.53	329.81
360.912	348.11
361.294	354.44
361.676	360.32
362.057	350.82
362.439	351.73
362.821	333.2
363.203	335.91
363.584	329.36
363.966	330.03
364.348	315.12
364.729	332.52
365.111	346.3
365.493	345.63
365.874	327.32
366.256	329.36
366.637	309.92
367.019	302.46
367.4	326.19
367.781	317.83
368.163	335.91
368.544	315.12
368.925	321.9
369.306	330.71
369.688	324.16
370.069	320.32
370.45	316.93
370.831	327.77
371.212	346.76
371.593	330.94
371.974	336.59
372.355	317.38
372.736	334.1
373.117	299.75
373.498	302.92
373.879	342.91
374.26	318.06
374.641	321.67
375.021	322.8
375.402	347.66
375.783	330.49
376.163	345.63
376.544	347.66
376.925	344.72
377.305	335.01
377.686	328.9
378.066	334.1
378.447	355.12
378.827	350.6
379.208	339.98
379.588	333.88
379.968	343.59
380.349	337.04
380.729	328.23
381.109	365.29
381.489	366.42
381.87	341.33
382.25	347.89
382.63	365.51
383.01	362.35
383.39	371.39
383.77	362.35
384.15	351.5
384.53	368.22
384.91	362.12
385.29	335.23
385.67	353.31
386.049	362.35
386.429	360.54
386.809	371.39
387.189	375.68
387.568	361.67
387.948	382.91
388.328	367.77
388.707	363.25
389.087	362.8
389.466	385.17
389.846	394.66
390.225	381.56
390.605	398.51
390.984	360.32
391.363	410.71
391.743	401.9
392.122	407.77
392.501	404.16
392.881	415.91
393.26	394.89
393.639	400.99
394.018	408.68
394.397	417.94
394.776	407.77
395.155	427.21
395.534	409.35
395.913	421.1
396.292	406.19
396.671	423.36
397.05	433.76
397.429	417.94
397.808	408.9
398.186	440.54
398.565	430.6
398.944	455.45
399.323	426.3
399.701	453.65
400.08	448.22
400.458	453.42
400.837	450.48
401.215	450.71
401.594	445.96
401.972	435.34
402.351	473.76
402.729	459.3
403.107	472.85
403.486	487.32
403.864	484.61
404.242	482.12
404.62	498.84
404.999	480.54
405.377	491.39
405.755	492.74
406.133	494.1
406.511	518.5
406.889	524.38
407.267	525.73
407.645	538.62
408.023	538.39
408.401	533.42
408.779	542.01
409.156	532.97
409.534	580.2
409.912	596.47
410.29	579.74
410.667	586.75
411.045	590.14
411.422	590.37
411.8	633.75
412.178	650.48
412.555	656.13
412.933	654.77
413.31	666.3
413.687	670.14
414.065	702.23
414.442	723.24
414.819	717.82
415.197	721.89
415.574	749.01
415.951	784.03
416.328	781.55
416.705	773.86
417.082	807.99
417.46	828.55
417.837	843.69
418.214	813.86
418.591	859.96
418.967	871.71
419.344	892.28
419.721	921.43
420.098	914.88
420.475	954.88
420.852	933.18
421.228	964.82
421.605	951.03
421.982	994.87
422.358	1015.21
422.735	1016.57
423.111	1028.09
423.488	1055.21
423.864	1055.89
424.241	1073.74
424.617	1101.09
424.994	1098.83
425.37	1074.87
425.746	1119.17
426.123	1126.62
426.499	1170.24
426.875	1153.74
427.251	1189.22
427.627	1224.25
428.003	1240.74
428.379	1232.83
428.756	1264.47
429.132	1288.2
429.507	1298.37
429.883	1291.14
430.259	1319.16
430.635	1336.79
431.011	1357.8
431.387	1420.4
431.763	1426.73
432.138	1398.48
432.514	1448.2
432.89	1464.24
433.265	1487.52
433.641	1506.27
434.016	1520.96
434.392	1535.65
434.767	1557.57
435.143	1586.27
435.518	1588.53
435.894	1581.75
436.269	1620.62
436.644	1675.31
437.02	1680.96
437.395	1679.15
437.77	1711.24
438.145	1729.32
438.52	1737.68
438.895	1745.14
439.271	1761.18
439.646	1789.88
440.021	1810.22
440.395	1818.81
440.77	1830.79
441.145	1842.31
441.52	1877.56
441.895	1865.13
442.27	1878.24
442.645	1867.39
443.019	1914.4
443.394	1890.9
443.769	1928.18
444.143	1960.5
444.518	1986.49
444.892	1969.31
445.267	1965.02
445.641	1967.28
446.016	1972.25
446.39	2021.29
446.764	2032.36
447.139	2010.44
447.513	2048.63
447.887	2073.04
448.262	2083.66
448.636	2067.62
449.01	2110.55
449.384	2136.54
449.758	2150.1
450.132	2154.17
450.506	2158.01
450.88	2177.44
451.254	2167.73
451.628	2208.85
452.002	2278.23
452.376	2253.6
452.75	2267.84
453.123	2310.09
453.497	2324.56
453.871	2350.09
454.244	2357.33
454.618	2419.7
454.992	2440.71
455.365	2437.77
455.739	2516.87
456.112	2525.68
456.486	2511.67
456.859	2569.07
457.232	2626.02
457.606	2613.82
457.979	2680.03
458.352	2687.71
458.725	2707.6
459.099	2718.45
459.472	2794.6
459.845	2815.62
460.218	2835.73
460.591	2846.13
460.964	2890.64
461.337	2931.77
461.71	2995.27
462.083	3041.83
462.456	2981.04
462.829	3043.41
463.201	3064.65
463.574	3065.33
463.947	3139.9
464.32	3205.89
464.692	3211.09
465.065	3239.11
465.438	3294.02
465.81	3381.7
466.183	3354.36
466.555	3437.97
466.928	3463.28
467.3	3438.2
467.672	3478.65
468.045	3603.62
468.417	3573.11
468.789	3613.11
469.161	3698.53
469.534	3751.19
469.906	3797.06
470.278	3867.34
470.65	3853.56
471.022	3949.6
471.394	4030.95
471.766	4030.05
472.138	4098.3
472.51	4180.1
472.882	4212.64
473.253	4240.67
473.625	4339.42
473.997	4438.17
474.369	4439.76
474.74	4493.77
475.112	4574.22
475.484	4621.67
475.855	4685.17
476.227	4702.12
476.598	4857.6
476.97	4899.18
477.341	4972.17
477.713	5031.83
478.084	5082.45
478.455	5230.47
478.827	5316.34
479.198	5410.35
479.569	5456.23
479.94	5629.1
480.311	5650.57
480.682	5774.41
481.053	5875.2
481.424	5914.52
481.795	5966.72
482.166	6146.38
482.537	6149.32
482.908	6352.25
483.279	6440.16
483.65	6452.13
484.021	6598.12
484.391	6700.94
484.762	6760.15
485.133	6822.74
485.503	6969.63
485.874	7130.98
486.244	7146.35
486.615	7272.45
486.985	7366.01
487.356	7453.24
487.726	7577.53
488.097	7654.13
488.467	7710.4
488.837	7840.8
489.207	7915.14
489.578	8114.24
489.948	8132.99
490.318	8251.63
490.688	8287.11
491.058	8406.66
491.428	8561.68
491.798	8613.66
492.168	8770.49
492.538	8827.44
492.908	8953.76
493.278	9041.22
493.648	9059.07
494.017	9242.12
494.387	9238.73
494.757	9336.8
495.126	9508.55
495.496	9527.08
495.866	9592.16
496.235	9682.33
496.605	9777.92
496.974	9872.61
497.344	9927.75
497.713	10074.18
498.082	10025.37
498.452	10196.67
498.821	10257.23
499.19	10310.56
499.559	10368.64
499.928	10458.81
500.298	10561.63
500.667	10635.75
501.036	10642.76
501.405	10709.87
501.774	10753.94
502.143	10865.8
502.512	10934.05
502.88	11025.12
503.249	11058.11
503.618	11140.6
503.987	11231.89
504.356	11290.88
504.724	11328.16
505.093	11476.18
505.462	11488.61
505.83	11554.82
506.199	11611.09
506.567	11767.02
506.936	11825.32
507.304	12033.68
507.672	12022.61
508.041	12058.09
508.409	12142.38
508.777	12275.03
509.145	12462.14
509.514	12400.68
509.882	12503.5
510.25	12591.18
510.618	12638.41
510.986	12696.71
511.354	12780.55
511.722	12968.8
512.09	13103.71
512.458	13034.33
512.826	13242.24
513.193	13319.75
513.561	13312.07
513.929	13538.05
514.297	13591.38
514.664	13702.34
515.032	13765.39
515.4	13781.43
515.767	13956.57
516.135	13983.01
516.502	13917.25
516.869	14283.34
517.237	14350
517.604	14276.11
517.972	14468.64
518.339	14577.57
518.706	14621.18
519.073	14759.26
519.44	14815.53
519.808	15049.19
520.175	14951.8
520.542	15265.46
520.909	15267.95
521.276	15298.23
521.643	15509.52
522.009	15724.66
522.376	15772.79
522.743	15895.95
523.11	16073.35
523.477	16180.69
523.843	16245.77
524.21	16538.65
524.577	16594.24
524.943	16617.52
525.31	16732.31
525.676	17018.41
526.043	16991.74
526.409	17067.45
526.776	17236.48
527.142	17358.74
527.508	17561.45
527.874	17611.39
528.241	17706.75
528.607	17760.31
528.973	17956.69
529.339	17972.28
529.705	18195.33
530.071	18342.44
530.437	18315.1
530.803	18535.66
531.169	18638.03
531.535	18665.6
531.901	18738.59
532.267	18846.38
532.632	18938.81
532.998	19088.18
533.364	19249.54
533.73	19305.13
534.095	19401.17
534.461	19442.98
534.826	19518.46
535.192	19587.38
535.557	19723.87
535.923	19773.36
536.288	19816.08
536.653	19971.55
537.019	19968.84
537.384	20076.18
537.749	20172.9
538.114	20228.49
538.479	20458.54
538.845	20356.17
539.21	20374.7
539.575	20469.39
539.94	20507.58
540.305	20565.89
540.67	20747.8
541.034	20873.45
541.399	20978.53
541.764	20971.52
542.129	21038.87
542.494	21092.43
542.858	21176.04
543.223	21282.25
543.587	21303.72
543.952	21420.1
544.316	21485.64
544.681	21507.33
545.045	21569.48
545.41	21788.68
545.774	21746.19
546.138	21781
546.503	21823.25
546.867	21943.25
547.231	22202.68
547.595	22258.5
547.959	22259.4
548.324	22254.88
548.688	22416.68
549.052	22483.35
549.416	22522.44
549.779	22578.49
550.143	22662.55
550.507	22829.33
550.871	22871.14
551.235	22826.84
551.599	23114.29
551.962	23077.46
552.326	23196.78
552.689	23370.11
553.053	23259.83
553.417	23431.57
553.78	23642.19
554.143	23578.69
554.507	23796.76
554.87	23831.34
555.234	24084.44
555.597	23928.51
555.96	23988.39
556.323	24163.76
556.686	24170.31
557.05	24361.72
557.413	24470.87
557.776	24507.48
558.139	24701.14
558.502	24746.11
558.865	24883.74
559.228	24968.26
559.59	25097.07
559.953	25176.16
560.316	25405.76
560.679	25358.98
561.041	25729.37
561.404	25570.73
561.767	25832.64
562.129	25746.54
562.492	26115.12
562.854	26095.46
563.217	26167.09
563.579	26268.11
563.941	26411.83
564.304	26570.02
564.666	26669.23
565.028	26699.96
565.39	26959.16
565.753	26934.08
566.115	27119.39
566.477	27208.42
566.839	27435.54
567.201	27433.95
567.563	27392.6
567.925	27686.6
568.287	27710.1
568.648	27791.23
569.01	27972.24
569.372	28106.03
569.734	27951.45
570.095	28216.76
570.457	28406.36
570.819	28468.73
571.18	28415.85
571.542	28623.3
571.903	28628.95
572.265	28715.5
572.626	28822.62
572.987	28916.17
573.349	29082.27
573.71	29036.62
574.071	29293.79
574.432	29265.09
574.794	29480.68
575.155	29380.12
575.516	29438.19
575.877	29520.45
576.238	29741.69
576.599	29846.09
576.96	29840.22
577.32	29790.95
577.681	29960.67
578.042	30031.85
578.403	29984.17
578.763	30092.19
579.124	30120.66
579.485	30246.08
579.845	30344.84
580.206	30303.93
580.566	30231.17
580.927	30286.53
581.287	30398.17
581.648	30122.47
582.008	30535.12
582.368	30414.44
582.728	30437.94
583.089	30431.39
583.449	30477.04
583.809	30516.36
584.169	30600.88
584.529	30541.89
584.889	30720.87
585.249	30501.9
585.609	30303.26
585.969	30632.97
586.329	30507.55
586.688	30642.91
587.048	30614.21
587.408	30462.35
587.768	30466.64
588.127	30484.5
588.487	30594.1
588.846	30749.12
589.206	30500.31
589.565	30500.31
589.925	30741.89
590.284	30599.07
590.643	30648.78
591.003	30696.92
591.362	30749.35
591.721	30553.19
592.08	30696.24
592.44	30768.33
592.799	30753.41
593.158	30743.7
593.517	30625.28
593.876	30746.64
594.235	30602.91
594.593	30820.31
594.952	30825.28
595.311	30895.11
595.67	30815.11
596.029	31103.91
596.387	30987.98
596.746	30956.12
597.104	31007.65
597.463	30943.69
597.822	31018.94
598.18	30916.57
598.538	30982.11
598.897	31140.75
599.255	30996.57
599.613	31365.38
599.972	31118.15
600.33	31137.81
600.688	31183.01
601.046	31143.23
601.404	31304.36
601.762	31225.49
602.12	31423.23
602.478	31364.92
602.836	31499.38
603.194	31160.18
603.552	31336.9
603.91	31237.92
604.268	31525.37
604.625	31356.56
604.983	31456.9
605.341	31390.91
605.698	31564.92
606.056	31632.04
606.413	31579.38
606.771	31681.75
607.128	31733.05
607.485	31620.96
607.843	31625.03
608.2	31702.09
608.557	31884.23
608.914	31660.51
609.272	31931.24
609.629	31924.68
609.986	32025.25
610.343	31906.15
610.7	32171.91
611.057	31979.37
611.414	32113.15
611.771	32043.32
612.127	32166.94
612.484	32079.03
612.841	32176.65
613.198	32207.84
613.554	32250.55
613.911	32297.78
614.267	32383.43
614.624	32332.13
614.98	32370.55
615.337	32603.08
615.693	32443.31
616.05	32355.63
616.406	32563.08
616.762	32504.78
617.118	32445.8
617.475	32502.97
617.831	32619.81
618.187	32559.47
618.543	32723.76
618.899	32817.09
619.255	32665.45
619.611	32731.67
619.967	32932.11
620.323	32819.8
620.678	32793.81
621.034	32650.31
621.39	32653.48
621.746	32578.68
622.101	32990.64
622.457	32601.95
622.812	32818.22
623.168	32952.9
623.523	32731.44
623.879	32953.36
624.234	32631.78
624.589	32791.55
624.945	32848.73
625.3	32802.85
625.655	32856.86
626.01	32834.26
626.365	32870.87
626.72	32875.39
627.075	32703.65
627.43	32742.51
627.785	32709.07
628.14	32679.69
628.495	32808.95
628.85	32726.24
629.205	32666.36
629.559	32908.16
629.914	32599.47
630.269	32732.8
630.623	32602.18
630.978	32459.58
631.332	32587.04
631.687	32690.76
632.041	32482.63
632.396	32593.59
632.75	32448.29
633.104	32408.06
633.459	32432.92
633.813	32285.35
634.167	32292.81
634.521	32182.76
634.875	32287.16
635.229	32241.06
635.583	32126.26
635.937	32049.43
636.291	32039.03
636.645	32140.72
636.999	32027.51
637.352	32164.45
637.706	31895.08
638.06	31963.1
638.413	31978.02
638.767	31788.42
639.121	31914.51
639.474	31624.58
639.828	31727.17
640.181	31701.64
640.534	31680.4
640.888	31510.68
641.241	31415.54
641.594	31500.97
641.947	31558.59
642.301	31448.99
642.654	31360.63
643.007	31580.96
643.36	31330.35
643.713	31225.49
644.066	31474.98
644.419	31099.85
644.771	31011.03
645.124	30804.03
645.477	30688.33
645.83	30442.46
646.182	30397.27
646.535	30229.36
646.888	30201.56
647.24	30065.75
647.593	30353.88
647.945	30145.29
648.298	30051.51
648.65	29943.27
649.002	29918.86
649.355	30035.02
649.707	29956.83
650.059	30125.41
650.411	30411.73
650.763	30428.45
651.115	30867.76
651.467	30627.54
651.819	30755.22
652.171	30500.54
652.523	30383.71
652.875	30389.58
653.227	30351.62
653.578	30523.59
653.93	30354.55
654.282	30272.07
654.633	30373.54
654.985	30281.11
655.337	30256.25
655.688	30293.31
656.039	30222.81
656.391	30114.34
656.742	30080.21
657.094	30084.51
657.445	30229.36
657.796	30090.61
658.147	30022.13
658.498	30045.64
658.849	30015.35
659.2	29955.7
659.551	30035.02
659.902	30110.27
660.253	29960.67
660.604	29975.81
660.955	29911.4
661.306	29943.49
661.656	29878.41
662.007	29780.56
662.358	29868.24
662.708	29805.19
663.059	29706.89
663.409	29549.38
663.76	29791.41
664.11	29696.95
664.461	29580.56
664.811	29673.44
665.161	29646.55
665.511	29564.52
665.862	29687.45
666.212	29661.47
666.562	29649.26
666.912	29552.77
667.262	29513.67
667.612	29572.65
667.962	29586.67
668.312	29544.18
668.662	29687
669.011	29599.32
669.361	29442.71
669.711	29477.97
670.06	29514.13
670.41	29344.86
670.76	29479.1
671.109	29513.67
671.459	29241.59
671.808	29340.8
672.157	29407.69
672.507	29168.15
672.856	29291.31
673.205	29341.93
673.554	29288.82
673.904	29160.46
674.253	29299.44
674.602	29232.78
674.951	28814.26
675.3	28611.1
675.649	29312.32
675.998	29095.15
676.346	29047.92
676.695	29137.86
677.044	28987.13
677.393	28964.99
677.741	29095.61
678.09	28979
678.438	28961.37
678.787	28856.74
679.135	28861.49
679.484	28812
679.832	28983.07
680.181	28725.45
680.529	28816.74
680.877	28647.71
681.225	28727.93
681.573	28794.14
681.922	28510.08
682.27	28485.68
682.618	28388.05
682.966	28283.2
683.314	28420.14
683.661	28391.44
684.009	28212.01
684.357	28329.75
684.705	28111.45
685.053	28224.22
685.4	28175.4
685.748	27988.06
686.095	27900.38
686.443	27961.62
686.79	27797.79
687.138	27673.72
687.485	27784.91
687.832	27683.44
688.18	27698.13
688.527	27520.28
688.874	27697.22
689.221	27537.45
689.568	27370.9
689.915	27410
690.262	27231.7
690.609	27222.89
690.956	27168.2
691.303	27149.44
691.65	27101.08
691.997	27049.78
692.344	26840.3
692.69	26966.62
693.037	26841.2
693.383	26658.83
693.73	26623.81
694.077	26513.75
694.423	26528.67
694.769	26500.87
695.116	26462.23
695.462	26296.36
695.808	26172.07
696.155	26261.33
696.501	25981.11
696.847	26133.87
697.193	25917.38
697.539	25967.1
697.885	25706.32
698.231	25713.55
698.577	25690.72
698.923	25612.08
699.269	25560.33
699.614	25355.82
699.96	25303.39
700.306	25332.09
700.651	25202.83
700.997	25131.42
701.342	25178.87
701.688	25157.18
702.033	24917.86
702.379	24910.63
702.724	24877.64
703.069	24933.23
703.415	24678.09
703.76	24637.87
704.105	24691.65
704.45	24597.64
704.795	24434.26
705.14	24382.28
705.485	24319.01
705.83	24392.68
706.175	24255.96
706.52	24251.44
706.865	24105.68
707.209	24142.74
707.554	23980.49
707.899	24008.06
708.243	23877.66
708.588	23907.49
708.932	23923.99
709.277	23580.95
709.621	23648.52
709.966	23584.79
710.31	23611.46
710.654	23298.92
710.998	23452.82
711.342	23346.6
711.687	23319.49
712.031	23269.54
712.375	23215.99
712.719	23222.77
713.063	23225.93
713.407	23256.89
713.75	23104.35
714.094	22981.42
714.438	22858.71
714.782	22863
715.125	22791.59
715.469	22870.01
715.812	22707.52
716.156	22624.81
716.499	22716.34
716.843	22561.09
717.186	22457.81
717.53	22596.34
717.873	22604.02
718.216	22510.92
718.559	22413.97
718.902	22251.27
719.246	22280.87
719.589	22312.96
719.932	22185.28
720.275	22143.7
720.617	22059.41
720.96	22038.16
721.303	22076.35
721.646	22016.24
721.989	21916.81
722.331	22048.78
722.674	21877.49
723.016	21943.02
723.359	21823.25
723.701	21821.9
724.044	21692.64
724.386	21698.96
724.729	21695.57
725.071	21644.5
725.413	21459.42
725.755	21583.49
726.097	21499.42
726.439	21335.81
726.782	21368.58
727.124	21474.11
727.465	21363.6
727.807	21327.22
728.149	21294
728.491	21184.4
728.833	21221.69
729.175	21142.37
729.516	21097.17
729.858	21064.4
730.199	21131.75
730.541	21045.87
730.882	20928.81
731.224	21070.73
731.565	20811.3
731.906	20927.01
732.248	20928.59
732.589	20789.83
732.93	20706.45
733.271	20680.23
733.612	20724.53
733.953	20713
734.294	20571.99
734.635	20544.19
734.976	20588.26
735.317	20586.45
735.658	20580.12
735.999	20461.26
736.339	20465.32
736.68	20489.28
737.021	20464.19
737.361	20265.78
737.702	20371.31
738.042	20392.11
738.383	20248.15
738.723	20379.22
739.063	20249.06
739.404	20241.37
739.744	20180.13
740.084	20061.72
740.424	20053.81
740.764	20082.06
741.104	20130.42
741.444	20021.95
741.784	19874.6
742.124	20019.01
742.464	19984.66
742.804	19792.12
743.143	19794.15
743.483	19812.46
743.823	19704.89
744.162	19633.03
744.502	19739.92
744.841	19627.83
745.181	19802.06
745.52	19583.54
745.86	19652.46
746.199	19518
746.538	19521.17
746.877	19601.84
747.216	19494.5
747.556	19402.3
747.895	19468.51
748.234	19318.01
748.573	19281.4
748.911	19313.72
749.25	19287.73
749.589	19155.53
749.928	19138.8
750.267	19211.57
750.605	19038.47
750.944	19022.42
751.283	18952.82
751.621	18983.33
751.96	18927.28
752.298	18836.89
752.636	18873.73
752.975	18798.7
753.313	18722.09
753.651	18806.61
753.989	18761.19
754.327	18718.25
754.666	18569.55
