Data from white_poster_card_FLMS001491_00060.txt Node
Date: Wed Feb 08 11:51:43 GMT 2017
User: dcchb
Spectrometer: FLMS00149
Trigger mode: 0
Integration Time (sec): 2.000000E-2
Scans to average: 10
Electric dark correction enabled: true
Nonlinearity correction enabled: false
Boxcar width: 0
XAxis mode: Wavelengths
Number of Pixels in Spectrum: 2048
>>>>>Begin Spectral Data<<<<<
341.393	-17.6
341.776	-17.6
342.16	-17.6
342.543	-63.02
342.927	-71.38
343.31	-66.41
343.693	-76.58
344.077	-65.51
344.46	-75.22
344.843	-63.02
345.226	-39.29
345.61	-46.98
345.993	-23.02
346.376	10.2
346.759	-9.91
347.142	37.77
347.525	45.45
347.908	72.57
348.291	73.92
348.674	99.69
349.057	126.35
349.44	147.59
349.823	124.09
350.206	146.92
350.588	208.16
350.971	197.76
351.354	224.2
351.737	240.93
352.119	246.8
352.502	267.59
352.884	248.84
353.267	270.76
353.65	288.38
354.032	301.72
354.414	299.91
354.797	314.37
355.179	323.64
355.562	344.65
355.944	341.71
356.326	322.96
356.709	350.75
357.091	357.08
357.473	350.75
357.855	351.66
358.238	358.44
358.62	339.68
359.002	327.7
359.384	337.19
359.766	341.26
360.148	347.82
360.53	348.72
360.912	341.71
361.294	343.75
361.676	328.16
362.057	319.57
362.439	324.54
362.821	335.61
363.203	319.34
363.584	316.18
363.966	339.91
364.348	322.05
364.729	325.22
365.111	328.83
365.493	337.19
365.874	339.23
366.256	316.4
366.637	319.57
367.019	323.41
367.4	315.05
367.781	321.83
368.163	311.21
368.544	312.11
368.925	336.06
369.306	303.3
369.688	319.12
370.069	342.84
370.45	321.83
370.831	318.44
371.212	333.8
371.593	323.86
371.974	325.67
372.355	336.97
372.736	312.79
373.117	314.14
373.498	321.6
373.879	335.16
374.26	305.56
374.641	319.79
375.021	318.21
375.402	333.13
375.783	320.02
376.163	349.85
376.544	339
376.925	349.17
377.305	344.65
377.686	338.78
378.066	331.54
378.447	343.97
378.827	330.42
379.208	358.21
379.588	315.05
379.968	330.19
380.349	338.55
380.729	338.1
381.109	336.52
381.489	349.17
381.87	337.65
382.25	341.49
382.63	362.96
383.01	352.11
383.39	362.73
383.77	348.95
384.15	355.95
384.53	337.65
384.91	346.23
385.29	352.79
385.67	333.8
386.049	362.28
386.429	350.3
386.809	361.37
387.189	333.35
387.568	377.87
387.948	375.16
388.328	367.7
388.707	373.58
389.087	382.84
389.466	389.62
389.846	375.84
390.225	372
390.605	392.79
390.984	375.84
391.363	380.13
391.743	392.33
392.122	379.68
392.501	399.79
392.881	406.57
393.26	403.18
393.639	380.13
394.018	395.72
394.397	416.51
394.776	437.76
395.155	409.06
395.534	406.8
395.913	392.33
396.292	430.98
396.671	440.69
397.05	426.46
397.429	420.36
397.808	416.97
398.186	424.88
398.565	428.94
398.944	422.16
399.323	433.01
399.701	439.79
400.08	451.54
400.458	449.96
400.837	454.48
401.215	446.8
401.594	473.69
401.972	475.27
402.351	470.98
402.729	482.95
403.107	475.27
403.486	466.68
403.864	487.02
404.242	468.94
404.62	476.63
404.999	487.7
405.377	506.46
405.755	488.83
406.133	498.32
406.511	528.15
406.889	522.5
407.267	512.78
407.645	515.72
408.023	537.87
408.401	583.06
408.779	554.36
409.156	547.13
409.534	557.53
409.912	553.46
410.29	590.75
410.667	572.44
411.045	612.22
411.422	607.92
411.8	613.12
412.178	636.4
412.555	660.8
412.933	654.02
413.31	687.69
413.687	685.66
414.065	684.76
414.442	688.6
414.819	749.84
415.197	739.22
415.574	752.55
415.951	780.8
416.328	773.34
416.705	802.49
417.082	815.6
417.46	830.51
417.837	825.09
418.214	837.07
418.591	863.06
418.967	868.71
419.344	867.35
419.721	908.03
420.098	909.38
420.475	932.66
420.852	956.39
421.228	965.2
421.605	970.17
421.982	965.88
422.358	1001.13
422.735	1036.39
423.111	1018.76
423.488	1043.84
423.864	1056.5
424.241	1067.8
424.617	1092.65
424.994	1090.85
425.37	1091.07
425.746	1117.06
426.123	1126.78
426.499	1164.52
426.875	1180.56
427.251	1206.55
427.627	1202.71
428.003	1260.79
428.379	1234.8
428.756	1230.5
429.132	1269.15
429.507	1305.53
429.883	1308.92
430.259	1341.46
430.635	1350.73
431.011	1358.41
431.387	1404.74
431.763	1428.47
432.138	1415.81
432.514	1445.19
432.89	1477.05
433.265	1488.8
433.641	1510.27
434.016	1543.04
434.392	1554.56
434.767	1547.33
435.143	1591.62
435.518	1617.39
435.894	1609.7
436.269	1633.66
436.644	1651.74
437.02	1699.19
437.395	1696.03
437.77	1730.83
438.145	1731.73
438.52	1728.34
438.895	1807.89
439.271	1766.54
439.646	1830.04
440.021	1806.53
440.395	1834.56
440.77	1854.22
441.145	1860.09
441.52	1894.44
441.895	1873.43
442.27	1903.26
442.645	1880.88
443.019	1925.85
443.394	1893.99
443.769	1976.93
444.143	1949.36
444.518	1980.54
444.892	1985.96
445.267	2011.73
445.641	2011.27
446.016	2028.45
446.39	2070.03
446.764	2035
447.139	2043.14
447.513	2069.13
447.887	2075
448.262	2099.86
448.636	2100.09
449.01	2143.47
449.384	2142.12
449.758	2142.57
450.132	2219.86
450.506	2185.51
450.88	2208.78
451.254	2204.72
451.628	2248.33
452.002	2328.78
452.376	2301.44
452.75	2310.25
453.123	2349.35
453.497	2389.57
453.871	2371.94
454.244	2427.08
454.618	2434.31
454.992	2469.79
455.365	2462.56
455.739	2552.28
456.112	2538.04
456.486	2564.25
456.859	2597.25
457.232	2655.1
457.606	2648.77
457.979	2655.33
458.352	2703.23
458.725	2777.36
459.099	2773.06
459.472	2788.88
459.845	2822.55
460.218	2884.25
460.591	2925.6
460.964	2899.84
461.337	2971.02
461.71	2989.33
462.083	3058.7
462.456	3066.61
462.829	3085.14
463.201	3125.14
463.574	3145.48
463.947	3176.89
464.32	3241.52
464.692	3275.87
465.065	3313.16
465.438	3370.34
465.81	3409.2
466.183	3429.77
466.555	3473.61
466.928	3528.75
467.3	3521.07
467.672	3541.86
468.045	3670.89
468.417	3677.22
468.789	3661.17
469.161	3731.46
469.534	3758.57
469.906	3868.4
470.278	3861.4
470.65	3976.65
471.022	4025.23
471.394	4092.12
471.766	4121.28
472.138	4168.51
472.51	4240.59
472.882	4299.8
473.253	4325.11
473.625	4409.4
473.997	4472.68
474.369	4507.03
474.74	4523.53
475.112	4661.37
475.484	4692.33
475.855	4812.11
476.227	4820.47
476.598	4979.11
476.97	5034.02
477.341	5122.15
477.713	5189.5
478.084	5236.73
478.455	5356.5
478.827	5409.38
479.198	5538.41
479.569	5552.65
479.94	5726.43
480.311	5808.24
480.682	5855.47
481.053	6026.08
481.424	6065.18
481.795	6187.66
482.166	6247.32
482.537	6286.64
482.908	6444.83
483.279	6513.98
483.65	6614.09
484.021	6757.59
484.391	6826.97
484.762	6880.53
485.133	6975.66
485.503	7064.48
485.874	7193.29
486.244	7219.5
486.615	7431.47
486.985	7483.9
487.356	7627.62
487.726	7694.29
488.097	7791.69
488.467	7898.58
488.837	8023.32
489.207	8087.05
489.578	8229.64
489.948	8250.21
490.318	8400.49
490.688	8503.76
491.058	8591.89
491.428	8761.83
491.798	8833.02
492.168	8970.19
492.538	9015.16
492.908	9131.77
493.278	9296.28
493.648	9264.64
494.017	9402.27
494.387	9491.08
494.757	9562.71
495.126	9724.97
495.496	9693.78
495.866	9756.83
496.235	9968.13
496.605	9960.22
496.974	10040.44
497.344	10165.86
497.713	10264.39
498.082	10345.07
498.452	10432.07
498.821	10447.44
499.19	10517.72
499.559	10698.28
499.928	10635
500.298	10714.32
500.667	10861.44
501.036	10939.4
501.405	11034.09
501.774	11012.62
502.143	11163.8
502.512	11185.72
502.88	11309.79
503.249	11312.73
503.618	11452.16
503.987	11507.3
504.356	11543.68
504.724	11625.71
505.093	11693.51
505.462	11754.97
505.83	11812.6
506.199	11984.35
506.567	12107.28
506.936	12101.4
507.304	12253.27
507.672	12318.8
508.041	12376.65
508.409	12460.27
508.777	12494.16
509.145	12617.78
509.514	12708.62
509.882	12870.42
510.25	12849.63
510.618	12943.19
510.986	13064.32
511.354	13103.64
511.722	13262.73
512.09	13391.31
512.458	13437.42
512.826	13554.02
513.193	13580.69
513.561	13720.57
513.929	13809.61
514.297	13970.51
514.664	13965.08
515.032	14043.05
515.4	14298.86
515.767	14296.6
516.135	14346.77
516.502	14259.09
516.869	14592.19
517.237	14660.21
517.604	14637.16
517.972	14920.54
518.339	14944.27
518.706	14961.44
519.073	15124.6
519.44	15262
519.808	15309.91
520.175	15320.98
520.542	15534.31
520.909	15603.46
521.276	15726.62
521.643	15906.28
522.009	15996.22
522.376	16187.85
522.743	16256.32
523.11	16473.95
523.477	16572.93
523.843	16636.2
524.21	16818.12
524.577	16932.01
524.943	17032.8
525.31	17150.99
525.676	17254.49
526.043	17431.21
526.409	17466.46
526.776	17720.01
527.142	17753.46
527.508	17829.62
527.874	18050.18
528.241	18130.4
528.607	18188.25
528.973	18414.69
529.339	18342.82
529.705	18612.87
530.071	18707.78
530.437	18787.56
530.803	19028
531.169	19035.91
531.535	18973.54
531.901	19268
532.267	19277.04
532.632	19475.45
532.998	19440.65
533.364	19633.64
533.73	19634.54
534.095	19892.16
534.461	19887.87
534.826	20110.69
535.192	20093.06
535.557	20226.62
535.923	20360.85
536.288	20379.61
536.653	20527.17
537.019	20483.78
537.384	20591.58
537.749	20743.21
538.114	20826.37
538.479	20820.27
538.845	20987.27
539.21	20948.63
539.575	21079.47
539.94	21122.64
540.305	21271.11
540.67	21354.27
541.034	21413.7
541.399	21519.01
541.764	21481.05
542.129	21641.49
542.494	21690.53
542.858	21702.28
543.223	21770.08
543.587	21984.31
543.952	21969.85
544.316	22036.51
544.681	22146.34
545.045	22247.13
545.41	22348.82
545.774	22238.09
546.138	22451.87
546.503	22412.55
546.867	22473.11
547.231	22741.35
547.595	22760.33
547.959	22801.01
548.324	22878.3
548.688	22958.07
549.052	23004.17
549.416	23035.13
549.779	23095.24
550.143	23212.98
550.507	23440.54
550.871	23408.45
551.235	23464.95
551.599	23740.42
551.962	23626.07
552.326	23805.73
552.689	23875.33
553.053	23883.92
553.417	23969.57
553.78	24203.23
554.143	24168.88
554.507	24249.33
554.87	24331.14
555.234	24690.68
555.597	24522.1
555.96	24626.05
556.323	24704.01
556.686	24747.63
557.05	24881.86
557.413	25113.94
557.776	25098.35
558.139	25417.67
558.502	25422.18
558.865	25485.46
559.228	25675.96
559.59	25755.06
559.953	25869.86
560.316	26170.19
560.679	26038.44
561.041	26185.78
561.404	26413.12
561.767	26534.25
562.129	26326.79
562.492	26718.42
562.854	26852.66
563.217	26863.73
563.579	26902.15
563.941	27079.77
564.304	27211.74
564.666	27347.56
565.028	27326.32
565.39	27436.59
565.753	27669.36
566.115	27882.91
566.477	27874.55
566.839	28039.29
567.201	28193.86
567.563	28132.85
567.925	28363.8
568.287	28261.21
568.648	28457.59
569.01	28541.65
569.372	28827.52
569.734	28744.58
570.095	28992.71
570.457	29117.68
570.819	29197.23
571.18	29105.7
571.542	29310.22
571.903	29266.83
572.265	29517.9
572.626	29645.12
572.987	29679.93
573.349	29708.85
573.71	29864.55
574.071	29912.24
574.432	30042.63
574.794	30190.65
575.155	30170.53
575.516	30052.35
575.877	30140.25
576.238	30221.61
576.599	30350.64
576.96	30409.85
577.32	30571.88
577.681	30562.84
578.042	30849.84
578.403	30760.8
578.763	30775.49
579.124	30948.37
579.485	30946.11
579.845	31021.59
580.206	30962.83
580.566	30978.2
580.927	31075.82
581.287	31136.16
581.648	31043.96
582.008	31118.31
582.368	31059.32
582.728	31255.93
583.089	31290.73
583.449	31106.33
583.809	31222.48
584.169	31212.77
584.529	31227.23
584.889	31465.19
585.249	31262.48
585.609	31068.82
585.969	31500.44
586.329	31150.85
586.688	31267.23
587.048	31273.78
587.408	31324.85
587.768	31369.37
588.127	31243.95
588.487	31216.38
588.846	31538.18
589.206	31347.68
589.565	31374.8
589.925	31561.23
590.284	31283.73
590.643	31405.76
591.003	31515.36
591.362	31674.68
591.721	31627.22
592.08	31603.04
592.44	31649.59
592.799	31606.88
593.158	31581.12
593.517	31585.86
593.876	31648.01
594.235	31539.99
594.593	31578.41
594.952	31788.34
595.311	31555.36
595.67	31560.33
596.029	31755.58
596.387	31745.18
596.746	31751.28
597.104	31697.95
597.463	31757.16
597.822	31846.42
598.18	31670.83
598.538	31836.25
598.897	31938.4
599.255	31641.68
599.613	32069.24
599.972	31922.8
600.33	31944.73
600.688	31974.33
601.046	32061.33
601.404	32151.95
601.762	32128
602.12	32165.51
602.478	32222.68
602.836	32157.15
603.194	32032.18
603.552	32098.17
603.91	32036.93
604.268	32220.65
604.625	32205.96
604.983	32215.45
605.341	32018.4
605.698	32294.55
606.056	32257.26
606.413	32347.2
606.771	32449.57
607.128	32558.49
607.485	32256.58
607.843	32342.45
608.2	32582
608.557	32577.7
608.914	32548.1
609.272	32635.33
609.629	32692.5
609.986	32798.94
610.343	32613.63
610.7	33038.03
611.057	32812.27
611.414	32847.3
611.771	32899.05
612.127	33068.99
612.484	32867.64
612.841	33092.94
613.198	32950.8
613.554	33104.69
613.911	33155.54
614.267	33130.68
614.624	33165.26
614.98	33197.57
615.337	33343.11
615.693	33274.18
616.05	33311.69
616.406	33537
616.762	33294.07
617.118	33334.74
617.475	33320.28
617.831	33474.85
618.187	33508.3
618.543	33370.68
618.899	33551.91
619.255	33579.71
619.611	33683.44
619.967	33715.75
620.323	33806.6
620.678	33624.45
621.034	33555.08
621.39	33621.97
621.746	33388.3
622.101	33869.42
622.457	33598.24
622.812	33647.96
623.168	33672.82
623.523	33746.94
623.879	33753.94
624.234	33605.92
624.589	33687.28
624.945	33601.4
625.3	33767.05
625.655	33718.01
626.01	33839.14
626.365	33778.35
626.72	33684.34
627.075	33705.36
627.43	33623.55
627.785	33623.32
628.14	33586.94
628.495	33647.73
628.85	33527.96
629.205	33521.63
629.559	33651.35
629.914	33456.55
630.269	33531.12
630.623	33415.42
630.978	33275.54
631.332	33415.65
631.687	33496.32
632.041	33439.15
632.396	33554.4
632.75	33161.87
633.104	33316.44
633.459	33267.4
633.813	33191.02
634.167	33188.31
634.521	33210.23
634.875	33272.83
635.229	33167.29
635.583	32975.88
635.937	33062.66
636.291	32918.26
636.645	32920.29
636.999	32850.01
637.352	32889.11
637.706	32725.95
638.06	32823.57
638.413	32692.95
638.767	32753.29
639.121	32665.16
639.474	32436.24
639.828	32593.97
640.181	32582.67
640.534	32504.03
640.888	32492.51
641.241	32406.86
641.594	32326.64
641.947	32367.31
642.301	32362.34
642.654	32356.24
643.007	32251.16
643.36	32362.79
643.713	32266.75
644.066	32296.58
644.419	32118.05
644.771	31918.06
645.124	31554.68
645.477	31473.55
645.83	31236.04
646.182	31135.03
646.535	30999.67
646.888	31064.3
647.24	30928.03
647.593	31078.31
647.945	31060.23
648.298	30889.16
648.65	30672.89
649.002	30663.18
649.355	30822.95
649.707	30759.9
650.059	30784.98
650.411	31258.19
650.763	31373.21
651.115	31567.11
651.467	31467.22
651.819	31365.31
652.171	31307.45
652.523	31387.45
652.875	31274.91
653.227	31180.68
653.578	31418.41
653.93	31267.23
654.282	31118.53
654.633	30978.2
654.985	31101.58
655.337	31061.81
655.688	31043.28
656.039	31243.95
656.391	30894.58
656.742	30942.72
657.094	30915.15
657.445	31083.28
657.796	30883.06
658.147	30834.47
658.498	30923.06
658.849	30915.15
659.2	30818.88
659.551	30832.44
659.902	30893.45
660.253	30766.45
660.604	30865.21
660.955	30553.58
661.306	30803.96
661.656	30655.95
662.007	30763.29
662.358	30680.8
662.708	30549.96
663.059	30601.48
663.409	30487.81
663.76	30706.11
664.11	30589.05
664.461	30572.56
664.811	30578.89
665.161	30551.77
665.511	30464.31
665.862	30563.07
666.212	30555.83
666.562	30599
666.912	30472.22
667.262	30505.67
667.612	30402.84
667.962	30488.27
668.312	30392.22
668.662	30605.33
669.011	30528.49
669.361	30337.31
669.711	30387.93
670.06	30379.12
670.41	30273.36
670.76	30257.76
671.109	30298.44
671.459	30242.62
671.808	30225
672.157	30150.42
672.507	29876.08
672.856	29956.98
673.205	30132.34
673.554	30083.76
673.904	30007.37
674.253	30016.41
674.602	29980.71
674.951	29537.33
675.3	29551.79
675.649	29890.09
675.998	29898.45
676.346	29964.44
676.695	29914.72
677.044	29657.33
677.393	29733.03
677.741	29807.38
678.09	29748.62
678.438	29653.49
678.787	29742.75
679.135	29745.69
679.484	29467.5
679.832	29630.66
680.181	29481.74
680.529	29548.63
680.877	29553.6
681.225	29489.65
681.573	29669.08
681.922	29307.51
682.27	29243.55
682.618	29307.73
682.966	29352.02
683.314	29231.58
683.661	29238.58
684.009	28895.54
684.357	28969.44
684.705	29015.08
685.053	28990.9
685.4	28884.92
685.748	28626.17
686.095	28785.26
686.443	28615.77
686.79	28663
687.138	28621.87
687.485	28727.86
687.832	28505.95
688.18	28582.1
688.527	28294.65
688.874	28371.03
689.221	28162.68
689.568	28300.08
689.915	28168.1
690.262	28131.04
690.609	27967.88
690.956	28027.99
691.303	27998.39
691.65	27799.07
691.997	27826.64
692.344	27659.19
692.69	27691.05
693.037	27594.78
693.383	27401.57
693.73	27554.56
694.077	27264.62
694.423	27337.84
694.769	27136.26
695.116	27092.65
695.462	27052.65
695.808	27049.71
696.155	26971.75
696.501	26901.69
696.847	26924.07
697.193	26523.62
697.539	26867.12
697.885	26586
698.231	26461.25
698.577	26459.9
698.923	26462.84
699.269	26369.28
699.614	26075.95
699.96	26130.64
700.306	26145.78
700.651	25929.29
700.997	25992.57
701.342	25847.94
701.688	25810.2
702.033	25761.16
702.379	25736.07
702.724	25635.74
703.069	25715.06
703.415	25419.25
703.76	25468.06
704.105	25391.45
704.45	25223.32
704.795	25155.3
705.14	25054.06
705.485	25134.73
705.83	24945.81
706.175	25005.92
706.52	24953.72
706.865	24731.36
707.209	24838.02
707.554	24593.73
707.899	24754.86
708.243	24657.23
708.588	24585.37
708.932	24506.05
709.277	24363
709.621	24323.91
709.966	24237.36
710.31	24289.56
710.654	24155.78
710.998	24097.47
711.342	24192.39
711.687	24091.15
712.031	23949
712.375	23937.93
712.719	23977.02
713.063	23944.26
713.407	23867.2
713.75	23818.39
714.094	23802.11
714.438	23558.5
714.782	23714.88
715.125	23545.85
715.469	23616.58
715.812	23463.82
716.156	23376.81
716.499	23372.75
716.843	23437.6
717.186	23284.61
717.53	23337.49
717.873	23395.8
718.216	23244.16
718.559	23024.28
718.902	23019.99
719.246	23092.75
719.589	22966.88
719.932	22958.07
720.275	22882.36
720.617	22732.31
720.96	22798.3
721.303	22736.15
721.646	22687.57
721.989	22570.73
722.331	22719.43
722.674	22542.26
723.016	22521.7
723.359	22457.52
723.701	22483.5
724.044	22472.88
724.386	22175.72
724.729	22406.67
725.071	22325.77
725.413	22310.18
725.755	22142.5
726.097	22121.48
726.439	22049.84
726.782	21961.94
727.124	22066.34
727.465	22076.74
727.807	21977.98
728.149	21915.38
728.491	21836.97
728.833	21893.46
729.175	21789.29
729.516	21706.8
729.858	21687.59
730.199	21747.93
730.541	21698.67
730.882	21633.58
731.224	21672.68
731.565	21515.39
731.906	21474.04
732.248	21462.97
732.589	21512
732.93	21349.3
733.271	21354.72
733.612	21385.68
733.953	21340.48
734.294	21290.09
734.635	21173.26
734.976	21233.59
735.317	21130.09
735.658	21147.95
735.999	21156.31
736.339	21071.56
736.68	21181.39
737.021	21113.6
737.361	20985.47
737.702	21016.2
738.042	20890.33
738.383	20910.44
738.723	20961.96
739.063	20812.81
739.404	20794.96
739.744	20827.96
740.084	20661.86
740.424	20763.32
740.764	20723.78
741.104	20739.14
741.444	20696.66
741.784	20515.65
742.124	20666.15
742.464	20515.42
742.804	20556.78
743.143	20449.66
743.483	20477.23
743.823	20345.93
744.162	20347.97
744.502	20475.65
744.841	20244.69
745.181	20294.86
745.52	20247.18
745.86	20110.69
746.199	20092.16
746.538	20168.31
746.877	20093.29
747.216	20133.06
747.556	19987.3
747.895	20031.59
748.234	19963.12
748.573	19877.92
748.911	19939.62
749.25	19856.91
749.589	19790.02
749.928	19870.24
750.267	19852.16
750.605	19779.85
750.944	19665.73
751.283	19551.38
751.621	19617.59
751.96	19589.34
752.298	19491.95
752.636	19533.3
752.975	19368.78
753.313	19324.94
753.651	19372.4
753.989	19345.28
754.327	19206.53
754.666	19175.34
