Data from white_poster_card_FLMS001491_00005.txt Node
Date: Wed Feb 08 11:50:57 GMT 2017
User: dcchb
Spectrometer: FLMS00149
Trigger mode: 0
Integration Time (sec): 2.000000E-2
Scans to average: 10
Electric dark correction enabled: true
Nonlinearity correction enabled: false
Boxcar width: 0
XAxis mode: Wavelengths
Number of Pixels in Spectrum: 2048
>>>>>Begin Spectral Data<<<<<
341.393	-9.51
341.776	-9.51
342.16	-9.51
342.543	-36.85
342.927	-62.16
343.31	-76.17
343.693	-72.55
344.077	-67.13
344.46	-59.22
344.843	-58.09
345.226	-44.31
345.61	-1.37
345.993	-23.29
346.376	-0.47
346.759	2.25
347.142	36.37
347.525	37.72
347.908	69.36
348.291	68.68
348.674	82.92
349.057	105.29
349.44	125.63
349.823	143.94
350.206	174.67
350.588	216.7
350.971	234.33
351.354	246.76
351.737	251.5
352.119	268
352.502	271.17
352.884	291.28
353.267	268.91
353.65	302.58
354.032	313.65
354.414	336.7
354.797	324.95
355.179	361.11
355.562	326.3
355.944	331.05
356.326	346.42
356.709	352.29
357.091	352.97
357.473	349.13
357.855	338.06
358.238	360.65
358.62	360.43
359.002	337.83
359.384	355.23
359.766	332.41
360.148	351.16
360.53	349.13
360.912	337.6
361.294	374.21
361.676	356.59
362.057	345.06
362.439	343.25
362.821	333.54
363.203	312.07
363.584	346.64
363.966	321.79
364.348	345.06
364.729	335.57
365.111	341.45
365.493	330.6
365.874	310.49
366.256	350.49
366.637	298.74
367.019	343.48
367.4	327.89
367.781	326.76
368.163	333.08
368.544	329.24
368.925	345.06
369.306	356.81
369.688	320.88
370.069	336.47
370.45	311.16
370.831	321.56
371.212	327.66
371.593	327.66
371.974	327.43
372.355	348
372.736	330.37
373.117	344.61
373.498	327.43
373.879	329.47
374.26	338.73
374.641	322.24
375.021	331.95
375.402	329.02
375.783	321.33
376.163	336.7
376.544	328.56
376.925	333.54
377.305	354.1
377.686	351.84
378.066	333.31
378.447	357.04
378.827	350.71
379.208	359.98
379.588	328.79
379.968	364.95
380.349	351.16
380.729	349.36
381.109	372.41
381.489	385.06
381.87	349.13
382.25	352.52
382.63	380.99
383.01	370.82
383.39	365.85
383.77	363.14
384.15	353.87
384.53	366.3
384.91	387.32
385.29	359.75
385.67	393.42
386.049	363.59
386.429	406.08
386.809	373.08
387.189	397.04
387.568	384.61
387.948	386.19
388.328	381.67
388.707	385.29
389.087	407.88
389.466	375.8
389.846	401.33
390.225	395.68
390.605	407.21
390.984	406.75
391.363	418.51
391.743	424.16
392.122	424.16
392.501	418.73
392.881	428
393.26	427.32
393.639	435.23
394.018	438.84
394.397	425.51
394.776	442.23
395.155	456.47
395.534	453.31
395.913	434.55
396.292	445.62
396.671	465.51
397.05	472.97
397.429	453.31
397.808	456.47
398.186	474.32
398.565	456.92
398.944	468.45
399.323	463.25
399.701	457.6
400.08	453.53
400.458	483.81
400.837	467.54
401.215	478.39
401.594	470.48
401.972	489.24
402.351	509.35
402.729	502.57
403.107	506.87
403.486	484.49
403.864	507.32
404.242	505.74
404.62	523.36
404.999	537.37
405.377	518.84
405.755	526.53
406.133	522.46
406.511	540.99
406.889	568.11
407.267	552.97
407.645	602.68
408.023	575.56
408.401	596.13
408.779	589.57
409.156	614.21
409.534	594.77
409.912	641.1
410.29	665.73
410.667	660.99
411.045	672.51
411.422	668.44
411.8	747.54
412.178	686.3
412.555	710.7
412.933	726.29
413.31	748.21
413.687	762
414.065	782.34
414.442	771.49
414.819	827.08
415.197	808.1
415.574	833.64
415.951	869.79
416.328	871.15
416.705	893.3
417.082	911.6
417.46	920.87
417.837	938.27
418.214	948.21
418.591	985.27
418.967	984.14
419.344	999.96
419.721	1006.06
420.098	1038.38
420.475	1029.79
420.852	1058.72
421.228	1088.32
421.605	1064.36
421.982	1108.88
422.358	1128.09
422.735	1123.35
423.111	1147.07
423.488	1198.6
423.864	1191.59
424.241	1227.75
424.617	1261.2
424.994	1221.2
425.37	1234.98
425.746	1270.91
426.123	1286.96
426.499	1307.07
426.875	1327.63
427.251	1343
427.627	1377.35
428.003	1407.86
428.379	1415.99
428.756	1450.34
429.132	1466.39
429.507	1476.33
429.883	1480.4
430.259	1514.97
430.635	1549.32
431.011	1527.4
431.387	1574.86
431.763	1605.37
432.138	1631.58
432.514	1650.34
432.89	1693.73
433.265	1698.25
433.641	1735.08
434.016	1729.88
434.392	1773.72
434.767	1797.68
435.143	1813.5
435.518	1837.68
435.894	1831.12
436.269	1884
436.644	1926.04
437.02	1905.7
437.395	1935.53
437.77	1952.7
438.145	2013.27
438.52	2006.03
438.895	2011.46
439.271	2041.06
439.646	2080.16
440.021	2078.12
440.395	2119.93
440.77	2110.21
441.145	2128.52
441.52	2176.43
441.895	2153.83
442.27	2132.81
442.645	2169.87
443.019	2236.09
443.394	2184.34
443.769	2242.41
444.143	2244.45
444.518	2305.46
444.892	2283.54
445.267	2284.67
445.641	2323.09
446.016	2300.94
446.39	2296.42
446.764	2361.05
447.139	2324.44
447.513	2357.66
447.887	2380.49
448.262	2414.16
448.636	2411.45
449.01	2474.27
449.384	2441.28
449.758	2484.89
450.132	2478.79
450.506	2484.67
450.88	2533.93
451.254	2547.26
451.628	2559.01
452.002	2578.22
452.376	2633.81
452.75	2643.98
453.123	2666.13
453.497	2719.91
453.871	2731.67
454.244	2783.42
454.618	2776.86
454.992	2830.65
455.365	2836.52
455.739	2921.72
456.112	2926.01
456.486	2949.29
456.859	3010.08
457.232	3024.31
457.606	3038.1
457.979	3057.31
458.352	3098.66
458.725	3175.04
459.099	3201.48
459.472	3254.82
459.845	3300.92
460.218	3297.53
460.591	3299.11
460.964	3325.55
461.337	3440.57
461.71	3478.09
462.083	3539.33
462.456	3531.87
462.829	3532.55
463.201	3598.99
463.574	3634.92
463.947	3643.51
464.32	3716.95
464.692	3770.06
465.065	3845.99
465.438	3855.93
465.81	3908.81
466.183	3960.79
466.555	3983.84
466.928	4082.14
467.3	4065.42
467.672	4128.46
468.045	4221.57
468.417	4293.88
468.789	4258.86
469.161	4310.61
469.534	4383.37
469.906	4435.12
470.278	4546.31
470.65	4554.89
471.022	4642.35
471.394	4698.62
471.766	4755.12
472.138	4806.41
472.51	4881.21
472.882	4986.52
473.253	5035.33
473.625	5075.78
473.997	5224.26
474.369	5184.48
474.74	5293.41
475.112	5360.07
475.484	5431.48
475.855	5560.52
476.227	5598.26
476.598	5755.99
476.97	5802.55
477.341	5944.69
477.713	6016.55
478.084	6070.79
478.455	6209.77
478.827	6255.87
479.198	6408.18
479.569	6454.96
479.94	6619.92
480.311	6603.2
480.682	6855.4
481.053	7033.47
481.424	7027.82
481.795	7148.95
482.166	7272.11
482.537	7271.21
482.908	7540.8
483.279	7576.96
483.65	7760.91
484.021	7846.11
484.391	7959.55
484.762	8010.17
485.133	8080
485.503	8193.89
485.874	8350.73
486.244	8429.82
486.615	8622.36
486.985	8697.38
487.356	8826.19
487.726	8921.11
488.097	9131.27
488.467	9170.59
488.837	9369.23
489.207	9489
489.578	9576.46
489.948	9688.09
490.318	9775.55
490.688	9825.49
491.058	10034.98
491.428	10166.72
491.798	10250.79
492.168	10474.06
492.538	10452.37
492.908	10642.19
493.278	10760.61
493.648	10802.19
494.017	10915.63
494.387	11014.39
494.757	11094.38
495.126	11245.34
495.496	11227.26
495.866	11468.16
496.235	11562.62
496.605	11630.87
496.974	11697.53
497.344	11799.68
497.713	11881.71
498.082	12022.95
498.452	12084.64
498.821	12142.49
499.19	12259.78
499.559	12410.28
499.928	12431.75
500.298	12426.1
500.667	12697.96
501.036	12678.52
501.405	12783.38
501.774	12784.73
502.143	12942.47
502.512	12976.14
502.88	13090.04
503.249	13068.79
503.618	13260.65
503.987	13321.22
504.356	13474.89
504.724	13525.05
505.093	13628.78
505.462	13685.73
505.83	13748.32
506.199	13835.55
506.567	14079.84
506.936	14056.57
507.304	14188.54
507.672	14288.2
508.041	14404.13
508.409	14508.53
508.777	14664.23
509.145	14736.77
509.514	14701.75
509.882	14890.44
510.25	14940.61
510.618	15097.67
510.986	15160.94
511.354	15315.97
511.722	15362.97
512.09	15563.64
512.458	15538.79
512.826	15812
513.193	15865.56
513.561	15859.23
513.929	15995.5
514.297	16152.1
514.664	16265.77
515.032	16373.79
515.4	16517.07
515.767	16652.66
516.135	16611.98
516.502	16680.68
516.869	17059.88
517.237	17056.71
517.604	17008.13
517.972	17169.03
518.339	17401.56
518.706	17355.46
519.073	17528.79
519.44	17673.42
519.808	17850.82
520.175	17838.16
520.542	18197.93
520.909	18333.29
521.276	18224.59
521.643	18441.53
522.009	18607.86
522.376	18772.83
522.743	18966.94
523.11	19131.69
523.477	19309.99
523.843	19294.85
524.21	19555.63
524.577	19730.09
524.943	19815.06
525.31	19980.93
525.676	20175.5
526.043	20213.92
526.409	20352.9
526.776	20592.21
527.142	20709.95
527.508	20791.98
527.874	21010.05
528.241	21082.6
528.607	21075.82
528.973	21480.78
529.339	21390.61
529.705	21653.65
530.071	21727.55
530.437	21876.47
530.803	21988.79
531.169	22186.52
531.535	22154.66
531.901	22322.34
532.267	22414.31
532.632	22601.2
532.998	22569.34
533.364	22838.26
533.73	22879.16
534.095	23104.24
534.461	23177.23
534.826	23258.13
535.192	23374.51
535.557	23556.2
535.923	23482.98
536.288	23633.49
536.653	23800.04
537.019	23717.55
537.384	23777.67
537.749	23983.31
538.114	24063.08
538.479	24209.52
538.845	24270.31
539.21	24283.87
539.575	24403.19
539.94	24356.86
540.305	24750.97
540.67	24694.03
541.034	24723.63
541.399	24924.08
541.764	24965.21
542.129	25007.46
542.494	25110.29
542.858	25276.38
543.223	25169.95
543.587	25493.78
543.952	25529.48
544.316	25502.59
544.681	25532.2
545.045	25741.23
545.41	25989.36
545.774	25934.45
546.138	26063.71
546.503	25984.61
546.867	26167.43
547.231	26265.74
547.595	26363.36
547.959	26461.44
548.324	26503.92
548.688	26639.06
549.052	26679.28
549.416	26660.53
549.779	26791.6
550.143	26848.55
550.507	27107.07
550.871	27119.05
551.235	27113.62
551.599	27507.29
551.962	27567.62
552.326	27501.64
552.689	27667.51
553.053	27581.86
553.417	27788.18
553.78	28134.39
554.143	27948.86
554.507	28136.42
554.87	28287.38
555.234	28436.75
555.597	28488.73
555.96	28598.33
556.323	28802.84
556.686	28804.2
557.05	29026.12
557.413	29017.75
557.776	29104.98
558.139	29338.65
558.502	29348.82
558.865	29494.13
559.228	29702.48
559.59	29734.12
559.953	29874.68
560.316	30259.3
560.679	30201
561.041	30350.6
561.404	30503.59
561.767	30725.96
562.129	30589.46
562.492	30918.27
562.854	31006.85
563.217	31159.17
563.579	31153.74
563.941	31391.25
564.304	31491.59
564.666	31774.52
565.028	31796.44
565.39	31971.35
565.753	32201.4
566.115	32176.99
566.477	32282.3
566.839	32316.42
567.201	32600.71
567.563	32647.04
567.925	32952.79
568.287	32804.55
568.648	32988.05
569.01	33284.99
569.372	33254.48
569.734	33308.26
570.095	33551.42
570.457	33705.99
570.819	33810.85
571.18	33790.51
571.542	33997.74
571.903	34021.46
572.265	34251.06
572.626	34247.45
572.987	34340.1
573.349	34455.35
573.71	34571.51
574.071	34550.49
574.432	34751.61
574.794	34949.35
575.155	35006.75
575.516	35000.65
575.877	35059.85
576.238	35047.65
576.599	35265.27
576.96	35251.94
577.32	35400.41
577.681	35494.87
578.042	35526.96
578.403	35665.49
578.763	35662.78
579.124	35708.43
579.485	35795.43
579.845	35910
580.206	35801.08
580.566	35879.04
580.927	35879.72
581.287	35990.45
581.648	35813.73
582.008	36109.09
582.368	35975.76
582.728	36090.79
583.089	35984.35
583.449	36143.67
583.809	36155.65
584.169	36107.29
584.529	36083.78
584.889	36408.07
585.249	36172.37
585.609	36037.91
585.969	36293.04
586.329	36188.64
586.688	36156.55
587.048	36253.72
587.408	36195.87
587.768	36183.44
588.127	36102.54
588.487	36078.13
588.846	36375.53
589.206	36185.7
589.565	36251.91
589.925	36355.87
590.284	36386.6
590.643	36473.6
591.003	36342.53
591.362	36568.74
591.721	36473.83
592.08	36375.98
592.44	36547.05
592.799	36588.63
593.158	36377.79
593.517	36479.7
593.876	36524.9
594.235	36432.47
594.593	36406.49
594.952	36522.42
595.311	36342.08
595.67	36566.93
596.029	36800.15
596.387	36654.62
596.746	36728.06
597.104	36594.73
597.463	36689.42
597.822	36755.86
598.18	36577.33
598.538	36729.64
598.897	37006.24
599.255	36732.58
599.613	37182.51
599.972	36944.55
600.33	37073.36
600.688	36777.78
601.046	37031.33
601.404	37156.07
601.762	36936.87
602.12	37132.57
602.478	37167.82
602.836	37104.77
603.194	36966.25
603.552	37114.49
603.91	36996.75
604.268	37279.68
604.625	37093.47
604.983	37281.49
605.341	37067.49
605.698	37276.07
606.056	37474.48
606.413	37440.36
606.771	37464.31
607.128	37465.44
607.485	37312.9
607.843	37570.75
608.2	37641.48
608.557	37762.83
608.914	37599
609.272	37860.69
609.629	37797.41
609.986	37958.31
610.343	37697.07
610.7	37950.4
611.057	37918.54
611.414	37841.25
611.771	37933.9
612.127	38030.4
612.484	38024.07
612.841	38262.03
613.198	38028.59
613.554	38062.26
613.911	38266.55
614.267	38229.04
614.624	38182.71
614.98	38315.81
615.337	38540.44
615.693	38411.41
616.05	38396.94
616.406	38541.57
616.762	38451.18
617.118	38406.21
617.475	38462.03
617.831	38602.36
618.187	38573.89
618.543	38738.18
618.899	38835.12
619.255	38612.3
619.611	38746.31
619.967	38799.19
620.323	38926.65
620.678	38781.79
621.034	38573.89
621.39	38638.74
621.746	38680.55
622.101	39150.82
622.457	38815.01
622.812	38863.6
623.168	38885.29
623.523	38876.25
623.879	39049.13
624.234	38745.86
624.589	38897.04
624.945	38825.41
625.3	38931.39
625.655	38946.08
626.01	38822.47
626.365	38929.13
626.72	38821.11
627.075	38795.35
627.43	38753.32
627.785	38669.03
628.14	38845.29
628.495	38816.82
628.85	38754
629.205	38549.48
629.559	38775.92
629.914	38636.94
630.269	38779.53
630.623	38477.62
630.978	38491.4
631.332	38546.54
631.687	38651.85
632.041	38450.73
632.396	38645.75
632.75	38453.21
633.104	38433.55
633.459	38242.82
633.813	38280.34
634.167	38196.04
634.521	38292.09
634.875	38274.69
635.229	38238.98
635.583	37989.27
635.937	37903.4
636.291	37901.14
636.645	37876.96
636.999	38027.23
637.352	37994.24
637.706	37694.36
638.06	37740.91
638.413	37666.34
638.767	37648.71
639.121	37647.58
639.474	37437.87
639.828	37509.51
640.181	37520.58
640.534	37541.37
640.888	37533.46
641.241	37307.71
641.594	37279.23
641.947	37299.12
642.301	37211.66
642.654	37215.5
643.007	37289.4
643.36	37236.52
643.713	37268.38
644.066	37257.54
644.419	36991.78
644.771	36816.19
645.124	36498.01
645.477	36355.19
645.83	36149.77
646.182	36096.89
646.535	35866.61
646.888	35889.89
647.24	35769.67
647.593	35857.57
647.945	35834.07
648.298	35591.82
648.65	35585.49
649.002	35519.05
649.355	35584.13
649.707	35455.55
650.059	35608.32
650.411	36020.73
650.763	36108.64
651.115	36428.41
651.467	36305.47
651.819	36261.86
652.171	36199.03
652.523	36137.57
652.875	36041.3
653.227	35993.84
653.578	36228.41
653.93	36114.52
654.282	35710.69
654.633	35838.59
654.985	35874.75
655.337	35841.76
655.688	35933.73
656.039	36045.37
656.391	35604.47
656.742	35798.82
657.094	35699.84
657.445	35862.32
657.796	35750.23
658.147	35638.82
658.498	35651.48
658.849	35606.51
659.2	35564.7
659.551	35424.14
659.902	35496.23
660.253	35373.75
660.604	35523.12
660.955	35369
661.306	35447.64
661.656	35329.23
662.007	35300.07
662.358	35369.23
662.708	35328.1
663.059	35295.33
663.409	35152.28
663.76	35356.57
664.11	35287.19
664.461	35277.48
664.811	35310.47
665.161	35273.86
665.511	35223.69
665.862	35271.37
666.212	35231.38
666.562	35323.35
666.912	35274.09
667.262	35238.83
667.612	35155.67
667.962	35154.99
668.312	35016.92
668.662	35192.51
669.011	35149.57
669.361	35112.73
669.711	34971.95
670.06	34849.92
670.41	34985.51
670.76	34807.88
671.109	34996.13
671.459	34968.11
671.808	34699.19
672.157	34895.34
672.507	34691.96
672.856	34729.24
673.205	34789.13
673.554	34787.55
673.904	34578.96
674.253	34809.69
674.602	34643.14
674.951	34263.72
675.3	33976.49
675.649	34499.64
675.998	34484.95
676.346	34527.21
676.695	34700.99
677.044	34359.31
677.393	34437.05
677.741	34502.13
678.09	34438.63
678.438	34255.36
678.787	34374.45
679.135	34247.9
679.484	34143.95
679.832	34218.3
680.181	34061.92
680.529	34072.99
680.877	33894.24
681.225	33901.24
681.573	34147.56
681.922	33907.12
682.27	33703.73
682.618	33847.46
682.966	33718.65
683.314	33822.15
683.661	33601.14
684.009	33492.66
684.357	33479.11
684.705	33398.88
685.053	33505.32
685.4	33360.46
685.748	33214.25
686.095	33282.73
686.443	33171.32
686.79	33033.24
687.138	33149.17
687.485	33135.16
687.832	32983.75
688.18	32951.89
688.527	32828.95
688.874	32707.15
689.221	32689.75
689.568	32574.72
689.915	32548.73
690.262	32511.67
690.609	32336.31
690.956	32179.48
691.303	32206.14
691.65	32031.23
691.997	32063.78
692.344	31819.94
692.69	31877.57
693.037	31879.15
693.383	31556.44
693.73	31728.64
694.077	31436.67
694.423	31581.3
694.769	31424.02
695.116	31298.6
695.462	31171.82
695.808	31183.12
696.155	31160.97
696.501	31083.91
696.847	30900.42
697.193	30703.13
697.539	30969.34
697.885	30524.83
698.231	30595.57
698.577	30645.51
698.923	30452.97
699.269	30341.33
699.614	30334.56
699.96	29992.19
700.306	30214.78
700.651	29980.44
700.997	29880.78
701.342	29735.93
701.688	29776.83
702.033	29771.41
702.379	29615.03
702.724	29575.93
703.069	29618.19
703.415	29209.61
703.76	29392.89
704.105	29385.2
704.45	29205.32
704.795	29043.29
705.14	28940.47
705.485	28945.21
705.83	28761.26
706.175	28869.96
706.52	28673.13
706.865	28716.29
707.209	28541.61
707.554	28481.27
707.899	28530.76
708.243	28321.73
708.588	28230.88
708.932	28123.77
709.277	28180.71
709.621	28137.1
709.966	27949.31
710.31	28117.44
710.654	27688.3
710.998	27933.26
711.342	27777.79
711.687	27771.23
712.031	27550.67
712.375	27524.01
712.719	27525.59
713.063	27528.08
713.407	27574.4
713.75	27357.46
714.094	27380.06
714.438	27415.08
714.782	27234.75
715.125	27172.38
715.469	27127.18
715.812	27013.29
716.156	26948.43
716.499	26874.53
716.843	26883.8
717.186	26851.94
717.53	26817.36
717.873	26884.7
718.216	26693.07
718.559	26662.56
718.902	26388.22
719.246	26520.19
719.589	26419.4
719.932	26161.33
720.275	26352.06
720.617	26296.7
720.96	26209.24
721.303	26249.24
721.646	26130.6
721.989	25965.18
722.331	26267.54
722.674	26091.28
723.016	26007.44
723.359	25969.47
723.701	25999.98
724.044	25854.67
724.386	25580.56
724.729	25758.18
725.071	25671.85
725.413	25772.42
725.755	25576.94
726.097	25566.09
726.439	25419.2
726.782	25422.82
727.124	25518.86
727.465	25444.29
727.807	25335.36
728.149	25200.45
728.491	25237.29
728.833	25226.67
729.175	25135.82
729.516	24983.74
729.858	25163.84
730.199	25058.31
730.541	25010.63
730.882	24860.58
731.224	25068.71
731.565	24896.96
731.906	24861.03
732.248	24875.72
732.589	24660.81
732.93	24687.02
733.271	24627.59
733.612	24679.11
733.953	24616.97
734.294	24477.99
734.635	24541.04
734.976	24534.71
735.317	24432.11
735.658	24362.96
735.999	24319.8
736.339	24173.59
736.68	24382.62
737.021	24218.56
737.361	24163.87
737.702	24379.68
738.042	24077.77
738.383	24085.23
738.723	24054.95
739.063	23873.03
739.404	24014.27
739.744	24074.83
740.084	23969.75
740.424	23824.44
740.764	23832.13
741.104	23988.28
741.444	23795.52
741.784	23557.33
742.124	23720.27
742.464	23536.09
742.804	23600.04
743.143	23602.98
743.483	23533.6
743.823	23444.34
744.162	23389.43
744.502	23363.89
744.841	23239.83
745.181	23502.42
745.52	23275.08
745.86	23290.67
746.199	23085.71
746.538	23132.03
746.877	23262.2
747.216	23192.6
747.556	23094.52
747.895	23058.36
748.234	23000.06
748.573	22939.95
748.911	22875.77
749.25	22807.07
749.589	22729.33
749.928	22755.09
750.267	22731.37
750.605	22622.44
750.944	22623.35
751.283	22567.75
751.621	22710.58
751.96	22424.03
752.298	22549.68
752.636	22396.69
752.975	22375.67
753.313	22317.37
753.651	22400.3
753.989	22241.43
