Data from white_steel_sheet_FLMS001491_020.txt Node
Date: Tue Feb 07 10:57:29 GMT 2017
User: dcchb
Spectrometer: FLMS00149
Trigger mode: 0
Integration Time (sec): 2.000000E-2
Scans to average: 10
Electric dark correction enabled: true
Nonlinearity correction enabled: false
Boxcar width: 0
XAxis mode: Wavelengths
Number of Pixels in Spectrum: 2048
>>>>>Begin Spectral Data<<<<<
341.393	-5.38
341.776	-5.38
342.16	-5.38
342.543	-68.2
342.927	-87.64
343.31	-55.78
343.693	-72.27
344.077	-56.23
344.46	-46.51
344.843	-59.39
345.226	-44.02
345.61	-45.61
345.993	-13.52
346.376	13.15
346.759	0.72
347.142	17.22
347.525	38.46
347.908	54.05
348.291	58.8
348.674	103.32
349.057	107.61
349.44	117.78
349.823	145.12
350.206	166.37
350.588	209.98
350.971	227.38
351.354	230.09
351.737	227.83
352.119	263.99
352.502	250.66
352.884	276.87
353.267	280.49
353.65	286.59
354.032	325.01
354.414	309.86
354.797	326.59
355.179	321.62
355.562	315.97
355.944	325.91
356.326	332.69
356.709	331.79
357.091	334.72
357.473	341.5
357.855	355.97
358.238	350.09
358.62	357.55
359.002	337.21
359.384	337.66
359.766	346.7
360.148	350.09
360.53	337.21
360.912	339.24
361.294	337.89
361.676	346.93
362.057	338.34
362.439	348.28
362.821	346.7
363.203	340.6
363.584	325.68
363.966	318.9
364.348	331.11
364.729	337.43
365.111	343.99
365.493	324.78
365.874	306.25
366.256	313.03
366.637	318.68
367.019	315.74
367.4	321.62
367.781	317.55
368.163	321.39
368.544	319.36
368.925	303.31
369.306	330.2
369.688	325.46
370.069	345.57
370.45	319.58
370.831	308.28
371.212	340.15
371.593	308.28
371.974	317.77
372.355	327.04
372.736	321.39
373.117	314.61
373.498	334.72
373.879	310.99
374.26	329.53
374.641	348.73
375.021	343.76
375.402	328.17
375.783	334.5
376.163	370.88
376.544	345.12
376.925	340.37
377.305	339.69
377.686	354.61
378.066	357.32
378.447	361.39
378.827	345.57
379.208	351.67
379.588	366.59
379.968	371.11
380.349	345.8
380.729	362.52
381.109	362.52
381.489	374.27
381.87	373.82
382.25	365.68
382.63	360.26
383.01	369.3
383.39	343.31
383.77	364.33
384.15	377.66
384.53	376.08
384.91	365.91
385.29	421.27
385.67	378.79
386.049	377.89
386.429	373.14
386.809	392.35
387.189	395.96
387.568	400.71
387.948	387.15
388.328	398
388.707	415.4
389.087	398.22
389.466	405.46
389.846	406.36
390.225	425.79
390.605	443.42
390.984	433.03
391.363	433.48
391.743	422.4
392.122	427.6
392.501	455.85
392.881	449.07
393.26	439.13
393.639	468.5
394.018	448.84
394.397	467.6
394.776	476.64
395.155	450.65
395.534	453.36
395.913	465.11
396.292	473.02
396.671	481.16
397.05	500.14
397.429	503.31
397.808	492.91
398.186	521.61
398.565	503.53
398.944	509.41
399.323	506.7
399.701	522.06
400.08	525.45
400.458	520.71
400.837	543.08
401.215	546.02
401.594	552.57
401.972	566.36
402.351	567.94
402.729	562.74
403.107	585.34
403.486	603.42
403.864	617.65
404.242	627.14
404.62	623.08
404.999	597.31
405.377	637.54
405.755	634.6
406.133	673.92
406.511	663.3
406.889	663.3
407.267	689.06
407.645	710.53
408.023	685.22
408.401	717.54
408.779	739.01
409.156	756.86
409.534	741.94
409.912	760.47
410.29	788.04
410.667	782.17
411.045	806.12
411.422	795.05
411.8	807.93
412.178	824.2
412.555	853.13
412.933	831.43
413.31	848.83
413.687	871.43
414.065	882.05
414.442	897.42
414.819	905.33
415.197	884.31
415.574	918.21
415.951	934.03
416.328	923.18
416.705	942.39
417.082	954.59
417.46	959.79
417.837	965.89
418.214	979.23
418.591	970.86
418.967	1007.93
419.344	1015.16
419.721	1026.68
420.098	1040.92
420.475	1058.09
420.852	1081.82
421.228	1076.17
421.605	1110.75
421.982	1096.28
422.358	1105.55
422.735	1133.35
423.111	1117.3
423.488	1143.06
423.864	1142.16
424.241	1169.5
424.617	1159.79
424.994	1164.08
425.37	1187.58
425.746	1235.26
426.123	1227.58
426.499	1210.63
426.875	1238.65
427.251	1289.05
427.627	1255.83
428.003	1290.63
428.379	1307.13
428.756	1302.61
429.132	1329.72
429.507	1359.55
429.883	1344.87
430.259	1398.88
430.635	1396.62
431.011	1437.29
431.387	1471.87
431.763	1467.57
432.138	1481.81
432.514	1481.36
432.89	1508.25
433.265	1524.75
433.641	1574.69
434.016	1575.14
434.392	1599.32
434.767	1628.93
435.143	1625.54
435.518	1631.64
435.894	1666.89
436.269	1676.83
436.644	1701.69
437.02	1720.45
437.395	1765.65
437.77	1742.82
438.145	1791.41
438.52	1793.89
438.895	1826.44
439.271	1819.43
439.646	1867.34
440.021	1887.9
440.395	1864.63
440.77	1915.02
441.145	1908.24
441.52	1927.22
441.895	1941.01
442.27	1959.76
442.645	1971.52
443.019	1987.79
443.394	1993.89
443.769	2011.51
444.143	2014.9
444.518	2064.39
444.892	2026.2
445.267	2082.93
445.641	2099.2
446.016	2115.69
446.39	2131.51
446.764	2157.5
447.139	2119.76
447.513	2187.56
447.887	2199.53
448.262	2188.01
448.636	2188.01
449.01	2239.31
449.384	2229.14
449.758	2269.59
450.132	2303.94
450.506	2351.17
450.88	2301.45
451.254	2336.48
451.628	2392.97
452.002	2414.67
452.376	2428.45
452.75	2437.49
453.123	2468
453.497	2505.97
453.871	2542.35
454.244	2584.83
454.618	2554.78
454.992	2625.06
455.365	2636.81
455.739	2676.58
456.112	2715
456.486	2688.33
456.859	2760.2
457.232	2818.05
457.606	2838.39
457.979	2860.76
458.352	2904.82
458.725	2940.08
459.099	2998.61
459.472	3049.45
459.845	3050.58
460.218	3071.37
460.591	3096.23
460.964	3120.64
461.337	3215.33
461.71	3225.49
462.083	3254.65
462.456	3264.82
462.829	3321.54
463.201	3322.89
463.574	3359.95
463.947	3421.2
464.32	3482.89
464.692	3506.39
465.065	3533.96
465.438	3600.85
465.81	3643.79
466.183	3678.36
466.555	3777.12
466.928	3760.4
467.3	3728.76
467.672	3848.53
468.045	3910.67
468.417	3921.75
468.789	3952.25
469.161	3987.28
469.534	4087.84
469.906	4125.58
470.278	4180.95
470.65	4264.56
471.022	4351.79
471.394	4403.54
471.766	4493.26
472.138	4495.97
472.51	4585.68
472.882	4627.27
473.253	4752.69
473.625	4761.95
473.997	4838.79
474.369	4895.05
474.74	4915.17
475.112	5038.55
475.484	5126.46
475.855	5208.94
476.227	5248.49
476.598	5396.96
476.97	5489.39
477.341	5587.47
477.713	5603.28
478.084	5636.28
478.455	5814.8
478.827	5884.63
479.198	6015.48
479.569	6000.56
479.94	6218.18
480.311	6296.83
480.682	6448.23
481.053	6563.26
481.424	6662.47
481.795	6713.09
482.166	6840.54
482.537	6949.46
482.908	7059.29
483.279	7111.72
483.65	7212.51
484.021	7437.59
484.391	7458.6
484.762	7547.19
485.133	7634.87
485.503	7769.78
485.874	7915.09
486.244	7937.91
486.615	8104.24
486.985	8177.68
487.356	8393.95
487.726	8478.92
488.097	8626.26
488.467	8620.61
488.837	8858.34
489.207	8974.04
489.578	9019.01
489.948	9142.85
490.318	9270.53
490.688	9303.3
491.058	9450.64
491.428	9584.42
491.798	9712.78
492.168	9910.74
492.538	9889.73
492.908	10102.6
493.278	10200.23
493.648	10182.15
494.017	10303.05
494.387	10432.54
494.757	10487
495.126	10632.98
495.496	10690.38
495.866	10821
496.235	10885.41
496.605	11004.27
496.974	11074.78
497.344	11190.03
497.713	11291.27
498.082	11326.07
498.452	11438.84
498.821	11499.85
499.19	11633.18
499.559	11690.36
499.928	11789.56
500.298	11896.68
500.667	12099.39
501.036	12003.57
501.405	12115.66
501.774	12231.13
502.143	12287.4
502.512	12293.96
502.88	12415.31
503.249	12538.92
503.618	12692.82
503.987	12717.45
504.356	12805.36
504.724	12938.69
505.093	12936.88
505.462	12979.14
505.83	13082.64
506.199	13250.32
506.567	13389.29
506.936	13459.8
507.304	13504.55
507.672	13632
508.041	13671.55
508.409	13839.23
508.777	13966.23
509.145	14032.44
509.514	14068.15
509.882	14236.73
510.25	14266.79
510.618	14347.01
510.986	14443.28
511.354	14570.73
511.722	14742.48
512.09	14925.53
512.458	14799.43
512.826	14980.89
513.193	15059.76
513.561	15185.86
513.929	15271.73
514.297	15425.4
514.664	15488.22
515.032	15654.09
515.4	15753.98
515.767	15850.47
516.135	15944.71
516.502	15861.55
516.869	16224.02
517.237	16295.43
517.604	16219.5
517.972	16473.06
518.339	16599.15
518.706	16701.98
519.073	16694.29
519.44	16904.68
519.808	17041.85
520.175	17157.11
520.542	17385.8
520.909	17413.14
521.276	17534.04
521.643	17761.38
522.009	17951.89
522.376	17999.57
522.743	18073.69
523.11	18290.18
523.477	18456.96
523.843	18528.59
524.21	18825.76
524.577	18917.96
524.943	19048.36
525.31	19126.77
525.676	19344.17
526.043	19463.03
526.409	19482.02
526.776	19786.87
527.142	19790.48
527.508	19999.06
527.874	20084.03
528.241	20145.05
528.607	20352.28
528.973	20539.39
529.339	20489.45
529.705	20814.41
530.071	21025.03
530.437	21040.85
530.803	21089.21
531.169	21270.67
531.535	21146.6
531.901	21385.92
532.267	21525.35
532.632	21698.91
532.998	21742.75
533.364	21877.43
533.73	21928.05
534.095	22033.59
534.461	22100.25
534.826	22255.05
535.192	22428.61
535.557	22609.62
535.923	22479.68
536.288	22674.02
536.653	22748.6
537.019	22791.99
537.384	22840.12
537.749	23030.62
538.114	23097.51
538.479	23190.39
538.845	23161.47
539.21	23249.83
539.575	23337.28
539.94	23469.03
540.305	23772.3
540.67	23766.65
541.034	23882.58
541.399	23869.7
541.764	23902.24
542.129	24057.49
542.494	24047.77
542.858	24171.84
543.223	24229.01
543.587	24436.46
543.952	24367.76
544.316	24528.21
544.681	24527.99
545.045	24747.87
545.41	24887.75
545.774	24924.13
546.138	24884.81
546.503	24960.74
546.867	25027.41
547.231	25268.98
547.595	25229.21
547.959	25275.08
548.324	25304.24
548.688	25514.4
549.052	25537
549.416	25661.51
549.779	25663.1
550.143	25832.58
550.507	25941.06
550.871	26007.72
551.235	26010.88
551.599	26269.63
551.962	26226.47
552.326	26353.25
552.689	26466.92
553.053	26476.63
553.417	26604.31
553.78	26803.18
554.143	26818.32
554.507	26867.36
554.87	27093.79
555.234	27334.01
555.597	27208.82
555.96	27330.85
556.323	27443.84
556.686	27431.19
557.05	27675.92
557.413	27700.78
557.776	27897.61
558.139	28067.55
558.502	28062.36
558.865	28146.87
559.228	28299.64
559.59	28418.28
559.953	28497.82
560.316	28884.03
560.679	28801.32
561.041	29015.1
561.404	29077.92
561.767	29312.72
562.129	29240.4
562.492	29471.36
562.854	29475.43
563.217	29527.4
563.579	29646.04
563.941	29844.46
564.304	29957.22
564.666	30246.48
565.028	30243.54
565.39	30387.27
565.753	30467.94
566.115	30595.62
566.477	30812.34
566.839	30850.98
567.201	31121.26
567.563	31076.06
567.925	31275.83
568.287	31217.75
568.648	31297.07
569.01	31573.22
569.372	31644.41
569.734	31613.45
570.095	31889.6
570.457	32053.66
570.819	32141.57
571.18	32146.54
571.542	32308.12
571.903	32462.24
572.265	32473.76
572.626	32551.73
572.987	32622.46
573.349	32730.26
573.71	32689.8
574.071	32890.93
574.432	33025.84
574.794	33204.37
575.155	33042.34
575.516	32987.42
575.877	33240.3
576.238	33274.42
576.599	33470.8
576.96	33408.88
577.32	33536.79
577.681	33665.15
578.042	33563.91
578.403	33650.91
578.763	33568.65
579.124	33690.23
579.485	33873.05
579.845	33977.23
580.206	33789.89
580.566	33863.56
580.927	33932.03
581.287	34063.55
581.648	33899.04
582.008	33970.67
582.368	34006.83
582.728	34106.04
583.089	34021.75
583.449	33968.87
583.809	34018.81
584.169	34174.74
584.529	33993.95
584.889	34362.53
585.249	34222.65
585.609	33909.66
585.969	34085.02
586.329	34175.64
586.688	34180.61
587.048	34133.61
587.408	34131.8
587.768	34092.71
588.127	34122.31
588.487	34119.37
588.846	34335.86
589.206	34060.39
589.565	34105.59
589.925	34212.25
590.284	34058.58
590.643	34172.7
591.003	34204.79
591.362	34381.06
591.721	34313.26
592.08	34151.69
592.44	34230.78
592.799	34228.07
593.158	34250.44
593.517	34192.36
593.876	34259.93
594.235	34221.52
594.593	34250.22
594.952	34219.03
595.311	34055.19
595.67	34267.39
596.029	34433.94
596.387	34262.87
596.746	34453.37
597.104	34247.28
597.463	34175.19
597.822	34402.08
598.18	34275.75
598.538	34202.31
598.897	34567.5
599.255	34087.06
599.613	34662.63
599.972	34343.32
600.33	34458.12
600.688	34380.83
601.046	34535.41
601.404	34790.54
601.762	34709.86
602.12	34721.84
602.478	34612.92
602.836	34523.65
603.194	34463.77
603.552	34460.61
603.91	34461.74
604.268	34653.37
604.625	34609.08
604.983	34630.09
605.341	34405.01
605.698	34639.81
606.056	34774.27
606.413	34700.6
606.771	34758
607.128	34842.74
607.485	34600.94
607.843	34626.48
608.2	34812.69
608.557	34929.07
608.914	34753.03
609.272	34987.82
609.629	34930.2
609.986	35213.35
610.343	34966.35
610.7	35193.69
611.057	35162.51
611.414	35147.59
611.771	35165.22
612.127	35272.56
612.484	35209.29
612.841	35473.69
613.198	35259.45
613.554	35189.17
613.911	35449.96
614.267	35404.31
614.624	35394.14
614.98	35622.83
615.337	35807.24
615.693	35717.97
616.05	35610.63
616.406	35830.51
616.762	35755.03
617.118	35696.05
617.475	35754.36
617.831	35825.32
618.187	35916.16
618.543	35837.74
618.899	36038.64
619.255	35988.7
619.611	35855.37
619.967	36004.75
620.323	36228.02
620.678	36005.2
621.034	35901.02
621.39	35964.97
621.746	35910.74
622.101	36331.06
622.457	36014.24
622.812	36198.64
623.168	36305.75
623.523	36282.25
623.879	36360.22
624.234	36186.44
624.589	36217.4
624.945	36338.52
625.3	36237.96
625.655	36177.4
626.01	36250.39
626.365	36193.22
626.72	36125.65
627.075	36124.52
627.43	35966.1
627.785	36068.7
628.14	36325.19
628.495	36110.05
628.85	36183.27
629.205	36019.89
629.559	36209.71
629.914	35985.31
630.269	36075.48
630.623	35919.55
630.978	35837.29
631.332	36101.24
631.687	36132.65
632.041	35967.46
632.396	35972.2
632.75	35735.6
633.104	35866.67
633.459	35693.79
633.813	35693.57
634.167	35780.8
634.521	35667.58
634.875	35616.06
635.229	35562.72
635.583	35504.19
635.937	35387.59
636.291	35268.95
636.645	35408.6
636.999	35329.96
637.352	35320.02
637.706	34980.82
638.06	35260.13
638.413	35233.01
638.767	35080.02
639.121	35106.92
639.474	35005.9
639.828	34903.98
640.181	34935.39
640.534	34966.13
640.888	34823.08
641.241	34680.26
641.594	34804.1
641.947	34697.44
642.301	34691.56
642.654	34578.79
643.007	34657.44
643.36	34470.77
643.713	34398.46
644.066	34497.21
644.419	34318.46
644.771	34040.5
645.124	33785.82
645.477	33671.25
645.83	33558.26
646.182	33334.99
646.535	33384.25
646.888	33245.72
647.24	33269
647.593	33261.31
647.945	33273.07
648.298	33183.35
648.65	33130.47
649.002	32999.63
649.355	33094.99
649.707	32979.51
650.059	33022.45
650.411	33580.85
650.763	33654.07
651.115	33936.55
651.467	33858.59
651.819	33795.09
652.171	33627.18
652.523	33753.73
652.875	33621.76
653.227	33409.79
653.578	33789.44
653.93	33586.73
654.282	33388.54
654.633	33388.77
654.985	33486.62
655.337	33342.89
655.688	33424.93
656.039	33545.6
656.391	33226.97
656.742	33259.28
657.094	33236.91
657.445	33476.68
657.796	33217.93
658.147	33122.79
658.498	33165.5
658.849	33227.42
659.2	33088.21
659.551	33111.04
659.902	33108.55
660.253	32937.48
660.604	33008.67
660.955	32850.7
661.306	33012.96
661.656	32906.07
662.007	32910.36
662.358	32879.86
662.708	32724.38
663.059	32560.54
663.409	32426.31
663.76	32707.2
664.11	32672.4
664.461	32592.86
664.811	32482.8
665.161	32441
665.511	32318.97
665.862	32313.54
666.212	32375.01
666.562	32431.73
666.912	32285.97
667.262	32115.13
667.612	32181.8
667.962	32056.37
668.312	31938.41
668.662	32028.8
669.011	31852.76
669.361	31780.9
669.711	31786.33
670.06	31749.94
670.41	31454.58
670.76	31358.31
671.109	31595.37
671.459	31292.33
671.808	31236.51
672.157	31387.92
672.507	30997.42
672.856	30929.4
673.205	31026.57
673.554	31081.49
673.904	30897.31
674.253	31086
674.602	30907.25
674.951	30488.73
675.3	30279.47
675.649	30729.63
675.998	30782.06
676.346	30702.29
676.695	30883.98
677.044	30550.43
677.393	30652.57
677.741	30645.79
678.09	30484.21
678.438	30541.16
678.787	30634.27
679.135	30464.33
679.484	30393.59
679.832	30537.54
680.181	30309.08
680.529	30447.38
680.877	30239.93
681.225	30407.83
681.573	30464.33
681.922	30285.57
682.27	30263.43
682.618	30274.95
682.966	30133.71
683.314	30406.47
683.661	30276.76
684.009	30136.43
684.357	30227.72
684.705	30200.6
685.053	30413.25
685.4	30272.24
685.748	30174.39
686.095	30241.73
686.443	30054.17
686.79	30045.81
687.138	30174.84
687.485	30196.31
687.832	30098.91
688.18	30207.16
688.527	30040.61
688.874	30141.85
689.221	30042.87
689.568	30043.09
689.915	30000.84
690.262	30136.2
690.609	29915.64
690.956	29872.48
691.303	29828.41
691.65	29872.25
691.997	29806.94
692.344	29650.11
692.69	29638.36
693.037	29805.59
693.383	29440.62
693.73	29572.82
694.077	29524.46
694.423	29531.24
694.769	29436.1
695.116	29568.3
695.462	29366.73
695.808	29396.11
696.155	29335.99
696.501	29234.98
696.847	29245.6
697.193	28981.2
697.539	29081.76
697.885	28999.73
698.231	28797.48
698.577	28912.28
698.923	28812.84
699.269	28674.99
699.614	28622.11
699.96	28486.3
700.306	28455.11
700.651	28342.8
700.997	28301.9
701.342	28341.9
701.688	28166.08
702.033	28041.11
702.379	28145.97
702.724	28009.7
703.069	28008.35
703.415	27815.58
703.76	27751.18
704.105	27797.5
704.45	27688.81
704.795	27526.55
705.14	27423.05
705.485	27623.72
705.83	27396.16
706.175	27310.06
706.52	27295.82
706.865	27256.73
707.209	27107.58
707.554	26998.43
707.899	27158.88
708.243	26953.01
708.588	26928.15
708.932	26735.38
709.277	26862.16
709.621	26738.77
709.966	26572.23
710.31	26632.56
710.654	26467.82
710.998	26534.49
711.342	26498.33
711.687	26488.61
712.031	26386.02
712.375	26327.94
712.719	26359.8
713.063	26195.96
713.407	26276.19
713.75	26158.9
714.094	26091.79
714.438	26010.43
714.782	26001.17
715.125	25825.35
715.469	25884.33
715.812	25736.31
716.156	25619.03
716.499	25690.67
716.843	25700.16
717.186	25517.11
717.53	25661.74
717.873	25715.52
718.216	25521.86
718.559	25576.55
718.902	25312.82
719.246	25295.65
719.589	25160.74
719.932	25062.43
720.275	25215.65
720.617	25120.96
720.96	25091.13
721.303	24957.8
721.646	25128.2
721.989	24910.12
722.331	24828.77
722.674	24936.56
723.016	24902.44
723.359	24841.42
723.701	24819.95
724.044	24654.99
724.386	24628.55
724.729	24670.81
725.071	24576.57
725.413	24521.43
725.755	24533.86
726.097	24471.49
726.439	24375.9
726.782	24361.66
727.124	24464.03
727.465	24194.21
727.807	24205.96
728.149	24196.92
728.491	24114.89
728.833	24191.72
729.175	24038.28
729.516	23996.47
729.858	23982.91
730.199	24080.31
730.541	24009.35
730.882	23952.86
731.224	23926.19
731.565	23902.92
731.906	23741.79
732.248	23854.78
732.589	23634
732.93	23589.93
733.271	23619.76
733.612	23613.21
733.953	23547.45
734.294	23382.03
734.635	23398.98
734.976	23404.62
735.317	23413.89
735.658	23389.26
735.999	23282.82
736.339	23218.64
736.68	23372.08
737.021	23302.48
737.361	23152.88
737.702	23144.29
738.042	23101.58
738.383	23086.67
738.723	23115.82
739.063	23014.8
739.404	23102.71
739.744	23029.49
740.084	22965.31
740.424	22990.62
740.764	22850.51
741.104	22848.26
741.444	22682.84
741.784	22717.19
742.124	22751.08
742.464	22724.42
742.804	22705.66
743.143	22588.6
743.483	22552.9
743.823	22417.53
744.162	22497.08
744.502	22524.87
744.841	22374.82
745.181	22475.84
745.52	22255.05
745.86	22352.22
746.199	22228.61
746.538	22216.86
746.877	22180.48
747.216	22200.14
747.556	22141.61
747.895	22212.79
748.234	22067.71
748.573	22025.23
748.911	22013.47
749.25	21978.67
749.589	21844.89
749.928	21941.61
750.267	21856.87
750.605	21758.79
750.944	21700.94
751.283	21680.6
751.621	21825.23
751.96	21591.34
752.298	21654.84
752.636	21474.28
752.975	21607.61
753.313	21372.14
753.651	21442.64
753.989	21387.28
