Data from white_poster_card_FLMS001491_00055.txt Node
Date: Wed Feb 08 11:51:42 GMT 2017
User: dcchb
Spectrometer: FLMS00149
Trigger mode: 0
Integration Time (sec): 2.000000E-2
Scans to average: 10
Electric dark correction enabled: true
Nonlinearity correction enabled: false
Boxcar width: 0
XAxis mode: Wavelengths
Number of Pixels in Spectrum: 2048
>>>>>Begin Spectral Data<<<<<
341.393	-42.36
341.776	-42.36
342.16	-42.36
342.543	-50.27
342.927	-57.72
343.31	-70.61
343.693	-80.1
344.077	-66.99
344.46	-36.03
344.843	-70.61
345.226	-38.52
345.61	-25.86
345.993	-31.96
346.376	0.81
346.759	8.04
347.142	39
347.525	36.74
347.908	41.71
348.291	65.21
348.674	101.14
349.057	128.03
349.44	114.93
349.823	134.81
350.206	163.06
350.588	199.22
350.971	209.16
351.354	252.78
351.737	246.67
352.119	263.62
352.502	267.01
352.884	275.6
353.267	318.31
353.65	295.26
354.032	312.66
354.414	300.91
354.797	320.12
355.179	331.42
355.562	320.12
355.944	311.76
356.326	342.94
356.709	351.76
357.091	334.81
357.473	340.46
357.855	334.58
358.238	361.93
358.62	321.7
359.002	338.42
359.384	328.93
359.766	356.95
360.148	344.52
360.53	338.42
360.912	331.19
361.294	327.35
361.676	364.86
362.057	345.2
362.439	330.06
362.821	328.93
363.203	303.4
363.584	327.58
363.966	306.79
364.348	343.39
364.729	326.22
365.111	340.01
365.493	318.76
365.874	308.59
366.256	317.86
366.637	324.64
367.019	314.47
367.4	322.6
367.781	323.28
368.163	319.21
368.544	320.8
368.925	332.32
369.306	314.24
369.688	330.51
370.069	314.02
370.45	332.77
370.831	324.64
371.212	298.65
371.593	321.25
371.974	326.22
372.355	311.08
372.736	322.6
373.117	317.86
373.498	307.69
373.879	328.03
374.26	313.34
374.641	319.67
375.021	327.8
375.402	333.23
375.783	328.03
376.163	335.94
376.544	316.73
376.925	340.01
377.305	339.1
377.686	330.97
378.066	351.98
378.447	347.46
378.827	351.76
379.208	323.73
379.588	348.59
379.968	342.94
380.349	340.23
380.729	349.27
381.109	346.33
381.489	344.75
381.87	333
382.25	352.21
382.63	353.11
383.01	358.31
383.39	367.35
383.77	348.14
384.15	357.41
384.53	345.88
384.91	366.9
385.29	342.94
385.67	359.44
386.049	356.95
386.429	358.31
386.809	349.72
387.189	377.07
387.568	351.08
387.948	369.61
388.328	376.84
388.707	356.5
389.087	378.2
389.466	376.84
389.846	382.04
390.225	377.07
390.605	415.03
390.984	384.52
391.363	382.49
391.743	387.69
392.122	402.38
392.501	412.32
392.881	393.11
393.26	413
393.639	400.57
394.018	416.84
394.397	421.81
394.776	395.14
395.155	410.74
395.534	430.17
395.913	407.35
396.292	426.33
396.671	428.36
397.05	429.49
397.429	426.78
397.808	425.88
398.186	427.46
398.565	439.21
398.944	427.01
399.323	453.67
399.701	432.21
400.08	444.64
400.458	457.29
400.837	447.12
401.215	461.13
401.594	470.85
401.972	465.2
402.351	478.53
402.729	470.85
403.107	467.91
403.486	469.95
403.864	469.49
404.242	482.37
404.62	478.53
404.999	497.74
405.377	512.66
405.755	503.62
406.133	494.8
406.511	504.75
406.889	513.33
407.267	537.74
407.645	542.03
408.023	530.06
408.401	531.19
408.779	549.27
409.156	561.92
409.534	574.35
409.912	574.12
410.29	602.6
410.667	602.37
411.045	621.58
411.422	608.92
411.8	627.91
412.178	649.6
412.555	666.78
412.933	656.83
413.31	667.91
413.687	695.25
414.065	699.54
414.442	706.32
414.819	737.96
415.197	742.03
415.574	764.85
415.951	760.56
416.328	786.55
416.705	817.96
417.082	823.16
417.46	824.74
417.837	847.34
418.214	854.34
418.591	862.93
418.967	867
419.344	900.44
419.721	893.66
420.098	913.32
420.475	920.78
420.852	948.8
421.228	970.05
421.605	966.66
421.982	959.2
422.358	1014.11
422.735	1028.35
423.111	1011.85
423.488	1069.03
423.864	1083.26
424.241	1097.05
424.617	1100.89
424.994	1090.95
425.37	1116.26
425.746	1096.82
426.123	1130.49
426.499	1140.44
426.875	1181.34
427.251	1167.78
427.627	1191.96
428.003	1237.61
428.379	1257.27
428.756	1238.06
429.132	1271.05
429.507	1294.33
429.883	1316.48
430.259	1320.77
430.635	1361.22
431.011	1369.81
431.387	1415.46
431.763	1414.1
432.138	1395.57
432.514	1410.03
432.89	1438.06
433.265	1485.74
433.641	1501.78
434.016	1516.02
434.392	1573.19
434.767	1612.51
435.143	1582.91
435.518	1621.55
435.894	1620.88
436.269	1640.54
436.644	1671.5
437.02	1692.74
437.395	1699.07
437.77	1709.91
438.145	1730.03
438.52	1781.32
438.895	1780.42
439.271	1753.75
439.646	1777.03
440.021	1827.88
440.395	1849.12
440.77	1838.72
441.145	1836.91
441.52	1880.98
441.895	1878.5
442.27	1902.68
442.645	1911.26
443.019	1976.12
443.394	1930.92
443.769	1984.26
444.143	1937.48
444.518	1992.17
444.892	1978.15
445.267	2006.85
445.641	2009.79
446.016	2040.75
446.39	2027.42
446.764	2044.82
447.139	2049.79
447.513	2044.14
447.887	2105.16
448.262	2089.56
448.636	2098.15
449.01	2127.3
449.384	2155.55
449.758	2159.39
450.132	2180.86
450.506	2231.71
450.88	2192.61
451.254	2221.54
451.628	2254.31
452.002	2286.39
452.376	2299.5
452.75	2294.53
453.123	2360.07
453.497	2357.35
453.871	2396.9
454.244	2421.53
454.618	2450.91
454.992	2448.65
455.365	2491.81
455.739	2541.98
456.112	2561.64
456.486	2570.91
456.859	2610.91
457.232	2643.67
457.606	2625.14
457.979	2656.55
458.352	2719.83
458.725	2769.55
459.099	2792.14
459.472	2824.46
459.845	2833.95
460.218	2829.21
460.591	2925.02
460.964	2897.23
461.337	2988.52
461.71	3012.03
462.083	3018.58
462.456	3078.46
462.829	3055.41
463.201	3111.23
463.574	3172.7
463.947	3195.75
464.32	3251.57
464.692	3292.7
465.065	3262.19
465.438	3337.67
465.81	3388.96
466.183	3442.3
466.555	3479.13
466.928	3553.71
467.3	3538.11
467.672	3544.67
468.045	3621.5
468.417	3640.71
468.789	3697.88
469.161	3756.86
469.534	3792.34
469.906	3849.29
470.278	3916.63
470.65	3944.88
471.022	4011.77
471.394	4108.49
471.766	4120.92
472.138	4172.45
472.51	4269.17
472.882	4270.52
473.253	4357.98
473.625	4424.19
473.997	4518.43
474.369	4505.55
474.74	4512.55
475.112	4670.96
475.484	4763.84
475.855	4802.26
476.227	4829.38
476.598	4936.04
476.97	4999.77
477.341	5086.32
477.713	5147.34
478.084	5218.52
478.455	5323.15
478.827	5379.65
479.198	5577.61
479.569	5541
479.94	5681.11
480.311	5736.7
480.682	5817.15
481.053	6000.42
481.424	6074.32
481.795	6108.89
482.166	6286.29
482.537	6302.11
482.908	6411.03
483.279	6499.17
483.65	6642.44
484.021	6721.76
484.391	6819.16
484.762	6860.06
485.133	6991.58
485.503	7023.9
485.874	7171.24
486.244	7284.91
486.615	7390.67
486.985	7466.6
487.356	7623.66
487.726	7728.74
488.097	7819.58
488.467	7858.45
488.837	8006.7
489.207	8152.46
489.578	8213.24
489.948	8315.61
490.318	8385.22
490.688	8507.47
491.058	8688.94
491.428	8715.83
491.798	8822.95
492.168	9009.38
492.538	9044.41
492.908	9129.15
493.278	9251.86
493.648	9253.22
494.017	9409.37
494.387	9450.73
494.757	9603.26
495.126	9751.06
495.496	9708.12
495.866	9804.16
496.235	9897.27
496.605	10007.77
496.974	10067.66
497.344	10183.59
497.713	10196.47
498.082	10365.73
498.452	10404.83
498.821	10438.72
499.19	10506.07
499.559	10685.72
499.928	10727.08
500.298	10725.27
500.667	10885.26
501.036	10919.39
501.405	10946.96
501.774	11039.84
502.143	11115.32
502.512	11137.46
502.88	11291.36
503.249	11275.76
503.618	11337.91
503.987	11456.32
504.356	11596.43
504.724	11677.56
505.093	11731.34
505.462	11720.72
505.83	11882.53
506.199	11929.53
506.567	12098.57
506.936	12034.16
507.304	12236.87
507.672	12277.09
508.041	12325.68
508.409	12458.1
508.777	12569.06
509.145	12649.06
509.514	12715.05
509.882	12821.94
510.25	12808.6
510.618	12961.82
510.986	13035.04
511.354	13178.09
511.722	13318.42
512.09	13405.88
512.458	13417.85
512.826	13539.43
513.193	13563.39
513.561	13602.48
513.929	13783.95
514.297	13857.62
514.664	14044.05
515.032	14138.74
515.4	14240.2
515.767	14308.45
516.135	14394.32
516.502	14322.69
516.869	14619.86
517.237	14637.71
517.604	14658.05
517.972	14879.51
518.339	14985.04
518.706	15004.48
519.073	15122.67
519.44	15133.97
519.808	15475.88
520.175	15384.81
520.542	15644.24
520.909	15675.65
521.276	15753.61
521.643	15840.84
522.009	16130.78
522.376	16128.97
522.743	16279.47
523.11	16484.67
523.477	16564.89
523.843	16626.58
524.21	16808.95
524.577	16906.58
524.943	17040.58
525.31	17216.17
525.676	17433.34
526.043	17436.28
526.409	17484.64
526.776	17758.53
527.142	17736.61
527.508	17952.88
527.874	18072.87
528.241	18090.95
528.607	18143.38
528.973	18404.16
529.339	18351.28
529.705	18598.06
530.071	18773.87
530.437	18720.31
530.803	18996.92
531.169	19071.72
531.535	19092.28
531.901	19166.63
532.267	19346.29
532.632	19356
532.998	19420.18
533.364	19695.88
533.73	19778.82
534.095	19859.72
534.461	19899.72
534.826	19924.8
535.192	20154.85
535.557	20270.78
535.923	20134.51
536.288	20414.96
536.653	20475.29
537.019	20434.39
537.384	20514.84
537.749	20750.77
538.114	20759.81
538.479	20971.55
538.845	20890.2
539.21	20998.45
539.575	20993.02
539.94	21113.02
540.305	21237.76
540.67	21199.34
541.034	21324.76
541.399	21460.58
541.764	21471.88
542.129	21684.3
542.494	21646.56
542.858	21721.59
543.223	21761.36
543.587	21926.33
543.952	22023.5
544.316	22140.34
544.681	22134.46
545.045	22171.52
545.41	22302.37
545.774	22327.45
546.138	22390.95
546.503	22437.73
546.867	22463.04
547.231	22660.77
547.595	22834.55
547.959	22923.37
548.324	22807.44
548.688	22877.94
549.052	22868.45
549.416	23106.86
549.779	23163.81
550.143	23215.11
550.507	23390.47
550.871	23452.84
551.235	23388.21
551.599	23687.19
551.962	23674.08
552.326	23739.39
552.689	23968.54
553.053	23794.08
553.417	23812.61
553.78	24186.16
554.143	24194.52
554.507	24246.04
554.87	24417.11
555.234	24719.93
555.597	24597.9
555.96	24604.45
556.323	24767.16
556.686	24864.56
557.05	24927.61
557.413	25085.34
557.776	25212.35
558.139	25311.1
558.502	25392.68
558.865	25451.44
559.228	25552
559.59	25760.13
559.953	25902.5
560.316	26120.12
560.679	26102.27
561.041	26191.75
561.404	26408.47
561.767	26518.53
562.129	26444.18
562.492	26793.09
562.854	26792.19
563.217	26750.38
563.579	27036.48
563.941	27059.53
564.304	27253.87
564.666	27431.72
565.028	27406.86
565.39	27499.52
565.753	27625.84
566.115	27835.1
566.477	27920.3
566.839	27886.85
567.201	28130.91
567.563	28102.44
567.925	28329.78
568.287	28318.48
568.648	28589.21
569.01	28601.41
569.372	28721.63
569.734	28762.76
570.095	28942.42
570.457	29071.45
570.819	29092.92
571.18	29141.28
571.542	29332.01
571.903	29331.56
572.265	29389.18
572.626	29540.37
572.987	29614.49
573.349	29705.33
573.71	29786.24
574.071	29950.75
574.432	29921.6
574.794	30262.61
575.155	30167.7
575.516	30065.33
575.877	30296.28
576.238	30323.4
576.599	30392.55
576.96	30425.54
577.32	30474.35
577.681	30587.35
578.042	30640.9
578.403	30667.8
578.763	30675.7
579.124	30776.72
579.485	31022.81
579.845	31006.77
580.206	31063.94
580.566	30964.28
580.927	31089.03
581.287	31149.82
581.648	31001.35
582.008	31057.84
582.368	31161.12
582.728	31204.73
583.089	30994.11
583.449	31169.03
583.809	31200.89
584.169	31220.78
584.529	31111.17
584.889	31491.73
585.249	31172.64
585.609	31070.5
585.969	31315.69
586.329	31286.54
586.688	31354.1
587.048	31410.15
587.408	31336.03
587.768	31242.47
588.127	31172.41
588.487	31194.11
588.846	31522.46
589.206	31340.32
589.565	31336.7
589.925	31546.87
590.284	31419.41
590.643	31390.94
591.003	31543.25
591.362	31619.86
591.721	31524.04
592.08	31553.87
592.44	31616.92
592.799	31630.26
593.158	31546.64
593.517	31491.28
593.876	31634.78
594.235	31506.19
594.593	31683.14
594.952	31649.01
595.311	31599.97
595.67	31779.18
596.029	31759.74
596.387	31826.18
596.746	31764.04
597.104	31618.5
597.463	31723.36
597.822	31882.68
598.18	31758.84
598.538	31813.53
598.897	31912.51
599.255	31736.92
599.613	32044.71
599.972	31873.41
600.33	31951.15
600.688	31742.57
601.046	31993.41
601.404	32065.72
601.762	32082
602.12	32234.08
602.478	32206.96
602.836	32249
603.194	32077.25
603.552	32178.49
603.91	32081.09
604.268	32086.29
604.625	32034.31
604.983	32213.74
605.341	32083.13
605.698	32409.44
606.056	32284.25
606.413	32216.46
606.771	32480.18
607.128	32453.29
607.485	32387.75
607.843	32374.19
608.2	32646.05
608.557	32626.39
608.914	32516.11
609.272	32623.68
609.629	32717.01
609.986	32841.98
610.343	32653.51
610.7	33022.31
611.057	32875.65
611.414	32930.79
611.771	32853.27
612.127	33008.07
612.484	32902.31
612.841	33000.62
613.198	32898.25
613.554	33032.48
613.911	33102.99
614.267	33057.79
614.624	33076.09
614.98	33299.14
615.337	33406.71
615.693	33302.53
616.05	33176.43
616.406	33369.65
616.762	33287.39
617.118	33345.01
617.475	33439.47
617.831	33427.95
618.187	33577.55
618.543	33373.03
618.899	33613.93
619.255	33557.89
619.611	33592.46
619.967	33665.23
620.323	33647.6
620.678	33512.01
621.034	33533.71
621.39	33520.15
621.746	33542.97
622.101	33965.79
622.457	33627.94
622.812	33713.14
623.168	33765.12
623.523	33644.44
623.879	33817.77
624.234	33542.3
624.589	33674.95
624.945	33731.67
625.3	33708.39
625.655	33601.05
626.01	33653.25
626.365	33796.75
626.72	33731.9
627.075	33776.64
627.43	33673.59
627.785	33591.33
628.14	33693.03
628.495	33705
628.85	33542.3
629.205	33506.59
629.559	33680.82
629.914	33429.3
630.269	33521.28
630.623	33335.97
630.978	33418.01
631.332	33505.46
631.687	33436.76
632.041	33191.12
632.396	33314.73
632.75	33318.35
633.104	33241.96
633.459	33144.79
633.813	33234.73
634.167	33163.77
634.521	32988.86
634.875	33169.42
635.229	33064.79
635.583	32964.23
635.937	32950.22
636.291	32958.58
636.645	32934.18
636.999	32700.06
637.352	32968.53
637.706	32655.09
638.06	32958.58
638.413	32576.45
638.767	32728.76
639.121	32744.58
639.474	32608.08
639.828	32576.9
640.181	32497.35
640.534	32511.36
640.888	32614.64
641.241	32299.84
641.594	32298.49
641.947	32470.69
642.301	32175.1
642.654	32277.02
643.007	32342.78
643.36	32252.61
643.713	32176.91
644.066	32416.45
644.419	32055.1
644.771	31827.76
645.124	31564.04
645.477	31441.33
645.83	31393.65
646.182	31101.46
646.535	30928.58
646.888	31129.48
647.24	30901.01
647.593	31105.75
647.945	31007.22
648.298	30827.79
648.65	30779.66
649.002	30725.65
649.355	30833.67
649.707	30823.05
650.059	30981.91
650.411	31334.22
650.763	31394.56
651.115	31578.73
651.467	31486.53
651.819	31400.88
652.171	31402.24
652.523	31273.2
652.875	31235.46
653.227	31206.54
653.578	31315.69
653.93	31246.54
654.282	30995.7
654.633	31088.35
654.985	31140.78
655.337	31058.75
655.688	30966.77
656.039	31178.06
656.391	30861.91
656.742	30832.31
657.094	31041.57
657.445	30970.61
657.796	30899.65
658.147	30963.15
658.498	30944.17
658.849	30860.11
659.2	30868.47
659.551	30660.11
659.902	30818.53
660.253	30764.52
660.604	30727.91
660.955	30656.5
661.306	30627.57
661.656	30726.32
662.007	30646.78
662.358	30589.15
662.708	30722.94
663.059	30716.38
663.409	30388.93
663.76	30613.33
664.11	30569.04
664.461	30647.68
664.811	30604.07
665.161	30503.05
665.511	30436.39
665.862	30492.21
666.212	30632.32
666.562	30556.84
666.912	30526.56
667.262	30529.72
667.612	30378.09
667.962	30495.14
668.312	30339.67
668.662	30497.63
669.011	30421.02
669.361	30469.61
669.711	30382.83
670.06	30272.78
670.41	30328.6
670.76	30163.4
671.109	30287.69
671.459	30171.31
671.808	30191.42
672.157	30271.2
672.507	29981.03
672.856	30020.13
673.205	30090.41
673.554	30171.76
673.904	29922.96
674.253	30087.7
674.602	30078.88
674.951	29616.98
675.3	29437.32
675.649	29925.89
675.998	29722.51
676.346	29813.81
676.695	29950.53
677.044	29773.58
677.393	29740.81
677.741	29698.78
678.09	29672.12
678.438	29603.64
678.787	29645.45
679.135	29708.72
679.484	29562.74
679.832	29680.48
680.181	29439.81
680.529	29622.85
680.877	29513.02
681.225	29399.13
681.573	29523.42
681.922	29381.05
682.27	29360.94
682.618	29319.58
682.966	29189.87
683.314	29241.62
683.661	29081.62
684.009	29113.49
684.357	28949.65
684.705	28997.33
685.053	28974.51
685.4	28901.06
685.748	28706.04
686.095	28815.87
686.443	28687.28
686.79	28695.42
687.138	28671.69
687.485	28647.74
687.832	28489.32
688.18	28501.07
688.527	28249.55
688.874	28360.06
689.221	28211.36
689.568	28293.17
689.915	28172.72
690.262	28153.51
690.609	28036
690.956	27964.59
691.303	27852.73
691.65	27839.85
691.997	27751.26
692.344	27651.15
692.69	27652.06
693.037	27676.01
693.383	27350.14
693.73	27511.72
694.077	27353.53
694.423	27277.83
694.769	27189.92
695.116	27161.67
695.462	27029.47
695.808	26897.72
696.155	27090.04
696.501	26819.31
696.847	26892.08
697.193	26717.39
697.539	26801.46
697.885	26491.18
698.231	26471.75
698.577	26458.87
698.923	26330.96
699.269	26344.29
699.614	26145.88
699.96	26144.98
700.306	26095.03
700.651	25948.6
700.997	25974.13
701.342	25750.18
701.688	25816.17
702.033	25818.66
702.379	25711.99
702.724	25620.92
703.069	25703.63
703.415	25397.2
703.76	25376.41
704.105	25368.95
704.45	25220.48
704.795	25147.26
705.14	25071.78
705.485	25033.14
705.83	24903.65
706.175	25063.42
706.52	24847.16
706.865	24780.94
707.209	24680.38
707.554	24689.87
707.899	24813.71
708.243	24598.12
708.588	24584.34
708.932	24373.27
709.277	24404.01
709.621	24412.59
709.966	24237.91
710.31	24292.37
710.654	24021.42
710.998	24072.49
711.342	24150
711.687	23935.54
712.031	23948.88
712.375	23935.77
712.719	23898.93
713.063	23864.58
713.407	23910.46
713.75	23840.18
714.094	23745.27
714.438	23663.46
714.782	23724.02
715.125	23556.57
715.469	23594.76
715.812	23384.82
716.156	23302.79
716.499	23369.68
716.843	23352.96
717.186	23273.19
717.53	23322.68
717.873	23269.12
718.216	23390.92
718.559	23094.21
718.902	22988.45
719.246	23003.82
719.589	22916.36
719.932	22853.31
720.275	22791.39
720.617	22853.54
720.96	22779.19
721.303	22641.79
721.646	22671.62
721.989	22633.88
722.331	22550.04
722.674	22565.64
723.016	22589.36
723.359	22463.04
723.701	22575.58
724.044	22439.76
724.386	22193.67
724.729	22407.9
725.071	22279.32
725.413	22228.47
725.755	22202.71
726.097	22108.7
726.439	21983.73
726.782	21963.62
727.124	22058.08
727.465	21915.03
727.807	21970.62
728.149	21956.61
728.491	21921.36
728.833	21887.01
729.175	21780.12
729.516	21733.57
729.858	21814.69
730.199	21714.13
730.541	21648.6
730.882	21650.86
731.224	21676.85
731.565	21489.73
731.906	21455.83
732.248	21552.55
732.589	21396.17
732.93	21317.53
733.271	21389.4
733.612	21420.35
733.953	21379.23
734.294	21269.17
734.635	21221.72
734.976	21235.73
735.317	21207.03
735.658	21140.14
735.999	21082.06
736.339	21055.39
736.68	21125.67
737.021	20993.7
737.361	20877.32
737.702	21002.96
738.042	20899.46
738.383	20905.57
738.723	20957.99
739.063	20770.43
739.404	20816.08
739.744	20640.49
740.084	20681.17
740.424	20681.17
740.764	20616.08
741.104	20719.81
741.444	20601.85
741.784	20659.92
742.124	20576.99
742.464	20496.99
742.804	20498.8
743.143	20508.29
743.483	20427.16
743.823	20283.66
744.162	20325.02
744.502	20414.28
744.841	20247.28
745.181	20322.08
745.52	20200.05
745.86	20185.13
746.199	20167.05
746.538	20126.38
746.877	20234.17
747.216	20115.98
747.556	19980.39
747.895	20082.54
748.234	19884.8
748.573	19906.27
748.911	19884.58
749.25	19835.54
749.589	19811.58
749.928	19860.85
750.267	19834.86
750.605	19812.94
750.944	19654.07
751.283	19498.82
751.621	19701.98
751.96	19572.72
752.298	19552.38
752.636	19514.87
752.975	19415.66
753.313	19300.18
753.651	19384.93
753.989	19229.45
