Data from White_paper_FLMS001491_041.txt Node
Date: Tue Feb 07 10:35:07 GMT 2017
User: dcchb
Spectrometer: FLMS00149
Trigger mode: 0
Integration Time (sec): 2.000000E-2
Scans to average: 10
Electric dark correction enabled: true
Nonlinearity correction enabled: false
Boxcar width: 0
XAxis mode: Wavelengths
Number of Pixels in Spectrum: 2048
>>>>>Begin Spectral Data<<<<<
341.393	5.89
341.776	5.89
342.16	5.89
342.543	-73.66
342.927	-70.27
343.31	-67.1
343.693	-82.92
344.077	-46.76
344.46	-73.2
344.843	-58.97
345.226	-51.06
345.61	-42.47
345.993	-22.81
346.376	19.9
346.759	3.63
347.142	35.27
347.525	50.63
347.908	57.87
348.291	73.91
348.674	89.73
349.057	114.36
349.44	131.08
349.823	131.08
350.206	144.19
350.588	212.44
350.971	228.48
351.354	264.41
351.737	271.65
352.119	291.08
352.502	278.65
352.884	312.77
353.267	289.5
353.65	320.46
354.032	342.38
354.414	330.63
354.797	332.89
355.179	335.15
355.562	359.33
355.944	376.73
356.326	372.21
356.709	366.56
357.091	383.73
357.473	378.99
357.855	365.2
358.238	360.23
358.62	372.21
359.002	363.17
359.384	375.15
359.766	370.4
360.148	372.66
360.53	362.49
360.912	387.8
361.294	347.8
361.676	381.02
362.057	386.44
362.439	345.32
362.821	345.99
363.203	388.7
363.584	362.72
363.966	347.12
364.348	351.42
364.729	350.06
365.111	359.55
365.493	359.78
365.874	349.16
366.256	363.62
366.637	359.55
367.019	376.73
367.4	367.46
367.781	352.77
368.163	363.17
368.544	366.33
368.925	352.32
369.306	388.7
369.688	360.91
370.069	372.66
370.45	360.46
370.831	363.39
371.212	371.98
371.593	352.32
371.974	354.36
372.355	374.24
372.736	376.5
373.117	359.55
373.498	359.78
373.879	357.52
374.26	348.71
374.641	362.72
375.021	346.67
375.402	382.15
375.783	381.92
376.163	393.45
376.544	373.56
376.925	395.94
377.305	383.05
377.686	373.34
378.066	376.73
378.447	389.83
378.827	394.13
379.208	389.16
379.588	383.28
379.968	393.45
380.349	401.13
380.729	385.77
381.109	403.62
381.489	423.05
381.87	392.55
382.25	406.56
382.63	431.42
383.01	432.55
383.39	436.84
383.77	427.8
384.15	438.42
384.53	435.26
384.91	437.29
385.29	436.39
385.67	442.26
386.049	462.37
386.429	482.71
386.809	466.67
387.189	454.92
387.568	452.43
387.948	471.41
388.328	473.67
388.707	478.19
389.087	491.75
389.466	498.53
389.846	489.49
390.225	468.02
390.605	505.76
390.984	496.72
391.363	497.18
391.743	499.21
392.122	527.68
392.501	529.49
392.881	539.66
393.26	527.68
393.639	550.06
394.018	530.62
394.397	549.6
394.776	553.22
395.155	552.09
395.534	551.86
395.913	559.77
396.292	572.65
396.671	578.53
397.05	570.17
397.429	572.43
397.808	586.89
398.186	591.86
398.565	583.95
398.944	605.42
399.323	611.3
399.701	616.95
400.08	638.64
400.458	644.06
400.837	630.51
401.215	627.34
401.594	651.52
401.972	666.66
402.351	668.25
402.729	696.49
403.107	681.8
403.486	692.43
403.864	722.93
404.242	724.97
404.62	744.85
404.999	719.32
405.377	765.42
405.755	749.82
406.133	806.32
406.511	821.01
406.889	827.11
407.267	849.48
407.645	860.33
408.023	889.71
408.401	892.65
408.779	923.38
409.156	948.92
409.534	947.56
409.912	965.41
410.29	1009.03
410.667	1019.65
411.045	1071.17
411.422	1058.97
411.8	1088.35
412.178	1129.02
412.555	1154.33
412.933	1189.36
413.31	1183.94
413.687	1268.23
414.065	1253.09
414.442	1280.43
414.819	1330.83
415.197	1357.94
415.574	1364.5
415.951	1391.39
416.328	1440.88
416.705	1446.3
417.082	1472.52
417.46	1495.79
417.837	1548
418.214	1550.48
418.591	1568.11
418.967	1602.23
419.344	1615.11
419.721	1637.94
420.098	1673.42
420.475	1713.19
420.852	1721.32
421.228	1780.31
421.605	1822.34
421.982	1803.13
422.358	1848.33
422.735	1846.75
423.111	1848.1
423.488	1911.15
423.864	1954.54
424.241	1963.58
424.617	1985.5
424.994	2007.42
425.37	2008.55
425.746	2074.54
426.123	2085.61
426.499	2103.91
426.875	2136.68
427.251	2200.41
427.627	2212.16
428.003	2244.47
428.379	2250.35
428.756	2325.15
429.132	2396.79
429.507	2364.7
429.883	2404.92
430.259	2456.67
430.635	2482.21
431.011	2491.02
431.387	2611.47
431.763	2618.93
432.138	2644.92
432.514	2672.94
432.89	2689.66
433.265	2775.31
433.641	2805.36
434.016	2862.99
434.392	2867.51
434.767	2938.47
435.143	2940.5
435.518	2990.9
435.894	3006.04
436.269	3017.34
436.644	3103.66
437.02	3185.24
437.395	3137.78
437.77	3206.48
438.145	3278.57
438.52	3308.4
438.895	3311.34
439.271	3295.75
439.646	3432.69
440.021	3450.77
440.395	3434.05
440.77	3430.66
441.145	3462.97
441.52	3571.9
441.895	3516.98
442.27	3618.9
442.645	3565.34
443.019	3636.08
443.394	3668.17
443.769	3708.17
444.143	3675.85
444.518	3736.19
444.892	3736.41
445.267	3743.64
445.641	3771.67
446.016	3819.12
446.39	3794.26
446.764	3860.7
447.139	3838.33
447.513	3871.78
447.887	3963.07
448.262	3947.03
448.636	3974.37
449.01	4011.66
449.384	4051.21
449.758	4054.37
450.132	4145.67
450.506	4125.33
450.88	4127.36
451.254	4170.3
451.628	4173.24
452.002	4264.08
452.376	4321.48
452.75	4343.4
453.123	4374.59
453.497	4503.62
453.871	4487.58
454.244	4599.44
454.618	4603.51
454.992	4685.77
455.365	4655.26
455.739	4794.46
456.112	4833.79
456.486	4919.66
456.859	4958.75
457.232	5030.39
457.606	5013.67
457.979	5065.42
458.352	5157.39
458.725	5280.55
459.099	5303.83
459.472	5374.34
459.845	5439.19
460.218	5457.5
460.591	5630.6
460.964	5558.29
461.337	5676.7
461.71	5790.37
462.083	5828.34
462.456	5862.01
462.829	5946.3
463.201	6024.26
463.574	6050.93
463.947	6149
464.32	6265.16
464.692	6315.1
465.065	6350.13
465.438	6391.03
465.81	6546.06
466.183	6548.32
466.555	6761.64
466.928	6777.69
467.3	6774.07
467.672	6867.86
468.045	7101.52
468.417	7063.56
468.789	7184.23
469.161	7260.39
469.534	7381.29
469.906	7541.96
470.278	7555.97
470.65	7662.86
471.022	7842.75
471.394	7947.38
471.766	8044.32
472.138	8092.91
472.51	8323.64
472.882	8424.65
473.253	8511.65
473.625	8659.67
473.997	8795.04
474.369	8925.43
474.74	9043.62
475.112	9163.61
475.484	9228.7
475.855	9464.85
476.227	9503.04
476.598	9812.64
476.97	9881.11
477.341	10075.68
477.713	10239.52
478.084	10315.22
478.455	10560.41
478.827	10730.81
479.198	11015.77
479.569	10970.35
479.94	11323.78
480.311	11392.71
480.682	11669.31
481.053	11897.1
481.424	12011.45
481.795	12224.33
482.166	12443.98
482.537	12529.4
482.908	12766.68
483.279	12915.83
483.65	13168.26
484.021	13438.08
484.391	13573.22
484.762	13639.2
485.133	13805.07
485.503	14004.84
485.874	14345.85
486.244	14433.53
486.615	14756.24
486.985	14802.56
487.356	15062.44
487.726	15279.39
488.097	15562.32
488.467	15705.14
488.837	15957.56
489.207	16198.01
489.578	16293.15
489.948	16474.84
490.318	16685.9
490.688	16850.87
491.058	17109.85
491.428	17210.18
491.798	17372.21
492.168	17660.11
492.538	17717.51
492.908	17983.95
493.278	18233.43
493.648	18139.42
494.017	18564.05
494.387	18588.9
494.757	18785.96
495.126	19034.09
495.496	18997.93
495.866	19210.36
496.235	19427.07
496.605	19539.16
496.974	19715.2
497.344	19801.98
497.713	20028.19
498.082	20173.95
498.452	20269.76
498.821	20398.35
499.19	20606.7
499.559	20734.16
499.928	20882.63
500.298	20916.98
500.667	21166.92
501.036	21067.48
501.405	21428.6
501.774	21438.55
502.143	21565.55
502.512	21655.94
502.88	21950.17
503.249	22067
503.618	22234.23
503.987	22206.21
504.356	22268.81
504.724	22467.67
505.093	22634.67
505.462	22759.19
505.83	22820.43
506.199	23090.25
506.567	23385.84
506.936	23344.71
507.304	23656.79
507.672	23708.32
508.041	23861.99
508.409	24087.06
508.777	24165.25
509.145	24284.35
509.514	24300.62
509.882	24535.19
510.25	24632.81
510.618	24834.39
510.986	24999.81
511.354	25220.14
511.722	25359.8
512.09	25614.26
512.458	25583.52
512.826	25832.56
513.193	25935.83
513.561	26028.03
513.929	26260.11
514.297	26453.78
514.664	26659.65
515.032	26713.21
515.4	27079.98
515.767	27131.05
516.135	27284.27
516.502	27157.94
516.869	27647.87
517.237	27687.87
517.604	27714.54
517.972	28030.46
518.339	28171.25
518.706	28163.12
519.073	28390.91
519.44	28697.56
519.808	28892.36
520.175	28846.71
520.542	29275.4
520.909	29457.54
521.276	29500.71
521.643	29792.68
522.009	29855.27
522.376	30201.03
522.743	30371.64
523.11	30666.78
523.477	30931.63
523.843	31060.21
524.21	31356.48
524.577	31650.71
524.943	31756.92
525.31	31904.94
525.676	32238.26
526.043	32447.07
526.409	32478.26
526.776	32882.31
527.142	32920.73
527.508	33094.29
527.874	33484.33
528.241	33560.71
528.607	33600.03
528.973	33948.05
529.339	34000.25
529.705	34303.29
530.071	34538.99
530.437	34689.27
530.803	34835.93
531.169	35114.12
531.535	35143.95
531.901	35238.86
532.267	35565.41
532.632	35748.9
532.998	35769.47
533.364	36000.42
533.73	36153.87
534.095	36444.03
534.461	36580.75
534.826	36784.36
535.192	36766.28
535.557	37268.86
535.923	37204.23
536.288	37374.17
536.653	37546.82
537.019	37364.68
537.384	37513.6
537.749	37884.44
538.114	37945.23
538.479	38127.37
538.845	38235.39
539.21	38236.75
539.575	38378.89
539.94	38604.2
540.305	38717.19
540.67	38680.58
541.034	38806
541.399	39042.15
541.764	39296.38
542.129	39276.27
542.494	39428.36
542.858	39628.12
543.223	39729.36
543.587	40013.88
543.952	39879.42
544.316	39989.25
544.681	40106.76
545.045	40327.77
545.41	40581.55
545.774	40577.7
546.138	40701.77
546.503	40820.86
546.867	40886.62
547.231	41189.67
547.595	41268.99
547.959	41407.96
548.324	41430.56
548.688	41477.79
549.052	41784.68
549.416	41724.79
549.779	41900.83
550.143	42092.47
550.507	42391.67
550.871	42390.09
551.235	42363.19
551.599	42728.83
551.962	42837.53
552.326	42934.7
552.689	43141.03
553.053	43106.9
553.417	43108.03
553.78	43604.97
554.143	43388.7
554.507	43684.74
554.87	43865.98
555.234	44204.05
555.597	44103.71
555.96	44255.57
556.323	44296.02
556.686	44440.2
557.05	44853.52
557.413	44876.8
557.776	44971.71
558.139	45324.25
558.502	45298.71
558.865	45350.69
559.228	45628.87
559.59	45801.07
559.953	45886.94
560.316	46145.24
560.679	46256.2
561.041	46414.39
561.404	46612.12
561.767	46799.69
562.129	46720.14
562.492	47189.51
562.854	47086.23
563.217	47171.43
563.579	47444.87
563.941	47674.01
564.304	47782.71
564.666	47946.78
565.028	48154.45
565.39	48255.69
565.753	48481.68
566.115	48547.44
566.477	48671.28
566.839	48904.94
567.201	49224.26
567.563	49092.96
567.925	49406.17
568.287	49420.18
568.648	49435.78
569.01	49724.13
569.372	49898.14
569.734	49803
570.095	50063.78
570.457	50213.38
570.819	50341.52
571.18	50344
571.542	50488.4
571.903	50703.77
572.265	50860.15
572.626	50877.77
572.987	50972.46
573.349	50978.11
573.71	51215.39
574.071	51234.83
574.432	51427.81
574.794	51626.68
575.155	51523.18
575.516	51490.86
575.877	51652.22
576.238	51681.82
576.599	51891.98
576.96	51883.4
577.32	52054.69
577.681	52095.82
578.042	52163.61
578.403	52186.66
578.763	52148.25
579.124	52320.22
579.485	52460.56
579.845	52618.29
580.206	52497.39
580.566	52621.46
580.927	52601.12
581.287	52737.38
581.648	52575.13
582.008	52880.88
582.368	52805.18
582.728	52803.37
583.089	52747.78
583.449	52844.73
583.809	52928.79
584.169	52993.2
584.529	52961.33
584.889	53150.71
585.249	52889.7
585.609	52985.06
585.969	53026.64
586.329	53028.9
586.688	53097.15
587.048	53071.61
587.408	53115.68
587.768	53130.59
588.127	53050.6
588.487	53068.22
588.846	53212.4
589.206	53066.87
589.565	53120.43
589.925	53309.12
590.284	53215.56
590.643	53210.14
591.003	53318.39
591.362	53453.07
591.721	53348.22
592.08	53326.75
592.44	53474.54
592.799	53425.73
593.158	53490.81
593.517	53486.07
593.876	53479.74
594.235	53577.14
594.593	53444.26
594.952	53609
595.311	53497.59
595.67	53564.48
596.029	53622.11
596.387	53728.54
596.746	53816.68
597.104	53606.97
597.463	53633.41
597.822	53756.11
598.18	53783.68
598.538	53702.1
598.897	53904.59
599.255	53633.86
599.613	54081.3
599.972	53876.56
600.33	53995.43
600.688	53891.03
601.046	53974.41
601.404	54093.06
601.762	54057.35
602.12	54185.93
602.478	54189.32
602.836	54147.52
603.194	53984.81
603.552	54066.62
603.91	54027.29
604.268	54167.4
604.625	54098.25
604.983	54186.61
605.341	54109.33
605.698	54280.39
606.056	54305.7
606.413	54250.11
606.771	54279.72
607.128	54479.03
607.485	54263.22
607.843	54302.09
608.2	54492.82
608.557	54560.16
608.914	54429.77
609.272	54587.73
609.629	54628.86
609.986	54701.63
610.343	54552.48
610.7	54769.65
611.057	54669.54
611.414	54733.94
611.771	54682.64
612.127	54887.84
612.484	54818.23
612.841	54853.71
613.198	54805.35
613.554	54789.31
613.911	54970.77
614.267	54899.36
614.624	54980.72
614.98	55030.43
615.337	55094.38
615.693	54910.66
616.05	54956.76
616.406	55147.26
616.762	55066.14
617.118	55066.81
617.475	55102.07
617.831	55194.95
618.187	55112.01
618.543	55186.36
618.899	55388.16
619.255	55261.84
619.611	55227.94
619.967	55331.21
620.323	55330.08
620.678	55276.75
621.034	55302.51
621.39	55269.3
621.746	55262.52
622.101	55587.93
622.457	55310.65
622.812	55261.61
623.168	55448.5
623.523	55391.78
623.879	55461.83
624.234	55318.56
624.589	55462.28
624.945	55400.59
625.3	55430.65
625.655	55455.96
626.01	55429.29
626.365	55465.67
626.72	55448.05
627.075	55377.99
627.43	55385
627.785	55352.01
628.14	55342.51
628.495	55413.02
628.85	55418.22
629.205	55390.2
629.559	55492.34
629.914	55317.43
630.269	55363.98
630.623	55328.95
630.978	55260.03
631.332	55425.9
631.687	55483.08
632.041	55316.98
632.396	55337.54
632.75	55280.37
633.104	55289.18
633.459	55183.87
633.813	55168.73
634.167	55163.31
634.521	55192.24
634.875	55195.4
635.229	55138.9
635.583	55079.24
635.937	55081.05
636.291	55027.49
636.645	55062.07
636.999	55095.06
637.352	55054.39
637.706	54977.78
638.06	55067.72
638.413	55005.57
638.767	54942.07
639.121	54951.11
639.474	54756.31
639.828	54838.57
640.181	54897.55
640.534	54918.8
640.888	54788.18
641.241	54779.36
641.594	54815.52
641.947	54897.55
642.301	54834.73
642.654	54859.81
643.007	54759.03
643.36	54764.45
643.713	54719.25
644.066	54831.11
644.419	54625.24
644.771	54474.74
645.124	54115.65
645.477	54120.17
645.83	54046.5
646.182	53884.02
646.535	53784.59
646.888	53886.28
647.24	53781.2
647.593	53878.6
647.945	53821.42
648.298	53676.79
648.65	53740.07
649.002	53666.85
649.355	53766.28
649.707	53656.23
650.059	53790.24
650.411	54151.13
650.763	54219.15
651.115	54430.22
651.467	54423.67
651.819	54341.64
652.171	54240.62
652.523	54273.16
652.875	54208.08
653.227	54195.2
653.578	54417.57
653.93	54257.12
654.282	54160.85
654.633	54128.76
654.985	54103.45
655.337	54204.46
655.688	54126.05
656.039	54135.31
656.391	54038.82
656.742	54093.28
657.094	54112.72
657.445	54140.51
657.796	54117.69
658.147	54080.85
658.498	54014.87
658.849	54030.46
659.2	54037.24
659.551	53931.93
659.902	54019.38
660.253	53916.56
660.604	54003.11
660.955	53859.39
661.306	54003.11
661.656	53836.79
662.007	53999.27
662.358	53913.4
662.708	53906.17
663.059	53821.42
663.409	53738.94
663.76	53900.52
664.11	53933.96
664.461	53922.66
664.811	53914.75
665.161	53878.6
665.511	53751.6
665.862	53721.99
666.212	53855.1
666.562	53865.49
666.912	53840.41
667.262	53662.78
667.612	53712.95
667.962	53804.02
668.312	53605.84
668.662	53817.58
669.011	53781.65
669.361	53636.34
669.711	53649.22
670.06	53618.49
670.41	53472.05
670.76	53488.78
671.109	53646.74
671.459	53553.86
671.808	53573.07
672.157	53613.07
672.507	53259.18
672.856	53323.81
673.205	53373.53
673.554	53384.37
673.904	53314.54
674.253	53408.1
674.602	53351.15
674.951	52909.81
675.3	52743.49
675.649	53239.29
675.998	53160.42
676.346	53149.8
676.695	53245.62
677.044	52956.81
677.393	53071.61
677.741	53059.64
678.09	53002.01
678.438	52931.28
678.787	52973.08
679.135	53020.77
679.484	52753.43
679.832	52825.74
680.181	52713.88
680.529	52790.49
680.877	52665.07
681.225	52630.72
681.573	52801.79
681.922	52553.66
682.27	52510.72
682.618	52418.97
682.966	52447
683.314	52474.57
683.661	52315.02
684.009	52143.95
684.357	52139.43
684.705	52070.06
685.053	52081.13
685.4	52076.38
685.748	51868.25
686.095	51806.56
686.443	51706.23
686.79	51668.71
687.138	51766.34
687.485	51739.44
687.832	51572.67
688.18	51520.69
688.527	51392.11
688.874	51412.67
689.221	51228.72
689.568	51205.45
689.915	51007.03
690.262	51108.95
690.609	50927.71
690.956	50827.38
691.303	50764.56
691.65	50552.81
691.997	50704.22
692.344	50343.78
692.69	50358.69
693.037	50319.59
693.383	50078.25
693.73	50221.97
694.077	49937.91
694.423	50038.02
694.769	49944.69
695.116	49706.28
695.462	49687.3
695.808	49563
696.155	49584.7
696.501	49370.24
696.847	49384.7
697.193	49211.15
697.539	49256.57
697.885	49046.18
698.231	48969.57
698.577	48852.97
698.923	48772.29
699.269	48562.35
699.614	48478.29
699.96	48392.19
700.306	48330.04
700.651	48152.65
700.997	48084.63
701.342	48072.87
701.688	48040.33
702.033	47765.76
702.379	47815.71
702.724	47674.24
703.069	47766.22
703.415	47314.93
703.76	47459.33
704.105	47383.18
704.45	47150.41
704.795	46905.45
705.14	46940.25
705.485	46920.59
705.83	46766.69
706.175	46747.94
706.52	46664.32
706.865	46456.87
707.209	46446.93
707.554	46258.46
707.899	46498.45
708.243	46091.91
708.588	46091.01
708.932	45933.04
709.277	45980.73
709.621	45894.4
709.966	45576.89
710.31	45719.72
710.654	45404.7
710.998	45567.86
711.342	45526.95
711.687	45325.38
712.031	45257.36
712.375	44993.18
712.719	45135.32
713.063	44947.53
713.407	45019.17
713.75	44787.54
714.094	44879.51
714.438	44666.41
714.782	44780.08
715.125	44405.85
715.469	44485.4
715.812	44219.87
716.156	44190.04
716.499	44185.29
716.843	44146.88
717.186	43981
717.53	44058.74
717.873	44002.02
718.216	43972.19
718.559	43858.97
718.902	43525.65
719.246	43702.37
719.589	43442.26
719.932	43367.69
720.275	43396.39
720.617	43343.51
720.96	43155.94
721.303	43072.78
721.646	43205.21
721.989	42973.8
722.331	43105.32
722.674	42919.34
723.016	43020.8
723.359	42849.96
723.701	42823.29
724.044	42514.38
724.386	42481.61
724.729	42570.19
725.071	42503.08
725.413	42531.33
725.755	42429.18
726.097	42188.96
726.439	42150.09
726.782	42172.69
727.124	42371.1
727.465	42037.33
727.807	41970.21
728.149	41856.99
728.491	41775.64
728.833	41932.7
729.175	41776.32
729.516	41611.8
729.858	41686.83
730.199	41543.33
730.541	41436.89
730.882	41409.77
731.224	41602.99
731.565	41252.71
731.906	41183.34
732.248	41257.91
732.589	41042.32
732.93	40894.98
733.271	40870.58
733.612	41097.01
733.953	41044.36
734.294	40895.21
734.635	40736.8
734.976	40933.63
735.317	40617.03
735.658	40583.81
735.999	40663.13
736.339	40419.97
736.68	40535.45
737.021	40442.79
737.361	40230.14
737.702	40582.9
738.042	40252.29
738.383	40249.13
738.723	40214.78
739.063	40090.71
739.404	40260.42
739.744	40020.66
740.084	39849.36
740.424	39821.57
740.764	39847.33
741.104	39868.12
741.444	39739.99
741.784	39573.66
742.124	39681
742.464	39646.2
742.804	39518.07
743.143	39452.99
743.483	39424.51
743.823	39168.93
744.162	39298.64
744.502	39250.96
744.841	39119.21
745.181	39381.8
745.52	39151.53
745.86	39177.52
746.199	38960.35
746.538	39001.02
746.877	38938.43
747.216	38975.26
747.556	38841.25
747.895	38856.62
748.234	38669.28
748.573	38705.44
748.911	38630.86
749.25	38530.53
749.589	38335.96
749.928	38379.12
750.267	38467.48
750.605	38432
750.944	38321.27
751.283	38133.7
751.621	38356.52
751.96	37842.41
752.298	37998.79
752.636	38026.36
752.975	37832.92
