Data from white_wall_FLMS001491_088.txt Node
Date: Tue Feb 07 11:06:03 GMT 2017
User: dcchb
Spectrometer: FLMS00149
Trigger mode: 0
Integration Time (sec): 2.000000E-2
Scans to average: 10
Electric dark correction enabled: true
Nonlinearity correction enabled: false
Boxcar width: 0
XAxis mode: Wavelengths
Number of Pixels in Spectrum: 2048
>>>>>Begin Spectral Data<<<<<
341.393	-12.73
341.776	-12.73
342.16	-12.73
342.543	-45.72
342.927	-59.96
343.31	-68.09
343.693	-71.03
344.077	-60.41
344.46	-57.92
344.843	-63.8
345.226	-42.56
345.61	-35.1
345.993	-12.95
346.376	-12.95
346.759	9.65
347.142	40.15
347.525	38.57
347.908	40.61
348.291	74.05
348.674	103.43
349.057	118.34
349.44	140.72
349.823	152.92
350.206	169.19
350.588	209.42
350.971	243.31
351.354	242.18
351.737	252.8
352.119	276.31
352.502	280.83
352.884	307.72
353.267	311.11
353.65	339.81
354.032	319.47
354.414	323.54
354.797	325.34
355.179	315.63
355.562	353.37
355.944	338.23
356.326	379.13
356.709	354.95
357.091	339.81
357.473	370.77
357.855	363.76
358.238	365.57
358.62	354.72
359.002	358.56
359.384	367.15
359.766	353.37
360.148	366.7
360.53	387.94
360.912	356.98
361.294	354.27
361.676	375.29
362.057	350.2
362.439	356.76
362.821	323.54
363.203	366.7
363.584	351.56
363.966	325.57
364.348	361.95
364.729	355.17
365.111	348.39
365.493	349.75
365.874	347.49
366.256	358.79
366.637	335.97
367.019	352.46
367.4	342.52
367.781	348.39
368.163	330.09
368.544	354.04
368.925	332.35
369.306	338.68
369.688	330.77
370.069	341.39
370.45	331.9
370.831	351.11
371.212	358.79
371.593	330.32
371.974	339.81
372.355	347.04
372.736	347.49
373.117	352.69
373.498	361.95
373.879	339.58
374.26	367.15
374.641	347.72
375.021	336.19
375.402	353.59
375.783	349.98
376.163	363.31
376.544	385.91
376.925	358.79
377.305	364.21
377.686	353.59
378.066	364.67
378.447	378.9
378.827	370.32
379.208	391.11
379.588	371.45
379.968	359.69
380.349	380.26
380.729	373.93
381.109	364.44
381.489	394.95
381.87	396.08
382.25	389.07
382.63	371.67
383.01	381.84
383.39	400.37
383.77	376.64
384.15	419.13
384.53	421.84
384.91	406.25
385.29	394.95
385.67	420.94
386.049	426.13
386.429	429.52
386.809	425.23
387.189	413.25
387.568	426.58
387.948	428.84
388.328	436.98
388.707	439.01
389.087	443.31
389.466	439.69
389.846	460.93
390.225	473.36
390.605	467.71
390.984	475.4
391.363	477.66
391.743	519.92
392.122	466.58
392.501	485.34
392.881	498
393.26	509.75
393.639	524.21
394.018	541.16
394.397	524.89
394.776	545.45
395.155	541.38
395.534	553.14
395.913	551.33
396.292	569.18
396.671	577.54
397.05	598.78
397.429	593.59
397.808	622.06
398.186	638.1
398.565	629.97
398.944	639.23
399.323	671.78
399.701	663.41
400.08	662.06
400.458	676.07
400.837	711.55
401.215	699.12
401.594	703.64
401.972	709.29
402.351	723.53
402.729	754.71
403.107	769.4
403.486	764.66
403.864	772.79
404.242	813.24
404.62	819.79
404.999	839
405.377	851.66
405.755	853.47
406.133	889.85
406.511	899.57
406.889	908.83
407.267	964.2
407.645	937.31
408.023	971.43
408.401	1001.48
408.779	1001.48
409.156	1032.67
409.534	1032.9
409.912	1042.84
410.29	1062.27
410.667	1092.1
411.045	1102.5
411.422	1137.75
411.8	1162.61
412.178	1187.47
412.555	1201.03
412.933	1210.97
413.31	1240.12
413.687	1258.43
414.065	1266.34
414.442	1281.7
414.819	1301.36
415.197	1322.83
415.574	1350.85
415.951	1355.37
416.328	1379.78
416.705	1387.01
417.082	1373.68
417.46	1381.14
417.837	1434.47
418.214	1453.45
418.591	1481.02
418.967	1482.6
419.344	1510.17
419.721	1514.69
420.098	1508.82
420.475	1556.27
420.852	1566.67
421.228	1591.98
421.605	1613.45
421.982	1615.03
422.358	1639.21
422.735	1668.36
423.111	1677.85
423.488	1658.87
423.864	1724.86
424.241	1726.89
424.617	1765.53
424.994	1784.97
425.37	1787.45
425.746	1765.08
426.123	1805.76
426.499	1850.73
426.875	1870.84
427.251	1883.27
427.627	1913.1
428.003	1926.66
428.379	1973.89
428.756	1991.52
429.132	2013.66
429.507	2042.59
429.883	2072.19
430.259	2092.76
430.635	2128.24
431.011	2131.85
431.387	2198.97
431.763	2257.95
432.138	2263.6
432.514	2306.31
432.89	2293.88
433.265	2382.01
433.641	2358.06
434.016	2405.06
434.392	2436.7
434.767	2513.54
435.143	2495.46
435.518	2519.64
435.894	2531.61
436.269	2586.98
436.644	2636.7
437.02	2737.94
437.395	2681.44
437.77	2712.85
438.145	2767.77
438.52	2791.04
438.895	2805.73
439.271	2827.65
439.646	2885.5
440.021	2917.59
440.395	2941.32
440.77	2901.55
441.145	2968.44
441.52	3027.87
441.895	3019.06
442.27	3093.86
442.645	3079.85
443.019	3100.64
443.394	3102.45
443.769	3152.84
444.143	3125.04
444.518	3174.08
444.892	3187.42
445.267	3235.1
445.641	3297.7
446.016	3245.49
446.39	3308.09
446.764	3354.42
447.139	3332.72
447.513	3388.77
447.887	3436.9
448.262	3411.37
448.636	3470.57
449.01	3527.97
449.384	3554.64
449.758	3535.66
450.132	3591.02
450.506	3636.9
450.88	3634.86
451.254	3619.72
451.628	3693.62
452.002	3769.77
452.376	3812.48
452.75	3825.37
453.123	3925.25
453.497	3934.74
453.871	3976.32
454.244	4105.13
454.618	4133.61
454.992	4125.02
455.365	4134.74
455.739	4275.98
456.112	4350.1
456.486	4339.02
456.859	4402.3
457.232	4476.65
457.606	4505.8
457.979	4518.91
458.352	4650.2
458.725	4715.96
459.099	4751.89
459.472	4849.52
459.845	4893.36
460.218	4908.73
460.591	4989.63
460.964	4994.15
461.337	5144.88
461.71	5253.12
462.083	5265.1
462.456	5268.72
462.829	5316.17
463.201	5420.58
463.574	5473.23
463.947	5545.77
464.32	5669.61
464.692	5736.5
465.065	5778.31
465.438	5826.89
465.81	5929.04
466.183	6023.95
466.555	6174
466.928	6180.33
467.3	6190.95
467.672	6303.27
468.045	6463.94
468.417	6487.67
468.789	6586.65
469.161	6623.26
469.534	6763.14
469.906	6915.23
470.278	6947.54
470.65	7028.22
471.022	7190.7
471.394	7306.18
471.766	7395.89
472.138	7502.78
472.51	7667.75
472.882	7740.74
473.253	7840.18
473.625	7954.75
473.997	8153.61
474.369	8219.37
474.74	8269.77
475.112	8494.4
475.484	8641.06
475.855	8779.59
476.227	8909.07
476.598	9104.77
476.97	9221.16
477.341	9469.96
477.713	9582.5
478.084	9581.37
478.455	9982.04
478.827	10010.06
479.198	10326.89
479.569	10326.44
479.94	10596.26
480.311	10773.43
480.682	10954.9
481.053	11224.72
481.424	11368.22
481.795	11527.99
482.166	11657.02
482.537	11911.71
482.908	12177.01
483.279	12351.02
483.65	12497.91
484.021	12758.69
484.391	12926.6
484.762	13056.99
485.133	13165.46
485.503	13351.22
485.874	13684.77
486.244	13830.75
486.615	14081.59
486.985	14275.03
487.356	14522.03
487.726	14645.19
488.097	14995.02
488.467	14988.69
488.837	15369.02
489.207	15456.25
489.578	15702.79
489.948	15864.15
490.318	16183.91
490.688	16192.95
491.058	16518.14
491.428	16668.87
491.798	16886.04
492.168	17235.86
492.538	17384.33
492.908	17502.97
493.278	17744.32
493.648	17802.4
494.017	18129.85
494.387	18279.45
494.757	18363.97
495.126	18624.3
495.496	18688.25
495.866	18889.15
496.235	19063.16
496.605	19241.91
496.974	19389.7
497.344	19605.74
497.713	19736.59
498.082	19786.53
498.452	20181.32
498.821	20197.82
499.19	20236.01
499.559	20617.92
499.928	20681.42
500.298	20880.96
500.667	21082.09
501.036	21099.71
501.405	21277.79
501.774	21335.64
502.143	21571.57
502.512	21717.55
502.88	22030.08
503.249	22040.25
503.618	22111.89
503.987	22419.45
504.356	22519.79
504.724	22627.36
505.093	22790.29
505.462	22913.23
505.83	23116.61
506.199	23277.28
506.567	23555.02
506.936	23695.58
507.304	23963.14
507.672	23963.37
508.041	24053.76
508.409	24312.74
508.777	24464.14
509.145	24655.1
509.514	24780.07
509.882	24930.57
510.25	25138.03
510.618	25294.41
510.986	25386.38
511.354	25641.06
511.722	25952.24
512.09	26208.51
512.458	26263.87
512.826	26539.34
513.193	26597.65
513.561	26790.19
513.929	27017.52
514.297	27253.45
514.664	27442.15
515.032	27569.6
515.4	27913.32
515.767	27918.29
516.135	28088.68
516.502	27993.32
516.869	28660.64
517.237	28601.21
517.604	28607.76
517.972	29006.4
518.339	29222.66
518.706	29360.29
519.073	29541.3
519.44	29665.82
519.808	30117.1
520.175	30008.86
520.542	30517.32
520.909	30646.58
521.276	30613.59
521.643	31030.53
522.009	31226
522.376	31520.23
522.743	31591.87
523.11	32050.16
523.477	32309.81
523.843	32468.68
524.21	32828.9
524.577	32920.87
524.943	33165.61
525.31	33333.06
525.676	33618.03
526.043	33943.22
526.409	34059.37
526.776	34365.35
527.142	34560.83
527.508	34762.86
527.874	34965.34
528.241	35132.56
528.607	35464.08
528.973	35636.96
529.339	35481.71
529.705	36034.69
530.071	36334.57
530.437	36416.37
530.803	36684.84
531.169	36928.68
531.535	36791.05
531.901	36965.06
532.267	37346.52
532.632	37500.19
532.998	37691.37
533.364	37797.81
533.73	37909.44
534.095	38320.73
534.461	38373.84
534.826	38504.68
535.192	38716.65
535.557	38995.06
535.923	38893.37
536.288	39114.61
536.653	39390.53
537.019	39279.12
537.384	39583.52
537.749	39742.16
538.114	39831.65
538.479	39948.48
538.845	40138.08
539.21	40065.32
539.575	40500.79
539.94	40596.15
540.305	40836.82
540.67	40703.72
541.034	40895.35
541.399	41282.01
541.764	41314.55
542.129	41564.03
542.494	41690.13
542.858	41766.29
543.223	41789.34
543.587	42090.12
543.952	42108.43
544.316	42408.76
544.681	42218.71
545.045	42678.58
545.41	42924.45
545.774	42912.02
546.138	43002.19
546.503	43169.87
546.867	43323.76
547.231	43651.89
547.595	43644.66
547.959	43821.15
548.324	43860.7
548.688	43929.85
549.052	44222.72
549.416	44452.77
549.779	44538.42
550.143	44503.17
550.507	44919.65
550.871	45023.38
551.235	45044.17
551.599	45494.1
551.962	45518.05
552.326	45585.17
552.689	45933.18
553.053	45793.53
553.417	45902.68
553.78	46620.4
554.143	46435.54
554.507	46669.66
554.87	46820.62
555.234	47216.77
555.597	47013.83
555.96	47274.62
556.323	47457.44
556.686	47520.26
557.05	47837.32
557.413	48041.83
557.776	48132.45
558.139	48421.26
558.502	48485.66
558.865	48657.41
559.228	48846.33
559.59	49034.35
559.953	49029.15
560.316	49442.47
560.679	49455.8
561.041	49677.27
561.404	49870.71
561.767	50136.92
562.129	49948.9
562.492	50444.03
562.854	50463.91
563.217	50421.65
563.579	50663.91
563.941	50907.97
564.304	51015.54
564.666	51285.36
565.028	51370.56
565.39	51418.92
565.753	51623.43
566.115	51626.37
566.477	51753.82
566.839	51840.83
567.201	52096.19
567.563	52116.3
567.925	52398.55
568.287	52464.31
568.648	52605.55
569.01	52644.65
569.372	52905.2
569.734	52797.86
570.095	53072.21
570.457	53173.67
570.819	53190.4
571.18	53277.85
571.542	53394.68
571.903	53474.68
572.265	53531.4
572.626	53665.64
572.987	53748.57
573.349	53837.61
573.71	53949.02
574.071	54025.85
574.432	54002.35
574.794	54265.85
575.155	54248.45
575.516	54203.02
575.877	54327.77
576.238	54315.79
576.599	54453.19
576.96	54449.12
577.32	54471.27
577.681	54552.62
578.042	54654.99
578.403	54672.16
578.763	54654.76
579.124	54741.31
579.485	54838.49
579.845	54941.99
580.206	54854.31
580.566	54836.45
580.927	54922.55
581.287	54991.48
581.648	54870.13
582.008	55085.49
582.368	55019.5
582.728	55085.26
583.089	55104.47
583.449	55118.25
583.809	55085.26
584.169	55159.38
584.529	55059.72
584.889	55365.71
585.249	55071.25
585.609	55120.06
585.969	55223.79
586.329	55153.28
586.688	55253.39
587.048	55183.34
587.408	55193.28
587.768	55195.77
588.127	55164.35
588.487	55168.2
588.846	55362.77
589.206	55194.41
589.565	55194.41
589.925	55362.99
590.284	55210.46
590.643	55346.5
591.003	55398.92
591.362	55490.45
591.721	55330.68
592.08	55301.53
592.44	55364.35
592.799	55359.38
593.158	55330.23
593.517	55426.72
593.876	55444.12
594.235	55406.38
594.593	55469.88
594.952	55447.06
595.311	55414.07
595.67	55468.75
596.029	55588.75
596.387	55618.35
596.746	55613.83
597.104	55528.41
597.463	55492.03
597.822	55623.33
598.18	55470.56
598.538	55532.48
598.897	55697.45
599.255	55531.12
599.613	55863.09
599.972	55763.89
600.33	55830.1
600.688	55682.99
601.046	55803.66
601.404	55838.24
601.762	55744
602.12	55918.01
602.478	55868.29
602.836	55889.99
603.194	55791.68
603.552	55766.6
603.91	55782.42
604.268	55883.43
604.625	55867.61
604.983	56021.51
605.341	55890.89
605.698	55956.2
606.056	56100.83
606.413	56086.59
606.771	56196.19
607.128	56151.45
607.485	56100.15
607.843	56135.18
608.2	56228.51
608.557	56267.38
608.914	56289.75
609.272	56364.32
609.629	56404.55
609.986	56498.1
610.343	56308.05
610.7	56571.78
611.057	56594.6
611.414	56466.92
611.771	56492.23
612.127	56626.01
612.484	56569.29
612.841	56649.06
613.198	56589.63
613.554	56636.41
613.911	56741.94
614.267	56746.23
614.624	56706.01
614.98	56740.81
615.337	56872.33
615.693	56773.8
616.05	56764.54
616.406	56927.92
616.762	56799.11
617.118	56824.2
617.475	56901.03
617.831	56972.67
618.187	56921.82
618.543	56950.52
618.899	57118.43
619.255	57152.78
619.611	57058.54
619.967	57214.24
620.323	57253.57
620.678	57086.56
621.034	57089.95
621.39	57040.69
621.746	57051.08
622.101	57371.08
622.457	57104.19
622.812	57181.25
623.168	57254.24
623.523	57176.96
623.879	57338.99
624.234	57143.51
624.589	57194.13
624.945	57277.75
625.3	57239.1
625.655	57247.01
626.01	57190.97
626.365	57277.07
626.72	57255.83
627.075	57234.81
627.43	57258.76
627.785	57110.07
628.14	57256.5
628.495	57169.73
628.85	57229.84
629.205	57159.33
629.559	57228.71
629.914	57068.03
630.269	57130.63
630.623	57114.59
630.978	57012.67
631.332	57176.51
631.687	57134.02
632.041	57026.9
632.396	57151.2
632.75	57029.39
633.104	57066.45
633.459	56882.73
633.813	56896.74
634.167	56870.52
634.521	56852.67
634.875	56855.16
635.229	56861.71
635.583	56732.9
635.937	56722.28
636.291	56692.45
636.645	56759.34
636.999	56659.91
637.352	56731.09
637.706	56582.62
638.06	56689.51
638.413	56610.87
638.767	56540.36
639.121	56569.29
639.474	56434.38
639.828	56498.33
640.181	56543.3
640.534	56482.96
640.888	56415.62
641.241	56289.75
641.594	56333.36
641.947	56374.49
642.301	56276.42
642.654	56310.09
643.007	56260.6
643.36	56240.94
643.713	56200.26
644.066	56346.02
644.419	56086.14
644.771	55932.24
645.124	55655.87
645.477	55633.95
645.83	55447.06
646.182	55326.16
646.535	55290.68
646.888	55328.42
647.24	55128.88
647.593	55326.61
647.945	55234.64
648.298	55083.23
648.65	55071.7
649.002	54957.81
649.355	55031.93
649.707	55030.12
650.059	55196.67
650.411	55452.93
650.763	55501.07
651.115	55783.77
651.467	55695.87
651.819	55577.9
652.171	55519.83
652.523	55528.19
652.875	55532.25
653.227	55338.59
653.578	55613.83
653.93	55410
654.282	55325.48
654.633	55279.38
654.985	55269.44
655.337	55321.86
655.688	55283.9
656.039	55380.85
656.391	55210.91
656.742	55209.33
657.094	55178.14
657.445	55298.14
657.796	55194.41
658.147	55235.54
658.498	55107.86
658.849	55219.95
659.2	55104.47
659.551	55108.76
659.902	55214.52
660.253	55108.31
660.604	55115.99
660.955	55041.87
661.306	55067.41
661.656	54999.16
662.007	55037.8
662.358	55024.25
662.708	54967.75
663.059	54972.72
663.409	54781.09
663.76	54963.46
664.11	54921.88
664.461	54978.6
664.811	54933.17
665.161	54921.65
665.511	54774.76
665.862	54789.22
666.212	54943.8
666.562	54933.17
666.912	54856.11
667.262	54838.94
667.612	54832.61
667.962	54845.49
668.312	54785.16
668.662	54956.45
669.011	54731.15
669.361	54732.5
669.711	54723.24
670.06	54686.4
670.41	54597.82
670.76	54553.75
671.109	54701.54
671.459	54614.54
671.808	54549.46
672.157	54550.59
672.507	54422.68
672.856	54434.2
673.205	54394.66
673.554	54427.88
673.904	54320.08
674.253	54543.13
674.602	54418.61
674.951	53934.56
675.3	53780.21
675.649	54270.59
675.998	54278.05
676.346	54283.47
676.695	54325.51
677.044	54082.12
677.393	54148.34
677.741	54238.73
678.09	53947.66
678.438	54013.65
678.787	54064.04
679.135	53989.24
679.484	53902.69
679.832	54037.15
680.181	53856.14
680.529	53967.55
680.877	53723.94
681.225	53791.51
681.573	53876.93
681.922	53640.1
682.27	53619.76
682.618	53677.84
682.966	53544.06
683.314	53528.92
683.661	53455.92
684.009	53271.75
684.357	53277.62
684.705	53273.1
685.053	53337.06
685.4	53190.62
685.748	53074.24
686.095	53007.12
686.443	52961.7
686.79	52852.55
687.138	52846.45
687.485	52797.64
687.832	52745.21
688.18	52752.89
688.527	52452.56
688.874	52487.81
689.221	52452.79
689.568	52365.11
689.915	52350.87
690.262	52270.65
690.609	52150.42
690.956	52168.28
691.303	52067.94
691.65	51852.58
691.997	51822.07
692.344	51669.08
692.69	51722.41
693.037	51582.75
693.383	51453.72
693.73	51578.91
694.077	51293.04
694.423	51227.96
694.769	51217.11
695.116	51101.64
695.462	51042.66
695.808	51041.98
696.155	51003.33
696.501	50757.46
696.847	50756.33
697.193	50547.75
697.539	50612.16
697.885	50430.92
698.231	50208.1
698.577	50252.85
698.923	50191.15
699.269	50058.05
699.614	49829.81
699.96	49742.35
700.306	49730.83
700.651	49661
700.997	49568.34
701.342	49524.95
701.688	49363.38
702.033	49292.64
702.379	49226.66
702.724	49003.39
703.069	49188.01
703.415	48710.96
703.76	48696.05
704.105	48636.16
704.45	48560.23
704.795	48406.57
705.14	48414.93
705.485	48280.92
705.83	48195.72
706.175	48210.87
706.52	48087.25
706.865	47997.09
707.209	48023.75
707.554	47836.19
707.899	47854.26
708.243	47747.37
708.588	47577.66
708.932	47346.93
709.277	47322.98
709.621	47333.6
709.966	47033.95
710.31	47112.36
710.654	46743.56
710.998	46852.26
711.342	46939.49
711.687	46705.82
712.031	46626.95
712.375	46564.58
712.719	46539.27
713.063	46568.42
713.407	46577.69
713.75	46220.63
714.094	46294.76
714.438	46052.96
714.782	46193.74
715.125	45939.96
715.469	45895.45
715.812	45809.8
716.156	45517.6
716.499	45690.03
716.843	45571.39
717.186	45340.88
717.53	45629.92
717.873	45489.13
718.216	45235.8
718.559	45151.96
718.902	44905.87
719.246	45099.31
719.589	44829.94
719.932	44737.74
720.275	44661.81
720.617	44622.03
720.96	44580.68
721.303	44563.96
721.646	44596.27
721.989	44295.94
722.331	44500.45
722.674	44354.24
723.016	44400.57
723.359	44160.12
723.701	44298.88
724.044	44069.28
724.386	43882.62
724.729	44036.96
725.071	43918.55
725.413	43910.41
725.755	43791.77
726.097	43659.35
726.439	43497.54
726.782	43493.25
727.124	43634.04
727.465	43326.93
727.807	43321.95
728.149	43394.72
728.491	43269.3
728.833	43263.42
729.175	42985.24
729.516	43076.99
729.858	42938.46
730.199	42966.48
730.541	42836.77
730.882	42685.59
731.224	42680.39
731.565	42607.85
731.906	42578.47
732.248	42493.73
732.589	42373.5
732.93	42237.91
733.271	42135.77
733.612	42251.02
733.953	42197.69
734.294	42069.33
734.635	41881.54
734.976	42019.16
735.317	41831.82
735.658	41792.73
735.999	41873.63
736.339	41803.58
736.68	41820.98
737.021	41540.53
737.361	41413.76
737.702	41669.79
738.042	41427.09
738.383	41421.21
738.723	41249.24
739.063	41317.26
739.404	41374.43
739.744	41158.4
740.084	41036.59
740.424	41127.44
740.764	41022.35
741.104	41099.64
741.444	40855.13
741.784	40597.05
742.124	40824.62
742.464	40722.7
742.804	40603.16
743.143	40572.87
743.483	40512.08
743.823	40302.6
744.162	40314.8
744.502	40385.08
744.841	40111.42
745.181	40326.1
745.52	40211.08
745.86	40159.33
746.199	40022.38
746.538	39966.11
746.877	40004.3
747.216	39978.31
747.556	39806.57
747.895	39920.24
748.234	39572.45
748.573	39537.87
748.911	39510.3
749.25	39599.11
749.589	39426.24
749.928	39334.71
750.267	39429.4
750.605	39166.58
750.944	39145.34
751.283	38917.1
751.621	39002.52
751.96	38783.32
752.298	38786.03
752.636	38922.52
