Data from white_poster_card_FLMS001491_00035.txt Node
Date: Wed Feb 08 11:51:26 GMT 2017
User: dcchb
Spectrometer: FLMS00149
Trigger mode: 0
Integration Time (sec): 2.000000E-2
Scans to average: 10
Electric dark correction enabled: true
Nonlinearity correction enabled: false
Boxcar width: 0
XAxis mode: Wavelengths
Number of Pixels in Spectrum: 2048
>>>>>Begin Spectral Data<<<<<
341.393	-8.43
341.776	-8.43
342.16	-8.43
342.543	-82.33
342.927	-71.71
343.31	-55.44
343.693	-73.74
344.077	-56.11
344.46	-61.76
344.843	-43.91
345.226	-59.28
345.61	-45.72
345.993	-31.48
346.376	9.65
346.759	5.58
347.142	39.48
347.525	35.86
347.908	74.5
348.291	79.02
348.674	71.11
349.057	112.24
349.44	114.5
349.823	142.75
350.206	175.29
350.588	203.09
350.971	228.85
351.354	219.81
351.737	245.12
352.119	247.61
352.502	265.46
352.884	269.3
353.267	287.83
353.65	300.49
354.032	301.62
354.414	318.34
354.797	317.89
355.179	329.64
355.562	324.44
355.944	332.12
356.326	330.09
356.709	345.46
357.091	324.89
357.473	358.11
357.855	335.97
358.238	331.9
358.62	351.33
359.002	335.74
359.384	336.87
359.766	357.21
360.148	352.91
360.53	332.35
360.912	358.34
361.294	338.23
361.676	322.18
362.057	337.77
362.439	317.89
362.821	322.41
363.203	330.99
363.584	299.58
363.966	323.31
364.348	330.99
364.729	313.59
365.111	312.92
365.493	329.86
365.874	313.59
366.256	333.93
366.637	330.99
367.019	329.86
367.4	315.18
367.781	339.36
368.163	319.47
368.544	304.1
368.925	327.15
369.306	323.31
369.688	331.9
370.069	303.42
370.45	332.35
370.831	328.06
371.212	312.01
371.593	317.66
371.974	299.81
372.355	292.8
372.736	310.43
373.117	327.15
373.498	326.7
373.879	303.42
374.26	320.82
374.641	303.88
375.021	316.08
375.402	352.01
375.783	324.67
376.163	326.93
376.544	323.99
376.925	338.68
377.305	349.3
377.686	335.97
378.066	354.04
378.447	356.76
378.827	338.9
379.208	347.72
379.588	340.26
379.968	331.9
380.349	325.57
380.729	346.36
381.109	336.19
381.489	348.17
381.87	346.59
382.25	340.49
382.63	339.36
383.01	352.69
383.39	352.01
383.77	331.67
384.15	366.02
384.53	370.54
384.91	368.28
385.29	367.83
385.67	364.44
386.049	370.32
386.429	362.86
386.809	365.34
387.189	359.47
387.568	363.76
387.948	388.85
388.328	373.93
388.707	381.84
389.087	382.97
389.466	383.42
389.846	378.68
390.225	394.72
390.605	387.94
390.984	392.91
391.363	384.33
391.743	381.61
392.122	399.47
392.501	381.61
392.881	415.29
393.26	399.47
393.639	401.73
394.018	388.39
394.397	399.69
394.776	409.86
395.155	420.26
395.534	428.39
395.913	390.88
396.292	416.19
396.671	417.55
397.05	409.41
397.429	430.65
397.808	403.08
398.186	437.43
398.565	440.14
398.944	447.83
399.323	432.69
399.701	450.09
400.08	442.4
400.458	411.9
400.837	466.81
401.215	440.82
401.594	451.44
401.972	450.31
402.351	468.39
402.729	453.02
403.107	466.36
403.486	462.97
403.864	483.31
404.242	476.75
404.62	499.8
404.999	485.34
405.377	489.41
405.755	484.44
406.133	506.13
406.511	514.72
406.889	500.26
407.267	518.79
407.645	533.47
408.023	530.54
408.401	543.64
408.779	527.83
409.156	544.1
409.534	561.04
409.912	587.71
410.29	579.58
410.667	601.04
411.045	605.79
411.422	601.27
411.8	607.37
412.178	626.35
412.555	661.15
412.933	659.12
413.31	693.02
413.687	676.97
414.065	700.02
414.442	718.1
414.819	707.71
415.197	724.88
415.574	732.11
415.951	752.23
416.328	768.27
416.705	767.82
417.082	792
417.46	778.67
417.837	823.64
418.214	829.96
418.591	854.82
418.967	845.33
419.344	891.21
419.721	889.4
420.098	914.71
420.475	907.25
420.852	909.51
421.228	931.66
421.605	952.45
421.982	968.49
422.358	987.25
422.735	1001.71
423.111	1000.58
423.488	1016.4
423.864	1048.04
424.241	1055.95
424.617	1084.19
424.994	1072.9
425.37	1094.59
425.746	1078.32
426.123	1134.14
426.499	1147.02
426.875	1144.08
427.251	1153.35
427.627	1182.95
428.003	1192.44
428.379	1233.57
428.756	1231.31
429.132	1257.98
429.507	1294.58
429.883	1291.19
430.259	1298.65
430.635	1337.75
431.011	1342.27
431.387	1377.97
431.763	1398.08
432.138	1410.74
432.514	1417.07
432.89	1442.15
433.265	1482.38
433.641	1484.41
434.016	1492.77
434.392	1497.97
434.767	1562.37
435.143	1568.48
435.518	1563.5
435.894	1630.85
436.269	1621.13
436.644	1650.73
437.02	1671.75
437.395	1660
437.77	1686.66
438.145	1713.56
438.52	1727.34
438.895	1713.1
439.271	1763.95
439.646	1748.36
440.021	1790.84
440.395	1828.81
440.77	1782.71
441.145	1832.88
441.52	1846.89
441.895	1852.54
442.27	1867.45
442.645	1894.34
443.019	1888.92
443.394	1930.05
443.769	1883.27
444.143	1923.27
444.518	1969.82
444.892	1949.71
445.267	1964.85
445.641	1970.5
446.016	1976.15
446.39	1987.9
446.764	2013.44
447.139	1992.87
447.513	2010.95
447.887	2064.28
448.262	2077.61
448.636	2097.73
449.01	2123.72
449.384	2122.81
449.758	2087.56
450.132	2124.39
450.506	2161.45
450.88	2196.48
451.254	2156.03
451.628	2220.21
452.002	2240.55
452.376	2248.46
452.75	2278.29
453.123	2288.23
453.497	2303.6
453.871	2347.66
454.244	2377.04
454.618	2424.27
454.992	2404.84
455.365	2436.02
455.739	2495.23
456.112	2484.16
456.486	2534.33
456.859	2555.79
457.232	2571.39
457.606	2605.51
457.979	2644.61
458.352	2666.75
458.725	2690.25
459.099	2709.01
459.472	2746.07
459.845	2813.87
460.218	2816.8
460.591	2870.59
460.964	2863.36
461.337	2941.09
461.71	3002.79
462.083	2996.23
462.456	2980.87
462.829	2993.75
463.201	3102.9
463.574	3087.98
463.947	3119.4
464.32	3177.47
464.692	3252.05
465.065	3241.43
465.438	3269
465.81	3318.94
466.183	3328.88
466.555	3425.38
466.928	3456.34
467.3	3464.02
467.672	3491.14
468.045	3586.5
468.417	3610.46
468.789	3600.06
469.161	3684.13
469.534	3726.39
469.906	3822.43
470.278	3792.82
470.65	3886.38
471.022	3918.92
471.394	4004.34
471.766	3972.71
472.138	4049.54
472.51	4158.92
472.882	4177.45
473.253	4255.64
473.625	4312.36
473.997	4391.23
474.369	4414.05
474.74	4430.1
475.112	4562.07
475.484	4603.2
475.855	4714.61
476.227	4738.34
476.598	4863.08
476.97	4906.02
477.341	5081.38
477.713	5080.7
478.084	5089.06
478.455	5207.25
478.827	5258.1
479.198	5408.37
479.569	5422.61
479.94	5607.47
480.311	5617.86
480.682	5792.32
481.053	5896.27
481.424	5950.51
481.795	6003.16
482.166	6124.06
482.537	6190.73
482.908	6325.86
483.279	6386.65
483.65	6505.3
484.021	6649.02
484.391	6689.47
484.762	6771.73
485.133	6825.74
485.503	6884.72
485.874	7053.98
486.244	7121.1
486.615	7249.23
486.985	7374.88
487.356	7432.28
487.726	7500.98
488.097	7649.45
488.467	7725.6
488.837	7855.54
489.207	7994.3
489.578	8122.2
489.948	8139.15
490.318	8224.8
490.688	8284.23
491.058	8459.37
491.428	8509.08
491.798	8669.08
492.168	8848.51
492.538	8806.03
492.908	8924.67
493.278	9084.89
493.648	9093.48
494.017	9205.79
494.387	9274.04
494.757	9335.5
495.126	9476.74
495.496	9453.47
495.866	9525.55
496.235	9662.27
496.605	9791.31
496.974	9759.9
497.344	9866.79
497.713	10019.78
498.082	10080.79
498.452	10196.72
498.821	10246.21
499.19	10277.4
499.559	10325.99
499.928	10502.93
500.298	10484.63
500.667	10685.3
501.036	10653.43
501.405	10687.56
501.774	10810.04
502.143	10861.56
502.512	10966.65
502.88	11034.44
503.249	11094.1
503.618	11117.38
503.987	11205.74
504.356	11248.67
504.724	11340.87
505.093	11451.15
505.462	11536.12
505.83	11607.08
506.199	11725.27
506.567	11817.47
506.936	11823.8
507.304	12026.28
507.672	12076
508.041	12083.23
508.409	12220.85
508.777	12275.76
509.145	12400.51
509.514	12393.73
509.882	12527.51
510.25	12613.61
510.618	12703.55
510.986	12754.62
511.354	12828.74
511.722	12915.97
512.09	13063.99
512.458	13148.96
512.826	13242.29
513.193	13287.72
513.561	13302.63
513.929	13442.29
514.297	13580.82
514.664	13730.42
515.032	13706.91
515.4	13809.74
515.767	14012.67
516.135	14016.28
516.502	14019.67
516.869	14233.68
517.237	14379.21
517.604	14315.26
517.972	14512.09
518.339	14588.7
518.706	14646.55
519.073	14805.19
519.44	14897.62
519.808	15029.59
520.175	15053.32
520.542	15268.91
520.909	15310.71
521.276	15378.51
521.643	15512.29
522.009	15599.75
522.376	15798.16
522.743	15917.93
523.11	16009.23
523.477	16208.09
523.843	16298.03
524.21	16439.05
524.577	16624.35
524.943	16603.33
525.31	16828.41
525.676	16926.94
526.043	16968.07
526.409	17068.63
526.776	17301.17
527.142	17279.25
527.508	17462.75
527.874	17647.6
528.241	17733.25
528.607	17807.6
528.973	17998.1
529.339	17871.32
529.705	18237.42
530.071	18353.57
530.437	18443.96
530.803	18532.1
531.169	18652.55
531.535	18713.56
531.901	18751.98
532.267	18862.26
532.632	18984.74
532.998	19041.46
533.364	19160.33
533.73	19142.25
534.095	19364.84
534.461	19430.15
534.826	19490.94
535.192	19582.01
535.557	19790.14
535.923	19742.01
536.288	19889.8
536.653	19992.62
537.019	19953.53
537.384	20105.39
537.749	20153.52
538.114	20323.69
538.479	20278.72
538.845	20468.54
539.21	20530.24
539.575	20550.12
539.94	20567.75
540.305	20779.5
540.67	20758.25
541.034	20819.49
541.399	20956.89
541.764	20946.5
542.129	21055.87
542.494	21172.25
542.858	21263.78
543.223	21332.48
543.587	21458.57
543.952	21384
544.316	21590.77
544.681	21579.02
545.045	21691.11
545.41	21777.44
545.774	21829.86
546.138	21880.03
546.503	21993.7
546.867	21917.09
547.231	22211.77
547.595	22208.38
547.959	22316.86
548.324	22301.94
548.688	22259.91
549.052	22471.65
549.416	22479.56
549.779	22549.62
550.143	22557.98
550.507	22823.96
550.871	22784.42
551.235	22877.97
551.599	23000.68
551.962	23062.83
552.326	23203.16
552.689	23289.03
553.053	23204.52
553.417	23357.96
553.78	23661.68
554.143	23651.74
554.507	23729.7
554.87	23782.81
555.234	24079.3
555.597	23985.29
555.96	24054.21
556.323	24122.91
556.686	24251.5
557.05	24398.61
557.413	24533.97
557.776	24609.9
558.139	24730.58
558.502	24787.53
558.865	24723.57
559.228	24993.17
559.59	25149.55
559.953	25154.97
560.316	25405.14
560.679	25471.8
561.041	25538.47
561.404	25726.48
561.767	25899.14
562.129	25776.2
562.492	25970.09
562.854	26057.55
563.217	26112.24
563.579	26286.02
563.941	26426.13
564.304	26606.46
564.666	26683.07
565.028	26842.61
565.39	26891.2
565.753	27013.91
566.115	27082.83
566.477	27318.08
566.839	27384.29
567.201	27447.8
567.563	27476.27
567.925	27669.48
568.287	27694.79
568.648	27684.63
569.01	27895.02
569.372	28203.48
569.734	28087.1
570.095	28201.22
570.457	28292.52
570.819	28478.5
571.18	28487.99
571.542	28688.44
571.903	28643.47
572.265	28854.09
572.626	28715.78
572.987	28907.87
573.349	28999.39
573.71	29104.25
574.071	29291.59
574.432	29314.64
574.794	29417.69
575.155	29476.44
575.516	29459.04
575.877	29610.45
576.238	29713.72
576.599	29694.52
576.96	29806.6
577.32	29758.47
577.681	29893.15
578.042	29924.34
578.403	29988.29
578.763	30130.21
579.124	30126.82
579.485	30306.03
579.845	30391.9
580.206	30135.63
580.566	30291.79
580.927	30334.5
581.287	30373.59
581.648	30300.83
582.008	30466.02
582.368	30275.07
582.728	30462.18
583.089	30374.27
583.449	30407.49
583.809	30493.82
584.169	30386.02
584.529	30469.18
584.889	30731.32
585.249	30560.03
585.609	30466.25
585.969	30605.45
586.329	30540.82
586.688	30603.19
587.048	30559.58
587.408	30549.63
587.768	30527.94
588.127	30642.06
588.487	30496.08
588.846	30729.52
589.206	30554.83
589.565	30635.51
589.925	30689.74
590.284	30579.01
590.643	30724.09
591.003	30765.22
591.362	30788.27
591.721	30668.95
592.08	30882.28
592.44	30801.15
592.799	30746.92
593.158	30767.48
593.517	30773.13
593.876	30807.93
594.235	30769.97
594.593	30787.82
594.952	30854.49
595.311	30738.33
595.67	30896.97
596.029	30999.57
596.387	31140.13
596.746	31035.95
597.104	30966.35
597.463	30976.06
597.822	31077.53
598.18	30950.75
598.538	30863.3
598.897	31148.94
599.255	30920.7
599.613	31407.92
599.972	31035.5
600.33	31175.38
600.688	30946.23
601.046	31310.74
601.404	31360.01
601.762	31237.98
602.12	31447.46
602.478	31529.72
602.836	31467.12
603.194	31267.36
603.552	31343.06
603.91	31275.04
604.268	31488.37
604.625	31392.78
604.983	31430.74
605.341	31345.09
605.698	31606.78
606.056	31593.45
606.413	31570.85
606.771	31617.18
607.128	31715.03
607.485	31551.19
607.843	31564.75
608.2	31777.85
608.557	31959.09
608.914	31748.7
609.272	31854.23
609.629	32001.57
609.986	32121.8
610.343	31837.06
610.7	32108.92
611.057	32043.15
611.414	32080.44
611.771	32062.82
612.127	32282.47
612.484	32044.28
612.841	32346.42
613.198	32192.53
613.554	32210.83
613.911	32295.58
614.267	32388.46
614.624	32239.99
614.98	32333.09
615.337	32526.76
615.693	32425.74
616.05	32381.9
616.406	32436.36
616.762	32493.99
617.118	32563.59
617.475	32478.62
617.831	32644.72
618.187	32715
618.543	32610.82
618.899	32778.73
619.255	32684.49
619.611	32600.2
619.967	32815.11
620.323	32848.78
620.678	32778.5
621.034	32620.09
621.39	32608.56
621.746	32670.03
622.101	33012.17
622.457	32607.21
622.812	32818.5
623.168	32776.92
623.523	32846.52
623.879	32985.28
624.234	32780.54
624.589	32906.18
624.945	32924.26
625.3	32920.87
625.655	32808.78
626.01	32804.49
626.365	32935.33
626.72	32730.14
627.075	32866.18
627.43	32734.66
627.785	32740.54
628.14	32792.51
628.495	32762.23
628.85	32702.12
629.205	32619.41
629.559	32777.82
629.914	32670.03
630.269	32741.67
630.623	32602.69
630.978	32391.62
631.332	32675.91
631.687	32695.57
632.041	32605.63
632.396	32552.75
632.75	32526.53
633.104	32524.5
633.459	32355.91
633.813	32385.97
634.167	32502.58
634.521	32295.58
634.875	32314.33
635.229	32284.28
635.583	32082.25
635.937	32158.18
636.291	32072.76
636.645	32089.93
636.999	31945.76
637.352	32084.28
637.706	31888.81
638.06	32058.07
638.413	31887.23
638.767	31671.41
639.121	31848.81
639.474	31609.27
639.828	31702.82
640.181	31713.22
640.534	31753.67
640.888	31620.57
641.241	31511.64
641.594	31515.94
641.947	31515.71
642.301	31408.14
642.654	31400.91
643.007	31431.42
643.36	31390.74
643.713	31313.23
644.066	31506.45
644.419	31162.5
644.771	31071.65
645.124	30693.13
645.477	30640.48
645.83	30510.54
646.182	30296.99
646.535	30147.84
646.888	30141.06
647.24	30047.5
647.593	30248.4
647.945	30151.9
648.298	29978.12
648.65	30131.11
649.002	29901.06
649.355	29967.05
649.707	30031.68
650.059	30063.77
650.411	30397.55
650.763	30481.61
651.115	30778.56
651.467	30645.45
651.819	30553.25
652.171	30603.87
652.523	30501.5
652.875	30593.25
653.227	30338.57
653.578	30550.76
653.93	30498.34
654.282	30406.81
654.633	30213.15
654.985	30284.33
655.337	30277.78
655.688	30317.78
656.039	30398.45
656.391	30148.06
656.742	30122.08
657.094	30148.97
657.445	30155.52
657.796	30165.01
658.147	30131.79
658.498	29986.26
658.849	30083.88
659.2	30148.06
659.551	29984.45
659.902	29970.44
660.253	29953.72
660.604	29996.65
660.955	29793.95
661.306	29906.49
661.656	29873.49
662.007	29878.92
662.358	30111.23
662.708	29859.26
663.059	29807.73
663.409	29715.98
663.76	29871.46
664.11	29951.23
664.461	29788.52
664.811	29831.46
665.161	29661.3
665.511	29708.53
665.862	29772.71
666.212	29793.72
666.562	29747.17
666.912	29612.26
667.262	29664.23
667.612	29585.59
667.962	29641.64
668.312	29524.12
668.662	29575.42
669.011	29544.24
669.361	29513.96
669.711	29663.33
670.06	29468.53
670.41	29390.57
670.76	29362.1
671.109	29547.4
671.459	29455.43
671.808	29320.51
672.157	29466.5
672.507	29200.29
672.856	29234.19
673.205	29397.12
673.554	29402.55
673.904	29301.31
674.253	29368.87
674.602	29179.73
674.951	28874.42
675.3	28697.71
675.649	29172.04
675.998	29123.68
676.346	29092.27
676.695	29210.23
677.044	28875.78
677.393	29169.11
677.741	29110.35
678.09	28946.96
678.438	28821.09
678.787	28949.9
679.135	28923.69
679.484	28681.66
679.832	28824.93
680.181	28722.56
680.529	28770.25
680.877	28627.2
681.225	28607.31
681.573	28802.56
681.922	28572.51
682.27	28348.56
682.618	28438.28
682.966	28407.77
683.314	28479.63
683.661	28357.83
684.009	28282.58
684.357	28236.25
684.705	28215.01
685.053	28135.23
685.4	28061.11
685.748	27999.42
686.095	27944.05
686.443	27925.97
686.79	27804.17
687.138	27867.9
687.485	27815.92
687.832	27759.2
688.18	27816.6
688.527	27612.54
688.874	27549.94
689.221	27471.52
689.568	27504.74
689.915	27435.82
690.262	27464.52
690.609	27259.55
690.956	27208.25
691.303	27146.33
691.65	26990.41
691.997	27079.67
692.344	26904.98
692.69	26938.43
693.037	26758.32
693.383	26681.26
693.73	26762.62
694.077	26569.17
694.423	26529.85
694.769	26427.03
695.116	26443.3
695.462	26371.89
695.808	26219.58
696.155	26287.15
696.501	26147.04
696.847	26175.74
697.193	25874.73
697.539	26088.06
697.885	25952.02
698.231	25752.7
698.577	25761.74
698.923	25728.07
699.269	25519.94
699.614	25515.87
699.96	25416.21
700.306	25404.01
700.651	25303.67
700.997	25194.3
701.342	25161.3
701.688	25099.16
702.033	25053.28
702.379	25099.61
702.724	24986.62
703.069	24955.43
703.415	24685.38
703.76	24746.62
704.105	24688.77
704.45	24682.67
704.795	24505.27
705.14	24443.35
705.485	24424.15
705.83	24308.89
706.175	24369.46
706.52	24143.7
706.865	24288.56
707.209	24153.42
707.554	23997.04
707.899	24058.28
708.243	23930.83
708.588	23853.77
708.932	23765.63
709.277	23752.3
709.621	23716.37
709.966	23505.07
710.31	23622.36
710.654	23394.34
710.998	23526.32
711.342	23459.2
711.687	23423.04
712.031	23267.11
712.375	23158.19
712.719	23192.99
713.063	23238.19
713.407	23309.37
713.75	23056.27
714.094	23027.35
714.438	22925.43
714.782	22988.7
715.125	22864.64
715.469	22927.01
715.812	22754.36
716.156	22706.23
716.499	22784.64
716.843	22721.59
717.186	22656.96
717.53	22638.66
717.873	22628.71
718.216	22509.39
718.559	22455.38
718.902	22387.59
719.246	22309.63
719.589	22264.88
719.932	22130.87
720.275	22239.34
720.617	22158.89
720.96	21996.41
721.303	22119.8
721.646	22047.49
721.989	22005.45
722.331	22009.52
722.674	21880.03
723.016	21943.99
723.359	21920.48
723.701	21898.34
724.044	21688.4
724.386	21612.69
724.729	21744.44
725.071	21750.77
725.413	21694.95
725.755	21652.92
726.097	21561.17
726.439	21469.87
726.782	21534.28
727.124	21566.14
727.465	21401.85
727.807	21398.91
728.149	21297.67
728.491	21252.93
728.833	21357.33
729.175	21254.29
729.516	21173.16
729.858	21135.64
730.199	21146.72
730.541	21062.88
730.882	21016.78
731.224	21143.1
731.565	21060.39
731.906	20880.28
732.248	20943.79
732.589	20821.08
732.93	20742.89
733.271	20921.64
733.612	20801.42
733.953	20826.95
734.294	20692.04
734.635	20660.63
734.976	20679.84
735.317	20561.87
735.658	20523.23
735.999	20477.81
736.339	20535.89
736.68	20577.92
737.021	20443.01
737.361	20426.74
737.702	20481.2
738.042	20367.3
738.383	20396.23
738.723	20346.51
739.063	20314.65
739.404	20348.77
739.744	20214.54
740.084	20164.14
740.424	20183.35
740.764	20111.94
741.104	20195.78
741.444	20047.31
741.784	20064.49
742.124	19972.96
742.464	20050.25
742.804	19950.59
743.143	19870.14
743.483	19930.25
743.823	19777.71
744.162	19691.62
744.502	19769.35
744.841	19681.45
745.181	19753.99
745.52	19648.9
745.86	19654.33
746.199	19692.52
746.538	19546.76
746.877	19580.88
747.216	19622.92
747.556	19481
747.895	19532.52
748.234	19434.9
748.573	19400.55
748.911	19354
749.25	19330.49
749.589	19267.22
749.928	19280.55
750.267	19236.94
750.605	19140.9
750.944	19105.64
751.283	19015.7
751.621	19037.62
751.96	18992.42
752.298	18951.3
752.636	18940
752.975	18738.19
753.313	18760.57
753.651	18860.9
753.989	18742.49
754.327	18713.79
754.666	18539.1
