Data from white_poster_card_FLMS001491_00067.txt Node
Date: Wed Feb 08 11:51:51 GMT 2017
User: dcchb
Spectrometer: FLMS00149
Trigger mode: 0
Integration Time (sec): 2.000000E-2
Scans to average: 10
Electric dark correction enabled: true
Nonlinearity correction enabled: false
Boxcar width: 0
XAxis mode: Wavelengths
Number of Pixels in Spectrum: 2048
>>>>>Begin Spectral Data<<<<<
341.393	-5.95
341.776	-5.95
342.16	-5.95
342.543	-65.83
342.927	-73.29
343.31	-64.93
343.693	-80.52
344.077	-62.89
344.46	-79.16
344.843	-51.59
345.226	-40.3
345.61	-36
345.993	-33.74
346.376	-6.4
346.759	12.13
347.142	39.25
347.525	49.87
347.908	42.64
348.291	87.84
348.674	99.81
349.057	123.99
349.44	115.41
349.823	123.99
350.206	157.21
350.588	221.62
350.971	206.25
351.354	218
351.737	248.51
352.119	254.16
352.502	247.15
352.884	283.09
353.267	274.72
353.65	297.77
354.032	302.52
354.414	314.72
354.797	310.43
355.179	321.5
355.562	316.08
355.944	331.9
356.326	337.77
356.709	311.11
357.091	326.93
357.473	354.72
357.855	349.3
358.238	356.76
358.62	355.85
359.002	347.94
359.384	340.26
359.766	337.77
360.148	344.55
360.53	346.13
360.912	346.81
361.294	357.21
361.676	324.67
362.057	335.29
362.439	336.64
362.821	326.93
363.203	323.08
363.584	336.19
363.966	344.78
364.348	329.64
364.729	305.46
365.111	311.33
365.493	326.25
365.874	326.47
366.256	312.46
366.637	331.67
367.019	298.45
367.4	309.98
367.781	307.94
368.163	317.66
368.544	331.9
368.925	319.47
369.306	314.05
369.688	329.41
370.069	312.92
370.45	331.9
370.831	327.83
371.212	309.98
371.593	321.28
371.974	316.31
372.355	311.11
372.736	323.31
373.117	317.66
373.498	319.02
373.879	310.2
374.26	289.87
374.641	330.09
375.021	323.99
375.402	324.89
375.783	328.28
376.163	349.98
376.544	341.84
376.925	338.23
377.305	326.93
377.686	337.55
378.066	326.47
378.447	345.91
378.827	353.14
379.208	344.55
379.588	336.42
379.968	321.95
380.349	326.47
380.729	354.5
381.109	317.44
381.489	341.16
381.87	341.39
382.25	362.41
382.63	359.47
383.01	348.17
383.39	361.28
383.77	343.65
384.15	338.9
384.53	366.7
384.91	361.28
385.29	374.61
385.67	359.24
386.049	382.97
386.429	350.2
386.809	371.45
387.189	349.52
387.568	377.77
387.948	368.73
388.328	382.29
388.707	373.25
389.087	401.73
389.466	394.95
389.846	369.41
390.225	402.18
390.605	376.64
390.984	394.72
391.363	392.24
391.743	383.87
392.122	395.85
392.501	385.68
392.881	419.81
393.26	418.45
393.639	410.77
394.018	397.89
394.397	417.55
394.776	422.07
395.155	425.68
395.534	398.56
395.913	400.37
396.292	421.61
396.671	409.18
397.05	421.61
397.429	428.39
397.808	430.65
398.186	442.63
398.565	434.27
398.944	449.41
399.323	464.55
399.701	436.08
400.08	460.03
400.458	457.09
400.837	439.92
401.215	461.16
401.594	453.7
401.972	472.46
402.351	488.28
402.729	481.27
403.107	470.88
403.486	487.37
403.864	472.69
404.242	467.26
404.62	489.41
404.999	486.02
405.377	491.22
405.755	505.68
406.133	523.53
406.511	530.76
406.889	526.02
407.267	514.49
407.645	528.5
408.023	549.07
408.401	554.72
408.779	582.29
409.156	580.48
409.534	586.35
409.912	590.42
410.29	607.37
410.667	613.25
411.045	606.47
411.422	636.97
411.8	636.75
412.178	656.18
412.555	671.55
412.933	669.06
413.31	684.43
413.687	702.28
414.065	725.33
414.442	749.29
414.819	762.62
415.197	772.79
415.574	766.91
415.951	797.65
416.328	822.51
416.705	824.77
417.082	822.51
417.46	853.47
417.837	866.35
418.214	898.44
418.591	888.72
418.967	911.32
419.344	915.39
419.721	961.03
420.098	962.16
420.475	973.46
420.852	980.92
421.228	987.7
421.605	1007.13
421.982	1020.02
422.358	1029.73
422.735	1060.92
423.111	1064.08
423.488	1083.29
423.864	1103.63
424.241	1093.91
424.617	1132.55
424.994	1144.31
425.37	1153.8
425.746	1161.25
426.123	1198.09
426.499	1230.63
426.875	1215.26
427.251	1237.18
427.627	1296.39
428.003	1274.02
428.379	1273.79
428.756	1294.58
429.132	1318.31
429.507	1335.26
429.883	1376.39
430.259	1387.24
430.635	1398.31
431.011	1397.86
431.387	1446.9
431.763	1447.8
432.138	1474.47
432.514	1498.2
432.89	1513.56
433.265	1541.58
433.641	1577.06
434.016	1591.07
434.392	1606.67
434.767	1630.17
435.143	1662.94
435.518	1661.13
435.894	1668.36
436.269	1682.6
436.644	1696.61
437.02	1767.57
437.395	1742.71
437.77	1783.39
438.145	1828.13
438.52	1831.52
438.895	1849.15
439.271	1857.28
439.646	1895.47
440.021	1899.77
440.395	1935.02
440.77	1879.88
441.145	1918.3
441.52	1936.83
441.895	1953.55
442.27	2005.53
442.645	2003.04
443.019	2025.41
443.394	2000.78
443.769	2017.73
444.143	1991.52
444.518	2077.84
444.892	2074.68
445.267	2084.62
445.641	2088.46
446.016	2105.18
446.39	2146.77
446.764	2144.73
447.139	2119.87
447.513	2149.7
447.887	2162.36
448.262	2170.27
448.636	2192.87
449.01	2204.39
449.384	2218.63
449.758	2263.82
450.132	2266.08
450.506	2280.1
450.88	2289.36
451.254	2313.09
451.628	2351.28
452.002	2386.99
452.376	2409.81
452.75	2431.28
453.123	2445.06
453.497	2473.08
453.871	2479.19
454.244	2503.14
454.618	2549.24
454.992	2583.14
455.365	2577.26
455.739	2640.99
456.112	2662.46
456.486	2668.56
456.859	2674.44
457.232	2741.1
457.606	2723.47
457.979	2797.14
458.352	2851.61
458.725	2849.12
459.099	2890.47
459.472	2924.6
459.845	2977.25
460.218	2983.35
460.591	3028.55
460.964	3045.27
461.337	3124.59
461.71	3141.54
462.083	3200.3
462.456	3167.98
462.829	3199.62
463.201	3284.81
463.574	3288.43
463.947	3350.35
464.32	3398.48
464.692	3420.86
465.065	3461.08
465.438	3494.07
465.81	3531.81
466.183	3545.82
466.555	3623.56
466.928	3651.36
467.3	3675.09
467.672	3732.49
468.045	3816.55
468.417	3832.82
468.789	3801.86
469.161	3903.78
469.534	3999.6
469.906	4051.35
470.278	4090.67
470.65	4124.11
471.022	4191.23
471.394	4260.61
471.766	4267.16
472.138	4338.12
472.51	4409.53
472.882	4494.27
473.253	4510.09
473.625	4602.07
473.997	4706.02
474.369	4704.66
474.74	4771.56
475.112	4827.6
475.484	4962.51
475.855	5051.1
476.227	5064.43
476.598	5177.65
476.97	5265.55
477.341	5351.65
477.713	5431.2
478.084	5484.53
478.455	5615.37
478.827	5633.45
479.198	5781.25
479.569	5793.68
479.94	5934.46
480.311	6044.52
480.682	6151.41
481.053	6293.32
481.424	6373.77
481.795	6406.09
482.166	6528.35
482.537	6598.85
482.908	6741.45
483.279	6773.99
483.65	6952.29
484.021	7060.31
484.391	7154.09
484.762	7179.85
485.133	7229.8
485.503	7365.84
485.874	7569.9
486.244	7582.33
486.615	7793.4
486.985	7871.13
487.356	7979.15
487.726	8099.38
488.097	8283.55
488.467	8185.7
488.837	8397.67
489.207	8486.03
489.578	8654.39
489.948	8743.88
490.318	8867.04
490.688	8915.85
491.058	8984.55
491.428	9156.98
491.798	9224.55
492.168	9434.03
492.538	9495.27
492.908	9614.37
493.278	9725.78
493.648	9707.47
494.017	9852.78
494.387	9912.44
494.757	10039.44
495.126	10163.96
495.496	10208.93
495.866	10244.18
496.235	10323.95
496.605	10487.79
496.974	10518.07
497.344	10605.75
497.713	10700.66
498.082	10791.06
498.452	10928
498.821	10948.12
499.19	11002.35
499.559	11109.92
499.928	11222.23
500.298	11276.24
500.667	11386.97
501.036	11382
501.405	11553.3
501.774	11599.4
502.143	11703.35
502.512	11700.86
502.88	11901.76
503.249	11897.7
503.618	11936.34
503.987	12033.51
504.356	12133.85
504.724	12215.65
505.093	12202.09
505.462	12367.29
505.83	12396.44
506.199	12542.42
506.567	12774.28
506.936	12727.5
507.304	12871.23
507.672	12926.82
508.041	12963.88
508.409	13120.49
508.777	13235.74
509.145	13270.31
509.514	13289.52
509.882	13348.73
510.25	13424.66
510.618	13609.29
510.986	13603.64
511.354	13801.6
511.722	13845.89
512.09	13960.47
512.458	14052.67
512.826	14150.97
513.193	14252.21
513.561	14355.48
513.929	14348.03
514.297	14565.87
514.664	14722.93
515.032	14776.72
515.4	14877.96
515.767	14864.4
516.135	15082.92
516.502	14989.59
516.869	15310.04
517.237	15408.79
517.604	15356.81
517.972	15611.72
518.339	15637.71
518.706	15726.75
519.073	15781.66
519.44	15938.49
519.808	16125.83
520.175	16132.16
520.542	16309.78
520.909	16470.91
521.276	16506.39
521.643	16691.92
522.009	16853.27
522.376	16939.15
522.743	16983.89
523.11	17332.13
523.477	17435.63
523.843	17410.55
524.21	17682.85
524.577	17716.98
524.943	17846.24
525.31	17970.53
525.676	18171.43
526.043	18214.82
526.409	18429.95
526.776	18518.09
527.142	18703.17
527.508	18772.09
527.874	18894.8
528.241	18958.75
528.607	19103.83
528.973	19251.17
529.339	19252.76
529.705	19544.05
530.071	19677.6
530.437	19779.52
530.803	19834.44
531.169	20016.8
531.535	20079.18
531.901	20173.86
532.267	20250.7
532.632	20367.98
532.998	20452.27
533.364	20671.25
533.73	20626.51
534.095	20856.56
534.461	20840.74
534.826	21002.32
535.192	21083.44
535.557	21249.54
535.923	21262.87
536.288	21374.96
536.653	21456.09
537.019	21432.81
537.384	21560.27
537.749	21702.41
538.114	21760.49
538.479	21878.45
538.845	21934.49
539.21	21939.92
539.575	22016.07
539.94	22120.48
540.305	22334.48
540.67	22240.7
541.034	22311.21
541.399	22556.4
541.764	22550.3
542.129	22665.32
542.494	22697.19
542.858	22762.04
543.223	22885.2
543.587	23050.4
543.952	23060.79
544.316	23108.47
544.681	23160.9
545.045	23251.75
545.41	23328.13
545.774	23390.5
546.138	23439.31
546.503	23546.88
546.867	23607.22
547.231	23869.58
547.595	23800.66
547.959	23913.65
548.324	23971.73
548.688	24030.94
549.052	24161.55
549.416	24200.87
549.779	24138.5
550.143	24327.65
550.507	24555.89
550.871	24618.27
551.235	24607.87
551.599	24738.04
551.962	24897.35
552.326	25037.46
552.689	25065.26
553.053	24997.92
553.417	25019.84
553.78	25422.99
554.143	25339.38
554.507	25382.31
554.87	25530.33
555.234	25799.48
555.597	25637
555.96	25974.84
556.323	25854.62
556.686	26016.65
557.05	26118.34
557.413	26239.69
557.776	26324.66
558.139	26541.38
558.502	26610.53
558.865	26607.37
559.228	26867.92
559.59	26945.66
559.953	27053.46
560.316	27539.77
560.679	27379.55
561.041	27424.97
561.404	27667.9
561.767	27760.78
562.129	27751.74
562.492	27982.47
562.854	27979.98
563.217	28050.27
563.579	28175.23
563.941	28376.81
564.304	28480.99
564.666	28712.85
565.028	28699.06
565.39	28756.69
565.753	29058.37
566.115	29064.48
566.477	29204.81
566.839	29377.01
567.201	29309.67
567.563	29503.11
567.925	29737.45
568.287	29786.49
568.648	29803.89
569.01	29962.08
569.372	30156.2
569.734	30035.52
570.095	30380.15
570.457	30476.87
570.819	30484.55
571.18	30542.63
571.542	30664.66
571.903	30770.65
572.265	30921.15
572.626	30862.17
572.987	31076.17
573.349	31099.68
573.71	31252.67
574.071	31293.34
574.432	31484.07
574.794	31612.66
575.155	31562.26
575.516	31604.52
575.877	31699.66
576.238	31888.36
576.599	31974.46
576.96	31831.86
577.32	31950.73
577.681	32026.88
578.042	32141.46
578.403	32167.45
578.763	32281.34
579.124	32304.39
579.485	32419.19
579.845	32498.06
580.206	32404.28
580.566	32492.18
580.927	32513.88
581.287	32743.48
581.648	32487.21
582.008	32536.25
582.368	32679.52
582.728	32623.03
583.089	32614.67
583.449	32715.68
583.809	32751.84
584.169	32743.25
584.529	32683.14
584.889	33015.33
585.249	32849.24
585.609	32630.03
585.969	32827.99
586.329	32778.5
586.688	32869.57
587.048	32793.87
587.408	32719.52
587.768	32832.74
588.127	32842.91
588.487	32918.61
588.846	33019.63
589.206	32794.32
589.565	32882.68
589.925	32975.56
590.284	32922.23
590.643	32962.9
591.003	33118.83
591.362	32974.88
591.721	32833.42
592.08	32976.92
592.44	33034.99
592.799	33068.89
593.158	33041.55
593.517	33041.55
593.876	33095.33
594.235	33075.9
594.593	33088.32
594.952	33230.92
595.311	33128.78
595.67	33276.12
596.029	33343.91
596.387	33239.51
596.746	33357.92
597.104	33206.97
597.463	33173.52
597.822	33408.99
598.18	33110.02
598.538	33213.75
598.897	33388.43
599.255	33200.64
599.613	33659.38
599.972	33400.63
600.33	33523.57
600.688	33507.75
601.046	33458.03
601.404	33594.3
601.762	33546.84
602.12	33733.73
602.478	33688.31
602.836	33655.09
603.194	33595.43
603.552	33697.8
603.91	33558.82
604.268	33816.44
604.625	33686.28
604.983	33809.66
605.341	33659.61
605.698	33778.93
606.056	33925.14
606.413	33868.42
606.771	33992.03
607.128	34034.06
607.485	33922.65
607.843	33887.85
608.2	34175.98
608.557	34254.62
608.914	34092.14
609.272	34283.1
609.629	34253.72
609.986	34485.35
610.343	34215.07
610.7	34545.24
611.057	34309.54
611.414	34343.89
611.771	34450.1
612.127	34476.31
612.484	34595.4
612.841	34689.19
613.198	34494.39
613.554	34550.43
613.911	34716.53
614.267	34731.67
614.624	34745.46
614.98	34668.85
615.337	34948.61
615.693	34707.04
616.05	34739.35
616.406	34975.05
616.762	34937.32
617.118	34905.23
617.475	34938.22
617.831	35022.29
618.187	35093.47
618.543	35021.83
618.899	35227.93
619.255	35147.93
619.611	35105.22
619.967	35295.72
620.323	35249.4
620.678	35139.8
621.034	35175.05
621.39	35082.62
621.746	35151.32
622.101	35584.98
622.457	35116.97
622.812	35276.97
623.168	35391.54
623.523	35231.09
623.879	35307.48
624.234	35145.9
624.589	35311.77
624.945	35322.84
625.3	35356.97
625.655	35294.37
626.01	35282.39
626.365	35374.82
626.72	35320.58
627.075	35276.06
627.43	35267.48
627.785	35047.6
628.14	35182.06
628.495	35211.88
628.85	35189.51
629.205	35095.05
629.559	35313.58
629.914	35064.32
630.269	35135.73
630.623	34981.16
630.978	34889.41
631.332	34975.05
631.687	35165.78
632.041	34966.02
632.396	34997.65
632.75	34857.32
633.104	34946.36
633.459	34776.19
633.813	34791.56
634.167	34705.68
634.521	34653.93
634.875	34630.88
635.229	34641.96
635.583	34480.38
635.937	34495.75
636.291	34439.7
636.645	34375.52
636.999	34301.63
637.352	34440.61
637.706	34319.93
638.06	34467.72
638.413	34272.7
638.767	34179.37
639.121	34321.96
639.474	34042.65
639.828	34074.74
640.181	34112.03
640.534	33965.36
640.888	33896.67
641.241	33714.75
641.594	33849.66
641.947	33852.37
642.301	33769.66
642.654	33756.1
643.007	33756.78
643.36	33838.59
643.713	33655.99
644.066	33743.45
644.419	33519.05
644.771	33385.04
645.124	33001.55
645.477	33078.38
645.83	32845.85
646.182	32646.08
646.535	32651.27
646.888	32637.94
647.24	32554.1
647.593	32584.16
647.945	32424.16
648.298	32200.66
648.65	32339.87
649.002	32087.67
649.355	32255.35
649.707	32233.21
650.059	32455.8
650.411	32756.58
650.763	32797.49
651.115	33083.13
651.467	33048.33
651.819	32883.81
652.171	32824.38
652.523	32768.56
652.875	32798.39
653.227	32654.89
653.578	32867.31
653.93	32716.58
654.282	32543.25
654.633	32581.22
654.985	32554.33
655.337	32561.11
655.688	32391.39
656.039	32639.52
656.391	32334.67
656.742	32344.62
657.094	32400.43
657.445	32533.31
657.796	32388.91
658.147	32256.71
658.498	32293.54
658.849	32342.13
659.2	32217.16
659.551	32221.91
659.902	32411.05
660.253	32192.08
660.604	32357.5
660.955	32183.49
661.306	32140.33
661.656	32166.32
662.007	32198.86
662.358	31998.18
662.708	32103.04
663.059	32158.41
663.409	31874.35
663.76	31983.5
664.11	32035.7
664.461	32093.32
664.811	32186.2
665.161	32064.4
665.511	31950.73
665.862	31993.66
666.212	31977.62
666.562	32021.01
666.912	32046.77
667.262	32010.61
667.612	31892.65
667.962	31874.57
668.312	31848.13
668.662	32011.07
669.011	31920.67
669.361	31857.17
669.711	31752.77
670.06	31717.29
670.41	31803.84
670.76	31555.48
671.109	31665.09
671.459	31707.34
671.808	31596.16
672.157	31665.76
672.507	31498.08
672.856	31626.89
673.205	31536.95
673.554	31586.44
673.904	31496.5
674.253	31611.08
674.602	31463.73
674.951	31083.41
675.3	30797.76
675.649	31343.74
675.998	31225.55
676.346	31388.03
676.695	31456.28
677.044	31199.56
677.393	31283.85
677.741	31355.04
678.09	31244.76
678.438	31080.47
678.787	31231.42
679.135	31210.18
679.484	31025.1
679.832	30967.48
680.181	30850.19
680.529	31007.48
680.877	30788.72
681.225	30822.85
681.573	30962.51
681.922	30768.84
682.27	30689.97
682.618	30804.54
682.966	30625.79
683.314	30677.77
683.661	30510.09
684.009	30492.23
684.357	30267.16
684.705	30401.16
685.053	30335.63
685.4	30247.72
685.748	30169.98
686.095	30024.45
686.443	29975.41
686.79	29935.19
687.138	30051.34
687.485	29809.32
687.832	29846.15
688.18	29906.49
688.527	29682.99
688.874	29767.96
689.221	29573.16
689.568	29511.92
689.915	29520.06
690.262	29378.82
690.609	29311.48
690.956	29238.03
691.303	29186.28
691.65	29024.93
691.997	29146.96
692.344	28968.21
692.69	28909.68
693.037	28953.74
693.383	28664.71
693.73	28817.48
694.077	28537.26
694.423	28650.7
694.769	28476.69
695.116	28481.67
695.462	28383.36
695.808	28275.57
696.155	28242.58
696.501	28067.44
696.847	28103.37
697.193	27936.14
697.539	28077.16
697.885	27748.35
698.231	27691.63
698.577	27684.63
698.923	27582.03
699.269	27540.45
699.614	27345.88
699.96	27341.81
700.306	27423.84
700.651	27163.28
700.997	27107.69
701.342	27059.56
701.688	27175.49
702.033	26947.02
702.379	26942.05
702.724	26830.86
703.069	26882.16
703.415	26648.72
703.76	26578.67
704.105	26608.5
704.45	26527.59
704.795	26457.09
705.14	26323.98
705.485	26389.97
705.83	26210.31
706.175	26194.27
706.52	26091.9
706.865	25986.82
707.209	25947.04
707.554	25852.13
707.899	25885.35
708.243	25716.32
708.588	25727.61
708.932	25616.43
709.277	25474.97
709.621	25508.19
709.966	25267.51
710.31	25434.06
710.654	25199.49
710.998	25239.04
711.342	25197.01
711.687	25132.6
712.031	25032.94
712.375	25015.77
712.719	25120.4
713.063	24926.96
713.407	25092.15
713.75	24938.93
714.094	24853.74
714.438	24820.29
714.782	24818.26
715.125	24738.04
715.469	24565.39
715.812	24528.78
716.156	24433.41
716.499	24406.07
716.843	24406.97
717.186	24250.82
717.53	24286.3
717.873	24353.41
718.216	24246.07
718.559	24142.57
718.902	24028
719.246	24156.13
719.589	24039.07
719.932	23820.32
720.275	23849.7
720.617	23921.33
720.96	23876.82
721.303	23816.48
721.646	23786.42
721.989	23706.65
722.331	23690.15
722.674	23550.5
723.016	23634.11
723.359	23544.85
723.701	23646.31
724.044	23376.72
724.386	23338.3
724.729	23426.66
725.071	23381.01
725.413	23339.2
725.755	23266.44
726.097	23183.5
726.439	23158.64
726.782	23136.04
727.124	23174.91
727.465	23003.39
727.807	22991.42
728.149	22933.34
728.491	22865.32
728.833	22960.46
729.175	22838.88
729.516	22776.51
729.858	22771.08
730.199	22875.71
730.541	22749.84
730.882	22739.44
731.224	22750.07
731.565	22499.9
731.906	22508.26
732.248	22485.67
732.589	22540.58
732.93	22387.59
733.271	22445.67
733.612	22395.72
733.953	22459.23
734.294	22227.82
734.635	22264.2
734.976	22303.75
735.317	22157.54
735.658	22251.32
735.999	22251.32
736.339	22181.72
736.68	22091.55
737.021	22141.04
737.361	22044.55
737.702	22049.75
738.042	21955.96
738.383	21958.67
738.723	21840.26
739.063	21837.55
739.404	21777.66
739.744	21762.52
740.084	21721.39
740.424	21788.28
740.764	21584.22
741.104	21872.57
741.444	21564.33
741.784	21448.86
742.124	21554.16
742.464	21459.7
742.804	21389.42
743.143	21455.41
743.483	21379.71
743.823	21209.54
744.162	21167.51
744.502	21303.78
744.841	21257.45
745.181	21283.66
745.52	21155.31
745.86	21272.59
746.199	21101.07
746.538	20972.03
746.877	21147.17
747.216	21016.78
747.556	20945.82
747.895	20972.26
748.234	20918.48
748.573	20937.01
748.911	20829.89
749.25	20837.12
749.589	20764.36
749.928	20808.2
750.267	20673.06
750.605	20636.45
750.944	20565.26
751.283	20566.62
751.621	20614.08
751.96	20471.26
752.298	20450.01
752.636	20407.08
752.975	20337.7
753.313	20297.47
753.651	20374.99
753.989	20237.82
