Data from whiteboard_FLMS001491_00098.txt Node
Date: Wed Feb 08 11:28:45 GMT 2017
User: dcchb
Spectrometer: FLMS00149
Trigger mode: 0
Integration Time (sec): 2.000000E-2
Scans to average: 10
Electric dark correction enabled: true
Nonlinearity correction enabled: false
Boxcar width: 0
XAxis mode: Wavelengths
Number of Pixels in Spectrum: 2048
>>>>>Begin Spectral Data<<<<<
341.393	-15.25
341.776	-15.25
342.16	-15.25
342.543	-45.76
342.927	-52.77
343.31	-66.55
343.693	-63.61
344.077	-72.65
344.46	-71.52
344.843	-56.38
345.226	-42.15
345.61	-18.19
345.993	-12.77
346.376	-17.06
346.759	2.82
347.142	24.07
347.525	43.5
347.908	72.65
348.291	69.04
348.674	100.9
349.057	107.91
349.44	114.91
349.823	146.1
350.206	185.42
350.588	206.89
350.971	222.25
351.354	257.73
351.737	276.72
352.119	269.26
352.502	292.08
352.884	302.93
353.267	308.81
353.65	334.79
354.032	346.32
354.414	349.26
354.797	363.27
355.179	340.22
355.562	375.02
355.944	361.23
356.326	368.69
356.709	369.14
357.091	351.29
357.473	366.66
357.855	368.24
358.238	394.68
358.62	381.35
359.002	363.27
359.384	361.91
359.766	368.01
360.148	371.4
360.53	369.82
360.912	371.63
361.294	378.41
361.676	388.58
362.057	379.09
362.439	369.82
362.821	369.59
363.203	367.56
363.584	379.99
363.966	365.3
364.348	366.88
364.729	356.71
365.111	356.71
365.493	354
365.874	343.38
366.256	344.51
366.637	375.24
367.019	364.17
367.4	379.31
367.781	379.99
368.163	361.01
368.544	385.19
368.925	351.97
369.306	375.24
369.688	360.56
370.069	365.08
370.45	362.36
370.831	366.21
371.212	378.86
371.593	375.47
371.974	369.14
372.355	385.87
372.736	377.28
373.117	384.06
373.498	382.48
373.879	387.67
374.26	381.8
374.641	380.22
375.021	355.36
375.402	382.48
375.783	404.17
376.163	409.37
376.544	377.05
376.925	396.03
377.305	394.68
377.686	401.68
378.066	394.9
378.447	412.31
378.827	397.16
379.208	422.02
379.588	431.51
379.968	407.33
380.349	409.37
380.729	413.44
381.109	436.26
381.489	429.93
381.87	443.72
382.25	434.9
382.63	458.86
383.01	424.96
383.39	441.91
383.77	470.38
384.15	447.11
384.53	436.94
384.91	447.56
385.29	453.43
385.67	438.75
386.049	465.86
386.429	447.78
386.809	472.42
387.189	468.35
387.568	471.51
387.948	481.68
388.328	495.69
388.707	472.42
389.087	508.57
389.466	499.99
389.846	498.4
390.225	495.92
390.605	509.48
390.984	510.38
391.363	527.33
391.743	525.07
392.122	544.51
392.501	562.36
392.881	570.95
393.26	555.35
393.639	567.78
394.018	571.85
394.397	587.44
394.776	590.15
395.155	596.93
395.534	591.51
395.913	612.3
396.292	618.63
396.671	617.72
397.05	636.48
397.429	646.2
397.808	655.69
398.186	629.47
398.565	667.21
398.944	663.6
399.323	666.54
399.701	692.3
400.08	690.04
400.458	722.58
400.837	728
401.215	726.65
401.594	756.7
401.972	770.26
402.351	781.56
402.729	785.63
403.107	802.13
403.486	811.17
403.864	815.46
404.242	851.16
404.62	861.11
404.999	862.46
405.377	896.13
405.755	894.55
406.133	920.77
406.511	939.07
406.889	969.35
407.267	979.75
407.645	986.3
408.023	1024.49
408.401	1010.48
408.779	1050.48
409.156	1077.6
409.534	1087.54
409.912	1120.76
410.29	1141.1
410.667	1176.35
411.045	1177.94
411.422	1215.22
411.8	1214.32
412.178	1261.55
412.555	1291.15
412.933	1287.99
413.31	1334.77
413.687	1342.22
414.065	1351.94
414.442	1365.5
414.819	1410.7
415.197	1410.02
415.574	1443.46
415.951	1483.69
416.328	1460.87
416.705	1508.32
417.082	1488.44
417.46	1542.45
417.837	1568.66
418.214	1595.78
418.591	1621.54
418.967	1609.79
419.344	1629.22
419.721	1664.25
420.098	1676.91
420.475	1696.79
420.852	1731.59
421.228	1775.43
421.605	1751.93
421.982	1770.01
422.358	1817.24
422.735	1806.17
423.111	1822.21
423.488	1875.09
423.864	1894.07
424.241	1921.64
424.617	1946.05
424.994	1927.52
425.37	1988.08
425.746	1971.36
426.123	2016.56
426.499	2050
426.875	2064.69
427.251	2087.29
427.627	2169.55
428.003	2156.67
428.379	2195.54
428.756	2218.59
429.132	2223.78
429.507	2283.44
429.883	2314.63
430.259	2396.43
430.635	2407.06
431.011	2426.26
431.387	2497.9
431.763	2496.32
432.138	2511.01
432.514	2581.29
432.89	2597.56
433.265	2657.22
433.641	2685.69
434.016	2738.12
434.392	2764.79
434.767	2800.04
435.143	2813.37
435.518	2859.92
435.894	2865.35
436.269	2902.86
436.644	2978.34
437.02	2981.5
437.395	2984.67
437.77	3038.45
438.145	3107.6
438.52	3145.79
438.895	3141.5
439.271	3178.79
439.646	3234.15
440.021	3262.63
440.395	3292
440.77	3308.73
441.145	3342.4
441.52	3379.69
441.895	3365.45
442.27	3444.54
442.645	3419.23
443.019	3468.5
443.394	3452.45
443.769	3541.94
444.143	3487.25
444.518	3580.58
444.892	3567.02
445.267	3573.8
445.641	3656.51
446.016	3649.28
446.39	3737.42
446.764	3743.52
447.139	3757.75
447.513	3781.93
447.887	3784.19
448.262	3784.42
448.636	3824.42
449.01	3924.08
449.384	3931.99
449.758	3933.12
450.132	4005.66
450.506	4033
450.88	4052.66
451.254	4069.61
451.628	4170.17
452.002	4213.11
452.376	4228.48
452.75	4306.67
453.123	4321.58
453.497	4393.9
453.871	4410.84
454.244	4501.69
454.618	4550.05
454.992	4585.98
455.365	4611.97
455.739	4730.61
456.112	4781
456.486	4844.73
456.859	4849.25
457.232	4988.68
457.606	4988.68
457.979	5012.64
458.352	5104.39
458.725	5207.43
459.099	5216.92
459.472	5301.89
459.845	5395.9
460.218	5480.65
460.591	5475
460.964	5512.28
461.337	5652.85
461.71	5751.37
462.083	5823.46
462.456	5845.61
462.829	5884.93
463.201	5979.39
463.574	5985.49
463.947	6059.39
464.32	6265.03
464.692	6266.61
465.065	6322.88
465.438	6396.1
465.81	6473.39
466.183	6548.42
466.555	6748.41
466.928	6732.14
467.3	6801.74
467.672	6837
468.045	7027.27
468.417	7070.89
468.789	7143.88
469.161	7236.31
469.534	7356.3
469.906	7496.19
470.278	7609.18
470.65	7690.08
471.022	7819.34
471.394	7998.55
471.766	8059.79
472.138	8177.53
472.51	8316.73
472.882	8410.74
473.253	8503.39
473.625	8654.8
473.997	8853.44
474.369	8859.99
474.74	8939.31
475.112	9221.79
475.484	9318.06
475.855	9494.55
476.227	9543.82
476.598	9885.73
476.97	9923.02
477.341	10162.78
477.713	10314.64
478.084	10315.1
478.455	10726.16
478.827	10728.19
479.198	11025.81
479.569	11103.78
479.94	11326.37
480.311	11535.85
480.682	11831.67
481.053	12034.82
481.424	12205.44
481.795	12353.69
482.166	12499.45
482.537	12752.32
482.908	12981.24
483.279	13052.88
483.65	13358.18
484.021	13688.57
484.391	13753.2
484.762	13944.15
485.133	14042.23
485.503	14264.82
485.874	14592.27
486.244	14693.74
486.615	14980.74
486.985	15172.14
487.356	15427.73
487.726	15571.45
488.097	15842.63
488.467	15972.35
488.837	16311.77
489.207	16390.87
489.578	16704.08
489.948	16798.77
490.318	17088.93
490.688	17106.56
491.058	17476.94
491.428	17694.79
491.798	17766.2
492.168	18163.25
492.538	18267.43
492.908	18433.3
493.278	18707.64
493.648	18742.22
494.017	18929.33
494.387	19212.49
494.757	19309.89
495.126	19415.2
495.496	19551.24
495.866	19634.4
496.235	20093.37
496.605	20166.81
496.974	20342.63
497.344	20475.05
497.713	20464.21
498.082	20792.11
498.452	20933.57
498.821	21041.14
499.19	21180.8
499.559	21291.53
499.928	21575.82
500.298	21679.32
500.667	21904.17
501.036	21858.97
501.405	22204.05
501.774	22129.93
502.143	22443.59
502.512	22597.48
502.88	22639.52
503.249	22783.69
503.618	22955.22
503.987	23014.65
504.356	23257.13
504.724	23251.48
505.093	23404.24
505.462	23501.19
505.83	23632.49
506.199	23781.41
506.567	24174.17
506.936	24224.79
507.304	24405.35
507.672	24587.04
508.041	24655.74
508.409	24887.59
508.777	25067.25
509.145	25230.41
509.514	25231.09
509.882	25426.56
510.25	25550.85
510.618	25714.92
510.986	25898.42
511.354	26148.35
511.722	26332.3
512.09	26543.6
512.458	26635.12
512.826	26854.32
513.193	27026.3
513.561	27137.48
513.929	27430.35
514.297	27628.99
514.664	27864.24
515.032	28066.49
515.4	28178.13
515.767	28296.09
516.135	28510.78
516.502	28361.4
516.869	28930.65
517.237	29009.29
517.604	29095.85
517.972	29537.87
518.339	29639.11
518.706	29724.3
519.073	29830.74
519.44	29983.51
519.808	30510.95
520.175	30388.24
520.542	30814.67
520.909	30943.48
521.276	30985.06
521.643	31310.25
522.009	31452.17
522.376	31719.73
522.743	31884.02
523.11	32235.42
523.477	32500.95
523.843	32620.95
524.21	33097.1
524.577	33242.85
524.943	33423.41
525.31	33493.47
525.676	33891.2
526.043	33907.24
526.409	34236.73
526.776	34603.72
527.142	34675.36
527.508	34937.95
527.874	35100.43
528.241	35458.84
528.607	35420.65
528.973	35817.93
529.339	35860.19
529.705	36160.74
530.071	36515.99
530.437	36680.96
530.803	37017.67
531.169	37100.15
531.535	37165.92
531.901	37426.25
532.267	37478.22
532.632	37822.62
532.998	38042.28
533.364	38199.79
533.73	38210.41
534.095	38654.69
534.461	38761.81
534.826	38860.33
535.192	39063.27
535.557	39344.39
535.923	39315.24
536.288	39495.8
536.653	39830.03
537.019	39812.63
537.384	39943.92
537.749	40052.17
538.114	40263.69
538.479	40261.65
538.845	40384.59
539.21	40233.86
539.575	40481.31
539.94	40675.65
540.305	40986.38
540.67	40947.74
541.034	41016.89
541.399	41257.11
541.764	41418.23
542.129	41443.09
542.494	41523.77
542.858	41752.24
543.223	41602.63
543.587	41847.15
543.952	41969.4
544.316	42030.19
544.681	42077.88
545.045	42357.19
545.41	42593.57
545.774	42656.39
546.138	42839.66
546.503	42868.59
546.867	42876.5
547.231	43503.15
547.595	43309.71
547.959	43599.87
548.324	43664.05
548.688	43748.57
549.052	43966.87
549.416	44131.83
549.779	44144.49
550.143	44435.55
550.507	44672.38
550.871	44716.23
551.235	44714.87
551.599	45223.1
551.962	45238.47
552.326	45242.31
552.689	45577.9
553.053	45400.95
553.417	45649.31
553.78	46162.97
554.143	45957.55
554.507	46192.12
554.87	46348.72
555.234	46700.81
555.597	46461.26
555.96	46678.89
556.323	46743.29
556.686	46897.86
557.05	47104.86
557.413	47237.74
557.776	47225.54
558.139	47542.37
558.502	47598.86
558.865	47587.11
559.228	47871.4
559.59	47922.24
559.953	47948
560.316	48497.82
560.679	48364.49
561.041	48672.96
561.404	48660.75
561.767	48995.66
562.129	48897.13
562.492	49304.13
562.854	49134.64
563.217	49372.15
563.579	49510.9
563.941	49704.34
564.304	49944.56
564.666	50029.53
565.028	50089.87
565.39	50215.74
565.753	50418.67
566.115	50412.8
566.477	50567.82
566.839	50808.27
567.201	50939.34
567.563	51090.97
567.925	51405.09
568.287	51403.51
568.648	51446.67
569.01	51726.21
569.372	51877.39
569.734	51767.11
570.095	52124.84
570.457	52360.09
570.819	52365.06
571.18	52376.14
571.542	52547.66
571.903	52662.46
572.265	52868.55
572.626	52888.89
572.987	52922.56
573.349	53005.72
573.71	53229
574.071	53213.4
574.432	53289.56
574.794	53501.98
575.155	53526.84
575.516	53354.87
575.877	53599.38
576.238	53684.13
576.599	53791.24
576.96	53879.15
577.32	53852.03
577.681	53989.2
578.042	54080.5
578.403	53941.75
578.763	53894.74
579.124	54048.86
579.485	54043.89
579.845	54138.8
580.206	54087.96
580.566	54064.68
580.927	54076.66
581.287	54111.46
581.648	53942.42
582.008	54190.1
582.368	54098.58
582.728	54119.37
583.089	54160.72
583.449	54084.34
583.809	54203.21
584.169	54225.58
584.529	54137.22
584.889	54376.54
585.249	54225.81
585.609	54049.77
585.969	54266.03
586.329	54209.08
586.688	54323.66
587.048	54296.99
587.408	54190.33
587.768	54213.83
588.127	54308.52
588.487	54321.4
588.846	54467.61
589.206	54285.24
589.565	54331.11
589.925	54439.36
590.284	54451.34
590.643	54440.04
591.003	54569.07
591.362	54703.99
591.721	54661.5
592.08	54723.87
592.44	54772.01
592.799	54867.6
593.158	54820.59
593.517	54845.9
593.876	54918.22
594.235	54749.41
594.593	54819.91
594.952	54952.11
595.311	54836.86
595.67	54789.63
596.029	54949.85
596.387	55009.29
596.746	55027.14
597.104	54863.08
597.463	54838.22
597.822	54966.58
598.18	54916.86
598.538	54928.84
598.897	54952.79
599.255	54815.85
599.613	55269.17
599.972	54967.48
600.33	55044.77
600.688	54928.39
601.046	54967.71
601.404	55027.14
601.762	54997.08
602.12	55005.45
602.478	55027.59
602.836	55074.82
603.194	54843.64
603.552	54937.88
603.91	54758.45
604.268	54867.6
604.625	54722.06
604.983	54886.81
605.341	54715.28
605.698	54932.91
606.056	54941.04
606.413	54883.42
606.771	54947.14
607.128	55021.27
607.485	54868.27
607.843	54931.32
608.2	55089.51
608.557	55116.4
608.914	55003.19
609.272	55214.93
609.629	55249.73
609.986	55349.84
610.343	55204.09
610.7	55419.67
611.057	55361.82
611.414	55389.62
611.771	55519.11
612.127	55516.39
612.484	55536.05
612.841	55616.28
613.198	55511.42
613.554	55632.77
613.911	55813.79
614.267	55813.79
614.624	55810.4
614.98	55785.99
615.337	56036.38
615.693	55941.24
616.05	56034.8
616.406	56246.32
616.762	56131.52
617.118	56121.8
617.475	56174.46
617.831	56196.15
618.187	56218.75
618.543	56325.41
618.899	56320.21
619.255	56282.25
619.611	56230.95
619.967	56371.06
620.323	56371.96
620.678	56253.1
621.034	56247.67
621.39	56227.79
621.746	56175.81
622.101	56417.61
622.457	56112.08
622.812	56196.38
623.168	56188.24
623.523	56196.83
623.879	56188.24
624.234	56011.97
624.589	55998.64
624.945	56115.93
625.3	56122.93
625.655	56060.56
626.01	56071.63
626.365	56116.15
626.72	55977.62
627.075	55918.42
627.43	55816.5
627.785	55793.67
628.14	55889.04
628.495	55858.98
628.85	55773.56
629.205	55682.26
629.559	55916.38
629.914	55693.56
630.269	55695.37
630.623	55676.62
630.978	55566.79
631.332	55601.59
631.687	55740.12
632.041	55483.4
632.396	55508.03
632.75	55469.84
633.104	55556.39
633.459	55473
633.813	55444.98
634.167	55469.84
634.521	55444.3
634.875	55513.68
635.229	55459.9
635.583	55400.24
635.937	55408.37
636.291	55376.74
636.645	55434.81
636.999	55415.83
637.352	55407.47
637.706	55262.84
638.06	55429.62
638.413	55287.02
638.767	55258.1
639.121	55318.21
639.474	55180.81
639.828	55223.29
640.181	55314.36
640.534	55341.93
640.888	55231.88
641.241	55132.9
641.594	55128.61
641.947	55227.81
642.301	55191.66
642.654	55119.57
643.007	55198.21
643.36	55174.03
643.713	55232.11
644.066	55232.11
644.419	55036.18
644.771	54798.9
645.124	54543.76
645.477	54445.01
645.83	54202.3
646.182	54175.64
646.535	54046.38
646.888	54158.01
647.24	53998.69
647.593	54153.72
647.945	54043.21
648.298	53856.1
648.65	53709.89
649.002	53656.78
649.355	53761.86
649.707	53633.05
650.059	53758.7
650.411	54028.97
650.763	54007.96
651.115	54245.92
651.467	54128.86
651.819	54084.57
652.171	53944.91
652.523	53886.38
652.875	53857.23
653.227	53741.52
653.578	53948.07
653.93	53847.06
654.282	53699.04
654.633	53542.66
654.985	53611.13
655.337	53558.7
655.688	53592.38
656.039	53705.14
656.391	53353.74
656.742	53379.5
657.094	53359.39
657.445	53488.88
657.796	53387.41
658.147	53330.69
658.498	53327.75
658.849	53414.75
659.2	53328.88
659.551	53243.68
659.902	53344.7
660.253	53268.54
660.604	53252.95
660.955	53269.22
661.306	53424.92
661.656	53255.89
662.007	53214.98
662.358	53355.55
662.708	53316.23
663.059	53188.54
663.409	53079.4
663.76	53318.03
664.11	53245.49
664.461	53331.59
664.811	53370.46
665.161	53378.14
665.511	53179.96
665.862	53266.74
666.212	53293.4
666.562	53287.98
666.912	53228.09
667.262	53331.59
667.612	53207.3
667.962	53233.29
668.312	53200.75
668.662	53373.62
669.011	53205.49
669.361	53220.18
669.711	53156.68
670.06	53170.92
670.41	53101.77
670.76	53099.06
671.109	53158.94
671.459	53152.16
671.808	52978.61
672.157	53119.17
672.507	52868.33
672.856	52824.71
673.205	52874.88
673.554	52974.31
673.904	52792.62
674.253	53019.74
674.602	52825.16
674.951	52313.09
675.3	52214.56
675.649	52692.74
675.998	52639.86
676.346	52655.9
676.695	52748.33
677.044	52447.1
677.393	52518.05
677.741	52565.28
678.09	52374.78
678.438	52238.97
678.787	52288.68
679.135	52261.11
679.484	51958.75
679.832	52114.45
680.181	51990.61
680.529	51990.38
680.877	51865.19
681.225	51819.09
681.573	51921.01
681.922	51691.18
682.27	51548.59
682.618	51505.2
682.966	51490.96
683.314	51448.25
683.661	51347.46
684.009	51157.86
684.357	51063.18
684.705	51022.73
685.053	51085.32
685.4	51033.8
685.748	50836.74
686.095	50858.21
686.443	50681.72
686.79	50588.84
687.138	50624.77
687.485	50572.12
687.832	50520.14
688.18	50587.71
688.527	50308.17
688.874	50392.69
689.221	50281.5
689.568	50238.34
689.915	49987.73
690.262	50014.17
690.609	49920.16
690.956	49788.18
691.303	49762.87
691.65	49507.51
691.997	49631.8
692.344	49367.63
692.69	49399.72
693.037	49399.94
693.383	49121.31
693.73	49129.44
694.077	48876.57
694.423	49029.56
694.769	48839.73
695.116	48912.5
695.462	48811.03
695.808	48676.8
696.155	48643.35
696.501	48448.56
696.847	48467.31
697.193	48236.81
697.539	48475.22
697.885	48153.65
698.231	47923.82
698.577	48000.43
698.923	47989.81
699.269	47762.02
699.614	47614.68
699.96	47509.15
700.306	47532.2
700.651	47435.7
700.997	47287.46
701.342	47274.35
701.688	47022.61
702.033	46935.38
702.379	46979.67
702.724	46831.2
703.069	46819.45
703.415	46487.7
703.76	46535.61
704.105	46481.6
704.45	46320.48
704.795	46089.97
705.14	46042.74
705.485	46049.98
705.83	45783.99
706.175	45835.97
706.52	45680.04
706.865	45605.69
707.209	45493.38
707.554	45174.74
707.899	45424.23
708.243	45127.97
708.588	44940.63
708.932	44674.87
709.277	44786.28
709.621	44645.27
709.966	44412.96
710.31	44437.14
710.654	44010.03
710.998	44157.37
711.342	44035.57
711.687	43990.59
712.031	43741.79
712.375	43585.41
712.719	43767.1
713.063	43529.59
713.407	43669.02
713.75	43384.96
714.094	43366.43
714.438	42895.48
714.782	43092.77
715.125	42902.49
715.469	42842.15
715.812	42565.55
716.156	42525.1
716.499	42436.96
716.843	42417.53
717.186	42251.88
717.53	42381.6
717.873	42324.2
718.216	42076.97
718.559	42075.16
718.902	41784.55
719.246	41703.42
719.589	41560.38
719.932	41438.57
720.275	41424.79
720.617	41403.09
720.96	41372.13
721.303	41242.64
721.646	41266.37
721.989	41145.92
722.331	41283.32
722.674	41047.85
723.016	41036.77
723.359	40816.44
723.701	40827.97
724.044	40733.28
724.386	40494.64
724.729	40699.38
725.071	40618.93
725.413	40552.49
725.755	40405.83
726.097	40170.36
726.439	39989.12
726.782	40086.52
727.124	40286.96
727.465	40050.36
727.807	39953.19
728.149	39878.39
728.491	39887.43
728.833	39807.43
729.175	39720.42
729.516	39476.36
729.858	39478.85
730.199	39521.11
730.541	39412.64
730.882	39547.55
731.224	39516.59
731.565	39264.84
731.906	39466.19
732.248	39384.16
732.589	39211.74
732.93	39030.95
733.271	39193.43
733.612	39304.16
733.953	39127.9
734.294	39000.9
734.635	38964.51
734.976	39045.19
735.317	38845.19
735.658	38879.99
735.999	38825.08
736.339	38640.68
736.68	38762.26
737.021	38695.37
737.361	38397.3
737.702	38711.86
738.042	38534.69
738.383	38321.82
738.723	38380.12
739.063	38233.23
739.404	38186.68
739.744	38186.23
740.084	38015.61
740.424	38010.86
740.764	37910.53
741.104	37966.35
741.444	37820.81
741.784	37703.53
742.124	37698.78
742.464	37655.17
742.804	37616.53
743.143	37512.8
743.483	37440.94
743.823	37341.73
744.162	37120.27
744.502	37339.24
744.841	37030.78
745.181	37213.82
745.52	36946.71
745.86	37058.12
746.199	36952.36
746.538	36907.17
746.877	36806.83
747.216	36678.92
747.556	36585.14
747.895	36526.16
748.234	36509.44
748.573	36411.36
748.911	36393.51
749.25	36228.31
749.589	36161.42
749.928	36195.55
750.267	36005.27
750.605	35928.89
750.944	35884.37
751.283	35757.82
751.621	35729.57
751.96	35365.06
752.298	35396.24
752.636	35374.55
752.975	35132.52
