Data from white_steel_sheet_FLMS001491_098.txt Node
Date: Tue Feb 07 10:58:51 GMT 2017
User: dcchb
Spectrometer: FLMS00149
Trigger mode: 0
Integration Time (sec): 2.000000E-2
Scans to average: 10
Electric dark correction enabled: true
Nonlinearity correction enabled: false
Boxcar width: 0
XAxis mode: Wavelengths
Number of Pixels in Spectrum: 2048
>>>>>Begin Spectral Data<<<<<
341.393	-1.53
341.776	-1.53
342.16	-1.53
342.543	-57.8
342.927	-63.67
343.31	-70.68
343.693	-69.55
344.077	-60.73
344.46	-60.96
344.843	-43.56
345.226	-47.63
345.61	-43.11
345.993	-20.51
346.376	1.86
346.759	7.97
347.142	12.26
347.525	46.38
347.908	54.97
348.291	106.72
348.674	94.07
349.057	92.48
349.44	114.4
349.823	153.72
350.206	168.41
350.588	172.03
350.971	219.03
351.354	224.91
351.737	245.25
352.119	250.45
352.502	261.52
352.884	291.8
353.267	281.86
353.65	269.43
354.032	291.35
354.414	305.13
354.797	322.08
355.179	312.82
355.562	333.38
355.944	345.13
356.326	325.92
356.709	334.96
357.091	338.8
357.473	362.08
357.855	347.17
358.238	372.93
358.62	333.16
359.002	345.58
359.384	342.87
359.766	342.65
360.148	354.85
360.53	338.35
360.912	330.44
361.294	346.71
361.676	359.6
362.057	320.73
362.439	341.74
362.821	350.56
363.203	330.67
363.584	346.04
363.966	342.42
364.348	330.9
364.729	336.77
365.111	332.03
365.493	320.95
365.874	330.9
366.256	332.25
366.637	325.7
367.019	314.17
367.4	300.84
367.781	339.26
368.163	344.91
368.544	319.82
368.925	328.18
369.306	326.83
369.688	313.72
370.069	331.8
370.45	299.48
370.831	317.79
371.212	307.85
371.593	336.77
371.974	307.17
372.355	340.39
372.736	344.23
373.117	322.99
373.498	337.22
373.879	342.19
374.26	348.07
374.641	338.35
375.021	313.49
375.402	350.78
375.783	334.28
376.163	334.96
376.544	344.45
376.925	359.37
377.305	338.35
377.686	328.64
378.066	325.7
378.447	352.14
378.827	364.57
379.208	356.66
379.588	355.3
379.968	364.11
380.349	355.53
380.729	356.66
381.109	361.4
381.489	358.01
381.87	352.14
382.25	368.18
382.63	369.54
383.01	368.63
383.39	356.43
383.77	377.9
384.15	370.22
384.53	372.25
384.91	407.73
385.29	383.1
385.67	392.59
386.049	380.61
386.429	402.53
386.809	389.88
387.189	375.87
387.568	378.13
387.948	408.63
388.328	411.8
388.707	386.26
389.087	400.05
389.466	388.75
389.846	382.19
390.225	415.86
390.605	422.64
390.984	405.24
391.363	431.01
391.743	430.78
392.122	444.56
392.501	432.36
392.881	432.14
393.26	452.93
393.639	439.14
394.018	452.93
394.397	461.51
394.776	445.69
395.155	481.4
395.534	463.1
395.913	489.99
396.292	487.5
396.671	484.79
397.05	447.05
397.429	495.86
397.808	504.45
398.186	513.49
398.565	484.11
398.944	493.15
399.323	511.68
399.701	508.74
400.08	552.36
400.458	545.13
400.837	551.45
401.215	560.95
401.594	570.66
401.972	542.42
402.351	567.27
402.729	579.02
403.107	579.25
403.486	588.97
403.864	606.37
404.242	606.59
404.62	613.6
404.999	616.09
405.377	664.9
405.755	637.55
406.133	670.55
406.511	663.09
406.889	659.47
407.267	672.58
407.645	690.21
408.023	709.42
408.401	704.22
408.779	714.61
409.156	736.53
409.534	717.78
409.912	772.24
410.29	767.49
410.667	756.65
411.045	789.87
411.422	805.23
411.8	802.75
412.178	834.61
412.555	817.89
412.933	843.2
413.31	867.6
413.687	840.26
414.065	875.51
414.442	871.67
414.819	912.57
415.197	906.93
415.574	912.35
415.951	906.7
416.328	937.66
416.705	950.09
417.082	950.09
417.46	955.51
417.837	955.51
418.214	991.89
418.591	994.61
418.967	1006.13
419.344	1027.37
419.721	1043.87
420.098	1030.99
420.475	1058.11
420.852	1039.58
421.228	1076.86
421.605	1061.72
421.982	1072.8
422.358	1082.29
422.735	1092.46
423.111	1099.69
423.488	1157.31
423.864	1126.35
424.241	1127.71
424.617	1179.69
424.994	1183.08
425.37	1175.17
425.746	1202.96
426.123	1243.87
426.499	1214.26
426.875	1245
427.251	1269.63
427.627	1299.68
428.003	1275.5
428.379	1319.8
428.756	1317.54
429.132	1340.81
429.507	1387.82
429.883	1375.39
430.259	1386.46
430.635	1399.79
431.011	1402.05
431.387	1437.08
431.763	1465.78
432.138	1462.16
432.514	1474.37
432.89	1513.46
433.265	1546.91
433.641	1548.04
434.016	1584.42
434.392	1604.76
434.767	1610.64
435.143	1616.29
435.518	1645.21
435.894	1656.96
436.269	1690.18
436.644	1707.58
437.02	1692.89
437.395	1727.69
437.77	1762.5
438.145	1809.27
438.52	1805.66
438.895	1828.48
439.271	1822.83
439.646	1835.94
440.021	1867.58
440.395	1878.43
440.77	1860.57
441.145	1905.77
441.52	1964.98
441.895	1967.91
442.27	1976.5
442.645	1946.22
443.019	2013.79
443.394	2015.6
443.769	2025.09
444.143	1996.61
444.518	2057.63
444.892	2045.2
445.267	2089.72
445.641	2087.23
446.016	2104.63
446.39	2112.77
446.764	2133.11
447.139	2156.84
447.513	2195.7
447.887	2191.64
448.262	2222.6
448.636	2229.15
449.01	2227.12
449.384	2273.67
449.758	2279.09
450.132	2319.32
450.506	2322.48
450.88	2341.01
451.254	2390.73
451.628	2389.37
452.002	2393.89
452.376	2432.53
452.75	2424.85
453.123	2482.48
453.497	2510.27
453.871	2510.05
454.244	2592.3
454.618	2567.22
454.992	2570.61
455.365	2635.69
455.739	2705.75
456.112	2719.76
456.486	2702.13
456.859	2772.86
457.232	2826.42
457.606	2843.37
457.979	2876.14
458.352	2916.59
458.725	2942.35
459.099	2954.56
459.472	3032.75
459.845	3037.72
460.218	3074.33
460.591	3121.56
460.964	3099.86
461.337	3163.36
461.71	3243.36
462.083	3281.55
462.456	3317.48
462.829	3292.17
463.201	3363.13
463.574	3369.91
463.947	3414.88
464.32	3502.34
464.692	3519.06
465.065	3573.52
465.438	3601.77
465.81	3645.84
466.183	3687.42
466.555	3739.39
466.928	3794.31
467.3	3773.29
467.672	3808.32
468.045	3961.99
468.417	3918.15
468.789	3976.68
469.161	4012.38
469.534	4093.51
469.906	4171.02
470.278	4187.07
470.65	4232.71
471.022	4292.82
471.394	4380.73
471.766	4449.66
472.138	4496.89
472.51	4574.4
472.882	4687.39
473.253	4720.38
473.625	4805.81
473.997	4858.46
474.369	4880.38
474.74	4930.77
475.112	5018.91
475.484	5130.32
475.855	5229.52
476.227	5218
476.598	5359.24
476.97	5409.86
477.341	5566.69
477.713	5677.65
478.084	5681.72
478.455	5846.46
478.827	5857.53
479.198	6037.19
479.569	6040.8
479.94	6174.36
480.311	6272.21
480.682	6381.58
481.053	6523.27
481.424	6668.58
481.795	6645.76
482.166	6812.76
482.537	6906.54
482.908	7075.8
483.279	7099.08
483.65	7228.34
484.021	7390.6
484.391	7464.04
484.762	7553.53
485.133	7640.08
485.503	7759.17
485.874	7899.74
486.244	7926.85
486.615	8143.57
486.985	8193.74
487.356	8377.92
487.726	8412.49
488.097	8572.94
488.467	8605.48
488.837	8856.32
489.207	8920.5
489.578	9067.39
489.948	9126.37
490.318	9235.29
490.688	9275.97
491.058	9451.79
491.428	9524.55
491.798	9653.59
492.168	9841.83
492.538	9857.2
492.908	10014.03
493.278	10120.47
493.648	10149.39
494.017	10394.36
494.387	10375.15
494.757	10530.63
495.126	10663.96
495.496	10659.21
495.866	10819.66
496.235	10899.2
496.605	11034.57
496.974	11009.48
497.344	11168.12
497.713	11173.1
498.082	11320.21
498.452	11473.88
498.821	11510.04
499.19	11516.14
499.559	11670.71
499.928	11722.91
500.298	11866.86
500.667	11980.76
501.036	11965.17
501.405	12054.65
501.774	12194.31
502.143	12287.42
502.512	12351.14
502.88	12443.35
503.249	12510.69
503.618	12545.49
503.987	12592.49
504.356	12780.06
504.724	12813.96
505.093	12829.1
505.462	13014.4
505.83	13043.56
506.199	13221.63
506.567	13314.28
506.936	13335.07
507.304	13521.73
507.672	13609.42
508.041	13696.87
508.409	13836.53
508.777	13865.45
509.145	13981.16
509.514	13992.23
509.882	14152.68
510.25	14261.38
510.618	14317.42
510.986	14382.5
511.354	14589.5
511.722	14727.35
512.09	14822.72
512.458	14827.69
512.826	14981.36
513.193	15020.9
513.561	15134.8
513.929	15165.76
514.297	15494.56
514.664	15614.79
515.032	15567.1
515.4	15751.96
515.767	15837.83
516.135	15934.33
516.502	15976.81
516.869	16210.48
517.237	16285.73
517.604	16310.36
517.972	16458.61
518.339	16570.92
518.706	16709.9
519.073	16756
519.44	17001.64
519.808	17062.66
520.175	17036.44
520.542	17256.1
520.909	17516.43
521.276	17532.02
521.643	17734.05
522.009	17807.05
522.376	17911.45
522.743	18114.38
523.11	18265.79
523.477	18371.32
523.843	18461.72
524.21	18743.29
524.577	18827.81
524.943	18972.89
525.31	19025.77
525.676	19295.82
526.043	19421.01
526.409	19467.12
526.776	19717.5
527.142	19827.78
527.508	19805.19
527.874	20115.01
528.241	20213.99
528.607	20304.61
528.973	20493.08
529.339	20565.17
529.705	20776.69
530.071	20877.7
530.437	20965.61
530.803	21110.24
531.169	21163.34
531.535	21361.98
531.901	21338.93
532.267	21492.15
532.632	21619.83
532.998	21734.17
533.364	21912.25
533.73	21926.03
534.095	22100.94
534.461	22194.5
534.826	22334.84
535.192	22332.12
535.557	22526.92
535.923	22607.15
536.288	22585.9
536.653	22880.81
537.019	22738.67
537.384	22948.61
537.749	23014.82
538.114	23143.4
538.479	23109.51
538.845	23327.8
539.21	23316.05
539.575	23484.64
539.94	23551.53
540.305	23710.39
540.67	23635.82
541.034	23790.84
541.399	23892.54
541.764	23837.4
542.129	24085.98
542.494	24083.72
542.858	24169.59
543.223	24204.84
543.587	24444.84
543.952	24367.1
544.316	24471.5
544.681	24467.66
545.045	24564.83
545.41	24810.48
545.774	24884.6
546.138	24931.15
546.503	25052.51
546.867	24978.61
547.231	25239.62
547.595	25237.36
547.959	25377.02
548.324	25406.62
548.688	25461.76
549.052	25515.54
549.416	25589.44
549.779	25689.32
550.143	25808.64
550.507	25988.07
550.871	26015.19
551.235	26026.04
551.599	26201.85
551.962	26181.06
552.326	26440.04
552.689	26503.09
553.053	26480.49
553.417	26516.87
553.78	26939.69
554.143	26726.36
554.507	26695.63
554.87	26960.7
555.234	27224.43
555.597	27103.52
555.96	27344.2
556.323	27339.22
556.686	27427.36
557.05	27849.04
557.413	27840.45
557.776	27784.86
558.139	28103.5
558.502	28118.64
558.865	28185.53
559.228	28422.36
559.59	28618.97
559.953	28507.78
560.316	28842.24
560.679	28859.18
561.041	29034.1
561.404	28999.52
561.767	29274.32
562.129	29209.68
562.492	29574.19
562.854	29496
563.217	29529.68
563.579	29700.74
563.941	29765.38
564.304	29958.14
564.666	30233.61
565.028	30277.68
565.39	30307.51
565.753	30420.95
566.115	30564.68
566.477	30751.11
566.839	30907.04
567.201	31014.16
567.563	31074.95
567.925	31263.42
568.287	31248.5
568.648	31264.55
569.01	31369.85
569.372	31640.81
569.734	31520.81
570.095	31732.78
570.457	31870.18
570.819	31998.54
571.18	32115.37
571.542	32238.76
571.903	32280.79
572.265	32412.31
572.626	32487.79
572.987	32550.39
573.349	32724.17
573.71	32717.16
574.071	32847.1
574.432	32950.83
574.794	33082.8
575.155	33035.8
575.516	33124.38
575.877	33167.32
576.238	33242.35
576.599	33344.49
576.96	33339.52
577.32	33324.83
577.681	33506.52
578.042	33553.98
578.403	33578.61
578.763	33539.97
579.124	33600.75
579.485	33802.78
579.845	33918.49
580.206	33871.26
580.566	33690.47
580.927	33741.77
581.287	34009.11
581.648	33935.66
582.008	34007.98
582.368	34073.51
582.728	34026.28
583.089	33977.69
583.449	33920.52
583.809	34097.24
584.169	34134.3
584.529	33994.19
584.889	34307.4
585.249	33946.51
585.609	33872.84
585.969	34130.46
586.329	34045.49
586.688	34081.42
587.048	34106.96
587.408	33901.99
587.768	33926.17
588.127	33986.28
588.487	33905.83
588.846	34317.35
589.206	34030.8
589.565	34099.72
589.925	34337.23
590.284	34101.08
590.643	34118.71
591.003	34164.58
591.362	34196.9
591.721	34128.42
592.08	34130.01
592.44	34150.12
592.799	34170.01
593.158	34097.92
593.517	34221.3
593.876	34205.48
594.235	34200.74
594.593	34121.87
594.952	34230.57
595.311	34118.71
595.67	34228.08
596.029	34422.2
596.387	34419.26
596.746	34410.23
597.104	34280.51
597.463	34188.54
597.822	34271.25
598.18	34208.65
598.538	34277.12
598.897	34425.37
599.255	34077.35
599.613	34558.02
599.972	34489.32
600.33	34444.12
600.688	34250
601.046	34400.51
601.404	34617.68
601.762	34426.95
602.12	34626.26
602.478	34534.29
602.836	34521.86
603.194	34530.45
603.552	34568.64
603.91	34424.91
604.268	34690.22
604.625	34441.18
604.983	34574.29
605.341	34499.71
605.698	34707.62
606.056	34702.42
606.413	34679.82
606.771	34715.53
607.128	34702.65
607.485	34616.32
607.843	34637.11
608.2	34762.76
608.557	34828.29
608.914	34829.65
609.272	35081.17
609.629	34885.69
609.986	35198.9
610.343	34956.65
610.7	35247.94
611.057	35158.45
611.414	35087.04
611.771	35008.18
612.127	35159.13
612.484	35299.92
612.841	35389.63
613.198	35240.03
613.554	35221.5
613.911	35347.6
614.267	35430.31
614.624	35424.89
614.98	35568.61
615.337	35577.2
615.693	35643.19
616.05	35562.51
616.406	35750.53
616.762	35480.71
617.118	35739.46
617.475	35803.41
617.831	35776.29
618.187	35825.33
618.543	35827.14
618.899	35927.47
619.255	35876.85
619.611	35901.26
619.967	35954.59
620.323	36025.78
620.678	35951.2
621.034	35864.88
621.39	35895.84
621.746	35834.59
622.101	36312.77
622.457	36022.16
622.812	36077.3
623.168	36155.04
623.523	36042.95
623.879	36209.05
624.234	36002.05
624.589	36022.84
624.945	36102.84
625.3	36085.89
625.655	36127.92
626.01	36019.9
626.365	36053.12
626.72	36037.75
627.075	36114.81
627.43	36084.08
627.785	35904.65
628.14	36127.24
628.495	35967.7
628.85	35974.93
629.205	35808.61
629.559	36056.96
629.914	35808.38
630.269	36137.64
630.623	35707.59
630.978	35644.77
631.332	36000.47
631.687	36021.48
632.041	35733.13
632.396	35959.11
632.75	35773.58
633.104	35657.2
633.459	35635.5
633.813	35456.98
634.167	35558.22
634.521	35468.28
634.875	35813.8
635.229	35487.71
635.583	35428.96
635.937	35463.76
636.291	35185.8
636.645	35295.63
636.999	35144.9
637.352	35366.13
637.706	34971.11
638.06	35208.62
638.413	35097.44
638.767	35012.92
639.121	35075.52
639.474	34924.11
639.828	34834.62
640.181	34884.34
640.534	34802.53
640.888	34748.97
641.241	34502.2
641.594	34550.33
641.947	34708.3
642.301	34688.41
642.654	34556.21
643.007	34469.21
643.36	34411.81
643.713	34191.47
644.066	34683.44
644.419	34331.81
644.771	34037.81
645.124	33719.85
645.477	33675.56
645.83	33372.29
646.182	33277.15
646.535	33171.39
646.888	33240.09
647.24	33189.47
647.593	33370.7
647.945	33272.85
648.298	33018.4
648.65	33005.97
649.002	32921.45
649.355	33168
649.707	32910.83
650.059	32940.21
650.411	33391.27
650.763	33495.22
651.115	33809.79
651.467	33704.93
651.819	33622.22
652.171	33600.53
652.523	33511.49
652.875	33559.85
653.227	33348.33
653.578	33645.05
653.93	33531.15
654.282	33358.05
654.633	33216.13
654.985	33334.77
655.337	33312.63
655.688	33317.82
656.039	33424.04
656.391	33181.1
656.742	33077.83
657.094	33269.69
657.445	33251.84
657.796	33185.4
658.147	33135.46
658.498	33059.53
658.849	33156.25
659.2	32979.08
659.551	32958.74
659.902	32965.97
660.253	33052.29
660.604	33019.75
660.955	32741.79
661.306	32833.32
661.656	32619.09
662.007	32702.7
662.358	32691.63
662.708	32680.1
663.059	32681.46
663.409	32434.46
663.76	32559.43
664.11	32568.24
664.461	32542.03
664.811	32438.3
665.161	32523.72
665.511	32262.71
665.862	32186.78
666.212	32285.99
666.562	32286.44
666.912	32058.42
667.262	32086.9
667.612	31954.92
667.962	31966.22
668.312	31866.34
668.662	31993.34
669.011	31794.25
669.361	31588.15
669.711	31638.32
670.06	31438.1
670.41	31313.13
670.76	31228.16
671.109	31378.21
671.459	31243.08
671.808	31278.56
672.157	31244.43
672.507	30907.27
672.856	30954.95
673.205	31049.64
673.554	30999.69
673.904	30784.78
674.253	31145.23
674.602	30854.84
674.951	30350.22
675.3	30221.41
675.649	30684.9
675.998	30632.02
676.346	30719.7
676.695	30824.78
677.044	30443.78
677.393	30569.87
677.741	30614.84
678.09	30657.56
678.438	30488.07
678.787	30578.01
679.135	30454.4
679.484	30293.72
679.832	30397.9
680.181	30308.86
680.529	30393.83
680.877	30308.41
681.225	30277.45
681.573	30560.83
681.922	30141.41
682.27	30277
682.618	30358.81
682.966	30392.03
683.314	30334.63
683.661	30267.51
684.009	30188.42
684.357	30175.76
684.705	30154.97
685.053	30256.66
685.4	30219.6
685.748	30102.77
686.095	30035.88
686.443	30046.95
686.79	30093.5
687.138	30112.71
687.485	30173.95
687.832	30019.61
688.18	30201.52
688.527	30086.95
688.874	29964.24
689.221	29864.81
689.568	29894.19
689.915	29935.09
690.262	29950
690.609	29881.53
690.956	29847.63
691.303	29743.46
691.65	29574.19
691.997	29827.29
692.344	29539.17
692.69	29688.32
693.037	29697.35
693.383	29413.29
693.73	29471.15
694.077	29327.65
694.423	29468.43
694.769	29312.73
695.116	29366.97
695.462	29284.94
695.808	29194.54
696.155	29354.54
696.501	29033.64
696.847	29061.44
697.193	28823.03
697.539	28989.8
697.885	28802.69
698.231	28751.84
698.577	28715.01
698.923	28716.14
699.269	28440.44
699.614	28451.29
699.96	28281.35
700.306	28411.74
700.651	28345.75
700.997	28174.91
701.342	28093.1
701.688	28108.24
702.033	27999.32
702.379	27938.53
702.724	27860.11
703.069	27882.71
703.415	27780.34
703.76	27543.06
704.105	27679.33
704.45	27682.72
704.795	27397.75
705.14	27329.96
705.485	27252
705.83	27250.19
706.175	27317.76
706.52	27203.18
706.865	27005.45
707.209	27012.91
707.554	26940.82
707.899	27086.12
708.243	26832.12
708.588	26767.49
708.932	26657.89
709.277	26651.79
709.621	26763.87
709.966	26377.22
710.31	26648.85
710.654	26076.21
710.998	26395.75
711.342	26350.78
711.687	26243.89
712.031	26119.14
712.375	26170.89
712.719	26053.16
713.063	26083.89
713.407	26122.08
713.75	25849.32
714.094	25911.24
714.438	25833.73
714.782	25956.66
715.125	25602.32
715.469	25749.21
715.812	25588.08
716.156	25441.87
716.499	25515.54
716.843	25591.7
717.186	25329.11
717.53	25473.74
717.873	25440.07
718.216	25410.24
718.559	25164.59
718.902	24979.96
719.246	25244.59
719.589	25129.79
719.932	25110.81
720.275	24939.97
720.617	24887.99
720.96	24870.81
721.303	24834.66
721.646	24893.41
721.989	24776.81
722.331	24876.01
722.674	24711.95
723.016	24720.76
723.359	24685.74
723.701	24733.42
724.044	24479.41
724.386	24384.95
724.729	24461.56
725.071	24439.87
725.413	24449.36
725.755	24339.08
726.097	24243.03
726.439	24159.87
726.782	24107.67
727.124	24272.41
727.465	24156.03
727.807	24048.24
728.149	24055.92
728.491	23887.34
728.833	24091.63
729.175	23903.16
729.516	23957.84
729.858	23806.66
730.199	23958.97
730.541	23805.08
730.882	23803.27
731.224	23913.78
731.565	23706.55
731.906	23568.02
732.248	23620.45
732.589	23566.22
732.93	23456.39
733.271	23413.68
733.612	23433.34
733.953	23434.69
734.294	23423.62
734.635	23377.07
734.976	23314.47
735.317	23196.96
735.658	23216.17
735.999	23204.64
736.339	23113.12
736.68	23198.09
737.021	23158.77
737.361	23021.6
737.702	23171.2
738.042	22972.11
738.383	22979.57
738.723	22996.06
739.063	22805.78
739.404	22905.89
739.744	22851.43
740.084	22829.51
740.424	22717.2
740.764	22735.96
741.104	22724.88
741.444	22618.67
741.784	22557.2
742.124	22502.74
742.464	22465
742.804	22488.73
743.143	22403.99
743.483	22435.62
743.823	22215.74
744.162	22254.84
744.502	22336.87
744.841	22161.06
745.181	22207.16
745.52	22075.41
745.86	22126.93
746.199	22084.67
746.538	22112.47
746.877	22180.26
747.216	22029.76
747.556	21909.31
747.895	21923.77
748.234	21830.22
748.573	21951.8
748.911	21831.8
749.25	21791.8
749.589	21721.29
749.928	21654.63
750.267	21725.81
750.605	21622.31
750.944	21699.82
751.283	21527.17
751.621	21645.59
751.96	21447.4
752.298	21417.8
752.636	21370.12
752.975	21344.81
753.313	21212.38
753.651	21291.7
753.989	21161.08
754.327	21111.37
