Data from whiteboard_FLMS001491_00046.txt Node
Date: Wed Feb 08 11:26:40 GMT 2017
User: dcchb
Spectrometer: FLMS00149
Trigger mode: 0
Integration Time (sec): 2.000000E-2
Scans to average: 10
Electric dark correction enabled: true
Nonlinearity correction enabled: false
Boxcar width: 0
XAxis mode: Wavelengths
Number of Pixels in Spectrum: 2048
>>>>>Begin Spectral Data<<<<<
341.393	-22.23
341.776	-22.23
342.16	-22.23
342.543	-74.66
342.927	-67.88
343.31	-58.39
343.693	-75.56
344.077	-62.91
344.46	-58.39
344.843	-57.94
345.226	-51.61
345.61	-17.94
345.993	-14.55
346.376	3.3
346.759	2.63
347.142	39.01
347.525	41.04
347.908	63.42
348.291	59.8
348.674	86.24
349.057	101.83
349.44	125.11
349.823	151.78
350.206	173.47
350.588	216.63
350.971	245.56
351.354	249.4
351.737	256.41
352.119	270.42
352.502	274.94
352.884	306.57
353.267	306.57
353.65	322.39
354.032	318.1
354.414	353.13
354.797	348.38
355.179	358.78
355.562	392.22
355.944	369.62
356.326	364.2
356.709	354.93
357.091	376.18
357.473	387.02
357.855	380.92
358.238	363.07
358.62	378.21
359.002	391.32
359.384	382.73
359.766	373.92
360.148	359.45
360.53	366.69
360.912	379.57
361.294	381.6
361.676	359.91
362.057	366.69
362.439	360.58
362.821	379.79
363.203	387.25
363.584	375.27
363.966	350.19
364.348	371.66
364.729	381.6
365.111	358.32
365.493	381.37
365.874	386.35
366.256	372.79
366.637	365.33
367.019	370.08
367.4	370.75
367.781	375.95
368.163	377.31
368.544	384.09
368.925	372.79
369.306	369.62
369.688	397.87
370.069	385.67
370.45	379.57
370.831	355.61
371.212	391.54
371.593	370.53
371.974	384.99
372.355	389.06
372.736	390.41
373.117	371.2
373.498	403.29
373.879	380.47
374.26	382.73
374.641	391.09
375.021	382.73
375.402	381.6
375.783	403.97
376.163	438.77
376.544	406.91
376.925	417.53
377.305	417.31
377.686	394.71
378.066	399.9
378.447	403.07
378.827	398.32
379.208	408.94
379.588	416.85
379.968	404.2
380.349	438.1
380.729	437.87
381.109	424.99
381.489	431.54
381.87	442.39
382.25	447.59
382.63	445.1
383.01	457.08
383.39	442.62
383.77	448.27
384.15	444.65
384.53	459.79
384.91	475.16
385.29	489.62
385.67	480.81
386.049	477.42
386.429	480.58
386.809	523.74
387.189	499.11
387.568	494.14
387.948	501.15
388.328	485.1
388.707	537.75
389.087	551.31
389.466	541.6
389.846	546.34
390.225	553.35
390.605	558.32
390.984	556.96
391.363	560.35
391.743	577.75
392.122	589.5
392.501	598.77
392.881	607.13
393.26	599.22
393.639	622.27
394.018	611.88
394.397	614.81
394.776	656.4
395.155	642.38
395.534	660.01
395.913	627.92
396.292	684.87
396.671	686.68
397.05	690.97
397.429	659.56
397.808	710.18
398.186	704.3
398.565	736.17
398.944	723.29
399.323	740.23
399.701	717.64
400.08	763.51
400.458	789.27
400.837	773
401.215	792.44
401.594	816.62
401.972	829.05
402.351	848.71
402.729	858.2
403.107	873.11
403.486	882.15
403.864	901.36
404.242	905.43
404.62	909.5
404.999	965.09
405.377	949.49
405.755	980.91
406.133	994.47
406.511	957.63
406.889	994.69
407.267	1029.72
407.645	1049.38
408.023	1084.41
408.401	1092.09
408.779	1133.9
409.156	1161.92
409.534	1170.73
409.912	1205.31
410.29	1234.91
410.667	1240.56
411.045	1283.27
411.422	1283.95
411.8	1290.05
412.178	1322.82
412.555	1390.61
412.933	1400.56
413.31	1421.12
413.687	1439.88
414.065	1471.29
414.442	1458.18
414.819	1521.01
415.197	1546.09
415.574	1555.81
415.951	1560.78
416.328	1609.36
416.705	1617.73
417.082	1604.62
417.46	1644.62
417.837	1648.91
418.214	1677.39
418.591	1699.31
418.967	1731.85
419.344	1767.1
419.721	1793.31
420.098	1761.22
420.475	1811.39
420.852	1843.71
421.228	1874.67
421.605	1907.21
421.982	1915.12
422.358	1918.51
422.735	2008.22
423.111	1974.1
423.488	1997.6
423.864	2038.05
424.241	2066.98
424.617	2065.62
424.994	2132.97
425.37	2136.13
425.746	2164.6
426.123	2205.73
426.499	2232.85
426.875	2217.03
427.251	2307.2
427.627	2340.64
428.003	2362.56
428.379	2370.7
428.756	2411.83
429.132	2491.15
429.507	2498.61
429.883	2518.04
430.259	2594.88
430.635	2574.08
431.011	2659.73
431.387	2717.13
431.763	2700.18
432.138	2741.31
432.514	2776.34
432.89	2808.43
433.265	2865.15
433.641	2880.97
434.016	2923
434.392	2997.58
434.767	3034.19
435.143	3062.66
435.518	3085.94
435.894	3132.94
436.269	3182.43
436.644	3235.08
437.02	3253.62
437.395	3270.34
437.77	3313.5
438.145	3379.49
438.52	3464.68
438.895	3466.72
439.271	3491.35
439.646	3555.98
440.021	3582.42
440.395	3632.36
440.77	3608.63
441.145	3690.21
441.52	3739.7
441.895	3746.71
442.27	3776.99
442.645	3798.01
443.019	3865.8
443.394	3858.12
443.769	3871
444.143	3880.49
444.518	3992.8
444.892	3938.12
445.267	3992.8
445.641	4033.26
446.016	4059.92
446.39	4088.85
446.764	4120.71
447.139	4101.28
447.513	4158.45
447.887	4202.97
448.262	4187.6
448.636	4192.57
449.01	4299.46
449.384	4307.6
449.758	4394.38
450.132	4406.58
450.506	4426.24
450.88	4500.36
451.254	4524.09
451.628	4607.7
452.002	4670.53
452.376	4682.28
452.75	4797.3
453.123	4831.88
453.497	4905.1
453.871	4895.15
454.244	5075.49
454.618	5070.06
454.992	5166.33
455.365	5200.23
455.739	5333.33
456.112	5340.11
456.486	5408.81
456.859	5430.28
457.232	5581.24
457.606	5579.88
457.979	5609.71
458.352	5801.57
458.725	5858.29
459.099	5884.96
459.472	6042.02
459.845	6070.72
460.218	6176.93
460.591	6253.08
460.964	6265.97
461.337	6360.65
461.71	6406.3
462.083	6562.91
462.456	6535.56
462.829	6630.93
463.201	6767.87
463.574	6701.43
463.947	6800.19
464.32	6987.3
464.692	7083.12
465.065	7132.38
465.438	7184.36
465.81	7320.4
466.183	7394.3
466.555	7622.31
466.928	7659.6
467.3	7687.17
467.672	7781.63
468.045	7986.82
468.417	8026.14
468.789	8103.88
469.161	8254.39
469.534	8425.46
469.906	8700.93
470.278	8738.89
470.65	8784.99
471.022	8990.64
471.394	9147.25
471.766	9193.12
472.138	9399.89
472.51	9536.84
472.882	9745.2
473.253	9862.03
473.625	9985.87
473.997	10215.47
474.369	10291.17
474.74	10389.02
475.112	10611.16
475.484	10803.92
475.855	11015.67
476.227	10998.72
476.598	11441.65
476.97	11483.23
477.341	11718.25
477.713	11887.51
478.084	11924.8
478.455	12270.55
478.827	12391
479.198	12738.79
479.569	12721.84
479.94	13133.36
480.311	13219
480.682	13474.14
481.053	13838.2
481.424	14001.36
481.795	14134.68
482.166	14333.55
482.537	14588.46
482.908	14820.99
483.279	15062.12
483.65	15305.73
484.021	15566.51
484.391	15745.49
484.762	15971.7
485.133	16121.07
485.503	16359.94
485.874	16761.06
486.244	16982.75
486.615	17278.33
486.985	17452.79
487.356	17882.61
487.726	18018.42
488.097	18476.27
488.467	18527.79
488.837	18911.51
489.207	19074.22
489.578	19469.46
489.948	19562.79
490.318	20015.89
490.688	20000.52
491.058	20381.75
491.428	20709.65
491.798	20939.7
492.168	21334.04
492.538	21429.18
492.908	21706.92
493.278	21934.93
493.648	22005.66
494.017	22358.65
494.387	22528.14
494.757	22702.37
495.126	22917.28
495.496	22941.46
495.866	23168.12
496.235	23326.76
496.605	23464.16
496.974	23712.51
497.344	23839.51
497.713	24015.1
498.082	24210.13
498.452	24281.31
498.821	24540.51
499.19	24568.53
499.559	24812.6
499.928	24891.24
500.298	25154.73
500.667	25371.68
501.036	25289.65
501.405	25709.52
501.774	25623.65
502.143	26027.93
502.512	26197.19
502.88	26374.36
503.249	26289.62
503.618	26655.49
503.987	26644.19
504.356	27040.33
504.724	27169.37
505.093	27348.35
505.462	27521.45
505.83	27709.24
506.199	27959.18
506.567	28432.16
506.936	28363.46
507.304	28790.8
507.672	28913.51
508.041	29199.83
508.409	29371.57
508.777	29734.05
509.145	29900.6
509.514	30075.51
509.882	30257.65
510.25	30385.56
510.618	30661.03
510.986	30835.94
511.354	31168.59
511.722	31392.31
512.09	31672.98
512.458	31612.42
512.826	31975.8
513.193	32101.9
513.561	32312.29
513.929	32465.95
514.297	32765.61
514.664	33046.05
515.032	33130.34
515.4	33325.37
515.767	33377.79
516.135	33594.06
516.502	33515.19
516.869	34165.34
517.237	34104.33
517.604	34083.99
517.972	34456.41
518.339	34739.57
518.706	34828.83
519.073	34919.68
519.44	35142.95
519.808	35658.41
520.175	35543.61
520.542	36056.14
520.909	36073.32
521.276	36132.07
521.643	36494.32
522.009	36766.86
522.376	37039.85
522.743	37436.22
523.11	37731.13
523.477	38107.39
523.843	38350.77
524.21	38734.04
524.577	38972.22
524.943	39241.37
525.31	39495.6
525.676	39941.46
526.043	40040.67
526.409	40337.39
526.776	40876.35
527.142	40795.45
527.508	41110.7
527.874	41446.51
528.241	41805.37
528.607	41843.33
528.973	42395.86
529.339	42536.42
529.705	42842.18
530.071	43084.88
530.437	43413.01
530.803	43657.75
531.169	43883.96
531.535	43867.01
531.901	43999.21
532.267	44379.54
532.632	44607.1
532.998	44732.75
533.364	45121.67
533.73	45239.86
534.095	45532.73
534.461	45612.28
534.826	45838.71
535.192	46029.67
535.557	46210.45
535.923	46303.78
536.288	46400.96
536.653	46614.96
537.019	46496.77
537.384	46717.78
537.749	46941.73
538.114	46918
538.479	46966.82
538.845	47147.6
539.21	46987.83
539.575	47347.37
539.94	47219.01
540.305	47604.99
540.67	47528.16
541.034	47615.61
541.399	47789.17
541.764	47809.96
542.129	47904.87
542.494	48083.62
542.858	48212.21
543.223	48263.5
543.587	48419.43
543.952	48458.08
544.316	48748.92
544.681	48668.24
545.045	48858.07
545.41	49026.2
545.774	49173.99
546.138	49268
546.503	49442.01
546.867	49320.2
547.231	49700.76
547.595	49797.7
547.959	49977.58
548.324	50032.05
548.688	50149.78
549.052	50329.89
549.416	50347.52
549.779	50469.55
550.143	50676.32
550.507	50923.77
550.871	51139.14
551.235	51026.37
551.599	51373.25
551.962	51448.28
552.326	51611.89
552.689	51738.22
553.053	51701.83
553.417	51809.17
553.78	52281.25
554.143	52066.12
554.507	52420.91
554.87	52502.49
555.234	52882.59
555.597	52701.13
555.96	52835.14
556.323	52852.08
556.686	52948.35
557.05	53179.08
557.413	53389.92
557.776	53480.09
558.139	53495.01
558.502	53535.91
558.865	53607.55
559.228	53847.54
559.59	54029.68
559.953	53972.06
560.316	54272.84
560.679	54185.61
561.041	54368.88
561.404	54471.7
561.767	54596.9
562.129	54583.11
562.492	54794.41
562.854	54772.71
563.217	54708.53
563.579	54932.03
563.941	55131.8
564.304	55144.68
564.666	55204.57
565.028	55285.92
565.39	55393.49
565.753	55437.55
566.115	55565.69
566.477	55643.88
566.839	55668.28
567.201	55798.45
567.563	55941.5
567.925	56081.6
568.287	56065.11
568.648	56137.42
569.01	56258.1
569.372	56407.7
569.734	56354.37
570.095	56504.87
570.457	56631.87
570.819	56663.51
571.18	56684.53
571.542	56961.13
571.903	56925.42
572.265	57014.69
572.626	57113.22
572.987	57193.67
573.349	57284.74
573.71	57422.13
574.071	57407.9
574.432	57516.82
574.794	57733.09
575.155	57735.57
575.516	57701.9
575.877	57863.7
576.238	57896.47
576.599	58051.72
576.96	58014.21
577.32	58007.66
577.681	58156.8
578.042	58272.96
578.403	58307.76
578.763	58367.42
579.124	58402.45
579.485	58495.1
579.845	58582.33
580.206	58585.04
580.566	58572.84
580.927	58672.72
581.287	58779.39
581.648	58608.54
582.008	58813.51
582.368	58690.35
582.728	58814.87
583.089	58763.79
583.449	58816.9
583.809	58808.09
584.169	58869.55
584.529	58809.89
584.889	58943.22
585.249	58787.75
585.609	58751.82
585.969	58902.77
586.329	58822.55
586.688	58824.81
587.048	58751.36
587.408	58773.06
587.768	58732.38
588.127	58687.86
588.487	58665.72
588.846	58783.68
589.206	58619.62
589.565	58623.23
589.925	58676.34
590.284	58575.32
590.643	58619.39
591.003	58688.32
591.362	58707.75
591.721	58691.03
592.08	58541.88
592.44	58618.49
592.799	58671.14
593.158	58604.25
593.517	58613.52
593.876	58589.56
594.235	58539.17
594.593	58535.78
594.952	58625.94
595.311	58485.16
595.67	58529.45
596.029	58670.01
596.387	58694.87
596.746	58670.01
597.104	58608.77
597.463	58609.67
597.822	58739.61
598.18	58627.75
598.538	58585.95
598.897	58761.76
599.255	58630.01
599.613	59000.85
599.972	58848.31
600.33	58923.56
600.688	58777.8
601.046	58933.73
601.404	59017.8
601.762	58974.64
602.12	59081.07
602.478	59080.17
602.836	59166.27
603.194	59051.02
603.552	59150.22
603.91	59114.29
604.268	59282.65
604.625	59160.62
604.983	59291.01
605.341	59225.02
605.698	59403.33
606.056	59375.3
606.413	59381.4
606.771	59474.74
607.128	59522.19
607.485	59472.93
607.843	59510.21
608.2	59717.22
608.557	59744.79
608.914	59676.76
609.272	59822.07
609.629	59881.73
609.986	59879.24
610.343	59707.5
610.7	59930.32
611.057	59860.49
611.414	59876.08
611.771	59918.11
612.127	59942.75
612.484	59997.66
612.841	60027.04
613.198	60025.91
613.554	59961.95
613.911	60049.86
614.267	60027.04
614.624	59989.52
614.98	60075.4
615.337	60152.46
615.693	60032.69
616.05	60029.07
616.406	60133.02
616.762	60069.3
617.118	60059.13
617.475	59928.06
617.831	59991.78
618.187	60026.81
618.543	60094.61
618.899	60221.61
619.255	60038.79
619.611	60070.43
619.967	60128.28
620.323	60069.52
620.678	60011.67
621.034	59919.47
621.39	59949.75
621.746	59895.29
622.101	60162.85
622.457	59939.81
622.812	59903.42
623.168	59947.72
623.523	59940.49
623.879	60009.64
624.234	59859.36
624.589	59939.36
624.945	59842.41
625.3	59914.72
625.655	59856.87
626.01	59880.83
626.365	59876.31
626.72	59838.79
627.075	59912.01
627.43	59796.31
627.785	59741.62
628.14	59740.94
628.495	59731.45
628.85	59788.4
629.205	59675.41
629.559	59796.31
629.914	59710.44
630.269	59727.84
630.623	59645.13
630.978	59611.23
631.332	59818.91
631.687	59825.01
632.041	59691.45
632.396	59777.78
632.75	59633.38
633.104	59712.24
633.459	59654.84
633.813	59591.79
634.167	59620.27
634.521	59631.57
634.875	59748.17
635.229	59705.24
635.583	59614.39
635.937	59643.54
636.291	59600.16
636.645	59658.91
636.999	59607.16
637.352	59675.18
637.706	59574.85
638.06	59695.75
638.413	59632.7
638.767	59551.8
639.121	59559.48
639.474	59364.91
639.828	59479.03
640.181	59525.36
640.534	59490.1
640.888	59455.75
641.241	59374.4
641.594	59406.04
641.947	59487.16
642.301	59390.44
642.654	59369.88
643.007	59343.67
643.36	59341.86
643.713	59291.01
644.066	59323.1
644.419	59181.18
644.771	59045.14
645.124	58779.16
645.477	58744.36
645.83	58563.57
646.182	58415.33
646.535	58282.9
646.888	58293.07
647.24	58113.64
647.593	58220.08
647.945	58163.81
648.298	58038.39
648.65	57985.28
649.002	57840.88
649.355	57965.17
649.707	57964.04
650.059	58031.84
650.411	58312.28
650.763	58249.23
651.115	58442.22
651.467	58268.67
651.819	58299.4
652.171	58181.44
652.523	58071.38
652.875	58125.84
653.227	58011.95
653.578	58124.49
653.93	58074.09
654.282	57925.85
654.633	57837.04
654.985	57900.31
655.337	57872.97
655.688	57784.38
656.039	57883.14
656.391	57704.61
656.742	57666.2
657.094	57674.1
657.445	57742.35
657.796	57686.53
658.147	57647.89
658.498	57598.17
658.849	57592.3
659.2	57572.19
659.551	57462.13
659.902	57613.09
660.253	57530.61
660.604	57561.57
660.955	57496.48
661.306	57564.05
661.656	57491.28
662.007	57481.34
662.358	57509.14
662.708	57520.66
663.059	57423.72
663.409	57302.36
663.76	57519.53
664.11	57500.32
664.461	57533.32
664.811	57480.44
665.161	57526.99
665.511	57424.17
665.862	57477.5
666.212	57555.69
666.562	57538.74
666.912	57462.36
667.262	57414.68
667.612	57449.03
667.962	57487.44
668.312	57432.3
668.662	57552.07
669.011	57537.61
669.361	57468.23
669.711	57504.39
670.06	57390.04
670.41	57400.21
670.76	57406.32
671.109	57473.66
671.459	57367.9
671.808	57349.37
672.157	57359.99
672.507	57220.56
672.856	57241.12
673.205	57318.18
673.554	57335.36
673.904	57220.56
674.253	57399.08
674.602	57288.8
674.951	56973.11
675.3	56717.07
675.649	57282.93
675.998	57127.68
676.346	57246.55
676.695	57269.14
677.044	57101.24
677.393	57182.14
677.741	57236.83
678.09	57119.77
678.438	57033.22
678.787	57105.98
679.135	57076.83
679.484	56828.03
679.832	56901.02
680.181	56741.25
680.529	56867.57
680.877	56765.43
681.225	56731.76
681.573	56855.37
681.922	56589.39
682.27	56594.36
682.618	56599.11
682.966	56480.01
683.314	56591.65
683.661	56320.92
684.009	56120.02
684.357	56112.79
684.705	56125.9
685.053	56184.2
685.4	56104.65
685.748	55946.24
686.095	55868.28
686.443	55722.29
686.79	55717.55
687.138	55795.28
687.485	55757.55
687.832	55570.43
688.18	55647.27
688.527	55361.85
688.874	55483.88
689.221	55305.35
689.568	55245.47
689.915	55094.74
690.262	55138.58
690.609	54968.19
690.956	54848.87
691.303	54837.34
691.65	54659.72
691.997	54656.11
692.344	54439.16
692.69	54392.38
693.037	54396.45
693.383	54141.32
693.73	54252.27
694.077	54111.71
694.423	54078.27
694.769	53886.86
695.116	53808.44
695.462	53813.64
695.808	53630.6
696.155	53652.74
696.501	53377.04
696.847	53396.93
697.193	53094.56
697.539	53334.78
697.885	53027.9
698.231	52954
698.577	52952.87
698.923	52904.74
699.269	52724.86
699.614	52661.13
699.96	52528.03
700.306	52555.37
700.651	52447.35
700.997	52375.71
701.342	52295.26
701.688	52147.02
702.033	52148.15
702.379	52214.14
702.724	52095.49
703.069	52109.28
703.415	51767.82
703.76	51793.81
704.105	51810.3
704.45	51709.97
704.795	51560.82
705.14	51464.32
705.485	51461.16
705.83	51317.21
706.175	51416.64
706.52	51430.43
706.865	51298.23
707.209	51225.69
707.554	51203.54
707.899	51297.78
708.243	51121.51
708.588	51008.52
708.932	50941.4
709.277	50957.22
709.621	50898.92
709.966	50668.87
710.31	50721.52
710.654	50474.29
710.998	50502.99
711.342	50478.14
711.687	50400.4
712.031	50237.01
712.375	50233.17
712.719	50187.07
713.063	50101.65
713.407	50256.9
713.75	49990.01
714.094	50023.68
714.438	49668.89
714.782	49780.3
715.125	49683.35
715.469	49796.35
715.812	49531.27
716.156	49452.63
716.499	49395.23
716.843	49416.47
717.186	49295.34
717.53	49424.38
717.873	49228.9
718.216	49147.55
718.559	49070.04
718.902	48709.59
719.246	48863.72
719.589	48699.2
719.932	48533.1
720.275	48505.53
720.617	48425.76
720.96	48322.71
721.303	48394.35
721.646	48418.08
721.989	48074.81
722.331	48097.41
722.674	47921.59
723.016	47847.02
723.359	47857.41
723.701	47741.94
724.044	47464.88
724.386	47356.18
724.729	47418.56
725.071	47258.79
725.413	47191.22
725.755	47157.77
726.097	46964.33
726.439	46788.97
726.782	46678.24
727.124	46813.15
727.465	46604.79
727.807	46670.33
728.149	46431.46
728.491	46351.24
728.833	46184.69
729.175	46148.98
729.516	45970.23
729.858	45686.62
730.199	45765.49
730.541	45650.01
730.882	45585.84
731.224	45650.24
731.565	45410.7
731.906	45419.06
732.248	45407.99
732.589	45045.74
732.93	45076.47
733.271	45020.43
733.612	45022.46
733.953	45114.44
734.294	44813.88
734.635	44584.05
734.976	44732.3
735.317	44516.26
735.658	44588.12
735.999	44394
736.339	44231.97
736.68	44363.27
737.021	44137.74
737.361	44039.21
737.702	44316.04
738.042	44006.89
738.383	43905.43
738.723	44031.98
739.063	43777.3
739.404	43904.98
739.744	43537.98
740.084	43470.41
740.424	43589.05
740.764	43362.84
741.104	43582.5
741.444	43319.23
741.784	43198.55
742.124	43274.03
742.464	43310.87
742.804	43226.35
743.143	43064.32
743.483	43035.17
743.823	42687.38
744.162	43000.82
744.502	43016.86
744.841	42840.82
745.181	42873.36
745.52	42806.47
745.86	42717.21
746.199	42732.8
746.538	42606.93
746.877	42546.37
747.216	42666.14
747.556	42395.86
747.895	42471.34
748.234	42329.65
748.573	42373.72
748.911	42347.05
749.25	42329.65
749.589	42156.55
749.928	42257.34
750.267	42074.74
750.605	42000.84
750.944	41943.45
751.283	41765.14
751.621	41964.46
751.96	41757.01
752.298	41907.97
752.636	41833.62
