Data from white_poster_card_FLMS001491_00053.txt Node
Date: Wed Feb 08 11:51:42 GMT 2017
User: dcchb
Spectrometer: FLMS00149
Trigger mode: 0
Integration Time (sec): 2.000000E-2
Scans to average: 10
Electric dark correction enabled: true
Nonlinearity correction enabled: false
Boxcar width: 0
XAxis mode: Wavelengths
Number of Pixels in Spectrum: 2048
>>>>>Begin Spectral Data<<<<<
341.393	-18.12
341.776	-18.12
342.16	-18.12
342.543	-65.35
342.927	-76.2
343.31	-57.22
343.693	-76.42
344.077	-56.99
344.46	-62.64
344.843	-47.05
345.226	-43.66
345.61	-32.58
345.993	-8.86
346.376	-29.42
346.759	16
347.142	28.43
347.525	44.7
347.908	66.4
348.291	63.01
348.674	85.38
349.057	110.92
349.44	116.11
349.823	137.58
350.206	180.29
350.588	174.87
350.971	196.34
351.354	234.75
351.737	249.44
352.119	255.54
352.502	247.86
352.884	253.96
353.267	296.45
353.65	295.32
354.032	303.9
354.414	319.72
354.797	305.71
355.179	313.4
355.562	317.01
355.944	325.37
356.326	341.87
356.709	329.21
357.091	333.51
357.473	365.37
357.855	317.01
358.238	335.09
358.62	328.76
359.002	343
359.384	366.05
359.766	334.19
360.148	340.29
360.53	337.58
360.912	347.07
361.294	329.89
361.676	339.61
362.057	332.15
362.439	333.73
362.821	318.37
363.203	323.11
363.584	310.91
363.966	325.82
364.348	317.46
364.729	314.53
365.111	308.2
365.493	329.44
365.874	307.29
366.256	335.77
366.637	312.49
367.019	321.76
367.4	281.76
367.781	296.67
368.163	328.99
368.544	341.64
368.925	318.59
369.306	323.34
369.688	316.33
370.069	301.64
370.45	328.99
370.831	314.75
371.212	318.59
371.593	305.03
371.974	318.37
372.355	340.51
372.736	324.69
373.117	297.35
373.498	325.82
373.879	331.02
374.26	319.05
374.641	320.4
375.021	305.26
375.402	314.07
375.783	341.42
376.163	339.38
376.544	325.37
376.925	324.24
377.305	331.02
377.686	335.09
378.066	315.43
378.447	319.72
378.827	333.73
379.208	345.03
379.588	331.02
379.968	348.42
380.349	319.05
380.729	329.67
381.109	332.83
381.489	346.39
381.87	355.88
382.25	339.84
382.63	343.45
383.01	322.21
383.39	352.49
383.77	335.32
384.15	336.9
384.53	354.52
384.91	338.03
385.29	362.89
385.67	383.45
386.049	362.66
386.429	366.73
386.809	366.5
387.189	372.83
387.568	379.83
387.948	336.22
388.328	373.51
388.707	386.16
389.087	385.03
389.466	382.55
389.846	362.66
390.225	375.54
390.605	380.74
390.984	386.61
391.363	382.55
391.743	383.22
392.122	385.48
392.501	369.89
392.881	400.17
393.26	417.12
393.639	407.86
394.018	404.92
394.397	407.4
394.776	411.92
395.155	422.77
395.534	404.69
395.913	417.57
396.292	429.32
396.671	421.42
397.05	423.9
397.429	413.05
397.808	417.57
398.186	432.49
398.565	455.99
398.944	434.3
399.323	423
399.701	454.86
400.08	453.05
400.458	466.16
400.837	454.63
401.215	430.91
401.594	449.21
401.972	443.34
402.351	453.96
402.729	442.66
403.107	461.41
403.486	477.01
403.864	481.3
404.242	492.37
404.62	478.82
404.999	506.61
405.377	486.72
405.755	494.41
406.133	498.25
406.511	522.88
406.889	521.07
407.267	501.19
407.645	540.51
408.023	536.67
408.401	548.42
408.779	542.09
409.156	552.94
409.534	563.56
409.912	587.74
410.29	598.36
410.667	613.27
411.045	591.35
411.422	611.02
411.8	601.52
412.178	657.79
412.555	667.74
412.933	665.7
413.31	674.29
413.687	688.98
414.065	683.56
414.442	730.56
414.819	732.14
415.197	764.68
415.574	755.42
415.951	785.47
416.328	802.87
416.705	786.15
417.082	840.39
417.46	809.43
417.837	850.33
418.214	841.07
418.591	850.33
418.967	876.77
419.344	891.23
419.721	914.74
420.098	928.29
420.475	937.79
420.852	940.27
421.228	960.38
421.605	983.21
421.982	964.45
422.358	1022.53
422.735	1027.95
423.111	1012.13
423.488	1072.25
423.864	1055.3
424.241	1088.29
424.617	1108.86
424.994	1084.22
425.37	1128.74
425.746	1118.35
426.123	1120.83
426.499	1147.27
426.875	1171.23
427.251	1194.28
427.627	1220.72
428.003	1212.36
428.379	1211.68
428.756	1224.33
429.132	1308.62
429.507	1272.24
429.883	1314.05
430.259	1347.04
430.635	1359.24
431.011	1394.27
431.387	1410.32
431.763	1414.61
432.138	1431.56
432.514	1462.74
432.89	1445.8
433.265	1500.94
433.641	1540.93
434.016	1539.8
434.392	1554.72
434.767	1588.16
435.143	1592.23
435.518	1597.43
435.894	1634.49
436.269	1653.25
436.644	1659.8
437.02	1685.34
437.395	1670.87
437.77	1712.45
438.145	1716.75
438.52	1737.77
438.895	1781.83
439.271	1784.54
439.646	1814.15
440.021	1844.65
440.395	1846.91
440.77	1839.46
441.145	1837.65
441.52	1900.7
441.895	1910.42
442.27	1893.24
442.645	1912.68
443.019	1944.09
443.394	1922.62
443.769	1960.81
444.143	1958.55
444.518	1965.56
444.892	1962.84
445.267	1982.96
445.641	2039.68
446.016	2047.14
446.39	2039.9
446.764	2074.48
447.139	2041.26
447.513	2082.16
447.887	2095.27
448.262	2113.35
448.636	2125.1
449.01	2118.77
449.384	2139.34
449.758	2156.74
450.132	2193.35
450.506	2243.97
450.88	2208.04
451.254	2212.1
451.628	2284.19
452.002	2261.82
452.376	2321.25
452.75	2294.13
453.123	2302.95
453.497	2382.72
453.871	2390.4
454.244	2455.71
454.618	2457.29
454.992	2484.86
455.365	2495.26
455.739	2536.16
456.112	2548.14
456.486	2565.09
456.859	2567.12
457.232	2639.89
457.606	2645.54
457.979	2675.14
458.352	2714.46
458.725	2742.71
459.099	2769.83
459.472	2838.98
459.845	2849.15
460.218	2874.91
460.591	2902.25
460.964	2890.28
461.337	2966.66
461.71	3029.48
462.083	3042.14
462.456	3051.63
462.829	3059.31
463.201	3116.71
463.574	3131.4
463.947	3166.65
464.32	3235.13
464.692	3243.49
465.065	3315.8
465.438	3329.14
465.81	3380.21
466.183	3457.95
466.555	3472.86
466.928	3491.39
467.3	3480.32
467.672	3567.1
468.045	3657.94
468.417	3655.68
468.789	3697.49
469.161	3713.76
469.534	3809.12
469.906	3837.82
470.278	3899.97
470.65	3953.75
471.022	4019.29
471.394	4080.75
471.766	4093.18
472.138	4165.05
472.51	4205.5
472.882	4307.64
473.253	4311.71
473.625	4380.41
473.997	4457.47
474.369	4552.83
474.74	4577.46
475.112	4642.55
475.484	4692.94
475.855	4770.68
476.227	4834.86
476.598	4962.54
476.97	5001.18
477.341	5128.64
477.713	5211.35
478.084	5214.51
478.455	5356.2
478.827	5397.78
479.198	5579.7
479.569	5523.88
479.94	5705.34
480.311	5760.94
480.682	5847.04
481.053	5951.21
481.424	6082.28
481.795	6143.98
482.166	6225.56
482.537	6302.84
482.908	6411.09
483.279	6496.74
483.65	6628.03
484.021	6737.63
484.391	6802.26
484.762	6909.83
485.133	6987.8
485.503	7052.88
485.874	7218.98
486.244	7270.73
486.615	7386.2
486.985	7486.99
487.356	7618.29
487.726	7696.93
488.097	7813.76
488.467	7874.55
488.837	8026.41
489.207	8081.55
489.578	8253.3
489.948	8290.36
490.318	8438.15
490.688	8430.02
491.058	8608.09
491.428	8719.73
491.798	8833.4
492.168	8985.71
492.538	8981.42
492.908	9108.64
493.278	9253.27
493.648	9269.09
494.017	9401.74
494.387	9413.95
494.757	9551.57
495.126	9665.24
495.496	9646.26
495.866	9759.93
496.235	9907.49
496.605	9968.96
496.974	10057.09
497.344	10121.95
497.713	10221.61
498.082	10265.9
498.452	10418.21
498.821	10439.01
499.19	10498.21
499.559	10636.97
499.928	10684.65
500.298	10749.73
500.667	10805.1
501.036	10839.45
501.405	10954.25
501.774	11020.91
502.143	11143.39
502.512	11165.54
502.88	11338.42
503.249	11295.93
503.618	11420.22
503.987	11435.14
504.356	11529.15
504.724	11628.13
505.093	11698.86
505.462	11823.6
505.83	11815.24
506.199	11991.05
506.567	12089.81
506.936	12061.11
507.304	12265.4
507.672	12313.76
508.041	12401.67
508.409	12464.49
508.777	12561.44
509.145	12660.19
509.514	12684.6
509.882	12782.67
510.25	12831.94
510.618	12991.48
510.986	13021.76
511.354	13104.47
511.722	13190.35
512.09	13429.66
512.458	13332.04
512.826	13600.5
513.193	13548.75
513.561	13612.48
513.929	13727.05
514.297	13934.28
514.664	13982.41
515.032	14088.63
515.4	14151
515.767	14207.72
516.135	14403.42
516.502	14314.84
516.869	14544.66
517.237	14668.95
517.604	14591.21
517.972	14810.64
518.339	14994.37
518.706	14976.29
519.073	15063.52
519.44	15191.87
519.808	15365.88
520.175	15376.05
520.542	15561.81
520.909	15668.02
521.276	15735.36
521.643	15831.18
522.009	16026.2
522.376	16180.32
522.743	16284.05
523.11	16392.29
523.477	16609.92
523.843	16630.25
524.21	16839.51
524.577	16956.12
524.943	17062.33
525.31	17100.75
525.676	17244.48
526.043	17325.38
526.409	17534.41
526.776	17682.66
527.142	17798.13
527.508	17932.59
527.874	18002.65
528.241	18215.75
528.607	18133.04
528.973	18334.16
529.339	18378.68
529.705	18622.29
530.071	18670.88
530.437	18808.73
530.803	18898.9
531.169	19063.41
531.535	19025.22
531.901	19199.9
532.267	19261.6
532.632	19419.56
532.998	19494.59
533.364	19609.84
533.73	19568.26
534.095	19926.21
534.461	19869.94
534.826	20011.41
535.192	20097.51
535.557	20239.88
535.923	20235.36
536.288	20373.66
536.653	20422.25
537.019	20346.32
537.384	20572.75
537.749	20665.4
538.114	20725.74
538.479	20839.86
538.845	20907.88
539.21	20890.48
539.575	21029.01
539.94	21142
540.305	21330.24
540.67	21282.79
541.034	21303.8
541.399	21482.1
541.764	21614.3
542.129	21546.96
542.494	21704.92
542.858	21709.44
543.223	21764.36
543.587	21970.68
543.952	21850.46
544.316	22125.93
544.681	21943.56
545.045	22206.15
545.41	22347.17
545.774	22302.65
546.138	22419.03
546.503	22519.14
546.867	22334.06
547.231	22665.8
547.595	22758.91
547.959	22761.39
548.324	22936.76
548.688	22871.45
549.052	23001.39
549.416	23069.63
549.779	23057.66
550.143	23242.28
550.507	23417.2
550.871	23430.98
551.235	23455.61
551.599	23659.9
551.962	23671.65
552.326	23632.33
552.689	23841.59
553.053	23819.44
553.417	23979.21
553.78	24182.6
554.143	24093.79
554.507	24304.63
554.87	24305.99
555.234	24563.38
555.597	24525.64
555.96	24569.48
556.323	24637.28
556.686	24770.38
557.05	25052.86
557.413	24976.93
557.776	25060.54
558.139	25281.55
558.502	25227.77
558.865	25453.3
559.228	25548.21
559.59	25695.1
559.953	25775.33
560.316	26092.83
560.679	26057.13
561.041	26163.79
561.404	26381.86
561.767	26516.55
562.129	26431.35
562.492	26677.67
562.854	26719.26
563.217	26812.36
563.579	26871.57
563.941	27058.23
564.304	27230.2
564.666	27301.16
565.028	27458.9
565.39	27516.3
565.753	27702.28
566.115	27839.23
566.477	27797.64
566.839	27842.84
567.201	28213.91
567.563	28172.32
567.925	28373.67
568.287	28467.91
568.648	28411.41
569.01	28567.12
569.372	28731.18
569.734	28631.3
570.095	28874.23
570.457	29018.63
570.819	29216.14
571.18	29156.71
571.542	29313.54
571.903	29363.25
572.265	29475.57
572.626	29544.27
572.987	29662.23
573.349	29707.2
573.71	29767.54
574.071	29876.46
574.432	29947.42
574.794	30146.06
575.155	30117.58
575.516	30096.34
575.877	30196.45
576.238	30201.2
576.599	30484.58
576.96	30521.19
577.32	30514.18
577.681	30589.21
578.042	30690.9
578.403	30741.75
578.763	30765.7
579.124	30908.07
579.485	30934.51
579.845	30938.58
580.206	30863.55
580.566	31006.37
580.927	31053.38
581.287	31221.06
581.648	31151.68
582.008	31199.14
582.368	31099.03
582.728	31097.67
583.089	31155.97
583.449	31131.57
583.809	31225.58
584.169	31248.4
584.529	31209.53
584.889	31341.28
585.249	31091.34
585.609	31130.66
585.969	31309.19
586.329	31308.74
586.688	31389.19
587.048	31264.45
587.408	31359.81
587.768	31228.74
588.127	31227.39
588.487	31170.21
588.846	31459.02
589.206	31352.81
589.565	31329.98
589.925	31569.97
590.284	31326.59
590.643	31476.87
591.003	31523.87
591.362	31646.13
591.721	31533.59
592.08	31462.86
592.44	31539.24
592.799	31622.63
593.158	31640.93
593.517	31541.95
593.876	31584.66
594.235	31631.67
594.593	31602.29
594.952	31560.26
595.311	31485.23
595.67	31602.74
596.029	31876.18
596.387	31830.31
596.746	31831.66
597.104	31710.54
597.463	31744.43
597.822	31780.59
598.18	31754.15
598.538	31627.15
598.897	31944.43
599.255	31545.79
599.613	32108.27
599.972	31962.06
600.33	32020.58
600.688	31853.13
601.046	31889.74
601.404	32113.92
601.762	32131.99
602.12	32099.68
602.478	32049.96
602.836	32277.53
603.194	32228.26
603.552	32188.04
603.91	31987.37
604.268	32237.53
604.625	32081.6
604.983	32226.68
605.341	32164.08
605.698	32211.54
606.056	32415.15
606.413	32331.54
606.771	32304.42
607.128	32454.7
607.485	32302.16
607.843	32369.28
608.2	32386.68
608.557	32627.57
608.914	32571.76
609.272	32722.49
609.629	32697.85
609.986	32909.15
610.343	32613.56
610.7	32947.34
611.057	32770.85
611.414	32764.07
611.771	32868.25
612.127	32903.27
612.484	33033.89
612.841	33059.2
613.198	33001.8
613.554	32857.17
613.911	33247.45
614.267	33079.54
614.624	33074.57
614.98	33143.72
615.337	33342.36
615.693	33322.25
616.05	33221.46
616.406	33402.47
616.762	33293.55
617.118	33317.05
617.475	33325.41
617.831	33487.66
618.187	33409.25
618.543	33520.43
618.899	33766.75
619.255	33502.81
619.611	33538.96
619.967	33597.72
620.323	33757.71
620.678	33635.01
621.034	33459.42
621.39	33577.38
621.746	33451.06
622.101	34045.16
622.457	33573.76
622.812	33654.44
623.168	33762.91
623.523	33717.04
623.879	33727.43
624.234	33632.07
624.589	33781.89
624.945	33736.7
625.3	33727.66
625.655	33766.53
626.01	33765.85
626.365	33733.99
626.72	33702.35
627.075	33617.15
627.43	33683.14
627.785	33459.42
628.14	33624.38
628.495	33557.72
628.85	33537.15
629.205	33412.86
629.559	33671.84
629.914	33505.07
630.269	33428.23
630.623	33366.76
630.978	33252.64
631.332	33511.39
631.687	33468.68
632.041	33409.47
632.396	33400.89
632.75	33275.24
633.104	33332.19
633.459	33188.24
633.813	33151.4
634.167	33082.48
634.521	33081.12
634.875	33228.01
635.229	33031.63
635.583	32960.67
635.937	32932.88
636.291	32926.32
636.645	32871.86
636.999	32873.67
637.352	32781.69
637.706	32748.48
638.06	32888.58
638.413	32654.92
638.767	32704.86
639.121	32641.81
639.474	32581.02
639.828	32526.56
640.181	32596.39
640.534	32496.73
640.888	32370.18
641.241	32270.52
641.594	32312.78
641.947	32355.94
642.301	32287.47
642.654	32295.38
643.007	32192.78
643.36	32228.49
643.713	32055.16
644.066	32281.59
644.419	31995.73
644.771	31729.74
645.124	31624.89
645.477	31633.48
645.83	31321.62
646.182	31148.29
646.535	30998.69
646.888	31119.59
647.24	30995.98
647.593	31101.29
647.945	30985.58
648.298	30827.85
648.65	30745.82
649.002	30652.71
649.355	30742.2
649.707	30846.38
650.059	30868.07
650.411	31264.45
650.763	31295.41
651.115	31588.51
651.467	31456.98
651.819	31473.71
652.171	31229.42
652.523	31271
652.875	31200.95
653.227	31091.34
653.578	31286.37
653.93	31227.39
654.282	31095.86
654.633	31017.45
654.985	31167.05
655.337	31090.67
655.688	31188.97
656.039	31198.23
656.391	30837.79
656.742	30835.53
657.094	30986.04
657.445	31055.64
657.796	31027.62
658.147	30859.49
658.498	30950.78
658.849	30929.31
659.2	30860.62
659.551	30703.11
659.902	30749.66
660.253	30779.04
660.604	30853.16
660.955	30696.33
661.306	30747.62
661.656	30633.95
662.007	30643.67
662.358	30620.17
662.708	30596.44
663.059	30658.81
663.409	30435.09
663.76	30681.64
664.11	30513.73
664.461	30461.98
664.811	30511.92
665.161	30500.4
665.511	30287.52
665.862	30374.3
666.212	30407.29
666.562	30585.59
666.912	30470.34
667.262	30502.66
667.612	30432.38
667.962	30424.69
668.312	30469.66
668.662	30538.82
669.011	30421.08
669.361	30363.91
669.711	30404.81
670.06	30480.96
670.41	30292.95
670.76	30197.81
671.109	30212.27
671.459	30229.45
671.808	30141.54
672.157	30224.93
672.507	29958.27
672.856	29940.64
673.205	30186.73
673.554	30179.73
673.904	29939.51
674.253	30064.03
674.602	29843.92
674.951	29582.46
675.3	29409.35
675.649	29846.4
675.998	29834.65
676.346	29781.55
676.695	29760.08
677.044	29727.99
677.393	29786.52
677.741	29820.42
678.09	29772.28
678.438	29622.68
678.787	29791.04
679.135	29570.93
679.484	29619.29
679.832	29681.89
680.181	29652.96
680.529	29603.47
680.877	29585.85
681.225	29409.35
681.573	29666.75
681.922	29278.96
682.27	29238.51
682.618	29400.77
682.966	29226.99
683.314	29252.75
683.661	29196.93
684.009	28980.66
684.357	28946.54
684.705	28994.45
685.053	28882.81
685.4	28917.84
685.748	28712.87
686.095	28835.13
686.443	28578.64
686.79	28501.13
687.138	28620.9
687.485	28515.14
687.832	28380
688.18	28511.75
688.527	28372.77
688.874	28382.49
689.221	28397.4
689.568	28245.54
689.915	28003.74
690.262	28115.15
690.609	28006.9
690.956	27937.08
691.303	27832.45
691.65	27791.77
691.997	27646.91
692.344	27729.85
692.69	27614.37
693.037	27515.39
693.383	27317.66
693.73	27437.2
694.077	27255.51
694.423	27313.82
694.769	27209.19
695.116	27078.79
695.462	27015.74
695.808	26945.01
696.155	27028.85
696.501	26896.65
696.847	26889.65
697.193	26625.92
697.539	26726.03
697.885	26427.96
698.231	26444.01
698.577	26427.06
698.923	26362.43
699.269	26188.65
699.614	26119.5
699.96	26155.2
700.306	26104.36
700.651	25973.51
700.997	25904.36
701.342	25780.07
701.688	25893.51
702.033	25707.98
702.379	25709.79
702.724	25719.96
703.069	25709.34
703.415	25356.35
703.76	25458.95
704.105	25301.67
704.45	25284.94
704.795	25279.07
705.14	25081.56
705.485	25083.37
705.83	24914.33
706.175	24968.57
706.52	24889.7
706.865	24864.39
707.209	24691.96
707.554	24664.39
707.899	24608.35
708.243	24523.61
708.588	24573.32
708.932	24421.24
709.277	24479.31
709.621	24374.23
709.966	24221.02
710.31	24159.32
710.654	24040.91
710.998	24170.17
711.342	24083.62
711.687	24047.69
712.031	23947.35
712.375	23810.86
712.719	23822.61
713.063	23892.21
713.407	23927.01
713.75	23726.34
714.094	23777.64
714.438	23582.84
714.782	23691.09
715.125	23570.19
715.469	23638.43
715.812	23496.51
716.156	23472.11
716.499	23350.3
716.843	23271.21
717.186	23270.53
717.53	23314.6
717.873	23372.9
718.216	23187.82
718.559	23113.7
718.902	22949.18
719.246	22900.15
719.589	22962.97
719.932	22821.28
720.275	22822.86
720.617	22718
720.96	22720.72
721.303	22758.68
721.646	22772.92
721.989	22488.18
722.331	22661.06
722.674	22506.94
723.016	22433.27
723.359	22531.57
723.701	22452.25
724.044	22355.75
724.386	22252.25
724.729	22427.39
725.071	22351.01
725.413	22212.25
725.755	22204.57
726.097	22137.91
726.439	22045.25
726.782	22088.19
727.124	22203.44
727.465	22011.13
727.807	22000.28
728.149	21950.57
728.491	21876.67
728.833	21923.9
729.175	21790.35
729.516	21660.63
729.858	21782.44
730.199	21687.3
730.541	21670.57
730.882	21619.95
731.224	21611.59
731.565	21572.05
731.906	21521.65
732.248	21439.39
732.589	21362.33
732.93	21305.84
733.271	21425.83
733.612	21237.59
733.953	21381.32
734.294	21195.11
734.635	21129.8
734.976	21252.96
735.317	21111.49
735.658	21174.77
735.999	21065.84
736.339	20991.5
736.68	21028.78
737.021	21031.72
737.361	20865.85
737.702	20979.74
738.042	20908.33
738.383	20759.86
738.723	20833.08
739.063	20791.73
739.404	20826.3
739.744	20786.76
740.084	20670.15
740.424	20744.04
740.764	20675.12
741.104	20712.63
741.444	20626.76
741.784	20514.45
742.124	20508.57
742.464	20518.29
742.804	20541.79
743.143	20401
743.483	20514.67
743.823	20314.23
744.162	20305.86
744.502	20435.8
744.841	20185.64
745.181	20297.5
745.52	20116.49
745.86	20109.94
746.199	20099.54
746.538	20033.78
746.877	20168.01
747.216	20096.83
747.556	20014.35
747.895	20045.53
748.234	19908.13
748.573	19920.34
748.911	19831.53
749.25	19940.45
749.589	19821.58
749.928	19736.84
750.267	19815.71
750.605	19668.14
750.944	19668.14
751.283	19584.75
751.621	19591.08
751.96	19557.64
752.298	19445.55
752.636	19491.65
752.975	19322.16
753.313	19333.46
753.651	19413.23
753.989	19242.39
