Data from white_steel_sheet_FLMS001491_082.txt Node
Date: Tue Feb 07 10:58:36 GMT 2017
User: dcchb
Spectrometer: FLMS00149
Trigger mode: 0
Integration Time (sec): 2.000000E-2
Scans to average: 10
Electric dark correction enabled: true
Nonlinearity correction enabled: false
Boxcar width: 0
XAxis mode: Wavelengths
Number of Pixels in Spectrum: 2048
>>>>>Begin Spectral Data<<<<<
341.393	3.7
341.776	3.7
342.16	3.7
342.543	-63.42
342.927	-66.81
343.31	-53.02
343.693	-87.14
344.077	-69.29
344.46	-66.13
344.843	-33.36
345.226	-50.76
345.61	-32.91
345.993	-11.89
346.376	-9.18
346.759	11.16
347.142	28.11
347.525	43.02
347.908	53.42
348.291	68.11
348.674	87.77
349.057	122.12
349.44	136.13
349.823	146.75
350.206	166.86
350.588	203.24
350.971	221.77
351.354	250.7
351.737	260.42
352.119	245.73
352.502	250.25
352.884	266.29
353.267	284.82
353.65	297.03
354.032	313.97
354.414	315.78
354.797	334.09
355.179	330.25
355.562	310.36
355.944	328.44
356.326	345.16
356.709	322.11
357.091	346.29
357.473	335.44
357.855	357.82
358.238	332.96
358.62	333.18
359.002	361.43
359.384	353.52
359.766	351.49
360.148	352.84
360.53	344.93
360.912	350.36
361.294	346.29
361.676	355.56
362.057	346.97
362.439	351.04
362.821	346.06
363.203	353.52
363.584	334.54
363.966	349.45
364.348	345.61
364.729	337.7
365.111	336.8
365.493	343.8
365.874	344.26
366.256	320.08
366.637	343.8
367.019	329.12
367.4	322.34
367.781	322.11
368.163	350.58
368.544	327.31
368.925	332.73
369.306	323.92
369.688	334.77
370.069	332.96
370.45	336.57
370.831	337.93
371.212	325.5
371.593	333.41
371.974	338.38
372.355	330.25
372.736	332.96
373.117	353.97
373.498	348.1
373.879	339.96
374.26	344.26
374.641	348.55
375.021	339.96
375.402	345.16
375.783	353.52
376.163	347.65
376.544	362.79
376.925	343.58
377.305	358.27
377.686	360.3
378.066	356.91
378.447	365.95
378.827	373.86
379.208	364.37
379.588	356.01
379.968	351.71
380.349	364.82
380.729	370.92
381.109	359.85
381.489	362.79
381.87	370.92
382.25	349.23
382.63	358.72
383.01	372.96
383.39	366.18
383.77	392.39
384.15	377.93
384.53	400.07
384.91	353.97
385.29	391.49
385.67	367.76
386.049	402.11
386.429	394.42
386.809	385.16
387.189	414.54
387.568	404.37
387.948	407.76
388.328	432.16
388.707	421.77
389.087	404.59
389.466	435.78
389.846	422.9
390.225	438.49
390.605	430.13
390.984	447.53
391.363	443.24
391.743	434.2
392.122	441.88
392.501	446.63
392.881	440.75
393.26	458.38
393.639	449.34
394.018	484.37
394.397	478.49
394.776	479.39
395.155	475.33
395.534	491.6
395.913	507.64
396.292	515.33
396.671	509
397.05	508.77
397.429	515.33
397.808	526.17
398.186	531.37
398.565	548.32
398.944	562.1
399.323	535.89
399.701	566.17
400.08	562.33
400.458	565.72
400.837	585.61
401.215	579.28
401.594	592.84
401.972	599.39
402.351	605.04
402.729	621.76
403.107	630.8
403.486	615.21
403.864	640.97
404.242	674.19
404.62	642.55
404.999	677.36
405.377	669.22
405.755	678.94
406.133	695.21
406.511	696.11
406.889	735.43
407.267	741.53
407.645	734.53
408.023	757.35
408.401	778.6
408.779	787.41
409.156	809.1
409.534	784.02
409.912	796.9
410.29	819.72
410.667	845.71
411.045	868.76
411.422	860.85
411.8	887.07
412.178	921.42
412.555	913.96
412.933	892.49
413.31	925.48
413.687	936.11
414.065	954.86
414.442	955.31
414.819	977.46
415.197	992.6
415.574	994.18
415.951	1032.37
416.328	1010
416.705	1031.47
417.082	1031.47
417.46	1057.01
417.837	1069.89
418.214	1060.4
418.591	1099.94
418.967	1086.84
419.344	1120.51
419.721	1151.24
420.098	1123.9
420.475	1148.3
420.852	1182.2
421.228	1141.75
421.605	1160.28
421.982	1191.01
422.358	1203.67
422.735	1225.82
423.111	1256.77
423.488	1249.09
423.864	1266.49
424.241	1260.84
424.617	1312.37
424.994	1287.96
425.37	1300.39
425.746	1308.52
426.123	1361.86
426.499	1342.42
426.875	1362.76
427.251	1380.16
427.627	1398.92
428.003	1466.94
428.379	1443.66
428.756	1464.68
429.132	1481.85
429.507	1495.86
429.883	1500.84
430.259	1549.2
430.635	1569.76
431.011	1534.06
431.387	1591.68
431.763	1624.67
432.138	1622.64
432.514	1638.91
432.89	1673.71
433.265	1710.1
433.641	1731.34
434.016	1743.99
434.392	1775.63
434.767	1815.63
435.143	1860.37
435.518	1846.14
435.894	1851.34
436.269	1870.54
436.644	1877.78
437.02	1928.85
437.395	1919.13
437.77	1950.09
438.145	1977.89
438.52	1990.54
438.895	1992.57
439.271	2016.08
439.646	2097.66
440.021	2101.05
440.395	2073.7
440.77	2079.8
441.145	2131.78
441.52	2142.63
441.895	2120.03
442.27	2204.09
442.645	2186.24
443.019	2208.61
443.394	2204.55
443.769	2248.61
444.143	2200.7
444.518	2266.47
444.892	2280.25
445.267	2292.68
445.641	2341.49
446.016	2387.82
446.39	2379.46
446.764	2423.07
447.139	2414.48
447.513	2421.94
447.887	2430.76
448.262	2446.57
448.636	2459.46
449.01	2504.65
449.384	2519.79
449.758	2528.61
450.132	2569.06
450.506	2592.11
450.88	2602.73
451.254	2611.54
451.628	2646.34
452.002	2668.94
452.376	2700.8
452.75	2734.48
453.123	2739.45
453.497	2775.38
453.871	2805.43
454.244	2866.45
454.618	2880.01
454.992	2934.92
455.365	2986.67
455.739	3069.83
456.112	3052.66
456.486	3072.09
456.859	3104.64
457.232	3170.4
457.606	3158.42
457.979	3184.63
458.352	3267.12
458.725	3321.13
459.099	3289.49
459.472	3381.24
459.845	3418.75
460.218	3417.62
460.591	3473.67
460.964	3446.32
461.337	3579.65
461.71	3624.85
462.083	3664.62
462.456	3676.82
462.829	3702.36
463.201	3770.16
463.574	3779.87
463.947	3807.44
464.32	3916.59
464.692	3950.26
465.065	3929.47
465.438	4021.9
465.81	4028.91
466.183	4120.65
466.555	4184.83
466.928	4201.56
467.3	4257.6
467.672	4328.78
468.045	4400.87
468.417	4464.83
468.789	4461.21
469.161	4510.7
469.534	4637.02
469.906	4675.44
470.278	4770.58
470.65	4804.93
471.022	4882.44
471.394	4979.16
471.766	4998.82
472.138	5105.71
472.51	5097.8
472.882	5214.86
473.253	5288.08
473.625	5401.52
473.997	5479.26
474.369	5486.49
474.74	5592.03
475.112	5669.54
475.484	5828.18
475.855	5852.36
476.227	5903.66
476.598	6045.8
476.97	6118.34
477.341	6275.17
477.713	6354.27
478.084	6452.34
478.455	6560.36
478.827	6619.35
479.198	6855.5
479.569	6863.41
479.94	7000.58
480.311	7107.24
480.682	7226.79
481.053	7421.36
481.424	7568.47
481.795	7611.64
482.166	7743.61
482.537	7803.27
482.908	7986.09
483.279	8041.91
483.65	8227.21
484.021	8375.91
484.391	8519.18
484.762	8565.51
485.133	8657.71
485.503	8790.36
485.874	8945.61
486.244	9078.72
486.615	9219.28
486.985	9330.69
487.356	9480.97
487.726	9585.6
488.097	9768.19
488.467	9777.45
488.837	10036.43
489.207	10176.09
489.578	10309.64
489.948	10400.04
490.318	10451.34
490.688	10594.38
491.058	10716.41
491.428	10856.3
491.798	10992.79
492.168	11187.81
492.538	11281.14
492.908	11400.24
493.278	11575.15
493.648	11589.38
494.017	11713.22
494.387	11877.96
494.757	11962.71
495.126	12076.6
495.496	12147.11
495.866	12198.41
496.235	12404.28
496.605	12486.08
496.974	12591.17
497.344	12762.01
497.713	12757.49
498.082	12949.12
498.452	12971.95
498.821	13121.55
499.19	13192.51
499.559	13301.88
499.928	13380.3
500.298	13526.06
500.667	13644.47
501.036	13627.98
501.405	13798.14
501.774	13782.77
502.143	13932.15
502.512	14013.28
502.88	14166.49
503.249	14183.21
503.618	14349.31
503.987	14418.01
504.356	14498.69
504.724	14590.44
505.093	14715.18
505.462	14682.86
505.83	14870.88
506.199	15039.69
506.567	15208.95
506.936	15216.18
507.304	15434.48
507.672	15451.43
508.041	15547.47
508.409	15660.69
508.777	15782.27
509.145	15870.4
509.514	15957.18
509.882	16156.5
510.25	16167.8
510.618	16330.05
510.986	16387.9
511.354	16620.89
511.722	16702.7
512.09	16931.39
512.458	16942.46
512.826	16946.31
513.193	17153.31
513.561	17116.24
513.929	17319.18
514.297	17517.82
514.664	17722.1
515.032	17771.82
515.4	17969.1
515.767	18004.36
516.135	18050.68
516.502	18042.32
516.869	18371.13
517.237	18452.25
517.604	18510.33
517.972	18691.57
518.339	18883.66
518.706	18998
519.073	19093.82
519.44	19135.63
519.808	19474.6
520.175	19458.78
520.542	19738.1
520.909	19794.37
521.276	19843.18
521.643	20043.17
522.009	20239.55
522.376	20303.05
522.743	20576.94
523.11	20723.83
523.477	20967.44
523.843	21115.24
524.21	21298.06
524.577	21427.32
524.943	21575.34
525.31	21610.59
525.676	21912.95
526.043	22155.89
526.409	22177.81
526.776	22355.2
527.142	22427.52
527.508	22639.72
527.874	22775.76
528.241	22946.15
528.607	23036.77
528.973	23162.19
529.339	23301.84
529.705	23481.05
530.071	23679.01
530.437	23791.32
530.803	24021.15
531.169	24142.5
531.535	24079.9
531.901	24309.95
532.267	24404.19
532.632	24599.44
532.998	24637.63
533.364	24780.68
533.73	24839.43
534.095	25108.35
534.461	25161.01
534.826	25215.92
535.192	25386.08
535.557	25600.32
535.923	25612.29
536.288	25720.31
536.653	25884.38
537.019	25799.63
537.384	25940.65
537.749	26072.62
538.114	26256.34
538.479	26238.49
538.845	26468.54
539.21	26416.34
539.575	26689.78
539.94	26580.18
540.305	26826.05
540.67	26753.05
541.034	26952.14
541.399	27137.45
541.764	27087.73
542.129	27365.47
542.494	27275.53
542.858	27469.19
543.223	27398.46
543.587	27809.52
543.952	27637.78
544.316	27857.66
544.681	27857.21
545.045	27978.78
545.41	28126.12
545.774	28175.39
546.138	28295.61
546.503	28323.41
546.867	28324.76
547.231	28644.3
547.595	28665.32
547.959	28774.02
548.324	28836.16
548.688	28936.73
549.052	29150.5
549.416	29130.62
549.779	29105.99
550.143	29215.81
550.507	29569.7
550.871	29685.63
551.235	29563.6
551.599	29862.58
551.962	29720.89
552.326	29986.64
552.689	30125.62
553.053	29875.68
553.417	30108.67
553.78	30557.93
554.143	30429.12
554.507	30581.2
554.87	30711.37
555.234	31034.07
555.597	30988.42
555.96	31083.56
556.323	31244.23
556.686	31173.73
557.05	31504.34
557.413	31558.35
557.776	31530.78
558.139	31735.07
558.502	31860.72
558.865	31951.11
559.228	32289.18
559.59	32352.23
559.953	32509.96
560.316	32659.11
560.679	32713.35
561.041	32904.76
561.404	33187.91
561.767	33205.77
562.129	33212.09
562.492	33612.08
562.854	33529.37
563.217	33578.18
563.579	33799.42
563.941	33912.19
564.304	34040.32
564.666	34205.74
565.028	34270.82
565.39	34455.68
565.753	34492.74
566.115	34901.99
566.477	34935.21
566.839	34955.55
567.201	35261.08
567.563	35265.82
567.925	35435.31
568.287	35394.63
568.648	35451.36
569.01	35786.49
569.372	35977.44
569.734	35883.21
570.095	36112.13
570.457	36425.12
570.819	36339.92
571.18	36442.52
571.542	36550.31
571.903	36576.75
572.265	36760.02
572.626	36855.16
572.987	36885.67
573.349	36934.71
573.71	37105.55
574.071	37220.58
574.432	37347.35
574.794	37450.85
575.155	37565.42
575.516	37409.95
575.877	37660.34
576.238	37779.66
576.599	37918.86
576.96	37798.41
577.32	37763.39
577.681	37904.4
578.042	37998.86
578.403	38053.55
578.763	38051.74
579.124	38051.06
579.485	38279.76
579.845	38270.72
580.206	38256.93
580.566	38243.37
580.927	38424.16
581.287	38418.28
581.648	38350.26
582.008	38643.14
582.368	38438.85
582.728	38530.15
583.089	38510.26
583.449	38430.94
583.809	38449.02
584.169	38586.19
584.529	38500.77
584.889	38872.51
585.249	38579.86
585.609	38428
585.969	38779.86
586.329	38653.53
586.688	38738.05
587.048	38651.95
587.408	38494.21
587.768	38556.59
588.127	38651.05
588.487	38594.55
588.846	38746.41
589.206	38547.32
589.565	38509.58
589.925	38765.39
590.284	38591.39
590.643	38639.97
591.003	38871.83
591.362	38760.87
591.721	38867.54
592.08	38733.98
592.44	38676.36
592.799	38796.35
593.158	38676.13
593.517	38738.5
593.876	38717.26
594.235	38745.28
594.593	38744.38
594.952	38940.98
595.311	38712.51
595.67	38824.15
596.029	39059.4
596.387	39025.05
596.746	39012.84
597.104	38812.85
597.463	38844.26
597.822	39049
598.18	38875.67
598.538	38871.61
598.897	39029.79
599.255	38755.68
599.613	39405.83
599.972	39023.69
600.33	39077.02
600.688	38857.59
601.046	39105.05
601.404	39211.03
601.762	39123.58
602.12	39312.05
602.478	39344.59
602.836	39114.99
603.194	38917.25
603.552	39120.64
603.91	38880.87
604.268	39108.89
604.625	38982.34
604.983	39167.64
605.341	39093.75
605.698	39166.96
606.056	39446.73
606.413	39370.12
606.771	39362.44
607.128	39465.94
607.485	39275.89
607.843	39272.5
608.2	39525.37
608.557	39560.17
608.914	39509.55
609.272	39626.84
609.629	39826.16
609.986	39884.23
610.343	39691.02
610.7	39978.24
611.057	39917.45
611.414	39826.61
611.771	39859.83
612.127	39984.12
612.484	40014.4
612.841	40293.94
613.198	39929.66
613.554	39975.3
613.911	40256.43
614.267	40276.77
614.624	40225.24
614.98	40303.43
615.337	40462.52
615.693	40314.05
616.05	40334.62
616.406	40353.37
616.762	40520.38
617.118	40352.7
617.475	40401.06
617.831	40612.8
618.187	40640.37
618.543	40583.65
618.899	40867.94
619.255	40792.68
619.611	40796.3
619.967	41056.41
620.323	40960.59
620.678	40728.28
621.034	40815.06
621.39	40834.49
621.746	40719.01
622.101	41153.8
622.457	40839.69
622.812	40888.95
623.168	41005.56
623.523	40898.22
623.879	41039.46
624.234	40855.28
624.589	40943.87
624.945	41013.24
625.3	40956.52
625.655	41024.32
626.01	41029.29
626.365	41089.17
626.72	40888.73
627.075	40862.74
627.43	40872
627.785	40811.22
628.14	40950.65
628.495	40944.77
628.85	40883.08
629.205	40706.36
629.559	40938.44
629.914	40724.66
630.269	40782.97
630.623	40639.02
630.978	40650.32
631.332	40856.19
631.687	40712.23
632.041	40544.33
632.396	40620.03
632.75	40440.15
633.104	40610.09
633.459	40357.44
633.813	40332.36
634.167	40294.84
634.521	40303.21
634.875	40388.4
635.229	40288.97
635.583	40176.88
635.937	40106.37
636.291	40174.85
636.645	40122.42
636.999	39996.55
637.352	39968.75
637.706	39760.17
638.06	39874.52
638.413	39686.95
638.767	39629.55
639.121	39708.87
639.474	39425.94
639.828	39562.66
640.181	39532.38
640.534	39574.64
640.888	39534.64
641.241	39324.7
641.594	39361.54
641.947	39422.55
642.301	39257.81
642.654	39368.09
643.007	39333.29
643.36	39285.61
643.713	39129.45
644.066	39318.15
644.419	39074.09
644.771	38718.61
645.124	38508.9
645.477	38260.55
645.83	38051.97
646.182	37810.84
646.535	37943.95
646.888	37975.36
647.24	37845.19
647.593	38104.85
647.945	37946.88
648.298	37748.7
648.65	37639.77
649.002	37548.25
649.355	37653.56
649.707	37487.46
650.059	37577.85
650.411	38045.41
650.763	38135.81
651.115	38526.3
651.467	38407.21
651.819	38284.95
652.171	38249.02
652.523	38112.98
652.875	38293.09
653.227	38104.39
653.578	38322.24
653.93	38127.22
654.282	37992.08
654.633	37906.66
654.985	37915.47
655.337	37935.36
655.688	37964.28
656.039	37998.41
656.391	37682.26
656.742	37752.31
657.094	37722.71
657.445	37827.79
657.796	37668.47
658.147	37728.36
658.498	37618.76
658.849	37718.64
659.2	37678.87
659.551	37425.99
659.902	37647.68
660.253	37529.04
660.604	37547.12
660.955	37246.56
661.306	37448.59
661.656	37383.06
662.007	37333.11
662.358	37265.32
662.708	37150.52
663.059	37087.25
663.409	36854.48
663.76	37035.72
664.11	36969.96
664.461	37097.41
664.811	36879.57
665.161	36897.19
665.511	36791.66
665.862	36626.69
666.212	36793.47
666.562	36575.39
666.912	36562.97
667.262	36477.54
667.612	36344.44
667.962	36283.65
668.312	36187.61
668.662	36329.3
669.011	36256.76
669.361	36034.39
669.711	35879.14
670.06	35904.9
670.41	35749.88
670.76	35652.48
671.109	35812.02
671.459	35554.4
671.808	35524.35
672.157	35389.66
672.507	35367.06
672.856	35249.78
673.205	35221.98
673.554	35342.21
673.904	35121.2
674.253	35289.78
674.602	35218.14
674.951	34553.3
675.3	34405.06
675.649	34932.5
675.998	34886.63
676.346	34989.22
676.695	34951.26
677.044	34813.63
677.393	34883.24
677.741	34825.61
678.09	34618.61
678.438	34644.37
678.787	34728.89
679.135	34694.54
679.484	34408.45
679.832	34672.39
680.181	34427.88
680.529	34595.11
680.877	34342.23
681.225	34430.37
681.573	34659.74
681.922	34382.46
682.27	34392.63
682.618	34509.23
682.966	34502.45
683.314	34593.98
683.661	34478.5
684.009	34187.43
684.357	34301.33
684.705	34317.15
685.053	34378.62
685.4	34396.47
685.748	34333.87
686.095	34210.94
686.443	34077.38
686.79	34266.75
687.138	34269.92
687.485	34333.65
687.832	34266.3
688.18	34276.25
688.527	34226.76
688.874	34209.13
689.221	34257.72
689.568	34146.98
689.915	34087.1
690.262	34105.4
690.609	34045.52
690.956	33890.95
691.303	33973.88
691.65	33835.13
691.997	33877.39
692.344	33618.18
692.69	33628.58
693.037	33691.63
693.383	33432.43
693.73	33643.95
694.077	33417.51
694.423	33584.96
694.769	33274.46
695.116	33371.86
695.462	33418.42
695.808	33204.18
696.155	33344.52
696.501	33056.62
696.847	33181.59
697.193	32976.62
697.539	33040.12
697.885	32735.04
698.231	32752.44
698.577	32737.76
698.923	32749.05
699.269	32575.73
699.614	32419.57
699.96	32410.08
700.306	32394.71
700.651	32295.73
700.997	32233.36
701.342	32110.43
701.688	32114.72
702.033	32058.22
702.379	31976.87
702.724	31891.68
703.069	31914.5
703.415	31504.57
703.76	31659.14
704.105	31578.69
704.45	31490.33
704.795	31277
705.14	31303.44
705.485	31198.36
705.83	31119.72
706.175	31105.26
706.52	31055.99
706.865	31105.26
707.209	30988.2
707.554	30746.85
707.899	30844.7
708.243	30653.29
708.588	30646.51
708.932	30453.52
709.277	30483.58
709.621	30573.07
709.966	30422.56
710.31	30460.07
710.654	30194.55
710.998	30140.76
711.342	30246.75
711.687	30103.7
712.031	29835.46
712.375	29903.25
712.719	30104.6
713.063	29784.16
713.407	29884.95
713.75	29750.94
714.094	29715.46
714.438	29670.72
714.782	29641.79
715.125	29417.16
715.469	29566.09
715.812	29332.19
716.156	29215.59
716.499	29262.82
716.843	29383.94
717.186	29072.09
717.53	29285.42
717.873	29208.36
718.216	29029.6
718.559	28980.34
718.902	28708.93
719.246	28975.59
719.589	28720.01
719.932	28669.16
720.275	28752.78
720.617	28546.45
720.96	28604.76
721.303	28446.12
721.646	28515.49
721.989	28348.27
722.331	28457.42
722.674	28324.76
723.016	28326.8
723.359	28217.65
723.701	28278.66
724.044	27998.44
724.386	27923.64
724.729	28115.28
725.071	27972.23
725.413	27964.32
725.755	27959.58
726.097	27927.03
726.439	27749.41
726.782	27746.93
727.124	27898.56
727.465	27589.87
727.807	27658.57
728.149	27575.86
728.491	27527.27
728.833	27550.77
729.175	27524.56
729.516	27298.12
729.858	27258.58
730.199	27338.57
730.541	27356.88
730.882	27343.32
731.224	27320.95
731.565	27095.64
731.906	27110.11
732.248	27077.56
732.589	26931.81
732.93	26884.35
733.271	26953.27
733.612	26893.39
733.953	26855.65
734.294	26712.83
734.635	26771.81
734.976	26755.54
735.317	26643.68
735.658	26728.42
735.999	26608.88
736.339	26650.01
736.68	26531.14
737.021	26487.07
737.361	26381.99
737.702	26466.51
738.042	26466.73
738.383	26319.62
738.723	26470.35
739.063	26200.98
739.404	26266.51
739.744	26141.09
740.084	26228.32
740.424	26163.24
740.764	26051.38
741.104	26152.62
741.444	26010.93
741.784	25960.53
742.124	25902.23
742.464	25896.58
742.804	25946.07
743.143	25725.96
743.483	25760.09
743.823	25625.17
744.162	25614.1
744.502	25718.05
744.841	25527.1
745.181	25574.55
745.52	25541.56
745.86	25456.14
746.199	25431.05
746.538	25393.32
746.877	25479.41
747.216	25216.37
747.556	25312.64
747.895	25304.5
748.234	25207.78
748.573	25149.93
748.911	25109.48
749.25	25006.88
749.589	25002.82
749.928	24931.86
750.267	24949.03
750.605	24905.19
750.944	24913.33
751.283	24817.06
751.621	24780.68
751.96	24734.8
752.298	24552.21
752.636	24611.19
752.975	24481.93
753.313	24456.39
