Data from White_reflection_standard_FLMS001491_036.txt Node
Date: Tue Feb 07 10:32:02 GMT 2017
User: dcchb
Spectrometer: FLMS00149
Trigger mode: 0
Integration Time (sec): 2.000000E-2
Scans to average: 10
Electric dark correction enabled: true
Nonlinearity correction enabled: false
Boxcar width: 0
XAxis mode: Wavelengths
Number of Pixels in Spectrum: 2048
>>>>>Begin Spectral Data<<<<<
341.393	-23.22
341.776	-23.22
342.16	-23.22
342.543	-47.85
342.927	-57.34
343.31	-72.48
343.693	-77
344.077	-62.99
344.46	-58.02
344.843	-61.18
345.226	-48.08
345.61	-19.15
345.993	-4.24
346.376	-6.5
346.759	2.09
347.142	28.76
347.525	44.58
347.908	66.95
348.291	69.66
348.674	85.03
349.057	112.6
349.44	123.44
349.823	146.04
350.206	173.84
350.588	212.71
350.971	261.52
351.354	269.2
351.737	292.25
352.119	304.46
352.502	294.06
352.884	311.01
353.267	326.38
353.65	342.19
354.032	343.1
354.414	343.1
354.797	353.49
355.179	360.72
355.562	364.79
355.944	373.83
356.326	376.32
356.709	388.07
357.091	411.57
357.473	398.69
357.855	397.79
358.238	387.84
358.62	396.2
359.002	384.91
359.384	390.78
359.766	406.37
360.148	388.75
360.53	395.53
360.912	413.15
361.294	428.29
361.676	423.32
362.057	395.3
362.439	386.49
362.821	400.95
363.203	405.92
363.584	401.85
363.966	420.84
364.348	408.18
364.729	381.29
365.111	410.67
365.493	408.41
365.874	404.79
366.256	407.5
366.637	408.41
367.019	428.29
367.4	404.79
367.781	440.5
368.163	418.8
368.544	445.92
368.925	402.08
369.306	426.71
369.688	419.25
370.069	427.39
370.45	419.71
370.831	449.99
371.212	436.88
371.593	432.36
371.974	420.38
372.355	443.89
372.736	469.65
373.117	445.47
373.498	441.4
373.879	447.73
374.26	456.54
374.641	448.41
375.021	428.97
375.402	453.83
375.783	471
376.163	506.26
376.544	496.31
376.925	485.47
377.305	498.12
377.686	491.57
378.066	503.09
378.447	485.47
378.827	482.53
379.208	504.45
379.588	503.55
379.968	531.57
380.349	540.38
380.729	520.95
381.109	536.77
381.489	531.34
381.87	551.23
382.25	546.26
382.63	563.43
383.01	577.44
383.39	574.28
383.77	554.62
384.15	584
384.53	574.5
384.91	585.35
385.29	602.98
385.67	586.71
386.049	622.64
386.429	606.14
386.809	620.61
387.189	597.1
387.568	634.62
387.948	629.19
388.328	628.06
388.707	656.54
389.087	656.08
389.466	666.48
389.846	676.2
390.225	692.02
390.605	677.55
390.984	690.21
391.363	735.4
391.743	710.09
392.122	719.81
392.501	713.48
392.881	756.42
393.26	768.4
393.639	750.32
394.018	765.23
394.397	783.54
394.776	780.15
395.155	785.57
395.534	807.49
395.913	825.8
396.292	810.43
396.671	805.69
397.05	828.28
397.429	836.87
397.808	843.42
398.186	843.2
398.565	863.54
398.944	849.98
399.323	875.97
399.701	875.51
400.08	915.74
400.458	888.85
400.837	926.36
401.215	929.07
401.594	910.99
401.972	948.96
402.351	953.03
402.729	958
403.107	977.21
403.486	954.61
403.864	983.99
404.242	1019.69
404.62	991.22
404.999	1040.93
405.377	1052.46
405.755	1061.05
406.133	1066.47
406.511	1079.35
406.889	1100.59
407.267	1117.99
407.645	1125.22
408.023	1155.05
408.401	1146.02
408.779	1204.77
409.156	1186.69
409.534	1184.43
409.912	1240.7
410.29	1229.4
410.667	1277.76
411.045	1285.9
411.422	1277.54
411.8	1292.9
412.178	1308.72
412.555	1320.7
412.933	1383.52
413.31	1370.87
413.687	1374.71
414.065	1427.59
414.442	1454.26
414.819	1440.24
415.197	1469.17
415.574	1488.83
415.951	1510.3
416.328	1510.3
416.705	1546.23
417.082	1517.3
417.46	1535.38
417.837	1552.56
418.214	1588.49
418.591	1615.16
418.967	1602.05
419.344	1634.36
419.721	1661.26
420.098	1663.52
420.475	1700.58
420.852	1694.7
421.228	1730.41
421.605	1751.65
421.982	1763.85
422.358	1818.09
422.735	1796.39
423.111	1791.2
423.488	1870.74
423.864	1874.58
424.241	1880.69
424.617	1907.8
424.994	1924.53
425.37	1936.5
425.746	1953.23
426.123	1985.99
426.499	1984.86
426.875	2053.56
427.251	2022.83
427.627	2074.35
428.003	2128.36
428.379	2155.93
428.756	2176.95
429.132	2198.87
429.507	2236.83
429.883	2236.83
430.259	2293.78
430.635	2323.61
431.011	2345.76
431.387	2407
431.763	2437.28
432.138	2479.09
432.514	2503.95
432.89	2514.34
433.265	2569.71
433.641	2595.02
434.016	2613.1
434.392	2707.33
434.767	2721.34
435.143	2748.91
435.518	2757.72
435.894	2765.18
436.269	2833.2
436.644	2889.7
437.02	2937.83
437.395	2884.05
437.77	2944.61
438.145	3018.06
438.52	3029.13
438.895	3068
439.271	3063.48
439.646	3136.47
440.021	3140.99
440.395	3203.14
440.77	3156.36
441.145	3227.77
441.52	3275.22
441.895	3235.9
442.27	3277.48
442.645	3338.95
443.019	3350.25
443.394	3362
443.769	3411.27
444.143	3383.47
444.518	3470.02
444.892	3446.75
445.267	3478.38
445.641	3516.57
446.016	3557.7
446.39	3574.43
446.764	3616.23
447.139	3605.84
447.513	3649.45
447.887	3677.93
448.262	3675.21
448.636	3732.39
449.01	3794.76
449.384	3831.37
449.758	3822.1
450.132	3882.89
450.506	3929.9
450.88	3954.75
451.254	3959.73
451.628	4003.57
452.002	4072.72
452.376	4077.46
452.75	4188.42
453.123	4182.77
453.497	4247.63
453.871	4286.95
454.244	4403.33
454.618	4427.28
454.992	4427.74
455.365	4492.37
455.739	4598.35
456.112	4649.65
456.486	4680.84
456.859	4731.01
457.232	4810.1
457.606	4805.58
457.979	4918.12
458.352	4990.21
458.725	5098.23
459.099	5065.91
459.472	5147.49
459.845	5176.87
460.218	5266.81
460.591	5338.45
460.964	5351.78
461.337	5469.97
461.71	5577.08
462.083	5666.8
462.456	5657.31
462.829	5639
463.201	5828.38
463.574	5825.44
463.947	5922.84
464.32	6033.8
464.692	6145.88
465.065	6140.69
465.438	6190.18
465.81	6310.85
466.183	6408.02
466.555	6516.27
466.928	6572.77
467.3	6590.17
467.672	6709.03
468.045	6850.95
468.417	6914.45
468.789	6955.58
469.161	7006.88
469.534	7182.01
469.906	7258.17
470.278	7320.54
470.65	7406.19
471.022	7609.8
471.394	7765.95
471.766	7873.75
472.138	7882.34
472.51	8116.23
472.882	8182.44
473.253	8318.03
473.625	8411.59
473.997	8619.04
474.369	8654.97
474.74	8787.85
475.112	8983.55
475.484	9087.28
475.855	9274.16
476.227	9300.83
476.598	9614.49
476.97	9664.66
477.341	9936.07
477.713	10061.26
478.084	10133.35
478.455	10419.67
478.827	10450.4
479.198	10785.31
479.569	10738.98
479.94	11185.53
480.311	11192.53
480.682	11565.85
481.053	11776.02
481.424	11948.22
481.795	12034.77
482.166	12260.53
482.537	12404.93
482.908	12660.74
483.279	12772.83
483.65	13024.12
484.021	13260.27
484.391	13437.9
484.762	13612.13
485.133	13650.77
485.503	13869.3
485.874	14226.35
486.244	14316.52
486.615	14654.59
486.985	14830.85
487.356	15075.14
487.726	15156.04
488.097	15474.68
488.467	15625.86
488.837	15832.63
489.207	16097.94
489.578	16354.43
489.948	16519.17
490.318	16659.05
490.688	16838.71
491.058	17057.69
491.428	17202.09
491.798	17447.28
492.168	17834.84
492.538	17836.2
492.908	18051.56
493.278	18296.52
493.648	18332.91
494.017	18593.01
494.387	18807.7
494.757	18913.23
495.126	18944.87
495.496	19148.25
495.866	19386.89
496.235	19622.82
496.605	19855.13
496.974	19936.26
497.344	20138.28
497.713	20098.96
498.082	20340.31
498.452	20605.39
498.821	20680.42
499.19	20774.43
499.559	21009.45
499.928	21166.73
500.298	21225.49
500.667	21458.48
501.036	21492.37
501.405	21654.4
501.774	21805.58
502.143	22062.3
502.512	22068.18
502.88	22385.46
503.249	22374.38
503.618	22512.23
503.987	22596.98
504.356	22844.2
504.724	23063.4
505.093	23067.7
505.462	23164.42
505.83	23408.48
506.199	23617.97
506.567	23812.54
506.936	23822.03
507.304	24124.39
507.672	24364.16
508.041	24345.63
508.409	24550.37
508.777	24757.6
509.145	24970.02
509.514	25024.03
509.882	25210.69
510.25	25377.02
510.618	25607.29
510.986	25666.73
511.354	25872.14
511.722	26139.26
512.09	26404.79
512.458	26387.84
512.826	26726.36
513.193	26776.53
513.561	26934.26
513.929	27170.19
514.297	27504.64
514.664	27627.35
515.032	27740.34
515.4	27954.8
515.767	28144.18
516.135	28320.89
516.502	28184.85
516.869	28623.71
517.237	28837.49
517.604	28783.48
517.972	29176.46
518.339	29323.81
518.706	29489.68
519.073	29642.21
519.44	29987.74
519.808	30175.99
520.175	30149.32
520.542	30779.81
520.909	30892.8
521.276	30858.23
521.643	31217.31
522.009	31496.63
522.376	31714.02
522.743	31847.58
523.11	32250.73
523.477	32522.59
523.843	32703.15
524.21	33120.32
524.577	33295
524.943	33474.43
525.31	33565.73
525.676	33947.86
526.043	34213.39
526.409	34262.66
526.776	34729.31
527.142	34768.63
527.508	35037.78
527.874	35313.25
528.241	35428.28
528.607	35549.63
528.973	35970.64
529.339	36047.7
529.705	36378.31
530.071	36657.62
530.437	36795.7
530.803	36964.28
531.169	37251.73
531.535	37278.17
531.901	37360.43
532.267	37587.77
532.632	37925.84
532.998	37926.06
533.364	38260.07
533.73	38296.22
534.095	38621.41
534.461	38729.89
534.826	38830.67
535.192	39088.52
535.557	39345.46
535.923	39240.15
536.288	39486.7
536.653	39743.87
537.019	39763.76
537.384	39850.08
537.749	40123.52
538.114	40126.91
538.479	40288.26
538.845	40640.12
539.21	40500.91
539.575	40731.41
539.94	40886.89
540.305	41191.52
540.67	41179.09
541.034	41395.8
541.399	41484.39
541.764	41566.2
542.129	41789.01
542.494	41921.89
542.858	41998.27
543.223	42019.06
543.587	42468.09
543.952	42476.23
544.316	42532.27
544.681	42503.12
545.045	42787.86
545.41	42941.3
545.774	43065.59
546.138	43208.64
546.503	43406.15
546.867	43222.42
547.231	43849.52
547.595	43700.38
547.959	43807.72
548.324	43974.95
548.688	44039.35
549.052	44261.49
549.416	44284.09
549.779	44453.35
550.143	44553.46
550.507	44932.66
550.871	44966.11
551.235	45084.97
551.599	45258.75
551.962	45402.03
552.326	45510.05
552.689	45731.51
553.053	45644.28
553.417	45785.07
553.78	46239.52
554.143	46218.05
554.507	46324.04
554.87	46541.66
555.234	46853.06
555.597	46708.43
555.96	47010.35
556.323	47170.57
556.686	47141.42
557.05	47529.2
557.413	47572.14
557.776	47591.12
558.139	47964.9
558.502	48056.19
558.865	48069.53
559.228	48516.75
559.59	48468.61
559.953	48636.29
560.316	49121.25
560.679	49063.17
561.041	49309.04
561.404	49426.33
561.767	49697.28
562.129	49512.2
562.492	49992.19
562.854	49944.73
563.217	49943.6
563.579	50136.82
563.941	50425.85
564.304	50501.1
564.666	50904.03
565.028	50786.07
565.39	51036.68
565.753	51137.69
566.115	51283.68
566.477	51468.99
566.839	51451.58
567.201	51729.32
567.563	51780.62
567.925	52008.18
568.287	52040.5
568.648	52033.26
569.01	52207.72
569.372	52349.87
569.734	52265.35
570.095	52650.2
570.457	52779.23
570.819	52792.57
571.18	52815.62
571.542	52908.5
571.903	53028.04
572.265	53193.01
572.626	53249.5
572.987	53282.27
573.349	53350.07
573.71	53501.47
574.071	53508.25
574.432	53724.52
574.794	53834.35
575.155	53827.34
575.516	53751.64
575.877	53955.93
576.238	53957.73
576.599	54130.61
576.96	54134.9
577.32	54151.18
577.681	54274.11
578.042	54313.66
578.403	54283.37
578.763	54302.58
579.124	54402.69
579.485	54548.23
579.845	54586.19
580.206	54520.2
580.566	54550.71
580.927	54531.73
581.287	54738.28
581.648	54515.91
582.008	54723.14
582.368	54704.38
582.728	54683.14
583.089	54704.15
583.449	54628.68
583.809	54711.84
584.169	54803.81
584.529	54713.87
584.889	54894.88
585.249	54795.45
585.609	54687.21
585.969	54861.66
586.329	54779.41
586.688	54848.78
587.048	54879.97
587.408	54798.62
587.768	54759.52
588.127	54747.54
588.487	54727.88
588.846	54990.47
589.206	54740.99
589.565	54745.28
589.925	54853.53
590.284	54829.8
590.643	54895.79
591.003	54930.14
591.362	54972.85
591.721	54982.34
592.08	55001.32
592.44	55021.66
592.799	55050.81
593.158	54883.36
593.517	54910.25
593.876	55038.84
594.235	54957.93
594.593	55023.02
594.952	55034.32
595.311	54992.73
595.67	55024.37
596.029	55160.64
596.387	55157.7
596.746	55198.61
597.104	55068.21
597.463	55106.63
597.822	55297.13
598.18	55137.36
598.538	55084.71
598.897	55310.92
599.255	55018.5
599.613	55392.72
599.972	55206.97
600.33	55308.88
600.688	55246.74
601.046	55285.38
601.404	55418.94
601.762	55392.72
602.12	55430.92
602.478	55441.99
602.836	55427.75
603.194	55340.52
603.552	55500.52
603.91	55355.21
604.268	55563.34
604.625	55405.83
604.983	55547.3
605.341	55442.21
605.698	55682.66
606.056	55639.27
606.413	55653.96
606.771	55661.19
607.128	55754.97
607.485	55563.12
607.843	55685.82
608.2	55777.8
608.557	55888.76
608.914	55844.24
609.272	55855.09
609.629	55958.81
609.986	56019.37
610.343	55878.81
610.7	56171.91
611.057	56055.98
611.414	56095.08
611.771	56108.19
612.127	56237.67
612.484	56109.99
612.841	56231.35
613.198	56165.36
613.554	56149.31
613.911	56265.02
614.267	56244.68
614.624	56175.98
614.98	56299.59
615.337	56427.5
615.693	56313.38
616.05	56289.88
616.406	56499.59
616.762	56385.24
617.118	56354.73
617.475	56347.95
617.831	56462.98
618.187	56402.42
618.543	56472.92
618.899	56655.29
619.255	56582.75
619.611	56523.32
619.967	56616.87
620.323	56691
620.678	56575.07
621.034	56500.27
621.39	56563.99
621.746	56506.82
622.101	56786.13
622.457	56502.98
622.812	56570.55
623.168	56644.67
623.523	56640.38
623.879	56732.35
624.234	56544.78
624.589	56555.86
624.945	56659.58
625.3	56690.77
625.655	56608.29
626.01	56696.19
626.365	56691.22
626.72	56570.55
627.075	56562.64
627.43	56660.49
627.785	56554.95
628.14	56621.62
628.495	56574.16
628.85	56613.71
629.205	56441.96
629.559	56603.31
629.914	56472.92
630.269	56492.13
630.623	56446.48
630.978	56342.53
631.332	56454.17
631.687	56471.79
632.041	56371
632.396	56404.45
632.75	56346.15
633.104	56357.44
633.459	56216.43
633.813	56179.82
634.167	56186.15
634.521	56193.16
634.875	56145.25
635.229	56166.72
635.583	56006.49
635.937	55966.27
636.291	55973.27
636.645	55994.97
636.999	55900.28
637.352	55899.38
637.706	55829.32
638.06	55920.39
638.413	55783
638.767	55771.92
639.121	55848.98
639.474	55595.43
639.828	55608.09
640.181	55742.77
640.534	55678.14
640.888	55486.51
641.241	55448.09
641.594	55496
641.947	55522.66
642.301	55498.03
642.654	55409.45
643.007	55429.11
643.36	55409.22
643.713	55304.37
644.066	55460.75
644.419	55257.13
644.771	54952.28
645.124	54744.15
645.477	54662.35
645.83	54467.55
646.182	54425.07
646.535	54256.26
646.888	54329.02
647.24	54212.42
647.593	54334.22
647.945	54295.13
648.298	54103.49
648.65	54102.59
649.002	53929.49
649.355	54074.57
649.707	53921.35
650.059	54097.39
650.411	54441.79
650.763	54497.15
651.115	54836.35
651.467	54588.68
651.819	54622.35
652.171	54545.74
652.523	54473.2
652.875	54502.8
653.227	54233.66
653.578	54509.13
653.93	54487.66
654.282	54274.56
654.633	54251.51
654.985	54284.05
655.337	54274.56
655.688	54301.45
656.039	54337.16
656.391	54090.61
656.742	54150.5
657.094	54183.94
657.445	54197.05
657.796	54135.81
658.147	54110.5
658.498	54061.91
658.849	54154.56
659.2	54045.19
659.551	53970.16
659.902	54023.95
660.253	53978.52
660.604	54050.39
660.955	53847
661.306	53956.83
661.656	53910.28
662.007	53874.12
662.358	53880.67
662.708	53812.65
663.059	53841.35
663.409	53780.56
663.76	53813.56
664.11	53848.13
664.461	53830.05
664.811	53818.75
665.161	53814.91
665.511	53715.93
665.862	53672.09
666.212	53801.58
666.562	53771.98
666.912	53715.03
667.262	53538.08
667.612	53628.02
667.962	53748.93
668.312	53563.62
668.662	53633.67
669.011	53587.8
669.361	53552.09
669.711	53465.77
670.06	53352.1
670.41	53338.32
670.76	53313.68
671.109	53485.43
671.459	53357.75
671.808	53353.23
672.157	53371.08
672.507	53162.27
672.856	53115.72
673.205	53235.94
673.554	53274.81
673.904	53203.4
674.253	53324.3
674.602	53253.35
674.951	52729.07
675.3	52542.18
675.649	53091.09
675.998	53008.61
676.346	53068.72
676.695	53238.2
677.044	52927.25
677.393	52901.94
677.741	53038.44
678.09	52972.22
678.438	52880.7
678.787	52849.29
679.135	52872.79
679.484	52693.59
679.832	52813.13
680.181	52617.66
680.529	52687.26
680.877	52577.66
681.225	52532.46
681.573	52717.77
681.922	52463.99
682.27	52391.67
682.618	52388.51
682.966	52313.94
683.314	52341.73
683.661	52199.14
684.009	52098.12
684.357	51998.92
684.705	51940.84
685.053	51989.2
685.4	51858.13
685.748	51748.53
686.095	51738.81
686.443	51672.14
686.79	51562.09
687.138	51626.72
687.485	51591.02
687.832	51427.18
688.18	51494.75
688.527	51404.35
688.874	51308.76
689.221	51193.51
689.568	51093.63
689.915	50995.55
690.262	50902.9
690.609	50868.32
690.956	50728.44
691.303	50689.8
691.65	50534.09
691.997	50527.77
692.344	50341.56
692.69	50273.08
693.037	50278.28
693.383	49936.6
693.73	50141.56
694.077	49829.48
694.423	49832.19
694.769	49872.64
695.116	49617.51
695.462	49538.87
695.808	49483.95
696.155	49567.57
696.501	49191.08
696.847	49218.42
697.193	48849.17
697.539	49095.26
697.885	48762.62
698.231	48675.61
698.577	48749.51
698.923	48559.01
699.269	48495.28
699.614	48176.87
699.96	48253.48
700.306	48157.21
700.651	47968.51
700.997	47951.79
701.342	47936.42
701.688	47799.03
702.033	47694.17
702.379	47660.72
702.724	47484.91
703.069	47611.91
703.415	47019.84
703.76	47122.21
704.105	47166.5
704.45	46964.92
704.795	46707.3
705.14	46653.75
705.485	46619.62
705.83	46345.96
706.175	46468.89
706.52	46358.84
706.865	46155.68
707.209	46089.24
707.554	45958.17
707.899	46093.31
708.243	45829.81
708.588	45790.26
708.932	45537.62
709.277	45471.4
709.621	45546.88
709.966	45288.36
710.31	45360.22
710.654	45009.04
710.998	45096.27
711.342	45127.68
711.687	44955.03
712.031	44659.45
712.375	44625.78
712.719	44678.88
713.063	44636.62
713.407	44639.11
713.75	44313.47
714.094	44347.82
714.438	44099.69
714.782	44240.7
715.125	44012.68
715.469	44208.61
715.812	43885
716.156	43619.02
716.499	43589.19
716.843	43715.97
717.186	43373.15
717.53	43488.4
717.873	43656.76
718.216	43444.34
718.559	43214.74
718.902	43035.99
719.246	42966.84
719.589	42856.1
719.932	42595.32
720.275	42715.77
720.617	42777.46
720.96	42728.65
721.303	42706.05
721.646	42680.97
721.989	42307.42
722.331	42513.74
722.674	42470.13
723.016	42381.32
723.359	42246.18
723.701	42244.37
724.044	41983.36
724.386	41793.31
724.729	41918.05
725.071	41944.26
725.413	41768
725.755	41731.61
726.097	41700.43
726.439	41433.32
726.782	41383.6
727.124	41556.25
727.465	41307.44
727.807	41333.88
728.149	41151.52
728.491	41071.07
728.833	41119.65
729.175	41065.87
729.516	40745.65
729.858	40853.9
730.199	40915.82
730.541	40764.86
730.882	40635.37
731.224	40887.79
731.565	40562.38
731.906	40557.18
732.248	40536.39
732.589	40382.95
732.93	40161.71
733.271	40260.01
733.612	40336.85
733.953	40231.99
734.294	40044.2
734.635	39867.03
734.976	40036.29
735.317	39855.28
735.658	39749.75
735.999	39675.4
736.339	39610.77
736.68	39676.53
737.021	39535.29
737.361	39352.24
737.702	39496.87
738.042	39293.71
738.383	39240.38
738.723	39228.4
739.063	39168.29
739.404	39236.54
739.744	39008.97
740.084	38834.74
740.424	39100.5
740.764	38843.1
741.104	39062.98
741.444	38754.07
741.784	38693.95
742.124	38672.26
742.464	38582.54
742.804	38600.62
743.143	38400.18
743.483	38438.14
743.823	38141.43
744.162	37985.95
744.502	38343
744.841	38206.51
745.181	38044.03
745.52	38017.81
745.86	38058.04
746.199	37930.36
746.538	37864.6
746.877	37818.95
747.216	37889
747.556	37753.64
747.895	37760.87
748.234	37475.68
748.573	37466.64
748.911	37415.34
749.25	37305.29
749.589	37288.79
749.928	37253.54
750.267	37257.16
750.605	37081.12
750.944	36974.68
751.283	36872.76
751.621	36950.27
751.96	36712.54
752.298	36603.84
752.636	36683.16
752.975	36543.05
