Data from White_reflection_standard_FLMS001491_092.txt Node
Date: Tue Feb 07 10:32:13 GMT 2017
User: dcchb
Spectrometer: FLMS00149
Trigger mode: 0
Integration Time (sec): 2.000000E-2
Scans to average: 10
Electric dark correction enabled: true
Nonlinearity correction enabled: false
Boxcar width: 0
XAxis mode: Wavelengths
Number of Pixels in Spectrum: 2048
>>>>>Begin Spectral Data<<<<<
341.393	-26.92
341.776	-26.92
342.16	-26.92
342.543	-67.82
342.927	-71.44
343.31	-68.73
343.693	-78.44
344.077	-62.4
344.46	-52.46
344.843	-67.15
345.226	-39.8
345.61	-26.02
345.993	-6.81
346.376	-7.49
346.759	-0.25
347.142	30.93
347.525	45.85
347.908	46.3
348.291	88.11
348.674	83.81
349.057	114.55
349.44	108.9
349.823	145.96
350.206	158.61
350.588	216.46
350.971	243.13
351.354	265.28
351.737	288.78
352.119	276.12
352.502	316.57
352.884	291.26
353.267	317.93
353.65	334.65
354.032	353.41
354.414	359.74
354.797	354.31
355.179	354.54
355.562	388.21
355.944	375.78
356.326	392.96
356.709	394.54
357.091	396.57
357.473	400.19
357.855	381.66
358.238	390.02
358.62	401.77
359.002	422.33
359.384	387.98
359.766	400.64
360.148	416.91
360.53	400.19
360.912	415.33
361.294	420.3
361.676	383.69
362.057	367.65
362.439	407.19
362.821	407.64
363.203	392.73
363.584	399.96
363.966	395.67
364.348	402.22
364.729	394.76
365.111	407.42
365.493	408.32
365.874	408.32
366.256	388.21
366.637	421.66
367.019	415.33
367.4	409.68
367.781	410.81
368.163	420.3
368.544	401.09
368.925	415.1
369.306	408.55
369.688	432.05
370.069	433.86
370.45	442.45
370.831	438.6
371.212	425.95
371.593	440.19
371.974	433.63
372.355	438.38
372.736	464.82
373.117	467.76
373.498	432.73
373.879	448.32
374.26	452.62
374.641	446.97
375.021	447.42
375.402	450.13
375.783	492.16
376.163	530.81
376.544	478.83
376.925	472.95
377.305	489.45
377.686	481.54
378.066	500.75
378.447	496.68
378.827	509.56
379.208	530.13
379.588	518.83
379.968	522.67
380.349	512.73
380.729	551.82
381.109	540.52
381.489	527.87
381.87	524.7
382.25	556.34
382.63	550.47
383.01	540.97
383.39	568.77
383.77	563.12
384.15	549.34
384.53	577.58
384.91	583.01
385.29	594.31
385.67	592.05
386.049	614.87
386.429	620.52
386.809	618.49
387.189	616.68
387.568	617.58
387.948	623.01
388.328	629.79
388.707	651.71
389.087	667.3
389.466	654.42
389.846	697.35
390.225	689.45
390.605	678.6
390.984	693.51
391.363	694.87
391.743	703.68
392.122	712.5
392.501	746.62
392.881	747.97
393.26	730.57
393.639	736.22
394.018	752.72
394.397	776.45
394.776	757.69
395.155	776.45
395.534	807.41
395.913	802.21
396.292	792.49
396.671	822.32
397.05	818.93
397.429	845.37
397.808	833.85
398.186	856.67
398.565	857.12
398.944	837.46
399.323	870.46
399.701	901.42
400.08	908.42
400.458	896.45
400.837	893.51
401.215	911.36
401.594	929.89
401.972	918.59
402.351	938.7
402.729	973.96
403.107	976.67
403.486	1001.53
403.864	1000.62
404.242	1012.37
404.62	1016.89
404.999	1022.54
405.377	1036.55
405.755	1029.78
406.133	1040.85
406.511	1050.79
406.889	1105.71
407.267	1099.83
407.645	1107.74
408.023	1150.9
408.401	1144.12
408.779	1172.37
409.156	1179.6
409.534	1195.42
409.912	1196.55
410.29	1251.46
410.667	1273.61
411.045	1266.38
411.422	1265.93
411.8	1289.2
412.178	1331.69
412.555	1351.57
412.933	1339.82
413.31	1377.11
413.687	1387.51
414.065	1388.86
414.442	1417.79
414.819	1459.82
415.197	1464.11
415.574	1495.07
415.951	1525.58
416.328	1516.99
416.705	1525.13
417.082	1540.5
417.46	1567.84
417.837	1575.98
418.214	1547.05
418.591	1607.39
418.967	1595.64
419.344	1652.81
419.721	1656.65
420.098	1684.9
420.475	1687.16
420.852	1710.21
421.228	1739.81
421.605	1739.14
421.982	1754.95
422.358	1773.48
422.735	1810.32
423.111	1788.63
423.488	1853.93
423.864	1837.44
424.241	1849.41
424.617	1898
424.994	1914.95
425.37	1940.03
425.746	1946.14
426.123	1991.78
426.499	1983.2
426.875	2041.05
427.251	2079.47
427.627	2110.88
428.003	2141.16
428.379	2158.56
428.756	2168.73
429.132	2193.36
429.507	2240.36
429.883	2251.44
430.259	2325.11
430.635	2318.1
431.011	2357.88
431.387	2404.88
431.763	2454.37
432.138	2460.7
432.514	2493.01
432.89	2492.11
433.265	2599.68
433.641	2597.42
434.016	2660.24
434.392	2711.99
434.767	2751.99
435.143	2697.98
435.518	2741.37
435.894	2798.54
436.269	2844.19
436.644	2879.67
437.02	2913.57
437.395	2910.63
437.77	2951.53
438.145	2944.75
438.52	2990.63
438.895	3065.43
439.271	3073.34
439.646	3118.08
440.021	3160.11
440.395	3174.13
440.77	3158.53
441.145	3205.76
441.52	3288.02
441.895	3239.89
442.27	3293.67
442.645	3336.38
443.019	3355.59
443.394	3345.87
443.769	3451.86
444.143	3398.98
444.518	3459.32
444.892	3455.47
445.267	3513.55
445.641	3531.4
446.016	3563.04
446.39	3569.37
446.764	3580.22
447.139	3634.45
447.513	3679.42
447.887	3677.84
448.262	3716.94
448.636	3752.87
449.01	3790.15
449.384	3821.57
449.758	3842.36
450.132	3910.6
450.506	3948.34
450.88	3952.64
451.254	3992.86
451.628	4009.81
452.002	4029.7
452.376	4072.86
452.75	4132.07
453.123	4197.6
453.497	4215.45
453.871	4266.53
454.244	4353.08
454.618	4415.22
454.992	4453.87
455.365	4461.55
455.739	4629.45
456.112	4616.57
456.486	4647.53
456.859	4685.5
457.232	4861.31
457.606	4863.57
457.979	4867.41
458.352	4976.56
458.725	5055.66
459.099	5090.69
459.472	5223.56
459.845	5267.4
460.218	5305.14
460.591	5315.31
460.964	5383.33
461.337	5446.61
461.71	5584.01
462.083	5600.28
462.456	5668.3
462.829	5723.89
463.201	5816.77
463.574	5844.11
463.947	5896.99
464.32	6051.11
464.692	6057.67
465.065	6152.35
465.438	6201.39
465.81	6278
466.183	6402.52
466.555	6546.47
466.928	6588.05
467.3	6571.78
467.672	6691.77
468.045	6877.53
468.417	6827.36
468.789	6945.1
469.161	7006.79
469.534	7114.13
469.906	7381.92
470.278	7383.51
470.65	7474.58
471.022	7602.94
471.394	7717.51
471.766	7887
472.138	7928.12
472.51	8083.38
472.882	8255.57
473.253	8356.59
473.625	8416.47
473.997	8599.07
474.369	8671.83
474.74	8768.55
475.112	8924.71
475.484	9114.76
475.855	9268.43
476.227	9328.09
476.598	9643.56
476.97	9708.64
477.341	9934.85
477.713	10044
478.084	10066.15
478.455	10447.15
478.827	10491.45
479.198	10831.55
479.569	10825.68
479.94	11088.95
480.311	11268.38
480.682	11421.59
481.053	11783.62
481.424	11921.24
481.795	12026.55
482.166	12203.27
482.537	12368.91
482.908	12717.6
483.279	12849.35
483.65	12996.47
484.021	13249.57
484.391	13412.95
484.762	13589.9
485.133	13736.33
485.503	13925.48
485.874	14191.91
486.244	14345.58
486.615	14692.47
486.985	14721.62
487.356	15077.54
487.726	15199.57
488.097	15569.05
488.467	15584.19
488.837	15836.84
489.207	16040
489.578	16313.22
489.948	16541.46
490.318	16726.76
490.688	16785.07
491.058	17098.51
491.428	17343.24
491.798	17422.79
492.168	17667.08
492.538	17917.01
492.908	18021.87
493.278	18363.56
493.648	18270
494.017	18535.3
494.387	18790.66
494.757	18992.69
495.126	19201.95
495.496	19201.73
495.866	19309.97
496.235	19529.63
496.605	19777.3
496.974	19875.83
497.344	20076.51
497.713	20188.59
498.082	20349.95
498.452	20608.7
498.821	20677.17
499.19	20766.43
499.559	20962.81
499.928	21157.61
500.298	21312.18
500.667	21527.54
501.036	21458.39
501.405	21840.08
501.774	21756.01
502.143	22006.4
502.512	22080.07
502.88	22255.43
503.249	22335.88
503.618	22621.75
503.987	22654.52
504.356	22975.41
504.724	22912.82
505.093	23021.97
505.462	23167.5
505.83	23484.33
506.199	23657.43
506.567	23817.2
506.936	23804.32
507.304	24221.26
507.672	24274.59
508.041	24418.99
508.409	24586.9
508.777	24935.36
509.145	24971.97
509.514	24990.28
509.882	25243.6
510.25	25333.09
510.618	25623.03
510.986	25693.08
511.354	25893.75
511.722	26164.71
512.09	26399.96
512.458	26456.45
512.826	26624.13
513.193	26785.48
513.561	26906.16
513.929	27113.38
514.297	27429.98
514.664	27586.14
515.032	27820.48
515.4	27875.4
515.767	28138.67
516.135	28321.71
516.502	28263.41
516.869	28731.19
517.237	28786.56
517.604	28830.4
517.972	29281.69
518.339	29362.14
518.706	29521.68
519.073	29563.94
519.44	29965.29
519.808	30191.72
520.175	30219.06
520.542	30632.61
520.909	30926.62
521.276	30867.18
521.643	31284.8
522.009	31493.83
522.376	31800.04
522.743	31917.78
523.11	32234.15
523.477	32580.81
523.843	32745.33
524.21	33048.82
524.577	33229.38
524.943	33407.23
525.31	33604.96
525.676	33881.57
526.043	34190.03
526.409	34487.65
526.776	34629.12
527.142	34826.63
527.508	34969.9
527.874	35233.4
528.241	35500.51
528.607	35522.65
528.973	36002.41
529.339	35995.18
529.705	36420.48
530.071	36679.01
530.437	36751.32
530.803	36967.59
531.169	37318.54
531.535	37296.17
531.901	37391.76
532.267	37551.98
532.632	38043.04
532.998	37883.27
533.364	38298.63
533.73	38331.39
534.095	38501.78
534.461	38754.43
534.826	38998.49
535.192	39104.93
535.557	39365.94
535.923	39354.64
536.288	39507.41
536.653	39713.05
537.019	39791.92
537.384	40002.08
537.749	40060.84
538.114	40181.29
538.479	40450.66
538.845	40490.21
539.21	40514.39
539.575	40721.61
539.94	40986.01
540.305	41213.35
540.67	41098.55
541.034	41262.16
541.399	41413.35
541.764	41661.93
542.129	41776.05
542.494	41755.26
542.858	41997.29
543.223	42035.48
543.587	42384.17
543.952	42308.69
544.316	42442.25
544.681	42480.44
545.045	42735.12
545.41	42954.32
545.774	43068.67
546.138	43125.62
546.503	43408.55
546.867	43297.14
547.231	43517.7
547.595	43773.74
547.959	43897.8
548.324	43986.61
548.688	44197.45
549.052	44316.77
549.416	44365.81
549.779	44457.56
550.143	44545.92
550.507	44850.32
550.871	45093.7
551.235	45041.27
551.599	45388.61
551.962	45314.71
552.326	45564.2
552.689	45711.54
553.053	45700.01
553.417	45724.19
553.78	46301.58
554.143	46080.34
554.507	46380
554.87	46553.78
555.234	46844.84
555.597	46690.95
555.96	46910.15
556.323	47151.27
556.686	47135.46
557.05	47445.28
557.413	47530.7
557.776	47683.24
558.139	48028.31
558.502	48024.25
558.865	48223.79
559.228	48321.64
559.59	48478.02
559.953	48671.46
560.316	48955.29
560.679	49061.28
561.041	49239.36
561.404	49455.62
561.767	49565.67
562.129	49510.99
562.492	50061.25
562.854	49919.34
563.217	50040.24
563.579	50279.55
563.941	50447.46
564.304	50613.56
564.666	50818.97
565.028	50725.19
565.39	50897.16
565.753	51119.76
566.115	51174.9
566.477	51442.46
566.839	51555
567.201	51640.87
567.563	51779.18
567.925	51972.84
568.287	52008.77
568.648	52103.46
569.01	52258.03
569.372	52432.27
569.734	52374.41
570.095	52603.11
570.457	52733.27
570.819	52765.59
571.18	52771.24
571.542	52946.6
571.903	53055.3
572.265	53108.18
572.626	53233.37
572.987	53259.14
573.349	53432.69
573.71	53563.31
574.071	53545
574.432	53641.95
574.794	53888.5
575.155	53805.79
575.516	53737.09
575.877	53947.93
576.238	53958.1
576.599	54038.78
576.96	54220.69
577.32	54218.43
577.681	54252.1
578.042	54333.01
578.403	54360.8
578.763	54393.57
579.124	54414.13
579.485	54515.83
579.845	54614.35
580.206	54441.93
580.566	54557.63
580.927	54555.15
581.287	54785.65
581.648	54552.89
582.008	54771.86
582.368	54692.09
582.728	54714.01
583.089	54659.1
583.449	54699.55
583.809	54738.42
584.169	54817.29
584.529	54750.62
584.889	54963.5
585.249	54669.95
585.609	54713.79
585.969	54851.86
586.329	54756.72
586.688	54907.23
587.048	54809.83
587.408	54819.1
587.768	54855.03
588.127	54830.62
588.487	54671.53
588.846	54875.14
589.206	54784.52
589.565	54837.4
589.925	54897.96
590.284	54786.1
590.643	54880.79
591.003	54917.85
591.362	54990.62
591.721	54937.96
592.08	54895.93
592.44	55022.03
592.799	54956.94
593.158	54937.96
593.517	55012.31
593.876	55033.33
594.235	55010.28
594.593	54963.27
594.952	54982.25
595.311	54973.67
595.67	55071.07
596.029	55147.22
596.387	55179.54
596.746	55178.18
597.104	55057.28
597.463	55142.25
597.822	55254.56
598.18	55078.3
598.538	55059.54
598.897	55313.55
599.255	55072.87
599.613	55444.39
599.972	55278.07
600.33	55328.69
600.688	55203.27
601.046	55372.3
601.404	55464.73
601.762	55309.93
602.12	55521.9
602.478	55474.67
602.836	55503.82
603.194	55408.01
603.552	55429.93
603.91	55431.51
604.268	55503.6
604.625	55420.66
604.983	55616.81
605.341	55500.89
605.698	55636.7
606.056	55685.74
606.413	55629.92
606.771	55750.37
607.128	55754.66
607.485	55693.42
607.843	55706.53
608.2	55831.95
608.557	55884.15
608.914	55789.69
609.272	55882.57
609.629	55958.5
609.986	55971.61
610.343	55909.24
610.7	56143.81
611.057	56055.22
611.414	56041.66
611.771	56114.43
612.127	56175.22
612.484	56132.73
612.841	56238.27
613.198	56127.54
613.554	56123.92
613.911	56315.33
614.267	56237.59
614.624	56331.15
614.98	56318.49
615.337	56407.98
615.693	56362.56
616.05	56320.98
616.406	56455.21
616.762	56358.49
617.118	56404.14
617.475	56395.33
617.831	56510.12
618.187	56511.25
618.543	56477.81
618.899	56640.97
619.255	56528.88
619.611	56490.46
619.967	56620.4
620.323	56640.29
620.678	56513.97
621.034	56560.74
621.39	56580.63
621.746	56520.52
622.101	56721.64
622.457	56447.3
622.812	56579.5
623.168	56605.72
623.523	56600.97
623.879	56757.8
624.234	56441.88
624.589	56645.04
624.945	56617.92
625.3	56640.29
625.655	56631.7
626.01	56651.82
626.365	56643
626.72	56601.42
627.075	56654.53
627.43	56541.54
627.785	56540.86
628.14	56614.53
628.495	56565.49
628.85	56541.54
629.205	56536.56
629.559	56655.66
629.914	56475.1
630.269	56518.03
630.623	56462.22
630.978	56409.79
631.332	56452.95
631.687	56533.17
632.041	56364.14
632.396	56360.98
632.75	56267.42
633.104	56330.02
633.459	56188.32
633.813	56290.24
634.167	56136.57
634.521	56128.44
634.875	56208.89
635.229	56189.23
635.583	55969.8
635.937	56005.73
636.291	55949.01
636.645	55975
636.999	55919.41
637.352	55970.03
637.706	55796.7
638.06	55951.27
638.413	55822.46
638.767	55754.44
639.121	55733.87
639.474	55621.33
639.828	55632.18
640.181	55729.58
640.534	55580.21
640.888	55514.44
641.241	55473.99
641.594	55530.26
641.947	55590.15
642.301	55452.52
642.654	55413.88
643.007	55404.62
643.36	55357.39
643.713	55266.77
644.066	55392.87
644.419	55240.1
644.771	54941.13
645.124	54746.1
645.477	54681.02
645.83	54541.81
646.182	54413.91
646.535	54253.91
646.888	54342.27
647.24	54216.63
647.593	54280.13
647.945	54306.34
648.298	54150.19
648.65	54052.79
649.002	53985.9
649.355	54134.14
649.707	54034.26
650.059	54014.37
650.411	54488.48
650.763	54494.36
651.115	54752.88
651.467	54700
651.819	54634.24
652.171	54478.99
652.523	54543.17
652.875	54462.04
653.227	54308.83
653.578	54531.87
653.93	54460.23
654.282	54341.82
654.633	54192.9
654.985	54271.99
655.337	54240.13
655.688	54337.07
656.039	54363.51
656.391	54060.7
656.742	54139.79
657.094	54096.18
657.445	54273.57
657.796	54111.77
658.147	54072.9
658.498	54058.89
658.849	54149.28
659.2	54009.63
659.551	54012.56
659.902	54077.87
660.253	53956.29
660.604	54061.15
660.955	53850.76
661.306	53975.73
661.656	53943.64
662.007	53904.32
662.358	53905.22
662.708	53914.03
663.059	53867.26
663.409	53710.42
663.76	53928.05
664.11	53791.78
664.461	53858.44
664.811	53860.7
665.161	53767.82
665.511	53629.07
665.862	53712.46
666.212	53814.38
666.562	53903.87
666.912	53652.57
667.262	53582.74
667.612	53592.91
667.962	53651.22
668.312	53541.16
668.662	53707.94
669.011	53626.36
669.361	53553.59
669.711	53510.88
670.06	53369.19
670.41	53416.42
670.76	53294.16
671.109	53547.26
671.459	53396.76
671.808	53334.84
672.157	53430.88
672.507	53165.81
672.856	53211.45
673.205	53238.35
673.554	53273.37
673.904	53112.47
674.253	53281.96
674.602	53240.61
674.951	52761.07
675.3	52616.67
675.649	53105.69
675.998	53047.39
676.346	53020.5
676.695	53180.27
677.044	52878.13
677.393	52992.7
677.741	53095.3
678.09	52925.59
678.438	52958.13
678.787	52841.29
679.135	52909.32
679.484	52678.13
679.832	52851.01
680.181	52542.55
680.529	52642.43
680.877	52546.16
681.225	52547.06
681.573	52725.14
681.922	52375.09
682.27	52395.88
682.618	52338.93
682.966	52359.95
683.314	52402.66
683.661	52228.65
684.009	52000.86
684.357	51978.49
684.705	51903.69
685.053	51990.02
685.4	51892.17
685.748	51728.56
686.095	51774.88
686.443	51570.37
686.79	51655.79
687.138	51590.03
687.485	51621.21
687.832	51373.54
688.18	51539.18
688.527	51302.58
688.874	51268.91
689.221	51248.57
689.568	51014.68
689.915	50913.44
690.262	51016.48
690.609	50814.45
690.956	50784.4
691.303	50723.84
691.65	50579.88
691.997	50491.3
692.344	50250.63
692.69	50299.44
693.037	50315.71
693.383	50068.71
693.73	50077.07
694.077	50029.62
694.423	49925.21
694.769	49869.17
695.116	49580.59
695.462	49505.56
695.808	49533.58
696.155	49523.87
696.501	49190.99
696.847	49312.8
697.193	48967.5
697.539	49102.86
697.885	48845.24
698.231	48788.52
698.577	48626.04
698.923	48758.01
699.269	48461.75
699.614	48297.46
699.96	48205.48
700.306	48242.77
700.651	47944.93
700.997	47873.52
701.342	47797.81
701.688	47916.68
702.033	47600.53
702.379	47613.41
702.724	47457.71
703.069	47504.26
703.415	47064.5
703.76	47178.84
704.105	47206.64
704.45	46971.84
704.795	46754.22
705.14	46685.52
705.485	46600.78
705.83	46391.75
706.175	46530.05
706.52	46406.66
706.865	46289.15
707.209	46188.36
707.554	45895.71
707.899	46042.15
708.243	45849.84
708.588	45935.04
708.932	45636.74
709.277	45654.82
709.621	45629.73
709.966	45202.17
710.31	45337.08
710.654	44939.13
710.998	45134.6
711.342	45048.5
711.687	45027.94
712.031	44835.63
712.375	44574.62
712.719	44626.82
713.063	44477.22
713.407	44774.61
713.75	44382.76
714.094	44347.73
714.438	44304.12
714.782	44168.53
715.125	44066.61
715.469	44050.79
715.812	44009.44
716.156	43582.78
716.499	43728.31
716.843	43619.16
717.186	43322.22
717.53	43558.6
717.873	43557.47
718.216	43413.75
718.559	43236.8
718.902	42971.05
719.246	43037.48
719.589	42976.47
719.932	42940.31
720.275	42774.44
720.617	42775.57
720.96	42766.3
721.303	42686.08
721.646	42566.54
721.989	42348.01
722.331	42376.48
722.674	42309.14
723.016	42485.63
723.359	42160.45
723.701	42182.37
724.044	41910.73
724.386	41747.12
724.729	42004.74
725.071	41822.15
725.413	41959.09
725.755	41697.86
726.097	41660.57
726.439	41437.07
726.782	41385.1
727.124	41599.1
727.465	41295.84
727.807	41395.72
728.149	41254.03
728.491	41079.34
728.833	41252.67
729.175	40890.65
729.516	40885.22
729.858	40873.25
730.199	40902.4
730.541	40698.56
730.882	40792.8
731.224	40836.86
731.565	40477.33
731.906	40521.39
732.248	40565.46
732.589	40244.56
732.93	40247.73
733.271	40135.64
733.612	40271.91
733.953	40106.26
734.294	40039.82
734.635	39946.72
734.976	40003.44
735.317	39799.6
735.658	39786.95
735.999	39677.8
736.339	39642.32
736.68	39624.01
737.021	39556.45
737.361	39363.91
737.702	39549.89
738.042	39414.3
738.383	39253.4
738.723	39398.94
739.063	39106.74
739.404	39169.11
739.744	39076.46
740.084	38967.31
740.424	39017.7
740.764	38946.52
741.104	38967.08
741.444	38703.81
741.784	38619.3
742.124	38777.71
742.464	38625.85
742.804	38631.27
743.143	38485.29
743.483	38377.72
743.823	38243.71
744.162	38228.57
744.502	38148.12
744.841	38031.29
745.181	38192.19
745.52	37971.4
745.86	37965.08
746.199	37883.95
746.538	37863.83
746.877	37941.57
747.216	37881.91
747.556	37762.59
747.895	37755.59
748.234	37597.63
748.573	37523.96
748.911	37590.85
749.25	37426.11
749.589	37243.96
749.928	37326
750.267	37358.99
750.605	37156.28
750.944	36972.78
751.283	37027.25
751.621	36919
751.96	36821.38
752.298	36671.32
752.636	36672
