Data from whiteboard_FLMS001491_00028.txt Node
Date: Wed Feb 08 11:25:50 GMT 2017
User: dcchb
Spectrometer: FLMS00149
Trigger mode: 0
Integration Time (sec): 2.000000E-2
Scans to average: 10
Electric dark correction enabled: true
Nonlinearity correction enabled: false
Boxcar width: 0
XAxis mode: Wavelengths
Number of Pixels in Spectrum: 2048
>>>>>Begin Spectral Data<<<<<
341.393	-11.92
341.776	-11.92
342.16	-11.92
342.543	-61.64
342.927	-67.96
343.31	-68.64
343.693	-57.57
344.077	-51.69
344.46	-50.56
344.843	-56.89
345.226	-53.5
345.61	-47.17
345.993	-26.16
346.376	-20.96
346.759	6.61
347.142	39.83
347.525	33.73
347.908	59.49
348.291	76.66
348.674	87.51
349.057	129.32
349.44	117.57
349.823	141.3
350.206	175.87
350.588	236.66
350.971	257.22
351.354	259.26
351.737	273.95
352.119	295.64
352.502	295.19
352.884	297.45
353.267	320.27
353.65	314.17
354.032	330.22
354.414	317.34
354.797	355.75
355.179	361.63
355.562	366.15
355.944	371.57
356.326	357.11
356.709	372.7
357.091	386.04
357.473	364.11
357.855	388.97
358.238	391.46
358.62	381.97
359.002	397.11
359.384	377.22
359.766	371.8
360.148	403.89
360.53	362.08
360.912	378.58
361.294	369.76
361.676	391.23
362.057	377.45
362.439	414.28
362.821	399.82
363.203	389.2
363.584	379.93
363.966	389.2
364.348	364.34
364.729	366.6
365.111	366.83
365.493	382.42
365.874	381.74
366.256	369.76
366.637	380.16
367.019	366.37
367.4	365.7
367.781	384.45
368.163	398.01
368.544	354.85
368.925	360.05
369.306	375.19
369.688	398.92
370.069	379.03
370.45	390.33
370.831	387.16
371.212	366.15
371.593	380.61
371.974	385.13
372.355	369.99
372.736	395.53
373.117	393.49
373.498	398.46
373.879	410.89
374.26	402.53
374.641	375.87
375.021	382.87
375.402	389.65
375.783	395.98
376.163	424.68
376.544	442.08
376.925	428.07
377.305	420.38
377.686	403.44
378.066	440.95
378.447	440.72
378.827	419.25
379.208	440.72
379.588	442.76
379.968	438.69
380.349	433.72
380.729	436.43
381.109	444.79
381.489	464.45
381.87	458.35
382.25	456.54
382.63	471.91
383.01	456.54
383.39	463.32
383.77	444.11
384.15	476.2
384.53	473.49
384.91	466.48
385.29	496.31
385.67	490.21
386.049	486.15
386.429	512.81
386.809	487.73
387.189	495.41
387.568	486.15
387.948	531.79
388.328	532.02
388.707	534.51
389.087	536.09
389.466	522.3
389.846	554.62
390.225	574.73
390.605	572.24
390.984	583.32
391.363	560.49
391.743	559.14
392.122	579.7
392.501	604.11
392.881	608.18
393.26	602.75
393.639	626.71
394.018	628.74
394.397	650.66
394.776	637.1
395.155	638.01
395.534	634.84
395.913	663.09
396.292	671
396.671	675.74
397.05	686.59
397.429	695.41
397.808	698.12
398.186	715.74
398.565	700.83
398.944	734.73
399.323	748.74
399.701	777.66
400.08	773.82
400.458	787.38
400.837	779.47
401.215	780.83
401.594	817.66
401.972	817.66
402.351	830.54
402.729	857.89
403.107	856.08
403.486	859.92
403.864	864.67
404.242	902.86
404.62	931.56
404.999	938.11
405.377	958.22
405.755	955.06
406.133	957.55
406.511	1002.29
406.889	1005.23
407.267	1026.92
407.645	1045.45
408.023	1042.29
408.401	1083.19
408.779	1095.39
409.156	1110.54
409.534	1128.39
409.912	1153.02
410.29	1196.18
410.667	1189.18
411.045	1195.51
411.422	1220.36
411.8	1256.97
412.178	1263.3
412.555	1303.3
412.933	1357.99
413.31	1369.74
413.687	1379.23
414.065	1398.89
414.442	1433.24
414.819	1427.14
415.197	1423.3
415.574	1472.33
415.951	1500.36
416.328	1512.79
416.705	1546
417.082	1536.97
417.46	1576.51
417.837	1623.97
418.214	1611.54
418.591	1663.06
418.967	1656.28
419.344	1673.68
419.721	1680.69
420.098	1688.6
420.475	1734.25
420.852	1743.97
421.228	1786
421.605	1793.23
421.982	1794.36
422.358	1811.31
422.735	1861.02
423.111	1882.94
423.488	1937.18
423.864	1908.03
424.241	1988.7
424.617	1981.02
424.994	1980.57
425.37	2010.85
425.746	2004.98
426.123	2059.44
426.499	2073.67
426.875	2125.42
427.251	2154.35
427.627	2240.22
428.003	2204.74
428.379	2231.64
428.756	2289.71
429.132	2339.88
429.507	2379.43
429.883	2376.27
430.259	2428.24
430.635	2444.74
431.011	2445.19
431.387	2498.97
431.763	2571.51
432.138	2597.05
432.514	2630.04
432.89	2642.25
433.265	2697.61
433.641	2760.66
434.016	2776.93
434.392	2805.18
434.767	2860.55
435.143	2878.85
435.518	2922.92
435.894	2943.03
436.269	2989.58
436.644	3064.38
437.02	3057.83
437.395	3076.59
437.77	3117.71
438.145	3192.51
438.52	3191.61
438.895	3244.94
439.271	3239.07
439.646	3353.87
440.021	3322.23
440.395	3361.32
440.77	3326.97
441.145	3381.89
441.52	3489.46
441.895	3516.35
442.27	3562
442.645	3543.92
443.019	3571.94
443.394	3582.56
443.769	3610.13
444.143	3571.26
444.518	3705.72
444.892	3696.68
445.267	3706.17
445.641	3738.49
446.016	3757.7
446.39	3795.21
446.764	3858.26
447.139	3869.11
447.513	3903.23
447.887	3937.13
448.262	3919.05
448.636	4000.63
449.01	4081.53
449.384	4105.71
449.758	4127.63
450.132	4139.16
450.506	4188.65
450.88	4222.54
451.254	4240.85
451.628	4266.38
452.002	4376.66
452.376	4337.8
452.75	4437.68
453.123	4510.45
453.497	4537.11
453.871	4557.45
454.244	4679.26
454.618	4716.77
454.992	4742.53
455.365	4759.03
455.739	4874.5
456.112	4981.39
456.486	4974.61
456.859	5005.35
457.232	5131
457.606	5112.69
457.979	5208.51
458.352	5380.48
458.725	5478.56
459.099	5475.17
459.472	5560.59
459.845	5606.69
460.218	5710.19
460.591	5716.29
460.964	5786.57
461.337	5952.89
461.71	6024.76
462.083	6104.3
462.456	6121.25
462.829	6091.42
463.201	6283.06
463.574	6283.06
463.947	6345.2
464.32	6530.73
464.692	6611.41
465.065	6648.24
465.438	6744.29
465.81	6817.73
466.183	6901.8
466.555	7104.05
466.928	7182.01
467.3	7049.81
467.672	7203.71
468.045	7425.17
468.417	7450.71
468.789	7525.96
469.161	7633.3
469.534	7754.88
469.906	7872.17
470.278	8012.95
470.65	8024.48
471.022	8233.29
471.394	8353.06
471.766	8431.93
472.138	8550.11
472.51	8779.03
472.882	8930.22
473.253	9021.97
473.625	9181.51
473.997	9357.78
474.369	9447.04
474.74	9536.53
475.112	9704.21
475.484	9907.37
475.855	10049.74
476.227	10083.86
476.598	10426
476.97	10486.56
477.341	10720
477.713	10956.15
478.084	10952.54
478.455	11291.51
478.827	11360.44
479.198	11741.67
479.569	11783.48
479.94	12121.09
480.311	12176.46
480.682	12513.4
481.053	12710.91
481.424	12980.51
481.795	13080.62
482.166	13309.09
482.537	13504.56
482.908	13714.72
483.279	13878.79
483.65	14148.16
484.021	14468.6
484.391	14593.57
484.762	14667.92
485.133	14865.43
485.503	15125.31
485.874	15465.41
486.244	15586.99
486.615	15885.97
486.985	16140.88
487.356	16403.24
487.726	16496.12
488.097	16969.1
488.467	16847.98
488.837	17321.63
489.207	17619.48
489.578	17834.16
489.948	17936.76
490.318	18256.07
490.688	18347.37
491.058	18682.96
491.428	18974.7
491.798	19064.41
492.168	19611.74
492.538	19563.16
492.908	19700.33
493.278	20008.12
493.648	20157.04
494.017	20389.35
494.387	20409.69
494.757	20653.98
495.126	20934.42
495.496	21031.37
495.866	21179.61
496.235	21436.1
496.605	21636.55
496.974	21713.61
497.344	21972.36
497.713	22048.74
498.082	22186.14
498.452	22448.05
498.821	22594.94
499.19	22604.66
499.559	22799.91
499.928	22940.7
500.298	23156.96
500.667	23459.33
501.036	23344.08
501.405	23696.16
501.774	23728.7
502.143	23998.75
502.512	24109.93
502.88	24355.35
503.249	24568.9
503.618	24635.57
503.987	24829.69
504.356	24893.87
504.724	25156.91
505.093	25281.43
505.462	25445.94
505.83	25630.12
506.199	25855.87
506.567	26168.63
506.936	26194.4
507.304	26509.64
507.672	26740.37
508.041	26743.76
508.409	26852.68
508.777	27115.73
509.145	27377.19
509.514	27471.88
509.882	27479.11
510.25	27657.86
510.618	27929.49
510.986	27996.83
511.354	28372.42
511.722	28487.44
512.09	28647.66
512.458	28728.34
512.826	29022.8
513.193	29109.57
513.561	29296.69
513.929	29555.44
514.297	29729.44
514.664	30008.76
515.032	30101.64
515.4	30385.02
515.767	30541.63
516.135	30829.3
516.502	30519.03
516.869	31367.59
517.237	31430.87
517.604	31342.06
517.972	31647.59
518.339	32007.8
518.706	32162.6
519.073	32193.79
519.44	32500.44
519.808	32883.94
520.175	32823.15
520.542	33245.96
520.909	33630.58
521.276	33577.48
521.643	33909.45
522.009	34311.7
522.376	34505.59
522.743	34655.19
523.11	35028.51
523.477	35362.06
523.843	35668.72
524.21	35969.28
524.577	36260.57
524.943	36471.64
525.31	36640.9
525.676	36957.28
526.043	37026.65
526.409	37377.38
526.776	37700.99
527.142	37860.08
527.508	38033.41
527.874	38483.11
528.241	38565.6
528.607	38647.4
528.973	39039.93
529.339	39001.52
529.705	39395.18
530.071	39627.04
530.437	39760.14
530.803	40116.52
531.169	40336.17
531.535	40263.86
531.901	40387.47
532.267	40629.27
532.632	40985.65
532.998	41048.69
533.364	41311.51
533.73	41467.67
534.095	41745.85
534.461	41645.74
534.826	42152.39
535.192	42239.4
535.557	42600.74
535.923	42508.09
536.288	42635.77
536.653	42980.4
537.019	42948.08
537.384	43264.68
537.749	43530.44
538.114	43568.18
538.479	43637.1
538.845	44000.71
539.21	43870.09
539.575	44062.85
539.94	44197.99
540.305	44621.48
540.67	44499.68
541.034	44655.61
541.399	44997.07
541.764	44860.12
542.129	45077.06
542.494	45164.29
542.858	45519.31
543.223	45356.6
543.587	45680.66
543.952	45472.31
544.316	45738.51
544.681	45826.2
545.045	46036.13
545.41	46267.54
545.774	46279.97
546.138	46399.29
546.503	46655.1
546.867	46601.54
547.231	47041.08
547.595	46849.9
547.959	47099.61
548.324	47123.11
548.688	47139.83
549.052	47381.18
549.416	47497.56
549.779	47538.92
550.143	47671.8
550.507	47985.24
550.871	48035.63
551.235	48143.65
551.599	48412.57
551.962	48536.63
552.326	48573.69
552.689	48770.75
553.053	48752.9
553.417	48799.45
553.78	49407.12
554.143	49245.09
554.507	49390.17
554.87	49509.94
555.234	50032.64
555.597	49698.64
555.96	49885.3
556.323	50071.28
556.686	50130.49
557.05	50447.09
557.413	50475.34
557.776	50500.42
558.139	50770.25
558.502	50943.35
558.865	50974.99
559.228	51235.32
559.59	51312.38
559.953	51321.42
560.316	51619.26
560.679	51586.27
561.041	51887.73
561.404	51940.16
561.767	52172.7
562.129	52164.56
562.492	52327.72
562.854	52400.71
563.217	52416.98
563.579	52592.8
563.941	52743.3
564.304	52908.72
564.666	53107.13
565.028	53220.8
565.39	53257.87
565.753	53431.19
566.115	53553.9
566.477	53682.03
566.839	53840.45
567.201	53897.4
567.563	53941.91
567.925	54215.35
568.287	54223.04
568.648	54269.36
569.01	54439.76
569.372	54726.3
569.734	54585.97
570.095	54782.12
570.457	54916.8
570.819	54889.69
571.18	54981.89
571.542	55180.3
571.903	55121.77
572.265	55284.03
572.626	55364.93
572.987	55417.58
573.349	55512.5
573.71	55599.05
574.071	55591.82
574.432	55769.21
574.794	55947.74
575.155	55893.28
575.516	55843.56
575.877	56017.79
576.238	56109.09
576.599	56198.13
576.96	56190.44
577.32	56250.1
577.681	56320.16
578.042	56393.38
578.403	56396.99
578.763	56359.25
579.124	56450.55
579.485	56458.23
579.845	56655.97
580.206	56496.42
580.566	56613.94
580.927	56534.84
581.287	56646.02
581.648	56617.78
582.008	56700.26
582.368	56706.36
582.728	56759.47
583.089	56720.37
583.449	56754.5
583.809	56734.84
584.169	56769.41
584.529	56764.89
584.889	56951.78
585.249	56782.74
585.609	56706.36
585.969	56860.48
586.329	56826.58
586.688	56845.34
587.048	56847.15
587.408	56806.02
587.768	56859.35
588.127	56796.98
588.487	56815.96
588.846	56943.19
589.206	56802.63
589.565	56860.26
589.925	56968.5
590.284	56916.3
590.643	56947.94
591.003	56927.15
591.362	57048.27
591.721	56989.52
592.08	57045.56
592.44	57053.02
592.799	57056.64
593.158	57004.43
593.517	57043.3
593.876	57159.23
594.235	57057.99
594.593	57093.02
594.952	57137.76
595.311	57092.11
595.67	57167.82
596.029	57274.48
596.387	57290.3
596.746	57354.25
597.104	57241.72
597.463	57179.12
597.822	57333.24
598.18	57224.54
598.538	57269.51
598.897	57356.51
599.255	57121.72
599.613	57547.02
599.972	57356.74
600.33	57468.15
600.688	57271.54
601.046	57364.42
601.404	57455.95
601.762	57410.52
602.12	57499.79
602.478	57488.26
602.836	57429.28
603.194	57313.58
603.552	57397.19
603.91	57317.65
604.268	57455.04
604.625	57386.8
604.983	57500.24
605.341	57389.28
605.698	57446
606.056	57519
606.413	57478.77
606.771	57554.93
607.128	57568.94
607.485	57507.24
607.843	57519.67
608.2	57625.89
608.557	57737.97
608.914	57611.2
609.272	57807.8
609.629	57851.42
609.986	57908.36
610.343	57766.45
610.7	57987.91
611.057	57919.44
611.414	57874.47
611.771	57945.65
612.127	58107.91
612.484	58011.64
612.841	58124.63
613.198	57938.65
613.554	58098.42
613.911	58188.13
614.267	58176.61
614.624	58157.62
614.98	58221.58
615.337	58327.56
615.693	58258.41
616.05	58252.08
616.406	58358.07
616.762	58298.86
617.118	58375.24
617.475	58387.67
617.831	58463.83
618.187	58463.83
618.543	58522.81
618.899	58570.95
619.255	58511.96
619.611	58557.39
619.967	58652.07
620.323	58688.91
620.678	58537.27
621.034	58439.88
621.39	58554.9
621.746	58438.52
622.101	58772.97
622.457	58560.32
622.812	58594.22
623.168	58662.02
623.523	58596.03
623.879	58724.16
624.234	58542.92
624.589	58550.16
624.945	58667.21
625.3	58559.19
625.655	58527.78
626.01	58564.39
626.365	58565.75
626.72	58427.9
627.075	58453.43
627.43	58454.34
627.785	58436.26
628.14	58369.37
628.495	58423.61
628.85	58378.86
629.205	58314.23
629.559	58392.42
629.914	58286.89
630.269	58281.46
630.623	58208.02
630.978	58113.56
631.332	58222.25
631.687	58325.98
632.041	58075.14
632.396	58194.01
632.75	58050.06
633.104	58094.8
633.459	58021.81
633.813	58003.28
634.167	58056.16
634.521	57978.65
634.875	58041.69
635.229	57897.97
635.583	57842.83
635.937	57887.35
636.291	57857.97
636.645	57883.28
636.999	57831.3
637.352	57876.95
637.706	57754.24
638.06	57842.38
638.413	57779.78
638.767	57687.35
639.121	57740.46
639.474	57591.31
639.828	57711.08
640.181	57669.73
640.534	57701.82
640.888	57634.02
641.241	57508.15
641.594	57518.77
641.947	57671.99
642.301	57576.17
642.654	57642.38
643.007	57520.35
643.36	57583.85
643.713	57476.29
644.066	57669.73
644.419	57427.93
644.771	57255.5
645.124	57035.39
645.477	56935.73
645.83	56833.59
646.182	56681.05
646.535	56536.42
646.888	56701.16
647.24	56504.33
647.593	56603.09
647.945	56488.74
648.298	56418.69
648.65	56302.98
649.002	56265.47
649.355	56358.35
649.707	56380.49
650.059	56472.02
650.411	56756.76
650.763	56687.61
651.115	57024.09
651.467	56877.88
651.819	56854.38
652.171	56745.68
652.523	56786.13
652.875	56661.39
653.227	56576.65
653.578	56727.83
653.93	56632.69
654.282	56453.04
654.633	56402.64
654.985	56421.62
655.337	56474.28
655.688	56462.3
656.039	56493.71
656.391	56234.51
656.742	56359.7
657.094	56344.11
657.445	56379.82
657.796	56279.25
658.147	56176.88
658.498	56236.54
658.849	56268.18
659.2	56173.49
659.551	56152.25
659.902	56197.45
660.253	56053.72
660.604	56156.77
660.955	56017.57
661.306	56069.99
661.656	56047.62
662.007	56049.43
662.358	56088.3
662.708	56021.18
663.059	55976.44
663.409	55808.76
663.76	56031.35
664.11	55945.48
664.461	55971.01
664.811	55945.25
665.161	55969.43
665.511	55952.03
665.862	56003.1
666.212	56060.5
666.562	56036.78
666.912	55992.03
667.262	55978.02
667.612	55934.63
667.962	56014.85
668.312	55960.62
668.662	56081.29
669.011	55988.19
669.361	55908.87
669.711	55883.11
670.06	55870
670.41	55845.59
670.76	55755.2
671.109	55919.26
671.459	55793.17
671.808	55766.05
672.157	55833.62
672.507	55654.86
672.856	55651.47
673.205	55665.03
673.554	55760.85
673.904	55602.89
674.253	55695.99
674.602	55691.93
674.951	55223.24
675.3	55079.74
675.649	55471.37
675.998	55478.15
676.346	55496.22
676.695	55553.4
677.044	55359.73
677.393	55386.85
677.741	55443.34
678.09	55385.27
678.438	55241.54
678.787	55234.31
679.135	55249.68
679.484	55075.22
679.832	55140.53
680.181	54931.49
680.529	55022.56
680.877	54934.21
681.225	54932.62
681.573	55034.77
681.922	54861.66
682.27	54654.21
682.618	54719.52
682.966	54602.24
683.314	54678.84
683.661	54601.11
684.009	54501.45
684.357	54432.3
684.705	54343.94
685.053	54238.63
685.4	54254.68
685.748	54080.22
686.095	54119.54
686.443	53919.32
686.79	53972.42
687.138	54026.21
687.485	53980.33
687.832	53770.85
688.18	53795.48
688.527	53743.05
688.874	53753.45
689.221	53586.44
689.568	53589.83
689.915	53403.85
690.262	53409.95
690.609	53298.54
690.956	53209.28
691.303	53133.57
691.65	53066.23
691.997	53024.42
692.344	52818.55
692.69	52793.92
693.037	52978.1
693.383	52696.75
693.73	52741.49
694.077	52590.31
694.423	52555.28
694.769	52398.45
695.116	52387.38
695.462	52350.77
695.808	52227.16
696.155	52292.01
696.501	51932.93
696.847	52013.83
697.193	51779.49
697.539	51965.47
697.885	51725.93
698.231	51673.05
698.577	51612.94
698.923	51696.1
699.269	51367.75
699.614	51245.26
699.96	51337.46
700.306	51218.37
700.651	51165.94
700.997	51028.09
701.342	50954.2
701.688	50895.44
702.033	50714.2
702.379	50723.24
702.724	50630.14
703.069	50781.32
703.415	50358.51
703.76	50304.27
704.105	50219.08
704.45	50194.89
704.795	49878.07
705.14	49878.52
705.485	49829.71
705.83	49769.37
706.175	49770.5
706.52	49471.75
706.865	49380.23
707.209	49376.61
707.554	49253.68
707.899	49297.97
708.243	49027.24
708.588	48979.33
708.932	48817.98
709.277	48674.26
709.621	48731.2
709.966	48441.72
710.31	48491.89
710.654	48227.26
710.998	48262.29
711.342	48241.5
711.687	48187.72
712.031	47896.65
712.375	47819.36
712.719	47794.28
713.063	47714.96
713.407	47689.88
713.75	47512.03
714.094	47469.09
714.438	47281.98
714.782	47406.49
715.125	47175.54
715.469	47267.51
715.812	46959.73
716.156	46745.49
716.499	46872.04
716.843	46728.32
717.186	46562.45
717.53	46728.55
717.873	46752.95
718.216	46446.74
718.559	46312.51
718.902	46055.79
719.246	45984.61
719.589	45991.16
719.932	45849.25
720.275	45772.19
720.617	45668.01
720.96	45612.64
721.303	45719.76
721.646	45613.32
721.989	45433.21
722.331	45514.11
722.674	45335.14
723.016	45464.17
723.359	45233.44
723.701	45212.2
724.044	45024.86
724.386	44822.83
724.729	44907.35
725.071	44951.42
725.413	44846.56
725.755	44763.17
726.097	44530.64
726.439	44407.25
726.782	44478.66
727.124	44650.63
727.465	44289.06
727.807	44369.96
728.149	44303.98
728.491	44178.56
728.833	44260.59
729.175	44194.15
729.516	43966.36
729.858	43878.22
730.199	43881.16
730.541	43844.55
730.882	43805.46
731.224	43891.33
731.565	43597.55
731.906	43707.16
732.248	43819.7
732.589	43530.89
732.93	43422.42
733.271	43534.28
733.612	43560.95
733.953	43457.44
734.294	43304
734.635	43300.84
734.976	43341.97
735.317	43201.41
735.658	43200.28
735.999	43010.23
736.339	43047.06
736.68	42974.75
737.021	42720.97
737.361	42749.21
737.702	42767.52
738.042	42733.62
738.383	42474.87
738.723	42588.09
739.063	42408.66
739.404	42461.99
739.744	42217.03
740.084	42327.31
740.424	42177.03
740.764	41999.18
741.104	42146.97
741.444	42004.6
741.784	41754.66
742.124	41766.42
742.464	41729.35
742.804	41622.46
743.143	41544.05
743.483	41501.34
743.823	41328.46
744.162	41189.48
744.502	41306.54
744.841	41119.88
745.181	41176.6
745.52	40964.4
745.86	41049.37
746.199	40893.9
746.538	40699.55
746.877	40756.72
747.216	40779.55
747.556	40589.72
747.895	40649.61
748.234	40373.68
748.573	40314.48
748.911	40262.27
749.25	40154.48
749.589	39979.57
749.928	40025.22
750.267	40017.31
750.605	39865.67
750.944	39728.5
751.283	39504.78
751.621	39463.2
751.96	39347.72
752.298	39284.67
752.636	39387.72
