Data from white_poster_card_FLMS001491_00058.txt Node
Date: Wed Feb 08 11:51:43 GMT 2017
User: dcchb
Spectrometer: FLMS00149
Trigger mode: 0
Integration Time (sec): 2.000000E-2
Scans to average: 10
Electric dark correction enabled: true
Nonlinearity correction enabled: false
Boxcar width: 0
XAxis mode: Wavelengths
Number of Pixels in Spectrum: 2048
>>>>>Begin Spectral Data<<<<<
341.393	-7.36
341.776	-7.36
342.16	-7.36
342.543	-50.97
342.927	-63.4
343.31	-79.45
343.693	-71.31
344.077	-61.14
344.46	-66.79
344.843	-57.75
345.226	-49.84
345.61	-39.67
345.993	-14.82
346.376	7.56
346.759	21.57
347.142	32.64
347.525	48.46
347.908	53.88
348.291	78.97
348.674	81.68
349.057	116.03
349.44	125.97
349.823	128.68
350.206	179.76
350.588	197.16
350.971	207.55
351.354	212.3
351.737	247.32
352.119	260.21
352.502	261.11
352.884	276.48
353.267	297.72
353.65	311.28
354.032	292.29
354.414	313.99
354.797	315.8
355.179	328.68
355.562	331.16
355.944	331.84
356.326	342.24
356.709	331.39
357.091	347.66
357.473	342.24
357.855	332.07
358.238	354.67
358.62	323.48
359.002	331.84
359.384	356.25
359.766	351.05
360.148	345.63
360.53	341.78
360.912	335.68
361.294	343.59
361.676	338.85
362.057	340.2
362.439	330.26
362.821	321.22
363.203	328.9
363.584	323.25
363.966	320.32
364.348	315.12
364.729	339.3
365.111	329.13
365.493	315.8
365.874	330.71
366.256	348.11
366.637	337.27
367.019	316.93
367.4	317.83
367.781	326.42
368.163	319.86
368.544	319.19
368.925	323.03
369.306	315.34
369.688	305.18
370.069	323.25
370.45	317.6
370.831	307.44
371.212	330.26
371.593	328.9
371.974	330.49
372.355	328.45
372.736	316.02
373.117	317.83
373.498	333.65
373.879	337.27
374.26	304.5
374.641	304.5
375.021	308.34
375.402	326.42
375.783	331.62
376.163	342.46
376.544	343.59
376.925	343.82
377.305	330.94
377.686	338.85
378.066	332.52
378.447	347.66
378.827	351.95
379.208	337.04
379.588	345.85
379.968	346.53
380.349	341.56
380.729	358.28
381.109	349.92
381.489	332.52
381.87	339.52
382.25	342.91
382.63	350.37
383.01	341.78
383.39	359.64
383.77	356.25
384.15	355.12
384.53	361.22
384.91	339.75
385.29	350.15
385.67	367.55
386.049	361.22
386.429	366.42
386.809	377.26
387.189	365.06
387.568	375
387.948	393.99
388.328	376.36
388.707	353.76
389.087	386.08
389.466	372.52
389.846	370.48
390.225	394.66
390.605	395.57
390.984	394.66
391.363	398.51
391.743	384.95
392.122	387.66
392.501	394.21
392.881	414.1
393.26	398.28
393.639	407.09
394.018	403.48
394.397	397.83
394.776	407.09
395.155	390.15
395.534	426.3
395.913	433.31
396.292	419.75
396.671	422.01
397.05	435.57
397.429	428.11
397.808	434.89
398.186	440.99
398.565	435.12
398.944	420.2
399.323	418.62
399.701	437.6
400.08	448.9
400.458	457.94
400.837	455.68
401.215	448.9
401.594	436.25
401.972	451.16
402.351	452.52
402.729	485.28
403.107	460.43
403.486	469.69
403.864	503.36
404.242	481.22
404.62	481.89
404.999	477.83
405.377	483.48
405.755	497.26
406.133	502.23
406.511	527.77
406.889	539.29
407.267	521.22
407.645	518.05
408.023	548.79
408.401	556.92
408.779	548.56
409.156	553.98
409.534	549.91
409.912	569.35
410.29	574.32
410.667	583.36
411.045	616.58
411.422	616.58
411.8	625.39
412.178	660.19
412.555	654.32
412.933	649.8
413.31	672.17
413.687	702.68
414.065	702.23
414.442	717.59
414.819	736.58
415.197	745.62
415.574	763.24
415.951	754.43
416.328	780.87
416.705	808.89
417.082	795.11
417.46	820.42
417.837	870.58
418.214	840.53
418.591	890.24
418.967	857.25
419.344	884.6
419.721	890.92
420.098	897.48
420.475	933.86
420.852	945.16
421.228	979.73
421.605	999.39
421.982	1008.21
422.358	1005.04
422.735	1007.53
423.111	1019.96
423.488	1048.88
423.864	1061.54
424.241	1085.72
424.617	1104.02
424.994	1110.35
425.37	1122.56
425.746	1114.19
426.123	1143.12
426.499	1173.85
426.875	1169.79
427.251	1181.08
427.627	1209.56
428.003	1243.91
428.379	1264.92
428.756	1271.25
429.132	1275.32
429.507	1301.99
429.883	1312.38
430.259	1353.74
430.635	1348.54
431.011	1358.03
431.387	1391.93
431.763	1401.42
432.138	1437.35
432.514	1438.71
432.89	1467.86
433.265	1493.62
433.641	1512.38
434.016	1516.9
434.392	1544.01
434.767	1575.2
435.143	1551.47
435.518	1596.22
435.894	1619.27
436.269	1633.28
436.644	1652.48
437.02	1674.63
437.395	1697.68
437.77	1759.37
438.145	1734.06
438.52	1760.96
438.895	1782.42
439.271	1800.5
439.646	1845.93
440.021	1835.3
440.395	1837.79
440.77	1831.92
441.145	1840.28
441.52	1905.59
441.895	1894.06
442.27	1905.59
442.645	1921.86
443.019	1948.3
443.394	1937.68
443.769	1963.44
444.143	1960.73
444.518	2002.08
444.892	1952.59
445.267	2010.44
445.641	1994.17
446.016	2000.5
446.39	2035.75
446.764	2044.11
447.139	2059.48
447.513	2098.8
447.887	2097.9
448.262	2111.91
448.636	2132.02
449.01	2128.18
449.384	2165.69
449.758	2211.34
450.132	2237.33
450.506	2191.68
450.88	2172.47
451.254	2214.5
451.628	2261.96
452.002	2307.61
452.376	2298.8
452.75	2345.8
453.123	2334.73
453.497	2333.37
453.871	2383.31
454.244	2452.69
454.618	2437.77
454.992	2487.27
455.365	2499.02
455.739	2571.33
456.112	2575.62
456.486	2579.69
456.859	2560.48
457.232	2624.44
457.606	2623.98
457.979	2683.42
458.352	2736.3
458.725	2741.72
459.099	2774.49
459.472	2828.05
459.845	2867.37
460.218	2870.76
460.591	2871.44
460.964	2915.73
461.337	2976.52
461.71	3038.66
462.083	3057.42
462.456	3050.19
462.829	3081.37
463.201	3113.92
463.574	3157.53
463.947	3148.04
464.32	3252.44
464.692	3278.2
465.065	3294.25
465.438	3367.47
465.81	3360.24
466.183	3423.96
466.555	3485.2
466.928	3489.27
467.3	3499.22
467.672	3560.01
468.045	3658.08
468.417	3649.95
468.789	3710.96
469.161	3760.68
469.534	3799.1
469.906	3871.41
470.278	3893.33
470.65	3904.4
471.022	4010.39
471.394	4100.56
471.766	4156.37
472.138	4159.54
472.51	4209.25
472.882	4289.03
473.253	4343.94
473.625	4362.02
473.997	4484.95
474.369	4501.45
474.74	4611.5
475.112	4659.41
475.484	4737.15
475.855	4748.45
476.227	4870.48
476.598	4964.94
476.97	4952.51
477.341	5129.68
477.713	5174.88
478.084	5202.45
478.455	5338.72
478.827	5372.39
479.198	5537.58
479.569	5547.52
479.94	5693.96
480.311	5752.94
480.682	5891.02
481.053	5954.29
481.424	6051.69
481.795	6137.56
482.166	6243.1
482.537	6367.84
482.908	6453.04
483.279	6462.98
483.65	6628.17
484.021	6721.05
484.391	6832.24
484.762	6881.95
485.133	6921.95
485.503	7052.57
485.874	7207.59
486.244	7242.17
486.615	7433.12
486.985	7506.57
487.356	7630.63
487.726	7722.61
488.097	7862.04
488.467	7832.21
488.837	8067.46
489.207	8161.01
489.578	8238.75
489.948	8285.98
490.318	8465.64
490.688	8478.52
491.058	8596.71
491.428	8746.54
491.798	8804.61
492.168	8976.36
492.538	9031.05
492.908	9151.5
493.278	9250.48
493.648	9200.76
494.017	9446.18
494.387	9468.78
494.757	9519.17
495.126	9677.13
495.496	9701.54
495.866	9812.27
496.235	9926.17
496.605	9995.99
496.974	10071.02
497.344	10132.71
497.713	10220.4
498.082	10323.9
498.452	10400.5
498.821	10497.9
499.19	10532.25
499.559	10584.23
499.928	10669.65
500.298	10779.7
500.667	10815.63
501.036	10863.09
501.405	10992.8
501.774	10996.42
502.143	11169.75
502.512	11179.24
502.88	11313.7
503.249	11313.47
503.618	11367.26
503.987	11456.52
504.356	11614.93
504.724	11646.8
505.093	11664.88
505.462	11773.12
505.83	11884.53
506.199	11968.6
506.567	12106
506.936	12125.2
507.304	12354.8
507.672	12281.36
508.041	12320.45
508.409	12469.83
508.777	12593.44
509.145	12671.63
509.514	12714.34
509.882	12834.34
510.25	12827.33
510.618	13052.41
510.986	13016.93
511.354	13152.97
511.722	13288.56
512.09	13398.84
512.458	13392.52
512.826	13550.03
513.193	13552.51
513.561	13602.68
513.929	13783.47
514.297	13961.09
514.664	14008.32
515.032	14125.38
515.4	14153.85
515.767	14356.56
516.135	14408.99
516.502	14304.36
516.869	14596.33
517.237	14587.06
517.604	14677.91
517.972	14814.85
518.339	15011.68
518.706	15034.96
519.073	15120.38
519.44	15210.55
519.808	15407.6
520.175	15372.12
520.542	15561.95
520.909	15625.9
521.276	15708.84
521.643	15921.71
522.009	16026.34
522.376	16082.61
522.743	16313.34
523.11	16459.33
523.477	16518.08
523.843	16613.9
524.21	16819.09
524.577	16827.9
524.943	17059.54
525.31	17196.71
525.676	17264.28
526.043	17450.04
526.409	17564.38
526.776	17635.57
527.142	17778.84
527.508	17890.02
527.874	18045.73
528.241	18132.73
528.607	18120.75
528.973	18411.59
529.339	18321.2
529.705	18523.23
530.071	18678.7
530.437	18826.5
530.803	18955.98
531.169	19104
531.535	18988.53
531.901	19165.02
532.267	19248.18
532.632	19459.02
532.998	19421.28
533.364	19559.81
533.73	19653.37
534.095	19831.67
534.461	19863.98
534.826	20044.77
535.192	20055.16
535.557	20325.89
535.923	20326.34
536.288	20407.02
536.653	20461.48
537.019	20384.65
537.384	20586
537.749	20799.1
538.114	20835.94
538.479	20792.55
538.845	21012.88
539.21	20930.4
539.575	20963.16
539.94	21103.72
540.305	21324.96
540.67	21175.81
541.034	21315.02
541.399	21458.07
541.764	21572.19
542.129	21623.26
542.494	21637.72
542.858	21707.32
543.223	21796.14
543.587	22002.01
543.952	21942.8
544.316	22107.09
544.681	22039.07
545.045	22152.51
545.41	22354.09
545.774	22453.97
546.138	22472.28
546.503	22444.48
546.867	22546.17
547.231	22649.22
547.595	22681.54
547.959	22847.63
548.324	22810.57
548.688	22803.57
549.052	23028.19
549.416	23096.44
549.779	23091.7
550.143	23245.36
550.507	23371.69
550.871	23537.79
551.235	23540.72
551.599	23637.67
551.962	23729.87
552.326	23691.91
552.689	23916.98
553.053	23751.11
553.417	23931.67
553.78	24260.03
554.143	24128.28
554.507	24217.99
554.87	24379.34
555.234	24505.22
555.597	24477.2
555.96	24632.45
556.323	24750.41
556.686	24808.71
557.05	24893
557.413	25015.94
557.776	25213
558.139	25330.51
558.502	25372.31
558.865	25387.68
559.228	25713.77
559.59	25640.55
559.953	25864.05
560.316	26052.75
560.679	26017.72
561.041	26205.29
561.404	26269.69
561.767	26581.77
562.129	26443.7
562.492	26740.19
562.854	26690.24
563.217	26804.59
563.579	26839.17
563.941	27081.65
564.304	27230.12
564.666	27402.77
565.028	27538.36
565.39	27564.57
565.753	27692.48
566.115	27829.2
566.477	27963.21
566.839	27937.9
567.201	28141.51
567.563	28186.93
567.925	28423.53
568.287	28405.91
568.648	28425.57
569.01	28668.95
569.372	28821.71
569.734	28661.27
570.095	28948.94
570.457	29060.35
570.819	29053.57
571.18	29156.85
571.542	29240.69
571.903	29412.88
572.265	29470.06
572.626	29416.95
572.987	29629.6
573.349	29726.1
573.71	29899.2
574.071	29910.27
574.432	29931.29
574.794	30195.69
575.155	30126.09
575.516	30137.84
575.877	30177.38
576.238	30314.56
576.599	30520.65
576.96	30435.68
577.32	30580.31
577.681	30707.99
578.042	30684.04
578.403	30673.42
578.763	30669.35
579.124	30836.12
579.485	30969.91
579.845	31035.44
580.206	30965.39
580.566	31023.24
580.927	30923.58
581.287	31204.25
581.648	31053.07
582.008	31273.17
582.368	31109.11
582.728	31179.17
583.089	31140.97
583.449	31023.24
583.809	31191.6
584.169	31205.38
584.529	31226.62
584.889	31361.08
585.249	31157.47
585.609	31070.92
585.969	31236.79
586.329	31180.97
586.688	31291.03
587.048	31270.24
587.408	31144.36
587.768	31268.2
588.127	31291.71
588.487	31296.68
588.846	31506.62
589.206	31216
589.565	31372.16
589.925	31379.61
590.284	31266.17
590.643	31471.14
591.003	31547.74
591.362	31582.32
591.721	31559.5
592.08	31569.89
592.44	31581.42
592.799	31590.91
593.158	31548.87
593.517	31517.01
593.876	31544.81
594.235	31440.85
594.593	31603.11
594.952	31689.89
595.311	31629.78
595.67	31687.4
596.029	31845.14
596.387	31736.89
596.746	31859.15
597.104	31633.17
597.463	31750.45
597.822	31872.48
598.18	31679.04
598.538	31587.74
598.897	31877
599.255	31747.06
599.613	32067.5
599.972	31907.28
600.33	31929.88
600.688	31866.38
601.046	31972.14
601.404	32075.19
601.762	32135.07
602.12	32164.9
602.478	32194.05
602.836	32267.05
603.194	31956.55
603.552	32121.74
603.91	32036.77
604.268	32200.16
604.625	32079.93
604.983	32142.3
605.341	32067.73
605.698	32275.86
606.056	32376.65
606.413	32298.23
606.771	32407.16
607.128	32574.16
607.485	32318.35
607.843	32344.79
608.2	32488.28
608.557	32655.29
608.914	32531.67
609.272	32719.69
609.629	32777.54
609.986	32854.83
610.343	32761.95
610.7	32834.26
611.057	32847.82
611.414	33015.05
611.771	32797.43
612.127	33014.15
612.484	32927.14
612.841	33101.6
613.198	32901.15
613.554	33003.07
613.911	33064.54
614.267	33156.97
614.624	33161.71
614.98	33277.64
615.337	33323.06
615.693	33269.96
616.05	33247.36
616.406	33416.17
616.762	33287.36
617.118	33279.45
617.475	33387.7
617.831	33561.02
618.187	33543.62
618.543	33481.25
618.899	33730.29
619.255	33718.76
619.611	33511.08
619.967	33700.23
620.323	33740.68
620.678	33605.77
621.034	33489.61
621.39	33532.55
621.746	33536.62
622.101	33874.69
622.457	33523.06
622.812	33697.74
623.168	33757.86
623.523	33819.32
623.879	33817.29
624.234	33573.23
624.589	33741.58
624.945	33736.39
625.3	33746.33
625.655	33700.91
626.01	33799.44
626.365	33821.81
626.72	33670.63
627.075	33552.21
627.43	33673.56
627.785	33560.35
628.14	33455.49
628.495	33700.46
628.85	33486.9
629.205	33389.96
629.559	33586.79
629.914	33478.31
630.269	33565.54
630.623	33342.5
630.978	33361.03
631.332	33467.24
631.687	33400.8
632.041	33296.85
632.396	33436.28
632.75	33354.02
633.104	33218.43
633.459	33210.75
633.813	33174.82
634.167	33200.36
634.521	33083.75
634.875	33135.27
635.229	33047.59
635.583	32882.17
635.937	32992
636.291	32981.83
636.645	32933.47
636.999	32903.87
637.352	32789.75
637.706	32649.86
638.06	32830.87
638.413	32694.38
638.767	32703.42
639.121	32713.36
639.474	32432.92
639.828	32421.62
640.181	32502.3
640.534	32559.69
640.888	32495.06
641.241	32301.85
641.594	32396.54
641.947	32400.38
642.301	32315.41
642.654	32284.45
643.007	32283.32
643.36	32218.23
643.713	32193.83
644.066	32227.05
644.419	32056.21
644.771	31837.68
645.124	31514.52
645.477	31545.03
645.83	31253.51
646.182	30985.27
646.535	31068.66
646.888	31064.82
647.24	30834.09
647.593	31139.17
647.945	31086.06
648.298	30778.95
648.65	30673.19
649.002	30620.31
649.355	30948.21
649.707	30851.27
650.059	30999.74
650.411	31298.48
650.763	31270.01
651.115	31546.61
651.467	31465.49
651.819	31323.12
652.171	31347.98
652.523	31283.12
652.875	31266.62
653.227	31089.68
653.578	31423.45
653.93	31218.04
654.282	31047.64
654.633	31032.5
654.985	31062.78
655.337	31005.16
655.688	31053.97
656.039	31092.39
656.391	30932.39
656.742	30992.73
657.094	30921.32
657.445	31068.89
657.796	30835.45
658.147	30951.38
658.498	30925.84
658.849	30948.21
659.2	30849.91
659.551	30702.12
659.902	30901.43
660.253	30819.63
660.604	30851.94
660.955	30466.19
661.306	30773.53
661.656	30703.92
662.007	30596.13
662.358	30656.24
662.708	30715.22
663.059	30593.42
663.409	30338.74
663.76	30597.71
664.11	30578.96
664.461	30551.16
664.811	30483.37
665.161	30530.14
665.511	30466.42
665.862	30463.93
666.212	30515
666.562	30552.06
666.912	30420.09
667.262	30309.13
667.612	30463.48
667.962	30470.48
668.312	30467.09
668.662	30551.84
669.011	30447.89
669.361	30482.01
669.711	30408.34
670.06	30306.65
670.41	30286.08
670.76	30199.76
671.109	30364.5
671.459	30192.98
671.808	30156.82
672.157	30250.83
672.507	29904.17
672.856	30066.88
673.205	30058.52
673.554	30145.52
673.904	29931.06
674.253	30198.17
674.602	29976.03
674.951	29521.58
675.3	29429.61
675.649	29917.05
675.998	29757.51
676.346	29850.16
676.695	29955.7
677.044	29588.25
677.393	29802.71
677.741	29762.48
678.09	29667.57
678.438	29582.15
678.787	29678.19
679.135	29734.68
679.484	29553.9
679.832	29693.78
680.181	29417.86
680.529	29557.51
680.877	29480.45
681.225	29397.07
681.573	29542.37
681.922	29345.99
682.27	29275.94
682.618	29296.73
682.966	29125.21
683.314	29234.58
683.661	29171.08
684.009	29063.74
684.357	28970.64
684.705	29047.92
685.053	29032.78
685.4	28882.96
685.748	28840.47
686.095	28795.5
686.443	28658.78
686.79	28611.78
687.138	28675.96
687.485	28675.05
687.832	28433.93
688.18	28561.83
688.527	28367.94
688.874	28296.53
689.221	28357.77
689.568	28192.8
689.915	28066.93
690.262	28134.95
690.609	28042.3
690.956	27860.61
691.303	27901.96
691.65	27750.1
691.997	27846.37
692.344	27610.22
692.69	27456.55
693.037	27632.59
693.383	27337.46
693.73	27375.42
694.077	27287.29
694.423	27297.69
694.769	27300.62
695.116	27112.83
695.462	27208.42
695.808	27026.73
696.155	27108.99
696.501	26842.56
696.847	26810.24
697.193	26596.91
697.539	26739.51
697.885	26574.99
698.231	26434.88
698.577	26407.99
698.923	26431.04
699.269	26277.37
699.614	26191.95
699.96	26115.57
700.306	26172.07
700.651	26052.97
700.997	26033.31
701.342	25966.87
701.688	25873.54
702.033	25836.03
702.379	25716.94
702.724	25620.44
703.069	25663.15
703.415	25349.26
703.76	25480.11
704.105	25305.65
704.45	25168.93
704.795	25242.15
705.14	25118.76
705.485	24973.45
705.83	24938.65
706.175	25086.44
706.52	24789.96
706.865	24812.1
707.209	24773.91
707.554	24643.74
707.899	24680.81
708.243	24674.7
708.588	24543.86
708.932	24339.12
709.277	24313.81
709.621	24485.78
709.966	24161.5
710.31	24337.76
710.654	24048.28
710.998	24162.63
711.342	24105.68
711.687	24079.24
712.031	23952.69
712.375	23889.19
712.719	23860.26
713.063	23792.02
713.407	23952.92
713.75	23662.75
714.094	23762.86
714.438	23633.15
714.782	23670.44
715.125	23599.93
715.469	23587.73
715.812	23432.7
716.156	23394.06
716.499	23267.51
716.843	23345.93
717.186	23296.21
717.53	23264.8
717.873	23262.99
718.216	23149.55
718.559	23174.18
718.902	22926.5
719.246	23044.01
719.589	22999.27
719.932	22862.1
720.275	22916.56
720.617	22752.04
720.96	22806.5
721.303	22775.77
721.646	22684.7
721.989	22637.24
722.331	22581.88
722.674	22658.03
723.016	22574.42
723.359	22503.24
723.701	22517.02
724.044	22358.38
724.386	22233.41
724.729	22441.54
725.071	22282.68
725.413	22176.69
725.755	22184.83
726.097	22043.81
726.439	22010.82
726.782	22013.98
727.124	22044.94
727.465	22024.38
727.807	22080.65
728.149	21918.39
728.491	21866.87
728.833	21866.64
729.175	21825.29
729.516	21798.4
729.858	21689.7
730.199	21845.17
730.541	21649.47
730.882	21626.42
731.224	21717.72
731.565	21439.31
731.906	21408.58
732.248	21495.8
732.589	21359.54
732.93	21331.06
733.271	21275.25
733.612	21331.97
733.953	21489.03
734.294	21278.86
734.635	21270.95
734.976	21310.05
735.317	21169.71
735.658	21095.82
735.999	21058.98
736.339	21049.49
736.68	21019.43
737.021	20971.75
737.361	20858.31
737.702	20995.48
738.042	20916.61
738.383	20870.74
738.723	20851.75
739.063	20854.47
739.404	20821.02
739.744	20806.11
740.084	20718.65
740.424	20760.23
740.764	20618.54
741.104	20693.57
741.444	20601.59
741.784	20605.43
742.124	20544.42
742.464	20655.15
742.804	20540.58
743.143	20447.92
743.483	20451.99
743.823	20425.55
744.162	20352.33
744.502	20353.69
744.841	20300.81
745.181	20309.85
745.52	20148.04
745.86	20176.29
746.199	20140.36
746.538	20095.84
746.877	20111.43
747.216	20068.05
747.556	20037.99
747.895	20108.5
748.234	19908.95
748.573	19952.12
748.911	19898.11
749.25	19821.72
749.589	19863.31
749.928	19799.35
750.267	19738.79
750.605	19696.76
750.944	19653.37
751.283	19606.81
751.621	19689.98
751.96	19614.95
752.298	19507.61
752.636	19516.65
752.975	19399.59
753.313	19305.81
753.651	19395.07
753.989	19335.64
754.327	19231.68
