Data from white_poster_card_FLMS001491_00056.txt Node
Date: Wed Feb 08 11:51:43 GMT 2017
User: dcchb
Spectrometer: FLMS00149
Trigger mode: 0
Integration Time (sec): 2.000000E-2
Scans to average: 10
Electric dark correction enabled: true
Nonlinearity correction enabled: false
Boxcar width: 0
XAxis mode: Wavelengths
Number of Pixels in Spectrum: 2048
>>>>>Begin Spectral Data<<<<<
341.393	-28.3
341.776	-28.3
342.16	-28.3
342.543	-50.9
342.927	-67.17
343.31	-64.24
343.693	-87.51
344.077	-68.76
344.46	-56.1
344.843	-48.87
345.226	-12.26
345.61	-21.98
345.993	-20.39
346.376	-7.29
346.759	-2.09
347.142	17.8
347.525	36.33
347.908	76.55
348.291	82.2
348.674	92.6
349.057	84.01
349.44	100.05
349.823	109.32
350.206	164.23
350.588	208.07
350.971	216.21
351.354	212.59
351.737	240.84
352.119	258.69
352.502	262.54
352.884	289.43
353.267	278.81
353.65	297.11
354.032	297.79
354.414	327.84
354.797	307.05
355.179	310.67
355.562	336.66
355.944	333.95
356.326	342.31
356.709	331.69
357.091	340.73
357.473	348.86
357.855	328.07
358.238	359.93
358.62	344.34
359.002	347.73
359.384	327.62
359.766	347.28
360.148	339.82
360.53	330.56
360.912	324
361.294	331.23
361.676	340.27
362.057	334.85
362.439	344.79
362.821	315.87
363.203	318.81
363.584	336.21
363.966	317.68
364.348	324.91
364.729	326.49
365.111	312.93
365.493	316.55
365.874	331.23
366.256	297.56
366.637	314.96
367.019	316.55
367.4	321.74
367.781	331.69
368.163	312.7
368.544	321.29
368.925	317.22
369.306	313.61
369.688	324.23
370.069	320.84
370.45	314.29
370.831	298.47
371.212	310.67
371.593	319.94
371.974	311.12
372.355	316.09
372.736	331.23
373.117	313.16
373.498	343.89
373.879	320.39
374.26	317.68
374.641	328.3
375.021	303.21
375.402	314.51
375.783	321.29
376.163	340.05
376.544	342.08
376.925	323.78
377.305	321.52
377.686	336.43
378.066	331.23
378.447	325.13
378.827	334.85
379.208	351.8
379.588	338.47
379.968	335.3
380.349	326.94
380.729	361.29
381.109	330.1
381.489	328.52
381.87	320.39
382.25	332.36
382.63	357.67
383.01	339.37
383.39	359.48
383.77	352.7
384.15	339.82
384.53	368.75
384.91	373.04
385.29	355.19
385.67	356.32
386.049	389.99
386.429	368.75
386.809	362.19
387.189	357
387.568	357.9
387.948	367.84
388.328	383.89
388.707	355.41
389.087	398.13
389.466	389.09
389.846	381.4
390.225	392.7
390.605	391.57
390.984	371.01
391.363	401.06
391.743	403.32
392.122	384.79
392.501	411.91
392.881	423.89
393.26	406.94
393.639	399.71
394.018	432.02
394.397	410.33
394.776	412.36
395.155	402.42
395.534	393.38
395.913	400.61
396.292	419.37
396.671	415.3
397.05	422.08
397.429	435.41
397.808	427.5
398.186	439.25
398.565	444.45
398.944	427.5
399.323	440.38
399.701	449.65
400.08	447.62
400.458	449.2
400.837	426.37
401.215	492.13
401.594	465.24
401.972	454.85
402.351	450.78
402.729	489.42
403.107	474.73
403.486	460.95
403.864	474.96
404.242	467.95
404.62	483.55
404.999	481.74
405.377	503.43
405.755	533.26
406.133	508.18
406.511	517.22
406.889	501.4
407.267	514.05
407.645	504.34
408.023	534.62
408.401	536.88
408.779	540.95
409.156	568.97
409.534	569.87
409.912	565.8
410.29	598.57
410.667	582.53
411.045	621.85
411.422	605.8
411.8	617.78
412.178	654.16
412.555	672.24
412.933	664.11
413.31	701.62
413.687	690.09
414.065	732.35
414.442	732.13
414.819	737.1
415.197	716.76
415.574	770.32
415.951	769.19
416.328	785.46
416.705	794.95
417.082	815.97
417.46	826.81
417.837	832.24
418.214	839.47
418.591	856.42
418.967	870.66
419.344	902.74
419.721	905
420.098	913.59
420.475	946.81
420.852	970.09
421.228	972.57
421.605	964.21
421.982	1008.28
422.358	1003.98
422.735	1022.74
423.111	1003.53
423.488	1045.79
423.864	1081.05
424.241	1090.76
424.617	1112.91
424.994	1098.22
425.37	1126.24
425.746	1115.39
426.123	1142.96
426.499	1160.82
426.875	1165.56
427.251	1195.62
427.627	1213.24
428.003	1219.8
428.379	1231.78
428.756	1239.68
429.132	1273.81
429.507	1302.06
429.883	1325.56
430.259	1331.43
430.635	1340.02
431.011	1373.01
431.387	1407.82
431.763	1440.81
432.138	1429.28
432.514	1446.01
432.89	1444.88
433.265	1488.94
433.641	1512.67
434.016	1512.67
434.392	1547.25
434.767	1574.14
435.143	1585.66
435.518	1606.68
435.894	1595.16
436.269	1627.25
436.644	1650.3
437.02	1684.87
437.395	1689.39
437.77	1721.03
438.145	1736.17
438.52	1771.2
438.895	1751.99
439.271	1788.6
439.646	1791.76
440.021	1844.64
440.395	1837.18
440.77	1816.39
441.145	1856.84
441.52	1882.15
441.895	1882.83
442.27	1926.45
442.645	1903.4
443.019	1937.29
443.394	1934.81
443.769	1969.61
444.143	1956.95
444.518	1983.85
444.892	1990.85
445.267	1995.37
445.641	2021.59
446.016	2024.3
446.39	2042.83
446.764	2063.39
447.139	2052.77
447.513	2071.98
447.887	2085.76
448.262	2110.85
448.636	2148.59
449.01	2129.15
449.384	2152.88
449.758	2139.1
450.132	2196.27
450.506	2195.82
450.88	2256.38
451.254	2198.76
451.628	2257.51
452.002	2296.83
452.376	2287.34
452.75	2332.99
453.123	2337.74
453.497	2358.98
453.871	2396.72
454.244	2440.33
454.618	2463.38
454.992	2455.02
455.365	2456.15
455.739	2541.35
456.112	2543.61
456.486	2545.41
456.859	2609.14
457.232	2647.33
457.606	2630.16
457.979	2690.27
458.352	2704.51
458.725	2762.13
459.099	2779.53
459.472	2775.01
459.845	2840.09
460.218	2832.41
460.591	2909.92
460.964	2883.71
461.337	2935.01
461.71	3038.96
462.083	3073.08
462.456	3068.11
462.829	3057.72
463.201	3151.27
463.574	3137.71
463.947	3172.29
464.32	3271.95
464.692	3264.49
465.065	3295
465.438	3325.05
465.81	3418.16
466.183	3438.05
466.555	3511.72
466.928	3485.28
467.3	3507.65
467.672	3555.33
468.045	3670.81
468.417	3690.47
468.789	3650.47
469.161	3731.82
469.534	3813.4
469.906	3852.05
470.278	3889.33
470.65	3897.69
471.022	4043.23
471.394	4089.1
471.766	4122.1
472.138	4166.16
472.51	4203
472.882	4300.85
473.253	4367.74
473.625	4413.39
473.997	4471.92
474.369	4451.35
474.74	4529.32
475.112	4623.1
475.484	4710.55
475.855	4814.28
476.227	4842.75
476.598	4949.42
476.97	4937.67
477.341	5167.94
477.713	5178.79
478.084	5188.28
478.455	5369.75
478.827	5402.74
479.198	5548.05
479.569	5573.81
479.94	5667.14
480.311	5730.19
480.682	5877.53
481.053	5950.97
481.424	6084.53
481.795	6188.71
482.166	6228.03
482.537	6298.31
482.908	6421.92
483.279	6487.46
483.65	6589.6
484.021	6670.5
484.391	6879.54
484.762	6869.82
485.133	6938.29
485.503	7042.02
485.874	7233.2
486.244	7274.78
486.615	7428.9
486.985	7456.02
487.356	7609.91
487.726	7664.83
488.097	7825.05
488.467	7883.8
488.837	8031.6
489.207	8112.5
489.578	8286.51
489.948	8278.14
490.318	8441.53
490.688	8416.22
491.058	8585.71
491.428	8681.98
491.798	8781.18
492.168	8939.14
492.538	9040.16
492.908	9096.88
493.278	9265.24
493.648	9307.27
494.017	9407.83
494.387	9479.02
494.757	9621.16
495.126	9636.07
495.496	9738.44
495.866	9790.65
496.235	9858.67
496.605	10000.81
496.974	10005.1
497.344	10177.53
497.713	10256.62
498.082	10297.07
498.452	10433.79
498.821	10389.05
499.19	10571.42
499.559	10585.2
499.928	10679.89
500.298	10749.27
500.667	10868.81
501.036	10882.82
501.405	10979.54
501.774	11078.3
502.143	11146.54
502.512	11114
502.88	11271.06
503.249	11321.45
503.618	11430.83
503.987	11468.34
504.356	11575.23
504.724	11664.27
505.093	11641.22
505.462	11772.29
505.83	11798.28
506.199	11981.32
506.567	12084.82
506.936	12081.21
507.304	12218.15
507.672	12280.52
508.041	12389.67
508.409	12464.7
508.777	12597.58
509.145	12669.67
509.514	12690.68
509.882	12795.99
510.25	12873.28
510.618	13017
510.986	13048.19
511.354	13109.43
511.722	13255.87
512.09	13365.47
512.458	13354.62
512.826	13569.76
513.193	13599.59
513.561	13719.13
513.929	13831.44
514.297	13973.36
514.664	14003.19
515.032	14138.55
515.4	14185.56
515.767	14226.69
516.135	14433.01
516.502	14273.92
516.869	14620.12
517.237	14625.1
517.604	14619.45
517.972	14845.88
518.339	14957.74
518.706	15065.54
519.073	15128.81
519.44	15209.94
519.808	15470.27
520.175	15360.22
520.542	15623.04
520.909	15577.39
521.276	15684.73
521.643	15923.59
522.009	16003.36
522.376	16113.19
522.743	16218.27
523.11	16384.15
523.477	16542.33
523.843	16643.57
524.21	16826.17
524.577	16958.14
524.943	17086.95
525.31	17146.39
525.676	17194.07
526.043	17431.8
526.409	17479.48
526.776	17689.2
527.142	17795.41
527.508	17904.78
527.874	18029.3
528.241	18135.74
528.607	18242.4
528.973	18406.92
529.339	18428.16
529.705	18616.18
530.071	18683.75
530.437	18808.26
530.803	18909.5
531.169	19012.78
531.535	19058.43
531.901	19153.56
532.267	19279.21
532.632	19412.54
532.998	19489.37
533.364	19587.23
533.73	19671.52
534.095	19845.52
534.461	19915.13
534.826	19981.79
535.192	20201.45
535.557	20287.55
535.923	20268.79
536.288	20269.47
536.653	20484.6
537.019	20401.67
537.384	20573.64
537.749	20698.38
538.114	20779.51
538.479	20804.59
538.845	20867.87
539.21	20940.18
539.575	21009.56
539.94	21156.68
540.305	21235.09
540.67	21299.72
541.034	21382.66
541.399	21355.31
541.764	21424.69
542.129	21644.8
542.494	21650
542.858	21811.8
543.223	21815.87
543.587	21901.51
543.952	22047.5
544.316	22083.88
544.681	22104.45
545.045	22254.95
545.41	22367.04
545.774	22282.52
546.138	22398.68
546.503	22409.98
546.867	22490.88
547.231	22639.8
547.595	22797.99
547.959	22725
548.324	22878.89
548.688	22898.1
549.052	23088.83
549.416	23059.45
549.779	23046.12
550.143	23194.14
550.507	23437.29
550.871	23389.61
551.235	23549.15
551.599	23627.34
551.962	23687
552.326	23847.23
552.689	23816.94
553.053	23820.56
553.417	23939.2
553.78	24207.44
554.143	24141
554.507	24198.86
554.87	24385.97
555.234	24695.34
555.597	24519.98
555.96	24602.91
556.323	24696.92
556.686	24882.45
557.05	24988.89
557.413	25032.05
557.776	25061.43
558.139	25282.22
558.502	25348.2
558.865	25431.82
559.228	25614.19
559.59	25688.76
559.953	25779.38
560.316	26075.64
560.679	26064.79
561.041	26261.4
561.404	26347.27
561.767	26479.47
562.129	26470.89
562.492	26759.47
562.854	26799.92
563.217	26724.21
563.579	27063.64
563.941	27128.04
564.304	27234.03
564.666	27429.5
565.028	27486
565.39	27443.29
565.753	27716.05
566.115	27674.47
566.477	27833.34
566.839	27935.48
567.201	28075.59
567.563	28129.83
567.925	28361.91
568.287	28379.54
568.648	28389.93
569.01	28538.85
569.372	28834.67
569.734	28700.21
570.095	28930.26
570.457	29046.19
570.819	29135.22
571.18	29103.36
571.542	29250.93
571.903	29366.18
572.265	29461.99
572.626	29613.63
572.987	29601.65
573.349	29782.89
573.71	29834.41
574.071	29876.45
574.432	29949.21
574.794	30308.3
575.155	30165.48
575.516	30174.29
575.877	30295.64
576.238	30389.2
576.599	30521.63
576.96	30452.02
577.32	30417.9
577.681	30569.99
578.042	30748.29
578.403	30710.77
578.763	30698.35
579.124	30925.46
579.485	30917.32
579.845	30993.25
580.206	30946.02
580.566	31025.12
580.927	31062.86
581.287	31153.25
581.648	31076.64
582.008	31175.85
582.368	31132.91
582.728	31172.91
583.089	31115.51
583.449	31141.05
583.809	31063.76
584.169	31246.81
584.529	31161.61
584.889	31357.54
585.249	31208.61
585.609	31127.94
585.969	31253.81
586.329	31216.98
586.688	31402.73
587.048	31265.34
587.408	31192.57
587.768	31208.16
588.127	31298.1
588.487	31237.54
588.846	31355.28
589.206	31159.8
589.565	31301.95
589.925	31665.78
590.284	31366.58
590.643	31405.45
591.003	31466.69
591.362	31538.32
591.721	31466.69
592.08	31545.33
592.44	31651.54
592.799	31564.09
593.158	31502.39
593.517	31486.12
593.876	31568.83
594.235	31639.79
594.593	31532.9
594.952	31694.48
595.311	31478.66
595.67	31590.53
596.029	31771.76
596.387	31803.4
596.746	31741.03
597.104	31610.19
597.463	31650.18
597.822	31804.53
598.18	31633.91
598.538	31607.02
598.897	31941.7
599.255	31676.17
599.613	32138.76
599.972	31952.32
600.33	31965.66
600.688	31826.9
601.046	31966.33
601.404	32113.22
601.762	32124.75
602.12	32191.87
602.478	32192.54
602.836	32209.49
603.194	32058.31
603.552	32098.99
603.91	31964.53
604.268	32099.44
604.625	32065.32
604.983	32197.51
605.341	32067.57
605.698	32255.82
606.056	32390.05
606.413	32347.12
606.771	32425.31
607.128	32426.21
607.485	32305.08
607.843	32358.41
608.2	32512.99
608.557	32575.58
608.914	32547.11
609.272	32755.69
609.629	32715.69
609.986	32753.66
610.343	32804.05
610.7	32963.14
611.057	32856.48
611.414	32812.41
611.771	32774.9
612.127	32956.14
612.484	33016.93
612.841	32879.98
613.198	33018.74
613.554	33015.57
613.911	33135.12
614.267	33126.3
614.624	33106.19
614.98	33109.81
615.337	33301.89
615.693	33225.51
616.05	33166.76
616.406	33378.95
616.762	33232.97
617.118	33256.24
617.475	33397.71
617.831	33467.76
618.187	33416.24
618.543	33529.91
618.899	33579.17
619.255	33508.21
619.611	33608.1
619.967	33629.34
620.323	33761.77
620.678	33641.54
621.034	33557.03
621.39	33681.09
621.746	33501.44
622.101	33853.74
622.457	33441.78
622.812	33727.64
623.168	33673.18
623.523	33678.38
623.879	33799.96
624.234	33536.69
624.589	33665.05
624.945	33813.97
625.3	33797.02
625.655	33663.69
626.01	33744.82
626.365	33785.72
626.72	33666.85
627.075	33715.67
627.43	33609.23
627.785	33546.41
628.14	33612.85
628.495	33649.45
628.85	33602.45
629.205	33513.19
629.559	33621.88
629.914	33497.82
630.269	33581.43
630.623	33435.9
630.978	33355.45
631.332	33485.62
631.687	33400.42
632.041	33183.93
632.396	33338.73
632.75	33317.71
633.104	33281.1
633.459	33164.04
633.813	33122.91
634.167	33236.36
634.521	33063.25
634.875	33047.21
635.229	33103.25
635.583	33005.18
635.937	32845.63
636.291	32893.77
636.645	32947.55
636.999	32867.78
637.352	32943.03
637.706	32652.64
638.06	32797.05
638.413	32725.41
638.767	32604.06
639.121	32788.01
639.474	32502.14
639.828	32562.7
640.181	32369.94
640.534	32406.1
640.888	32295.82
641.241	32212.43
641.594	32282.71
641.947	32350.96
642.301	32181.02
642.654	32298.3
643.007	32174.92
643.36	32263.05
643.713	32096.5
644.066	32178.98
644.419	32176.27
644.771	31882.27
645.124	31472.79
645.477	31587.36
645.83	31149.41
646.182	31091.1
646.535	31085.23
646.888	31150.54
647.24	30934.05
647.593	31167.03
647.945	31000.94
648.298	30961.39
648.65	30833.03
649.002	30822.18
649.355	30876.65
649.707	30895.18
650.059	30887.27
650.411	31252.46
650.763	31409.29
651.115	31601.82
651.467	31449.06
651.819	31357.09
652.171	31462.39
652.523	31384.66
652.875	31302.17
653.227	31169.07
653.578	31285
653.93	31152.57
654.282	31056.98
654.633	31029.64
654.985	31158.45
655.337	31065.12
655.688	31088.17
656.039	31059.47
656.391	30748.74
656.742	30989.86
657.094	30967.26
657.445	31052.23
657.796	30975.17
658.147	30883.65
658.498	30845.23
658.849	30919.13
659.2	30791.68
659.551	30839.36
659.902	30869.19
660.253	30815.4
660.604	30774.28
660.955	30569.31
661.306	30728.18
661.656	30726.14
662.007	30710.32
662.358	30560.72
662.708	30666.93
663.059	30617.67
663.409	30398.24
663.76	30626.26
664.11	30580.16
664.461	30505.36
664.811	30562.53
665.161	30518.92
665.511	30417.22
665.862	30373.16
666.212	30585.13
666.562	30445.02
666.912	30540.61
667.262	30351.91
667.612	30514.4
667.962	30507.16
668.312	30454.96
668.662	30596.65
669.011	30518.69
669.361	30431.69
669.711	30310.78
670.06	30149.66
670.41	30260.62
670.76	30162.99
671.109	30414.96
671.459	30173.39
671.808	30186.04
672.157	30201.41
672.507	29967.29
672.856	29967.97
673.205	29984.01
673.554	30130.45
673.904	30012.26
674.253	30089.55
674.602	29939.95
674.951	29654.53
675.3	29501.09
675.649	29881.87
675.998	29844.36
676.346	29792.83
676.695	29904.69
677.044	29653.85
677.393	29772.72
677.741	29790.35
678.09	29783.12
678.438	29616.57
678.787	29659.5
679.135	29718.26
679.484	29499.05
679.832	29715.77
680.181	29389.23
680.529	29620.86
680.877	29400.53
681.225	29449.34
681.573	29691.14
681.922	29340.64
682.27	29233.07
682.618	29371.37
682.966	29195.79
683.314	29220.42
683.661	29196.69
684.009	28987.2
684.357	29006.19
684.705	28812.75
685.053	28866.53
685.4	28991.05
685.748	28722.58
686.095	28824.95
686.443	28628.8
686.79	28605.29
687.138	28690.04
687.485	28686.19
687.832	28465.86
688.18	28512.64
688.527	28272.65
688.874	28422.47
689.221	28205.76
689.568	28211.63
689.915	28183.61
690.262	28172.31
690.609	28104.06
690.956	27968.7
691.303	27927.34
691.65	27904.75
691.997	27848.02
692.344	27627.69
692.69	27574.59
693.037	27666.56
693.383	27361.94
693.73	27499.56
694.077	27260.7
694.423	27321.26
694.769	27267.93
695.116	27099.57
695.462	27192.45
695.808	27039.23
696.155	27097.31
696.501	26753.36
696.847	26749.3
697.193	26678.34
697.539	26796.53
697.885	26496.2
698.231	26423.43
698.577	26499.13
698.923	26395.86
699.269	26345.69
699.614	25994.06
699.96	26141.86
700.306	26206.26
700.651	25912.03
700.997	25834.97
701.342	25871.58
701.688	25863.44
702.033	25707.97
702.379	25710.91
702.724	25616.9
703.069	25679.95
703.415	25377.58
703.76	25329.22
704.105	25272.95
704.45	25304.59
704.795	25142.11
705.14	25098.04
705.485	25061.66
705.83	24958.16
706.175	24943.69
706.52	24972.62
706.865	24840.19
707.209	24731.5
707.554	24602.46
707.899	24786.18
708.243	24558.39
708.588	24478.17
708.932	24416.48
709.277	24388
709.621	24383.71
709.966	24240.66
710.31	24347.33
710.654	24038.86
710.998	24041.35
711.342	24176.93
711.687	24016.49
712.031	23930.61
712.375	23794.8
712.719	23870.28
713.063	23961.8
713.407	23869.82
713.75	23826.21
714.094	23769.94
714.438	23670.96
714.782	23654.46
715.125	23526.78
715.469	23662.6
715.812	23407.46
716.156	23442.26
716.499	23352.32
716.843	23403.4
717.186	23278.2
717.53	23321.14
717.873	23322.04
718.216	23233
718.559	23149.39
718.902	22885.44
719.246	23017.19
719.589	23002.05
719.932	22737.42
720.275	22884.77
720.617	22742.17
720.96	22720.93
721.303	22694.04
721.646	22706.24
721.989	22570.88
722.331	22646.81
722.674	22543.76
723.016	22553.02
723.359	22641.16
723.701	22513.93
724.044	22336.53
724.386	22151.9
724.729	22309.19
725.071	22269.87
725.413	22291.11
725.755	22215.18
726.097	22124.33
726.439	22070.55
726.782	21932.02
727.124	22217.89
727.465	22025.13
727.807	21953.94
728.149	21868.97
728.491	21845.7
728.833	21987.39
729.175	21805.92
729.516	21743.78
729.858	21709.2
730.199	21815.42
730.541	21590.79
730.882	21546.5
731.224	21736.1
731.565	21464.01
731.906	21491.81
732.248	21438.25
732.589	21390.57
732.93	21479.83
733.271	21422.43
733.612	21344.69
733.953	21422.88
734.294	21254.53
734.635	21236.67
734.976	21380.17
735.317	21105.38
735.658	21098.82
735.999	21048.2
736.339	21037.36
736.68	21071.93
737.021	21002.33
737.361	20914.2
737.702	21021.54
738.042	20880.3
738.383	20805.05
738.723	20852.73
739.063	20862.22
739.404	20871.03
739.744	20761.21
740.084	20588.78
740.424	20827.42
740.764	20641.89
741.104	20774.09
741.444	20565.96
741.784	20498.84
742.124	20579.06
742.464	20543.58
742.804	20554.21
743.143	20460.2
743.483	20437.82
743.823	20374.1
744.162	20308.11
744.502	20416.13
744.841	20249.81
745.181	20213.65
745.52	20137.04
745.86	20222.24
746.199	20161.22
746.538	20090.49
746.877	20127.1
747.216	20131.84
747.556	19933.66
747.895	20023.37
748.234	19866.77
748.573	19918.74
748.911	19801.91
749.25	19895.01
749.589	19764.4
749.928	19767.11
750.267	19771.63
750.605	19658.41
750.944	19702.7
751.283	19596.72
751.621	19656.38
751.96	19561.24
752.298	19464.52
752.636	19546.32
752.975	19448.47
753.313	19322.6
753.651	19411.64
753.989	19252.54
754.327	19174.58
754.666	19140.46
