Data from White_paper_FLMS001491_074.txt Node
Date: Tue Feb 07 10:35:32 GMT 2017
User: dcchb
Spectrometer: FLMS00149
Trigger mode: 0
Integration Time (sec): 2.000000E-2
Scans to average: 10
Electric dark correction enabled: true
Nonlinearity correction enabled: false
Boxcar width: 0
XAxis mode: Wavelengths
Number of Pixels in Spectrum: 2048
>>>>>Begin Spectral Data<<<<<
341.393	-19.29
341.776	-19.29
342.16	-19.29
342.543	-76.47
342.927	-67.2
343.31	-61.33
343.693	-86.18
344.077	-57.94
344.46	-72.63
344.843	-53.42
345.226	-44.83
345.61	-45.28
345.993	-24.72
346.376	7.6
346.759	20.48
347.142	24.77
347.525	27.03
347.908	64.09
348.291	91.44
348.674	105.68
349.057	105.22
349.44	109.06
349.823	135.05
350.206	186.35
350.588	225.67
350.971	238.1
351.354	248.5
351.737	263.64
352.119	264.32
352.502	295.5
352.884	311.09
353.267	318.55
353.65	321.04
354.032	321.26
354.414	339.79
354.797	326.91
355.179	340.25
355.562	369.17
355.944	365.33
356.326	375.95
356.709	361.94
357.091	378.89
357.473	372.56
357.855	370.75
358.238	358.1
358.62	371.88
359.002	372.56
359.384	376.63
359.766	375.05
360.148	375.27
360.53	378.44
360.912	376.18
361.294	376.18
361.676	367.59
362.057	377.76
362.439	368.27
362.821	369.4
363.203	349.51
363.584	392.45
363.966	373.01
364.348	368.49
364.729	348.61
365.111	364.43
365.493	370.3
365.874	357.42
366.256	376.4
366.637	361.26
367.019	371.43
367.4	362.17
367.781	363.97
368.163	369.85
368.544	362.17
368.925	355.39
369.306	386.35
369.688	366.23
370.069	370.3
370.45	374.14
370.831	373.24
371.212	384.31
371.593	371.43
371.974	381.83
372.355	389.28
372.736	384.76
373.117	384.76
373.498	381.6
373.879	379.34
374.26	376.4
374.641	393.58
375.021	366.69
375.402	382.96
375.783	388.15
376.163	396.51
376.544	386.8
376.925	391.09
377.305	401.49
377.686	401.71
378.066	407.81
378.447	409.17
378.827	401.03
379.208	403.97
379.588	423.63
379.968	408.72
380.349	406.46
380.729	408.27
381.109	425.21
381.489	426.12
381.87	415.05
382.25	400.13
382.63	413.01
383.01	441.94
383.39	440.36
383.77	439.68
384.15	436.29
384.53	437.64
384.91	458.21
385.29	446.91
385.67	458.43
386.049	456.63
386.429	469.28
386.809	453.01
387.189	474.93
387.568	469.51
387.948	488.26
388.328	493.24
388.707	489.85
389.087	493.24
389.466	487.59
389.846	495.72
390.225	507.7
390.605	508.38
390.984	490.98
391.363	519.68
391.743	525.78
392.122	532.1
392.501	523.29
392.881	531.65
393.26	547.92
393.639	526
394.018	564.65
394.397	541.82
394.776	564.87
395.155	560.13
395.534	571.2
395.913	590.18
396.292	584.98
396.671	583.85
397.05	602.61
397.429	584.98
397.808	624.08
398.186	617.07
398.565	603.97
398.944	601.71
399.323	647.58
399.701	632.22
400.08	648.49
400.458	649.16
400.837	661.37
401.215	660.91
401.594	694.36
401.972	680.8
402.351	692.1
402.729	713.12
403.107	736.85
403.486	719.67
403.864	733.68
404.242	763.06
404.62	742.72
404.999	770.74
405.377	750.18
405.755	792.89
406.133	824.53
406.511	824.98
406.889	848.93
407.267	864.53
407.645	878.99
408.023	892.55
408.401	939.1
408.779	938.2
409.156	980.23
409.534	995.6
409.912	998.08
410.29	1043.28
410.667	1039.66
411.045	1081.92
411.422	1125.99
411.8	1134.12
412.178	1154.69
412.555	1188.36
412.933	1237.17
413.31	1260.67
413.687	1234.23
414.065	1296.83
414.442	1335.7
414.819	1364.85
415.197	1387.68
415.574	1417.73
415.951	1461.57
416.328	1484.62
416.705	1495.7
417.082	1495.24
417.46	1518.29
417.837	1614.11
418.214	1595.35
418.591	1631.96
418.967	1649.59
419.344	1652.3
419.721	1686.88
420.098	1729.81
420.475	1768.68
420.852	1784.05
421.228	1798.06
421.605	1829.02
421.982	1857.04
422.358	1862.69
422.735	1935.46
423.111	1953.08
423.488	1997.83
423.864	1980.88
424.241	2020.43
424.617	2047.32
424.994	2088.9
425.37	2107.43
425.746	2116.47
426.123	2146.07
426.499	2123.7
426.875	2181.1
427.251	2230.82
427.627	2278.95
428.003	2317.14
428.379	2330.7
428.756	2377.25
429.132	2386.97
429.507	2432.17
429.883	2501.09
430.259	2520.53
430.635	2543.35
431.011	2586.97
431.387	2652.5
431.763	2701.99
432.138	2687.3
432.514	2749
432.89	2766.4
433.265	2845.72
433.641	2858.15
434.016	2919.84
434.392	2973.4
434.767	3023.34
435.143	3010.68
435.518	3042.1
435.894	3097.69
436.269	3132.71
436.644	3183.79
437.02	3238.25
437.395	3205.71
437.77	3273.05
438.145	3332.03
438.52	3312.82
438.895	3393.95
439.271	3416.1
439.646	3501.07
440.021	3512.82
440.395	3519.14
440.77	3505.36
441.145	3544.23
441.52	3609.31
441.895	3627.39
442.27	3696.99
442.645	3663.1
443.019	3735.86
443.394	3685.02
443.769	3738.35
444.143	3763.43
444.518	3810.21
444.892	3812.7
445.267	3832.36
445.641	3854.28
446.016	3916.65
446.39	3941.96
446.764	3974.27
447.139	3987.61
447.513	3990.54
447.887	4026.02
448.262	4014.5
448.636	4070.09
449.01	4099.24
449.384	4137.66
449.758	4203.65
450.132	4244.55
450.506	4239.58
450.88	4236.41
451.254	4279.8
451.628	4303.98
452.002	4410.65
452.376	4390.08
452.75	4433.47
453.123	4467.14
453.497	4552.56
453.871	4620.36
454.244	4687.48
454.618	4718.89
454.992	4796.63
455.365	4708.72
455.739	4940.8
456.112	4919.56
456.486	4998.65
456.859	5023.29
457.232	5166.11
457.606	5104.87
457.979	5212.89
458.352	5245.88
458.725	5339.44
459.099	5406.78
459.472	5529.94
459.845	5520.67
460.218	5609.71
460.591	5698.07
460.964	5674.79
461.337	5807.9
461.71	5936.93
462.083	5940.1
462.456	5996.14
462.829	6037.95
463.201	6093.99
463.574	6145.52
463.947	6241.33
464.32	6406.3
464.692	6399.3
465.065	6562
465.438	6581.44
465.81	6677.48
466.183	6753.64
466.555	6928.55
466.928	6971.71
467.3	6926.96
467.672	7093.06
468.045	7262.78
468.417	7281.76
468.789	7328.76
469.161	7406.5
469.534	7551.81
469.906	7685.59
470.278	7763.1
470.65	7851.01
471.022	7952.7
471.394	8190.43
471.766	8251
472.138	8352.92
472.51	8510.2
472.882	8635.62
473.253	8690.76
473.625	8856.18
473.997	9030.19
474.369	9100.92
474.74	9194.02
475.112	9348.6
475.484	9536.39
475.855	9621.13
476.227	9777.51
476.598	10033.32
476.97	10095.92
477.341	10319.42
477.713	10567.32
478.084	10559.64
478.455	10845.05
478.827	10955.79
479.198	11209.34
479.569	11276.91
479.94	11616.56
480.311	11649.78
480.682	11862.2
481.053	12192.81
481.424	12318.69
481.795	12484.56
482.166	12683.2
482.537	12834.83
482.908	13146.69
483.279	13195.5
483.65	13518.66
484.021	13689.72
484.391	13848.36
484.762	14127.45
485.133	14115.7
485.503	14341.01
485.874	14659.42
486.244	14737.38
486.615	15070.03
486.985	15179.18
487.356	15392.96
487.726	15578.26
488.097	15909.78
488.467	15976.44
488.837	16354.97
489.207	16499.59
489.578	16774.39
489.948	16880.15
490.318	17087.15
490.688	17148.62
491.058	17419.34
491.428	17758.54
491.798	17770.07
492.168	18154.01
492.538	18205.54
492.908	18410.05
493.278	18679.2
493.648	18711.51
494.017	18939.3
494.387	19076.48
494.757	19262.46
495.126	19410.7
495.496	19560.08
495.866	19641.43
496.235	19878.71
496.605	20071.93
496.974	20109.67
497.344	20267.63
497.713	20481.18
498.082	20599.83
498.452	20838.46
498.821	20919.37
499.19	20918.01
499.559	21133.37
499.928	21420.14
500.298	21534.26
500.667	21643.41
501.036	21575.62
501.405	21882.5
501.774	21949.62
502.143	22225.09
502.512	22191.2
502.88	22440.68
503.249	22376.5
503.618	22596.61
503.987	22732.88
504.356	22919.09
504.724	23000.89
505.093	23116.37
505.462	23293.31
505.83	23380.54
506.199	23594.32
506.567	23801.55
506.936	23815.33
507.304	24197.47
507.672	24338.71
508.041	24428.43
508.409	24541.64
508.777	24763.11
509.145	24905.7
509.514	24890.56
509.882	25244.9
510.25	25211.68
510.618	25467.95
510.986	25512.46
511.354	25814.6
511.722	26034.71
512.09	26259.11
512.458	26214.82
512.826	26367.13
513.193	26630.18
513.561	26723.05
513.929	26939.55
514.297	27098.86
514.664	27290.05
515.032	27458.85
515.4	27660.2
515.767	27804.38
516.135	27939.07
516.502	27788.56
516.869	28270.58
517.237	28317.59
517.604	28316.23
517.972	28701.31
518.339	28805.26
518.706	28961.41
519.073	29084.57
519.44	29433.04
519.808	29613.83
520.175	29545.13
520.542	29992.8
520.909	30159.57
521.276	30210.42
521.643	30514.82
522.009	30635.95
522.376	30887.46
522.743	31018.31
523.11	31404.51
523.477	31644.51
523.843	31866.87
524.21	32223.7
524.577	32389.35
524.943	32469.12
525.31	32607.42
525.676	32841.54
526.043	33098.93
526.409	33240.85
526.776	33669.99
527.142	33748.86
527.508	34019.59
527.874	34190.65
528.241	34488.73
528.607	34412.12
528.973	34907.92
529.339	34929.84
529.705	35140.01
530.071	35503.39
530.437	35511.52
530.803	35855.02
531.169	35870.61
531.535	36001.45
531.901	36178.85
532.267	36291.39
532.632	36528.45
532.998	36662.91
533.364	37025.16
533.73	37097.24
534.095	37377.92
534.461	37523.9
534.826	37560.74
535.192	37575.65
535.557	37948.97
535.923	38020.38
536.288	38146.03
536.653	38366.36
537.019	38353.03
537.384	38623.76
537.749	38746.47
538.114	38843.64
538.479	38867.82
538.845	39067.14
539.21	39234.14
539.575	39293.57
539.94	39423.06
540.305	39685.43
540.67	39649.27
541.034	39713.9
541.399	39957.73
541.764	40128.13
542.129	40349.81
542.494	40352.3
542.858	40649.69
543.223	40640.65
543.587	40929.01
543.952	40818.95
544.316	41023.24
544.681	41095.33
545.045	41312.95
545.41	41557.92
545.774	41493.74
546.138	41654.41
546.503	41792.94
546.867	41837.46
547.231	42166.26
547.595	42167.62
547.959	42410.1
548.324	42478.35
548.688	42494.39
549.052	42719.24
549.416	42840.37
549.779	42872.91
550.143	43028.16
550.507	43291.21
550.871	43351.77
551.235	43419.34
551.599	43726.45
551.962	43710.4
552.326	43902.49
552.689	44141.35
553.053	43950.17
553.417	44215.02
553.78	44607.56
554.143	44463.83
554.507	44629.93
554.87	44898.17
555.234	45198.73
555.597	44978.85
555.96	45334.99
556.323	45379.51
556.686	45353.98
557.05	45707.87
557.413	45844.81
557.776	45947.63
558.139	46281.18
558.502	46233.28
558.865	46434.4
559.228	46649.99
559.59	46847.72
559.953	46865.58
560.316	47292.46
560.679	47197.09
561.041	47445.45
561.404	47599.12
561.767	47811.99
562.129	47760.47
562.492	48130.85
562.854	48134.02
563.217	48271.87
563.579	48330.17
563.941	48586.21
564.304	48712.08
564.666	48976.48
565.028	49000.43
565.39	49145.74
565.753	49386.64
566.115	49562.91
566.477	49682.22
566.839	49811.71
567.201	50005.61
567.563	50015.78
567.925	50243.34
568.287	50220.06
568.648	50406.5
569.01	50584.57
569.372	50733.95
569.734	50746.6
570.095	50914.96
570.457	51128.06
570.819	51137.1
571.18	51133.49
571.542	51371.45
571.903	51459.35
572.265	51580.71
572.626	51721.72
572.987	51792.9
573.349	51894.6
573.71	52057.3
574.071	52128.71
574.432	52209.39
574.794	52454.13
575.155	52353.34
575.516	52318.31
575.877	52527.57
576.238	52592.88
576.599	52704.07
576.96	52686.67
577.32	52736.83
577.681	52892.54
578.042	52888.24
578.403	52978.64
578.763	53013.89
579.124	53144.73
579.485	53249.59
579.845	53342.47
580.206	53296.59
580.566	53388.57
580.927	53332.52
581.287	53470.15
581.648	53454.78
582.008	53506.53
582.368	53499.07
582.728	53664.72
583.089	53525.51
583.449	53498.4
583.809	53585.4
584.169	53752.85
584.529	53594.89
584.889	53811.16
585.249	53714.66
585.609	53666.98
585.969	53855.45
586.329	53805.73
586.688	53862
587.048	53859.29
587.408	53883.24
587.768	53906.97
588.127	53898.39
588.487	53815
588.846	54051.15
589.206	53895.67
589.565	53913.98
589.925	54110.81
590.284	53971.6
590.643	54047.76
591.003	54141.99
591.362	54200.07
591.721	54102.9
592.08	54137.93
592.44	54238.49
592.799	54202.33
593.158	54187.42
593.517	54298.6
593.876	54272.16
594.235	54219.51
594.593	54230.81
594.952	54311.71
595.311	54257.92
595.67	54367.75
596.029	54466.73
596.387	54482.32
596.746	54595.32
597.104	54372.5
597.463	54386.06
597.822	54546.96
598.18	54502.21
598.538	54460.63
598.897	54562.77
599.255	54371.37
599.613	54782.88
599.972	54684.81
600.33	54670.79
600.688	54581.76
601.046	54700.85
601.404	54859.72
601.762	54699.04
602.12	54927.06
602.478	54905.36
602.836	54869.43
603.194	54781.07
603.552	54832.15
603.91	54758.02
604.268	54904.69
604.625	54816.55
604.983	54903.33
605.341	54824.91
605.698	54954.18
606.056	54957.34
606.413	54986.27
606.771	55085.25
607.128	55049.77
607.485	55020.16
607.843	54996.21
608.2	55193.49
608.557	55237.56
608.914	55208.41
609.272	55286.82
609.629	55332.7
609.986	55374.28
610.343	55243.43
610.7	55364.56
611.057	55422.41
611.414	55430.1
611.771	55404.11
612.127	55499.92
612.484	55466.93
612.841	55564.1
613.198	55532.47
613.554	55530.66
613.911	55669.86
614.267	55671.9
614.624	55643.42
614.98	55721.39
615.337	55824.21
615.693	55745.57
616.05	55713.03
616.406	55835.51
616.762	55716.42
617.118	55734.04
617.475	55776.08
617.831	55910.54
618.187	55853.59
618.543	55868.73
618.899	55955.96
619.255	55948.95
619.611	55909.41
619.967	55976.75
620.323	56035.5
620.678	55945.79
621.034	55852.23
621.39	55977.88
621.746	55915.51
622.101	56207.7
622.457	55906.69
622.812	55998.22
623.168	56077.31
623.523	56021.27
623.879	56130.87
624.234	55957.54
624.589	56040.48
624.945	56073.02
625.3	56144.43
625.655	56057.65
626.01	56078.44
626.365	56087.71
626.72	56081.6
627.075	56040.25
627.43	56054.26
627.785	56015.39
628.14	56086.12
628.495	56161.15
628.85	56110.53
629.205	56014.26
629.559	56161.38
629.914	56103.75
630.269	56083.41
630.623	56032.57
630.978	55914.38
631.332	56041.38
631.687	56162.51
632.041	56075.05
632.396	56079.34
632.75	55900.14
633.104	56026.92
633.459	55911.44
633.813	55934.49
634.167	55927.03
634.521	55860.37
634.875	55907.6
635.229	55864.89
635.583	55752.12
635.937	55696.98
636.291	55762.97
636.645	55720.03
636.999	55666.47
637.352	55781.05
637.706	55570.66
638.06	55757.32
638.413	55761.39
638.767	55558.91
639.121	55647.04
639.474	55466.93
639.828	55547.38
640.181	55573.82
640.534	55641.84
640.888	55469.64
641.241	55401.4
641.594	55465.8
641.947	55509.19
642.301	55441.4
642.654	55557.78
643.007	55469.64
643.36	55392.36
643.713	55353.26
644.066	55428.51
644.419	55212.25
644.771	55113.49
645.124	54847.96
645.477	54791.24
645.83	54689.78
646.182	54566.16
646.535	54528.88
646.888	54556.9
647.24	54393.51
647.593	54585.15
647.945	54452.04
648.298	54385.15
648.65	54364.36
649.002	54283.69
649.355	54438.26
649.707	54406.17
650.059	54426.05
650.411	54772.71
650.763	54821.52
651.115	55125.25
651.467	54971.58
651.819	54965.48
652.171	54976.1
652.523	54907.4
652.875	54861.75
653.227	54857.23
653.578	55025.81
653.93	54973.84
654.282	54845.48
654.633	54734.52
654.985	54833.5
655.337	54787.18
655.688	54775.2
656.039	54919.15
656.391	54553.96
656.742	54639.83
657.094	54685.93
657.445	54788.08
657.796	54711.47
658.147	54725.48
658.498	54682.09
658.849	54715.99
659.2	54657.69
659.551	54568.88
659.902	54736.78
660.253	54588.54
660.604	54643.45
660.955	54519.84
661.306	54634.64
661.656	54597.12
662.007	54598.03
662.358	54592.38
662.708	54560.74
663.059	54521.19
663.409	54289.34
663.76	54555.77
664.11	54536.11
664.461	54544.02
664.811	54550.57
665.161	54510.35
665.511	54409.78
665.862	54406.62
666.212	54477.58
666.562	54483.23
666.912	54490.01
667.262	54355.1
667.612	54411.37
667.962	54437.58
668.312	54337.24
668.662	54433.96
669.011	54358.49
669.361	54258.38
669.711	54237.36
670.06	54260.64
670.41	54200.52
670.76	54117.14
671.109	54258.83
671.459	54159.17
671.808	54118.49
672.157	54174.76
672.507	54028.33
672.856	53928.21
673.205	54069.68
673.554	54105.16
673.904	53976.35
674.253	54140.41
674.602	54023.81
674.951	53567.09
675.3	53437.83
675.649	53888.44
675.998	53828.56
676.346	53845.96
676.695	54005.5
677.044	53714.66
677.393	53778.16
677.741	53830.36
678.09	53699.07
678.438	53683.25
678.787	53757.37
679.135	53674.44
679.484	53413.43
679.832	53592.86
680.181	53404.16
680.529	53528.68
680.877	53392.41
681.225	53428.34
681.573	53519.41
681.922	53269.93
682.27	53198.29
682.618	53225.63
682.966	53094.56
683.314	53196.26
683.661	53000.56
684.009	52828.13
684.357	52832.2
684.705	52756.27
685.053	52820.9
685.4	52791.3
685.748	52537.74
686.095	52500
686.443	52478.99
686.79	52460.91
687.138	52462.04
687.485	52339.56
687.832	52209.39
688.18	52288.03
688.527	52155.38
688.874	52095.27
689.221	51991.77
689.568	51798.1
689.915	51696.41
690.262	51773.24
690.609	51747.93
690.956	51527.15
691.303	51560.37
691.65	51381.16
691.997	51438.56
692.344	51132.13
692.69	51188.4
693.037	51177.33
693.383	50925.58
693.73	50968.29
694.077	50862.08
694.423	50830.9
694.769	50597.68
695.116	50629.09
695.462	50588.87
695.808	50391.13
696.155	50468.19
696.501	50263.9
696.847	50219.61
697.193	50045.15
697.539	49993.63
697.885	49862.56
698.231	49776.01
698.577	49712.51
698.923	49669.8
699.269	49489.69
699.614	49239.98
699.96	49296.7
700.306	49209.92
700.651	49097.61
700.997	49024.39
701.342	48925.86
701.688	48842.47
702.033	48743.94
702.379	48695.81
702.724	48583.04
703.069	48729.48
703.415	48237.06
703.76	48227.57
704.105	48250.62
704.45	48070.52
704.795	47839.34
705.14	47875.94
705.485	47864.65
705.83	47594.6
706.175	47624.2
706.52	47620.36
706.865	47548.95
707.209	47291.33
707.554	47164.78
707.899	47230.99
708.243	47052.92
708.588	46969.98
708.932	46934.27
709.277	46790.55
709.621	46749.42
709.966	46523.21
710.31	46619.48
710.654	46250.22
710.998	46307.17
711.342	46302.88
711.687	46224.24
712.031	45949.89
712.375	45893.17
712.719	46029.21
713.063	45971.59
713.407	46131.13
713.75	45754.87
714.094	45719.84
714.438	45537.93
714.782	45595.1
715.125	45440.3
715.469	45495.22
715.812	45262.45
716.156	45065.17
716.499	45096.13
716.843	45089.35
717.186	44812.97
717.53	45053.19
717.873	44970.03
718.216	44904.95
718.559	44750.6
718.902	44344.06
719.246	44571.4
719.589	44395.58
719.932	44348.58
720.275	44261.8
720.617	44295.47
720.96	44092.77
721.303	44214.12
721.646	44185.65
721.989	43837.41
722.331	44029.94
722.674	43809.38
723.016	43820.23
723.359	43657.75
723.701	43760.35
724.044	43409.62
724.386	43220.7
724.729	43463.41
725.071	43315.61
725.413	43398.77
725.755	43172.57
726.097	43135.05
726.439	43054.83
726.782	42872.69
727.124	43102.96
727.465	42845.12
727.807	42903.42
728.149	42767.15
728.491	42614.16
728.833	42660.94
729.175	42409.87
729.516	42312.25
729.858	42462.98
730.199	42504.11
730.541	42320.84
730.882	42304.79
731.224	42420.04
731.565	42161.52
731.906	42253.04
732.248	42135.08
732.589	41747.29
732.93	41778.03
733.271	41814.41
733.612	41944.58
733.953	41901.86
734.294	41687.41
734.635	41686.73
734.976	41471.14
735.317	41509.11
735.658	41381.65
735.999	41414.65
736.339	41296.46
736.68	41444.7
737.021	41212.62
737.361	41027.76
737.702	41283.35
738.042	41131.26
738.383	41011.04
738.723	41166.06
739.063	40871.61
739.404	40974.66
739.744	40886.98
740.084	40754.55
740.424	40675.68
740.764	40631.16
741.104	40771.27
741.444	40566.76
741.784	40404.5
742.124	40482.01
742.464	40407.67
742.804	40423.71
743.143	40302.36
743.483	40383.26
743.823	40087.45
744.162	39998.41
744.502	40137.84
744.841	39976.72
745.181	39996.83
745.52	39853.1
745.86	39968.36
746.199	39888.58
746.538	39754.35
746.877	39840.68
747.216	39781.02
747.556	39632.55
747.895	39610.17
748.234	39343.29
748.573	39477.52
748.911	39306.23
749.25	39361.14
749.589	39234.82
749.928	39121.37
750.267	39248.15
750.605	39075.5
750.944	39023.75
751.283	38786.92
751.621	38971.55
751.96	38673.02
752.298	38649.07
752.636	38619.01
752.975	38537.43
