Data from White_paper_FLMS001491_015.txt Node
Date: Tue Feb 07 10:34:43 GMT 2017
User: dcchb
Spectrometer: FLMS00149
Trigger mode: 0
Integration Time (sec): 2.000000E-2
Scans to average: 10
Electric dark correction enabled: true
Nonlinearity correction enabled: false
Boxcar width: 0
XAxis mode: Wavelengths
Number of Pixels in Spectrum: 2048
>>>>>Begin Spectral Data<<<<<
341.393	-12.26
341.776	-12.26
342.16	-12.26
342.543	-57.23
342.927	-58.13
343.31	-68.76
343.693	-80.96
344.077	-58.13
344.46	-58.59
344.843	-64.91
345.226	-50.45
345.61	-17.91
345.993	-23.11
346.376	-2.54
346.759	-10.45
347.142	37
347.525	29.1
347.908	75.87
348.291	98.47
348.674	100.51
349.057	94.86
349.44	118.13
349.823	155.65
350.206	157.91
350.588	199.26
350.971	236.1
351.354	247.85
351.737	266.38
352.119	262.31
352.502	282.87
352.884	298.01
353.267	305.7
353.65	320.39
354.032	316.77
354.414	319.26
354.797	336.21
355.179	354.06
355.562	339.37
355.944	344.34
356.326	371.46
356.709	352.02
357.091	351.57
357.473	375.53
357.855	367.62
358.238	374.17
358.62	350.44
359.002	388.41
359.384	381.85
359.766	376.43
360.148	367.17
360.53	362.87
360.912	388.86
361.294	344.79
361.676	371.46
362.057	381.4
362.439	363.55
362.821	353.38
363.203	346.15
363.584	351.8
363.966	368.52
364.348	349.76
364.729	355.87
365.111	366.94
365.493	338.01
365.874	342.53
366.256	355.41
366.637	342.53
367.019	346.83
367.4	360.16
367.781	349.31
368.163	355.87
368.544	361.52
368.925	364.68
369.306	369.88
369.688	364.91
370.069	355.19
370.45	343.66
370.831	369.88
371.212	339.37
371.593	354.74
371.974	342.53
372.355	361.29
372.736	389.54
373.117	350.67
373.498	376.2
373.879	361.97
374.26	376.2
374.641	391.12
375.021	370.56
375.402	358.13
375.783	376.2
376.163	389.54
376.544	385.47
376.925	398.58
377.305	384.57
377.686	387.28
378.066	387.96
378.447	383.66
378.827	410.33
379.208	390.89
379.588	399.93
379.968	397
380.349	387.05
380.729	401.06
381.109	401.29
381.489	402.64
381.87	408.97
382.25	397.67
382.63	398.8
383.01	416.2
383.39	417.11
383.77	408.52
384.15	437.45
384.53	434.28
384.91	447.62
385.29	439.03
385.67	439.25
386.049	463.66
386.429	447.16
386.809	455.52
387.189	464.56
387.568	447.16
387.948	432.93
388.328	457.11
388.707	463.89
389.087	471.12
389.466	499.59
389.846	464.34
390.225	467.5
390.605	485.35
390.984	475.64
391.363	503.89
391.743	489.42
392.122	502.76
392.501	508.4
392.881	525.58
393.26	525.35
393.639	507.27
394.018	525.58
394.397	536.65
394.776	537.33
395.155	564
395.534	569.87
395.913	552.25
396.292	564.9
396.671	553.38
397.05	564.45
397.429	567.39
397.808	547.27
398.186	574.84
398.565	591.11
398.944	599.02
399.323	601.06
399.701	606.71
400.08	587.95
400.458	603.32
400.837	664.78
401.215	642.19
401.594	640.38
401.972	676.31
402.351	674.28
402.729	648.06
403.107	662.3
403.486	684.67
403.864	721.96
404.242	736.65
404.62	718.57
404.999	739.13
405.377	738
405.755	787.04
406.133	778.45
406.511	795.4
406.889	807.83
407.267	817.78
407.645	865.46
408.023	878.79
408.401	889.64
408.779	900.26
409.156	946.13
409.534	954.04
409.912	971.22
410.29	985.45
410.667	1007.83
411.045	1040.37
411.422	1089.18
411.8	1080.14
412.178	1110.65
412.555	1151.78
412.933	1155.62
413.31	1195.84
413.687	1230.19
414.065	1275.62
414.442	1277.2
414.819	1297.99
415.197	1332.34
415.574	1361.72
415.951	1404.65
416.328	1405.1
416.705	1438.55
417.082	1489.17
417.46	1510.41
417.837	1541.82
418.214	1537.08
418.591	1595.38
418.967	1624.76
419.344	1617.53
419.721	1664.31
420.098	1687.58
420.475	1728.03
420.852	1748.82
421.228	1777.07
421.605	1806.68
421.982	1849.16
422.358	1841.48
422.735	1888.71
423.111	1897.75
423.488	1931.87
423.864	1942.49
424.241	1967.8
424.617	2011.64
424.994	2003.05
425.37	2065.43
425.746	2065.88
426.123	2115.37
426.499	2125.99
426.875	2140
427.251	2215.7
427.627	2248.02
428.003	2251.86
428.379	2286.44
428.756	2302.93
429.132	2358.75
429.507	2398.52
429.883	2387.23
430.259	2502.93
430.635	2519.88
431.011	2538.41
431.387	2599.88
431.763	2635.81
432.138	2634
432.514	2685.97
432.89	2737.27
433.265	2800.32
433.641	2793.99
434.016	2865.86
434.392	2917.15
434.767	2991.5
435.143	2975.23
435.518	3042.12
435.894	3041.22
436.269	3091.61
436.644	3129.13
437.02	3173.87
437.395	3189.69
437.77	3262.68
438.145	3292.29
438.52	3298.39
438.895	3360.53
439.271	3368.67
439.646	3473.98
440.021	3450.47
440.395	3478.5
440.77	3435.11
441.145	3482.11
441.52	3549.68
441.895	3565.5
442.27	3619.96
442.645	3611.83
443.019	3654.99
443.394	3687.08
443.769	3717.59
444.143	3679.85
444.518	3793.52
444.892	3746.06
445.267	3803.91
445.641	3830.8
446.016	3873.97
446.39	3874.19
446.764	3906.51
447.139	3898.37
447.513	3938.37
447.887	3940.4
448.262	3974.98
448.636	4007.52
449.01	4076.22
449.384	4136.78
449.758	4106.28
450.132	4111.7
450.506	4186.05
450.88	4188.99
451.254	4199.61
451.628	4301.53
452.002	4341.07
452.376	4328.87
452.75	4400.05
453.123	4401.18
453.497	4479.6
453.871	4479.15
454.244	4631.69
454.618	4642.76
454.992	4728.63
455.365	4711.23
455.739	4822.87
456.112	4828.29
456.486	4868.74
456.859	4946.71
457.232	5055.86
457.606	5047.49
457.979	5158
458.352	5203.65
458.725	5279.8
459.099	5268.05
459.472	5382.17
459.845	5506.92
460.218	5501.95
460.591	5559.12
460.964	5571.32
461.337	5713.69
461.71	5793.01
462.083	5887.7
462.456	5863.29
462.829	5881.37
463.201	6014.25
463.574	6030.52
463.947	6171.76
464.32	6303.28
464.692	6350.29
465.065	6367.23
465.438	6458.3
465.81	6520.68
466.183	6616.94
466.555	6768.58
466.928	6775.36
467.3	6831.18
467.672	6961.12
468.045	7070.27
468.417	7132.64
468.789	7179.64
469.161	7279.98
469.534	7415.12
469.906	7557.03
470.278	7536.92
470.65	7717.71
471.022	7799.74
471.394	8048.55
471.766	8122.22
472.138	8145.94
472.51	8313.62
472.882	8479.49
473.253	8545.48
473.625	8657.79
473.997	8922.65
474.369	8921.06
474.74	8979.82
475.112	9171
475.484	9330.32
475.855	9456.87
476.227	9569.18
476.598	9817.09
476.97	9855.28
477.341	10103.63
477.713	10217.08
478.084	10285.77
478.455	10600.12
478.827	10760.56
479.198	10991.74
479.569	11019.77
479.94	11320.32
480.311	11435.12
480.682	11663.14
481.053	11946.97
481.424	12148.32
481.795	12245.72
482.166	12441.42
482.537	12607.97
482.908	12826.5
483.279	12997.79
483.65	13229.65
484.021	13420.38
484.391	13618.57
484.762	13661.51
485.133	13802.29
485.503	13986.24
485.874	14320.02
486.244	14448.15
486.615	14706.68
486.985	14886.11
487.356	15208.58
487.726	15270.28
488.097	15602.02
488.467	15615.35
488.837	16020.99
489.207	16023.25
489.578	16294.66
489.948	16460.53
490.318	16686.06
490.688	16741.65
491.058	17028.65
491.428	17257.79
491.798	17393.61
492.168	17802.87
492.538	17841.51
492.908	18025.91
493.278	18163.08
493.648	18271.78
494.017	18483.07
494.387	18674.25
494.757	18752.9
495.126	18982.27
495.496	19020.69
495.866	19211.19
496.235	19384.74
496.605	19572.76
496.974	19663.61
497.344	19781.57
497.713	19945.18
498.082	20190.37
498.452	20325.96
498.821	20464.04
499.19	20469.01
499.559	20725.73
499.928	20729.12
500.298	20907.87
500.667	21142.21
501.036	21117.13
501.405	21323.22
501.774	21345.82
502.143	21589.66
502.512	21648.64
502.88	21850.44
503.249	21856.77
503.618	22123.88
503.987	22181.96
504.356	22341.28
504.724	22464.21
505.093	22518.22
505.462	22600.93
505.83	22818.33
506.199	23027.36
506.567	23280.91
506.936	23317.3
507.304	23682.26
507.672	23674.12
508.041	23755.03
508.409	23888.58
508.777	24128.35
509.145	24376.03
509.514	24276.82
509.882	24480.88
510.25	24640.88
510.618	24845.84
510.986	24909.8
511.354	25189.79
511.722	25279.96
512.09	25452.61
512.458	25567.63
512.826	25759.72
513.193	25810.34
513.561	25994.06
513.929	26112.48
514.297	26391.79
514.664	26653.93
515.032	26740.48
515.4	26856.64
515.767	27065.45
516.135	27132.56
516.502	27088.72
516.869	27576.62
517.237	27730.74
517.604	27617.3
517.972	28009.15
518.339	28169.15
518.706	28151.97
519.073	28388.35
519.44	28550.38
519.808	28787.21
520.175	28938.39
520.542	29191.94
520.909	29403.69
521.276	29432.62
521.643	29741.76
522.009	29836.22
522.376	30078.02
522.743	30206.61
523.11	30611.79
523.477	30736.54
523.843	30891.56
524.21	31303.75
524.577	31476.86
524.943	31563.41
525.31	31836.62
525.676	32269.15
526.043	32286.55
526.409	32426.66
526.776	32873.2
527.142	32893.54
527.508	33047.89
527.874	33313.19
528.241	33388.9
528.607	33554.09
528.973	33887.41
529.339	34013.74
529.705	34213.96
530.071	34470
530.437	34598.81
530.803	34829.54
531.169	34955.41
531.535	35020.49
531.901	35248.96
532.267	35285.8
532.632	35597.65
532.998	35657.99
533.364	35994.93
533.73	35971.43
534.095	36322.15
534.461	36397.4
534.826	36558.3
535.192	36665.65
535.557	36887.34
535.923	36929.37
536.288	37136.14
536.653	37241
537.019	37172.07
537.384	37519.63
537.749	37685.28
538.114	37831.27
538.479	37843.24
538.845	38013.41
539.21	37984.03
539.575	38160.75
539.94	38288.2
540.305	38518.7
540.67	38581.08
541.034	38780.39
541.399	38889.32
541.764	39077.79
542.129	39072.14
542.494	39381.73
542.858	39496.08
543.223	39498.57
543.587	39856.07
543.952	39860.14
544.316	39902.62
544.681	39899.23
545.045	39980.36
545.41	40292.44
545.774	40510.97
546.138	40619.67
546.503	40653.34
546.867	40684.98
547.231	41054.68
547.595	41130.84
547.959	41308.24
548.324	41190.72
548.688	41293.32
549.052	41500.77
549.416	41806.3
549.779	41725.85
550.143	41899.18
550.507	42179.85
550.871	42344.82
551.235	42264.82
551.599	42694.19
551.962	42614.64
552.326	42886.95
552.689	43093.27
553.053	42894.63
553.417	42774.19
553.78	43474.73
554.143	43342.31
554.507	43477.44
554.87	43728.06
555.234	44009.86
555.597	43745.91
555.96	44131.21
556.323	44360.36
556.686	44372.34
557.05	44633.35
557.413	44677.19
557.776	44810.52
558.139	44960.34
558.502	45012.77
558.865	45188.59
559.228	45403.5
559.59	45515.58
559.953	45585.64
560.316	46038.28
560.679	46046.64
561.041	46262.91
561.404	46350.14
561.767	46656.34
562.129	46624.48
562.492	47001.19
562.854	46949.44
563.217	46954.19
563.579	47197.8
563.941	47419.26
564.304	47497.68
564.666	47880.72
565.028	47871.68
565.39	48091.33
565.753	48269.63
566.115	48562.06
566.477	48607.7
566.839	48717.98
567.201	48805.67
567.563	48981.03
567.925	49239.55
568.287	49193.9
568.648	49305.77
569.01	49518.87
569.372	49652.88
569.734	49598.19
570.095	49983.71
570.457	50136.7
570.819	50166.99
571.18	50226.65
571.542	50391.39
571.903	50479.75
572.265	50645.62
572.626	50677.93
572.987	50748.44
573.349	50933.07
573.71	51169.45
574.071	51101.2
574.432	51291.02
574.794	51551.13
575.155	51419.61
575.516	51492.37
575.877	51501.87
576.238	51634.29
576.599	51738.47
576.96	51701.18
577.32	51879.94
577.681	51936.66
578.042	52085.13
578.403	52117.22
578.763	52110.44
579.124	52211.68
579.485	52441.73
579.845	52477.66
580.206	52418.9
580.566	52450.99
580.927	52407.83
581.287	52535.06
581.648	52538.45
582.008	52634.72
582.368	52582.52
582.728	52763.08
583.089	52683.53
583.449	52642.4
583.809	52822.51
584.169	52926.46
584.529	52817.76
584.889	53014.59
585.249	52949.74
585.609	52840.81
585.969	53090.3
586.329	52930.53
586.688	53078.1
587.048	52923.3
587.408	52957.2
587.768	52977.76
588.127	53058.66
588.487	53004.88
588.846	53211.43
589.206	53035.84
589.565	53044.65
589.925	53221.14
590.284	53155.61
590.643	53236.06
591.003	53293.01
591.362	53296.85
591.721	53271.54
592.08	53311.31
592.44	53350.41
592.799	53358.99
593.158	53271.54
593.517	53388.37
593.876	53400.35
594.235	53363.74
594.593	53411.42
594.952	53501.14
595.311	53390.18
595.67	53492.32
596.029	53667.46
596.387	53638.08
596.746	53694.35
597.104	53614.13
597.463	53627.46
597.822	53753.33
598.18	53619.32
598.538	53572.09
598.897	53744.52
599.255	53628.59
599.613	53920.56
599.972	53704.52
600.33	53882.14
600.688	53760.56
601.046	53877.85
601.404	54064.96
601.762	53944.51
602.12	54147.22
602.478	54100.67
602.836	54128.69
603.194	53870.84
603.552	53972.31
603.91	53961.01
604.268	54088.69
604.625	54026.09
604.983	54149.93
605.341	54001.91
605.698	54208.91
606.056	54167.78
606.413	54194.45
606.771	54296.14
607.128	54376.14
607.485	54191.96
607.843	54315.58
608.2	54416.59
608.557	54408
608.914	54393.32
609.272	54606.64
609.629	54535.01
609.986	54609.13
610.343	54557.61
610.7	54697.04
611.057	54631.05
611.414	54674.21
611.771	54693.19
612.127	54775.45
612.484	54696.36
612.841	54788.11
613.198	54712.18
613.554	54676.7
613.911	54928.89
614.267	54813.42
614.624	54848.67
614.98	54946.75
615.337	54990.36
615.693	54998.72
616.05	54907.2
616.406	55025.84
616.762	54991.04
617.118	54903.58
617.475	54933.19
617.831	55069
618.187	55102.45
618.543	55083.01
618.899	55197.81
619.255	55096.35
619.611	55153.97
619.967	55233.07
620.323	55347.19
620.678	55197.14
621.034	55193.97
621.39	55115.1
621.746	55083.92
622.101	55448.88
622.457	55147.65
622.812	55188.32
623.168	55284.14
623.523	55288.89
623.879	55365.49
624.234	55182
624.589	55342.67
624.945	55297.02
625.3	55332.27
625.655	55286.85
626.01	55286.17
626.365	55344.25
626.72	55310.13
627.075	55292.27
627.43	55227.87
627.785	55290.69
628.14	55277.13
628.495	55364.14
628.85	55336.12
629.205	55251.6
629.559	55372.72
629.914	55240.98
630.269	55269.9
630.623	55219.73
630.978	55108.33
631.332	55318.49
631.687	55393.29
632.041	55208.44
632.396	55327.3
632.75	55086.18
633.104	55252.5
633.459	55059.96
633.813	55054.77
634.167	55148.55
634.521	55090.7
634.875	55158.49
635.229	55102.45
635.583	54989.23
635.937	55000.31
636.291	55019.74
636.645	54980.87
636.999	55014.32
637.352	55017.71
637.706	54808.67
638.06	54990.36
638.413	54963.7
638.767	54857.94
639.121	54883.25
639.474	54741.55
639.828	54808.67
640.181	54893.64
640.534	54849.8
640.888	54738.17
641.241	54728.67
641.594	54709.69
641.947	54765.51
642.301	54677.83
642.654	54755.79
643.007	54656.59
643.36	54681.22
643.713	54687.32
644.066	54695
644.419	54546.98
644.771	54362.81
645.124	54074.23
645.477	54086.66
645.83	53858.87
646.182	53788.13
646.535	53770.28
646.888	53824.97
647.24	53672.88
647.593	53842.14
647.945	53777.51
648.298	53681.92
648.65	53586.33
649.002	53499.1
649.355	53679.44
649.707	53575.26
650.059	53763.28
650.411	54116.94
650.763	54057.28
651.115	54419.53
651.467	54268.57
651.819	54325.29
652.171	54186.99
652.523	54188.8
652.875	54246.43
653.227	54094.57
653.578	54301.79
653.93	54197.39
654.282	54089.82
654.633	53955.59
654.985	54111.52
655.337	54130.95
655.688	54194.22
656.039	54215.02
656.391	53899.54
656.742	54018.41
657.094	54055.7
657.445	54125.3
657.796	54025.87
658.147	53963.72
658.498	54005.98
658.849	54008.01
659.2	53937.28
659.551	53901.8
659.902	54021.8
660.253	53873.56
660.604	53963.04
660.955	53781.35
661.306	53906.32
661.656	53822.03
662.007	53886.21
662.358	53799.21
662.708	53834.01
663.059	53810.51
663.409	53657.74
663.76	53838.53
664.11	53810.51
664.461	53890.5
664.811	53877.17
665.161	53768.25
665.511	53725.31
665.862	53714.92
666.212	53818.19
666.562	53760.11
666.912	53677.4
667.262	53586.11
667.612	53721.24
667.962	53639.21
668.312	53649.38
668.662	53724.63
669.011	53639.44
669.361	53533.45
669.711	53510.85
670.06	53491.87
670.41	53441.02
670.76	53415.26
671.109	53559.21
671.459	53529.84
671.808	53445.32
672.157	53431.31
672.507	53248.49
672.856	53236.74
673.205	53333.46
673.554	53428.14
673.904	53277.41
674.253	53415.04
674.602	53342.27
674.951	52873.36
675.3	52720.37
675.649	53117.87
675.998	53072.45
676.346	53161.71
676.695	53186.57
677.044	52960.13
677.393	53062.96
677.741	53123.74
678.09	52992.67
678.438	52904.54
678.787	52899.34
679.135	52889.63
679.484	52660.48
679.832	52772.34
680.181	52652.34
680.529	52754.94
680.877	52595.85
681.225	52473.37
681.573	52732.57
681.922	52440.37
682.27	52391.79
682.618	52438.34
682.966	52311.79
683.314	52415.06
683.661	52260.94
684.009	52140.72
684.357	52074.51
684.705	51999.25
685.053	52107.27
685.4	51903.21
685.748	51833.16
686.095	51820.73
686.443	51769.2
686.79	51603.56
687.138	51720.17
687.485	51702.99
687.832	51523.11
688.18	51429.1
688.527	51352.49
688.874	51282.21
689.221	51260.74
689.568	51091.03
689.915	51014.87
690.262	50885.84
690.609	50891.03
690.956	50844.93
691.303	50773.07
691.65	50546.19
691.997	50583.7
692.344	50246.76
692.69	50286.98
693.037	50343.93
693.383	50055.35
693.73	50239.07
694.077	49871.85
694.423	49899.2
694.769	49757.96
695.116	49772.87
695.462	49602.71
695.808	49451.3
696.155	49478.64
696.501	49327.46
696.847	49265.31
697.193	49004.98
697.539	49141.02
697.885	48737.42
698.231	48782.62
698.577	48786.46
698.923	48725.22
699.269	48477.31
699.614	48372.91
699.96	48276.87
700.306	48240.26
700.651	48107.83
700.997	48014.73
701.342	47930.43
701.688	47900.83
702.033	47730.89
702.379	47700.16
702.724	47665.58
703.069	47771.34
703.415	47146.5
703.76	47277.8
704.105	47288.64
704.45	47026.28
704.795	46794.19
705.14	46761.43
705.485	46782.89
705.83	46656.34
706.175	46719.39
706.52	46642.33
706.865	46455.45
707.209	46432.17
707.554	46232.85
707.899	46289.12
708.243	46013.87
708.588	46062.01
708.932	45865.18
709.277	45694.11
709.621	45679.19
709.966	45432.2
710.31	45613.43
710.654	45284.85
710.998	45334.34
711.342	45397.17
711.687	45226.78
712.031	45125.54
712.375	44857.52
712.719	45010.96
713.063	44921.93
713.407	44955.6
713.75	44782.04
714.094	44648.26
714.438	44580.24
714.782	44714.47
715.125	44376.18
715.469	44467.47
715.812	44312.68
716.156	43989.75
716.499	44111.78
716.843	44041.5
717.186	43783.2
717.53	43958.11
717.873	44074.49
718.216	43861.16
718.559	43676.31
718.902	43442.19
719.246	43556.99
719.589	43362.42
719.932	43159.49
720.275	43213.95
720.617	43126.27
720.96	43117
721.303	43217.56
721.646	43139.37
721.989	42976.67
722.331	42908.87
722.674	42832.72
723.016	42956.78
723.359	42835.88
723.701	42759.95
724.044	42472.05
724.386	42310.24
724.729	42504.59
725.071	42504.14
725.413	42351.37
725.755	42377.36
726.097	42220.98
726.439	41999.74
726.782	42085.62
727.124	42202.9
727.465	41991.83
727.807	41897.6
728.149	41844.04
728.491	41694.67
728.833	41716.81
729.175	41572.64
729.516	41634.78
729.858	41548.68
730.199	41509.13
730.541	41446.99
730.882	41459.42
731.224	41479.98
731.565	41240.22
731.906	41230.95
732.248	41286.09
732.589	40944.86
732.93	41004.52
733.271	41011.97
733.612	41077.96
733.953	41019.88
734.294	40841.58
734.635	40588.25
734.976	40790.96
735.317	40593.23
735.658	40526.79
735.999	40404.08
736.339	40491.99
736.68	40456.05
737.021	40366.57
737.361	40170.64
737.702	40446.56
738.042	40250.86
738.383	40274.82
738.723	40239.56
739.063	40015.39
739.404	40198.89
739.744	39947.37
740.084	39842.74
740.424	39901.27
740.764	39944.43
741.104	39911.44
741.444	39707.83
741.784	39646.36
742.124	39718
742.464	39619.92
742.804	39484.33
743.143	39428.06
743.483	39418.57
743.823	39181.74
744.162	39215.86
744.502	39278.46
744.841	39071.91
745.181	39259.48
745.52	39168.63
745.86	39193.72
746.199	39020.84
746.538	39007.73
746.877	39101.29
747.216	39055.41
747.556	38798.92
747.895	38897.68
748.234	38670.34
748.573	38621.75
748.911	38520.51
749.25	38656.78
749.589	38419.72
749.928	38466.95
750.267	38464.69
750.605	38268.54
750.944	38304.7
751.283	38134.31
751.621	38240.52
751.96	37976.35
752.298	37914.88
752.636	37946.74
752.975	37751.72
