Data from white_steel_sheet_FLMS001491_064.txt Node
Date: Tue Feb 07 10:58:16 GMT 2017
User: dcchb
Spectrometer: FLMS00149
Trigger mode: 0
Integration Time (sec): 2.000000E-2
Scans to average: 10
Electric dark correction enabled: true
Nonlinearity correction enabled: false
Boxcar width: 0
XAxis mode: Wavelengths
Number of Pixels in Spectrum: 2048
>>>>>Begin Spectral Data<<<<<
341.393	-20.85
341.776	-20.85
342.16	-20.85
342.543	-66.5
342.927	-74.86
343.31	-55.2
343.693	-77.57
344.077	-45.71
344.46	-63.56
344.843	-68.76
345.226	-58.13
345.61	-31.69
345.993	-20.62
346.376	-10.68
346.759	24.35
347.142	42.88
347.525	49.89
347.908	40.39
348.291	80.39
348.674	83.11
349.057	110.9
349.44	129.88
349.823	132.82
350.206	176.89
350.588	173.05
350.971	213.72
351.354	218.92
351.737	239.94
352.119	257.34
352.502	263.67
352.884	297.56
353.267	280.84
353.65	297.11
354.032	307.05
354.414	308.41
354.797	318.13
355.179	329.88
355.562	340.05
355.944	331.69
356.326	323.32
356.709	314.06
357.091	323.32
357.473	334.85
357.855	345.92
358.238	338.47
358.62	335.3
359.002	340.95
359.384	343.89
359.766	327.17
360.148	352.93
360.53	362.65
360.912	340.73
361.294	356.32
361.676	326.71
362.057	352.02
362.439	314.96
362.821	314.06
363.203	332.82
363.584	321.52
363.966	334.4
364.348	325.81
364.729	322.87
365.111	332.82
365.493	311.57
365.874	323.78
366.256	326.49
366.637	344.12
367.019	336.21
367.4	330.78
367.781	328.07
368.163	338.47
368.544	317.45
368.925	321.52
369.306	324.45
369.688	325.13
370.069	318.81
370.45	315.42
370.831	336.88
371.212	318.13
371.593	308.41
371.974	322.42
372.355	340.73
372.736	331.01
373.117	321.29
373.498	324.23
373.879	340.05
374.26	328.07
374.641	328.97
375.021	311.35
375.402	321.97
375.783	340.95
376.163	345.47
376.544	345.7
376.925	330.1
377.305	324.68
377.686	357.45
378.066	346.15
378.447	352.93
378.827	334.4
379.208	349.31
379.588	336.88
379.968	343.21
380.349	371.46
380.729	377.79
381.109	350.67
381.489	344.57
381.87	348.63
382.25	352.48
382.63	366.49
383.01	368.52
383.39	357.67
383.77	362.65
384.15	359.48
384.53	378.46
384.91	366.26
385.29	385.47
385.67	365.13
386.049	381.85
386.429	411.46
386.809	405.13
387.189	374.17
387.568	392.7
387.948	394.28
388.328	412.81
388.707	410.33
389.087	406.49
389.466	415.98
389.846	411.01
390.225	404.68
390.605	398.13
390.984	416.88
391.363	421.18
391.743	423.21
392.122	426.37
392.501	433.83
392.881	432.93
393.26	434.28
393.639	452.59
394.018	452.59
394.397	464.34
394.776	462.53
395.155	449.88
395.534	481.29
395.913	481.96
396.292	476.32
396.671	491
397.05	484.45
397.429	502.98
397.808	477.67
398.186	474.28
398.565	498.46
398.944	514.05
399.323	515.18
399.701	501.4
400.08	543.43
400.458	536.88
400.837	562.19
401.215	543.88
401.594	564.22
401.972	569.19
402.351	557.89
402.729	567.39
403.107	563.54
403.486	600.15
403.864	603.09
404.242	639.93
404.62	622.98
404.999	629.31
405.377	659.14
405.755	638.57
406.133	685.35
406.511	656.88
406.889	663.43
407.267	693.94
407.645	700.26
408.023	707.04
408.401	711.79
408.779	714.95
409.156	754.95
409.534	738.91
409.912	760.83
410.29	777.1
410.667	802.18
411.045	789.53
411.422	804.22
411.8	809.64
412.178	818.45
412.555	829.3
412.933	871.11
413.31	887.15
413.687	883.31
414.065	887.83
414.442	897.55
414.819	890.77
415.197	913.37
415.574	940.94
415.951	934.61
416.328	918.11
416.705	956.53
417.082	963.31
417.46	972.57
417.837	978.45
418.214	1005.34
418.591	1018.22
418.967	1023.19
419.344	1012.57
419.721	1030.42
420.098	1055.06
420.475	1041.72
420.852	1074.04
421.228	1086.02
421.605	1092.34
421.982	1112.91
422.358	1124.43
422.735	1115.85
423.111	1097.09
423.488	1175.73
423.864	1145.68
424.241	1163.3
424.617	1160.82
424.994	1171.66
425.37	1202.85
425.746	1202.4
426.123	1237.65
426.499	1228.84
426.875	1272.23
427.251	1279.46
427.627	1295.73
428.003	1315.62
428.379	1307.25
428.756	1346.57
429.132	1379.12
429.507	1375.5
429.883	1380.25
430.259	1426.35
430.635	1448.04
431.011	1465.22
431.387	1495.05
431.763	1472.22
432.138	1511.77
432.514	1533.24
432.89	1513.58
433.265	1586.12
433.641	1592.9
434.016	1577.3
434.392	1610.3
434.767	1654.82
435.143	1645.78
435.518	1669.73
435.894	1688.94
436.269	1692.55
436.644	1732.1
437.02	1775.04
437.395	1732.1
437.77	1751.76
438.145	1810.29
438.52	1831.53
438.895	1841.03
439.271	1860.23
439.646	1903.62
440.021	1902.04
440.395	1928.48
440.77	1909.72
441.145	1929.61
441.52	1951.76
441.895	1974.13
442.27	2032.88
442.645	1987.91
443.019	2008.93
443.394	2053
443.769	2061.13
444.143	2062.94
444.518	2100.91
444.892	2083.05
445.267	2117.63
445.641	2158.3
446.016	2129.38
446.39	2164.41
446.764	2155.37
447.139	2195.37
447.513	2260.45
447.887	2219.77
448.262	2237.17
448.636	2264.29
449.01	2292.09
449.384	2338.41
449.758	2337.28
450.132	2351.75
450.506	2354.46
450.88	2382.25
451.254	2400.33
451.628	2422.25
452.002	2439.65
452.376	2464.74
452.75	2476.26
453.123	2518.52
453.497	2528.69
453.871	2570.72
454.244	2589.93
454.618	2610.27
454.992	2662.7
455.365	2671.06
455.739	2711.96
456.112	2744.96
456.486	2777.5
456.859	2827.21
457.232	2865.4
457.606	2854.56
457.979	2902.69
458.352	2960.32
458.725	3004.84
459.099	3019.3
459.472	3064.5
459.845	3079.18
460.218	3098.17
460.591	3132.29
460.964	3185.62
461.337	3264.72
461.71	3280.99
462.083	3340.87
462.456	3349.46
462.829	3331.16
463.201	3422.9
463.574	3436.46
463.947	3442.56
464.32	3560.98
464.692	3605.5
465.065	3576.35
465.438	3671.49
465.81	3670.58
466.183	3750.35
466.555	3841.65
466.928	3836.45
467.3	3858.83
467.672	3891.14
468.045	4022.21
468.417	4009.56
468.789	4038.71
469.161	4068.31
469.534	4187.63
469.906	4261.53
470.278	4331.81
470.65	4330
471.022	4412.03
471.394	4485.93
471.766	4531.58
472.138	4602.99
472.51	4664.91
472.882	4789.42
473.253	4798.46
473.625	4843.43
473.997	4960.27
474.369	4928.63
474.74	5060.38
475.112	5148.73
475.484	5220.6
475.855	5290.43
476.227	5372.91
476.598	5514.15
476.97	5560.25
477.341	5682.05
477.713	5742.62
478.084	5772
478.455	6011.99
478.827	6005.66
479.198	6147.58
479.569	6172.44
479.94	6317.07
480.311	6430.73
480.682	6549.38
481.053	6710.95
481.424	6771.06
481.795	6896.03
482.166	6966.09
482.537	7070.04
482.908	7235.46
483.279	7339.41
483.65	7490.82
484.021	7609.69
484.391	7688.78
484.762	7743.24
485.133	7824.82
485.503	7913.41
485.874	8147.3
486.244	8142.78
486.615	8340.52
486.985	8367.63
487.356	8586.38
487.726	8665.48
488.097	8808.3
488.467	8859.15
488.837	9072.7
489.207	9203.54
489.578	9272.92
489.948	9394.05
490.318	9532.57
490.688	9548.84
491.058	9732.57
491.428	9855.96
491.798	9922.85
492.168	10086.46
492.538	10173.24
492.908	10350.18
493.278	10416.39
493.648	10396.05
494.017	10627.46
494.387	10663.84
494.757	10811.41
495.126	10870.84
495.496	10947.23
495.866	10930.28
496.235	11160.78
496.605	11263.6
496.974	11303.6
497.344	11440.77
497.713	11460.66
498.082	11648
498.452	11692.74
498.821	11782.46
499.19	11907.88
499.559	12043.24
499.928	12048.21
500.298	12146.97
500.667	12297.47
501.036	12252.95
501.405	12418.15
501.774	12460.18
502.143	12552.61
502.512	12690.01
502.88	12776.1
503.249	12788.53
503.618	12984.46
503.987	12979.04
504.356	13085.93
504.724	13225.81
505.093	13236.21
505.462	13304.23
505.83	13432.36
506.199	13536.31
506.567	13680.26
506.936	13633.48
507.304	13852.23
507.672	13936.98
508.041	13938.56
508.409	14124.77
508.777	14244.77
509.145	14358.89
509.514	14375.16
509.882	14509.84
510.25	14525.66
510.618	14682.72
510.986	14762.04
511.354	14979.44
511.722	14990.96
512.09	15157.51
512.458	15171.07
512.826	15313.89
513.193	15487.45
513.561	15501
513.929	15733.77
514.297	15796.59
514.664	15892.41
515.032	15942.12
515.4	16179.41
515.767	16206.07
516.135	16356.58
516.502	16315.45
516.869	16608.77
517.237	16696.91
517.604	16699.17
517.972	16883.34
518.339	16994.75
518.706	17015.32
519.073	17227.97
519.44	17257.34
519.808	17567.39
520.175	17538.47
520.542	17729.19
520.909	17851
521.276	17942.07
521.643	18191.1
522.009	18255.73
522.376	18388.61
522.743	18502.51
523.11	18709.96
523.477	18842.39
523.843	19069.27
524.21	19255.93
524.577	19363.95
524.943	19476.95
525.31	19565.98
525.676	19834.9
526.043	19952.19
526.409	20078.06
526.776	20275.79
527.142	20299.3
527.508	20421.1
527.874	20676.24
528.241	20746.97
528.607	20732.05
528.973	21022.44
529.339	20956.68
529.705	21310.12
530.071	21326.61
530.437	21570.45
530.803	21688.41
531.169	21811.35
531.535	21880.95
531.901	22032.36
532.267	22063.09
532.632	22116.88
532.998	22285.01
533.364	22415.17
533.73	22492.46
534.095	22643.64
534.461	22763.19
534.826	22950.53
535.192	22967.93
535.557	23119.34
535.923	23075.49
536.288	23251.08
536.653	23367.46
537.019	23217.41
537.384	23585.31
537.749	23668.93
538.114	23652.65
538.479	23800.9
538.845	23956.83
539.21	23892.42
539.575	24123.15
539.94	24111.4
540.305	24277.27
540.67	24296.25
541.034	24316.59
541.399	24546.19
541.764	24622.57
542.129	24682.46
542.494	24797.94
542.858	24791.83
543.223	24838.84
543.587	25083.13
543.952	25111.37
544.316	25151.6
544.681	25145.95
545.045	25289.22
545.41	25385.72
545.774	25488.09
546.138	25462.32
546.503	25538.26
546.867	25704.13
547.231	25829.55
547.595	25845.14
547.959	26025.47
548.324	25983.67
548.688	26187.73
549.052	26270.89
549.416	26308.4
549.779	26367.16
550.143	26403.09
550.507	26571.45
550.871	26746.13
551.235	26766.25
551.599	26982.28
551.962	27061.83
552.326	27054.15
552.689	27227.7
553.053	27251.43
553.417	27215.05
553.78	27622.27
554.143	27521.93
554.507	27691.19
554.87	27614.58
555.234	27998.53
555.597	27908.81
555.96	27977.51
556.323	28245.98
556.686	28232.87
557.05	28379.76
557.413	28519.19
557.776	28509.02
558.139	28819.3
558.502	28809.58
558.865	28953.53
559.228	29178.16
559.59	29126.86
559.953	29329.57
560.316	29633.97
560.679	29573.86
561.041	29719.61
561.404	29859.5
561.767	30080.51
562.129	29969.1
562.492	30312.59
562.854	30360.73
563.217	30315.76
563.579	30530.89
563.941	30640.49
564.304	30698.57
564.666	30863.31
565.028	31017.43
565.39	31035.74
565.753	31278.67
566.115	31447.93
566.477	31483.64
566.839	31616.51
567.201	31861.7
567.563	31806.11
567.925	32075.03
568.287	32082.04
568.648	32125.65
569.01	32310.05
569.372	32464.63
569.734	32501.69
570.095	32675.24
570.457	32896.93
570.819	32984.84
571.18	32976.25
571.542	33114.1
571.903	33189.58
572.265	33272.29
572.626	33283.36
572.987	33290.82
573.349	33500.98
573.71	33507.76
574.071	33536.01
574.432	33769.9
574.794	33970.8
575.155	33864.59
575.516	33956.34
575.877	33992.04
576.238	34124.02
576.599	34260.29
576.96	34342.54
577.32	34190.91
577.681	34506.61
578.042	34385.48
578.403	34499.6
578.763	34570.79
579.124	34529.66
579.485	34717.9
579.845	34796.77
580.206	34758.35
580.566	34815.07
580.927	34795.41
581.287	34900.72
581.648	34677.68
582.008	34863.89
582.368	34928.74
582.728	34865.24
583.089	34789.54
583.449	34847.61
583.809	34924.67
584.169	34915.64
584.529	34884.68
584.889	35182.97
585.249	34988.85
585.609	34891.68
585.969	34993.37
586.329	34953.15
586.688	35114.95
587.048	35029.53
587.408	35026.37
587.768	34984.79
588.127	34987.5
588.487	34899.36
588.846	35185.01
589.206	34902.08
589.565	34984.79
589.925	35060.94
590.284	34946.37
590.643	35103.2
591.003	35184.33
591.362	35254.84
591.721	35051.9
592.08	35015.97
592.44	35174.16
592.799	35091.68
593.158	35076.99
593.517	35005.8
593.876	35181.62
594.235	35043.99
594.593	35163.76
594.952	35055.74
595.311	35166.93
595.67	35064.78
596.029	35313.82
596.387	35300.26
596.746	35186.36
597.104	35156.08
597.463	35077.44
597.822	35154.5
598.18	35094.16
598.538	35041.28
598.897	35364.89
599.255	35066.82
599.613	35557.65
599.972	35370.54
600.33	35425.68
600.688	35362.63
601.046	35408.73
601.404	35412.57
601.762	35407.37
602.12	35542.96
602.478	35550.87
602.836	35579.35
603.194	35444.89
603.552	35457.99
603.91	35271.78
604.268	35569.18
604.625	35443.08
604.983	35459.8
605.341	35334.61
605.698	35563.98
606.056	35560.59
606.413	35627.93
606.771	35752.9
607.128	35812.56
607.485	35593.36
607.843	35750.64
608.2	35795.61
608.557	35834.71
608.914	35769.62
609.272	35933.01
609.629	35983.63
609.986	36162.16
610.343	35868.38
610.7	36188.14
611.057	36178.43
611.414	36046.68
611.771	36033.12
612.127	36248.48
612.484	36192.44
612.841	36256.62
613.198	36177.07
613.554	36161.48
613.911	36383.17
614.267	36409.38
614.624	36407.57
614.98	36588.13
615.337	36608.47
615.693	36470.85
616.05	36646.89
616.406	36778.19
616.762	36618.19
617.118	36450.51
617.475	36674.46
617.831	36737.73
618.187	36822.48
618.543	36664.52
618.899	36907
619.255	36835.36
619.611	36903.38
619.967	36959.42
620.323	37139.98
620.678	36899.99
621.034	36805.3
621.39	36899.54
621.746	36825.19
622.101	37168.68
622.457	37040.1
622.812	37013.43
623.168	37045.07
623.523	37124.39
623.879	37169.59
624.234	36914.91
624.589	37086.88
624.945	37127.33
625.3	37129.14
625.655	37116.03
626.01	37035.35
626.365	36959.42
626.72	37058.18
627.075	36904.51
627.43	36875.13
627.785	36840.1
628.14	37121.68
628.495	37128.68
628.85	36854.12
629.205	37010.5
629.559	37015.24
629.914	36946.77
630.269	36935.02
630.623	36783.38
630.978	36772.08
631.332	36942.93
631.687	36944.73
632.041	36737.06
632.396	36829.26
632.75	36644.18
633.104	36763.27
633.459	36500
633.813	36558.3
634.167	36476.95
634.521	36544.07
634.875	36358.99
635.229	36513.56
635.583	36233.34
635.937	36407.8
636.291	36300.46
636.645	36272.89
636.999	36165.32
637.352	36380
637.706	35984.53
638.06	36138.2
638.413	36021.6
638.767	35896.17
639.121	36019.56
639.474	35806.01
639.828	35888.49
640.181	35782.28
640.534	35867.47
640.888	35667.71
641.241	35568.95
641.594	35608.5
641.947	35703.64
642.301	35571.66
642.654	35480.14
643.007	35414.61
643.36	35396.3
643.713	35343.65
644.066	35464.55
644.419	35146.36
644.771	35095.74
645.124	34672.48
645.477	34624.12
645.83	34422.09
646.182	34344.35
646.535	34098.71
646.888	34223
647.24	34085.37
647.593	34343.9
647.945	34108.88
648.298	34034.75
648.65	33953.18
649.002	33825.49
649.355	33925.83
649.707	33869.56
650.059	33985.94
650.411	34233.62
650.763	34470.22
651.115	34797.22
651.467	34650.78
651.819	34575.08
652.171	34566.27
652.523	34524.46
652.875	34566.04
653.227	34264.58
653.578	34465.25
653.93	34453.27
654.282	34269.1
654.633	34180.06
654.985	34368.76
655.337	34220.29
655.688	34244.24
656.039	34213.28
656.391	33968.09
656.742	34027.52
657.094	34044.25
657.445	34124.7
657.796	34098.03
658.147	34066.84
658.498	34064.13
658.849	33946.62
659.2	33942.55
659.551	33804.25
659.902	33962.89
660.253	33817.59
660.604	33875.66
660.955	33664.37
661.306	33634.31
661.656	33612.85
662.007	33588.66
662.358	33627.08
662.708	33434.54
663.059	33533.07
663.409	33295.79
663.76	33530.36
664.11	33281.33
664.461	33411.72
664.811	33262.8
665.161	33389.12
665.511	33138.96
665.862	33030.04
666.212	33145.29
666.562	33129.92
666.912	32880.43
667.262	32904.39
667.612	32898.97
667.962	32840.44
668.312	32715.02
668.662	32884.28
669.011	32714.79
669.361	32463.95
669.711	32477.51
670.06	32365.65
670.41	32181.47
670.76	32151.87
671.109	32303.73
671.459	32101.7
671.808	32046.11
672.157	32059.89
672.507	31866.68
672.856	31805.89
673.205	31909.84
673.554	31977.41
673.904	31631.88
674.253	31905.55
674.602	31741.93
674.951	31294.94
675.3	31008.39
675.649	31621.94
675.998	31524.99
676.346	31488.61
676.695	31648.38
677.044	31386.46
677.393	31379.01
677.741	31433.02
678.09	31298.1
678.438	31159.12
678.787	31289.06
679.135	31368.38
679.484	31007.04
679.832	31306.01
680.181	31124.55
680.529	31149.63
680.877	31120.48
681.225	31006.13
681.573	31213.13
681.922	31092.69
682.27	31030.09
682.618	31249.07
682.966	31103.76
683.314	31139.24
683.661	31079.8
684.009	30953.93
684.357	30812.47
684.705	30883.43
685.053	30935.85
685.4	31003.65
685.748	30760.04
686.095	30851.79
686.443	30791.68
686.79	30684.56
687.138	30953.93
687.485	30888.85
687.832	30861.73
688.18	30960.71
688.527	30782.64
688.874	30750.77
689.221	30843.2
689.568	30823.31
689.915	30644.56
690.262	30642.53
690.609	30719.81
690.956	30490.22
691.303	30520.5
691.65	30471.68
691.997	30535.64
692.344	30379.48
692.69	30400.05
693.037	30331.8
693.383	30149.66
693.73	30210.67
694.077	30204.35
694.423	30090.9
694.769	30055.65
695.116	30097.68
695.462	30103.56
695.808	29870.8
696.155	30079.6
696.501	29787.41
696.847	29859.95
697.193	29562.56
697.539	29802.55
697.885	29517.81
698.231	29467.19
698.577	29516.23
698.923	29554.87
699.269	29349.68
699.614	29174.54
699.96	29188.33
700.306	29193.07
700.651	29063.13
700.997	28910.6
701.342	28960.99
701.688	28850.26
702.033	28822.24
702.379	28742.69
702.724	28608.46
703.069	28682.58
703.415	28418.18
703.76	28519.42
704.105	28480.32
704.45	28531.62
704.795	28178.64
705.14	28000.79
705.485	28064.29
705.83	27986.55
706.175	27973.67
706.52	27879.44
706.865	27896.16
707.209	27845.99
707.554	27633.12
707.899	27719.67
708.243	27586.34
708.588	27554.7
708.932	27401.03
709.277	27308.6
709.621	27379.79
709.966	27200.13
710.31	27357.42
710.654	27062.28
710.998	27123.3
711.342	27042.85
711.687	27077.42
712.031	26884.21
712.375	26814.15
712.719	26896.41
713.063	26684.89
713.407	26853.02
713.75	26690.32
714.094	26602.63
714.438	26561.5
714.782	26509.75
715.125	26415.07
715.469	26409.42
715.812	26350.21
716.156	26270.21
716.499	26207.16
716.843	26355.18
717.186	25998.81
717.53	26285.13
717.873	26152.93
718.216	26077.22
718.559	25974.85
718.902	25755.65
719.246	25851.24
719.589	25853.28
719.932	25675.2
720.275	25705.71
720.617	25732.6
720.96	25673.84
721.303	25564.92
721.646	25573.96
721.989	25494.87
722.331	25513.62
722.674	25415.32
723.016	25396.11
723.359	25242.67
723.701	25353.63
724.044	25189.56
724.386	25093.07
724.729	25301.2
725.071	25048.55
725.413	25041.77
725.755	25063.01
726.097	24940.08
726.439	24827.31
726.782	24784.38
727.124	24969.68
727.465	24783.47
727.807	24839.52
728.149	24810.14
728.491	24646.98
728.833	24757.03
729.175	24597.71
729.516	24513.65
729.858	24517.04
730.199	24586.87
730.541	24446.53
730.882	24467.32
731.224	24466.87
731.565	24326.54
731.906	24215.35
732.248	24272.3
732.589	24168.35
732.93	24000.44
733.271	24133.09
733.612	24048.12
733.953	24075.47
734.294	23998.63
734.635	23944.85
734.976	24112.76
735.317	23935.13
735.658	23864.17
735.999	23796.38
736.339	23723.84
736.68	23801.35
737.021	23691.98
737.361	23616.05
737.702	23731.75
738.042	23632.54
738.383	23545.99
738.723	23594.13
739.063	23518.65
739.404	23492.89
739.744	23508.25
740.084	23366.56
740.424	23312.55
740.764	23279.78
741.104	23267.13
741.444	23234.13
741.784	23078.88
742.124	23145.32
742.464	22992.56
742.804	23130.86
743.143	23154.36
743.483	23076.85
743.823	22831.21
744.162	22896.97
744.502	22899.68
744.841	22854.26
745.181	22924.09
745.52	22732.68
745.86	22792.11
746.199	22663.53
746.538	22657.88
746.877	22723.64
747.216	22682.74
747.556	22577.2
747.895	22632.12
748.234	22419.02
748.573	22402.07
748.911	22351.22
749.25	22415.4
749.589	22321.39
749.928	22247.27
750.267	22351.9
750.605	22231.68
750.944	22040.72
751.283	22104.22
751.621	22150.55
751.96	21895.86
752.298	21903.1
752.636	21904
752.975	21845.02
753.313	21818.8
753.651	21896.99
753.989	21770.9
