Data from white_wall_FLMS001491_067.txt Node
Date: Tue Feb 07 11:05:24 GMT 2017
User: dcchb
Spectrometer: FLMS00149
Trigger mode: 0
Integration Time (sec): 2.000000E-2
Scans to average: 10
Electric dark correction enabled: true
Nonlinearity correction enabled: false
Boxcar width: 0
XAxis mode: Wavelengths
Number of Pixels in Spectrum: 2048
>>>>>Begin Spectral Data<<<<<
341.393	-21.37
341.776	-21.37
342.16	-21.37
342.543	-69.05
342.927	-76.28
343.31	-73.12
343.693	-76.28
344.077	-65.89
344.46	-77.87
344.843	-47.58
345.226	-40.8
345.61	-44.42
345.993	-22.5
346.376	-17.98
346.759	22.7
347.142	37.61
347.525	51.4
347.908	66.76
348.291	87.55
348.674	90.27
349.057	110.15
349.44	115.8
349.823	142.47
350.206	158.74
350.588	226.53
350.971	232.86
351.354	263.59
351.737	245.74
352.119	278.28
352.502	267.44
352.884	295.68
353.267	308.34
353.65	303.37
354.032	317.15
354.414	330.49
354.797	316.47
355.179	340.88
355.562	329.81
355.944	339.52
356.326	348.11
356.709	339.98
357.091	354.21
357.473	361.9
357.855	353.08
358.238	368
358.62	363.48
359.002	368.68
359.384	366.42
359.766	340.2
360.148	371.16
360.53	355.34
360.912	345.4
361.294	364.84
361.676	356.7
362.057	346.76
362.439	344.04
362.821	344.27
363.203	342.01
363.584	350.82
363.966	345.4
364.348	350.15
364.729	330.71
365.111	354.44
365.493	357.6
365.874	343.14
366.256	336.14
366.637	331.39
367.019	339.98
367.4	351.28
367.781	339.52
368.163	340.88
368.544	348.11
368.925	349.47
369.306	333.65
369.688	313.54
370.069	356.93
370.45	347.43
370.831	329.81
371.212	353.99
371.593	316.93
371.974	342.91
372.355	326.42
372.736	351.05
373.117	349.47
373.498	348.79
373.879	335.91
374.26	353.54
374.641	327.77
375.021	335.23
375.402	349.24
375.783	364.84
376.163	344.72
376.544	353.76
376.925	342.01
377.305	375
377.686	362.8
378.066	361.67
378.447	365.29
378.827	363.03
379.208	352.41
379.588	368.45
379.968	365.74
380.349	373.65
380.729	380.43
381.109	378.85
381.489	361.22
381.87	381.56
382.25	386.53
382.63	376.36
383.01	388.79
383.39	391.5
383.77	404.16
384.15	403.48
384.53	421.1
384.91	420.2
385.29	417.72
385.67	406.64
386.049	413.87
386.429	410.48
386.809	415.91
387.189	410.94
387.568	403.7
387.948	419.3
388.328	408.9
388.707	437.83
389.087	460.65
389.466	454.55
389.846	462.46
390.225	434.89
390.605	451.39
390.984	461.56
391.363	487.09
391.743	476.7
392.122	475.11
392.501	485.96
392.881	502.23
393.26	517.15
393.639	511.27
394.018	510.14
394.397	506.07
394.776	526.41
395.155	536.13
395.534	527.99
395.913	543.14
396.292	553.3
396.671	581.78
397.05	582.23
397.429	580.42
397.808	584.72
398.186	612.06
398.565	621.33
398.944	624.04
399.323	639.86
399.701	639.63
400.08	647.54
400.458	673.75
400.837	659.06
401.215	683.02
401.594	704.94
401.972	685.5
402.351	724.15
402.729	717.37
403.107	734.99
403.486	710.14
403.864	757.14
404.242	758.72
404.62	801.21
404.999	809.34
405.377	812.73
405.755	836.91
406.133	839.85
406.511	860.42
406.889	879.62
407.267	890.24
407.645	919.4
408.023	930.7
408.401	938.61
408.779	980.64
409.156	1010.47
409.534	1008.89
409.912	1023.57
410.29	1022.9
410.667	1051.14
411.045	1077.58
411.422	1091.14
411.8	1101.76
412.178	1110.8
412.555	1155.77
412.933	1160.75
413.31	1173.4
413.687	1177.47
414.065	1222.44
414.442	1217.69
414.819	1245.26
415.197	1255.21
415.574	1267.86
415.951	1305.38
416.328	1306.96
416.705	1341.31
417.082	1342.44
417.46	1347.86
417.837	1365.49
418.214	1382.44
418.591	1401.64
418.967	1423.79
419.344	1444.13
419.721	1435.32
420.098	1428.54
420.475	1476.22
420.852	1476.9
421.228	1492.49
421.605	1510.12
421.982	1535.2
422.358	1557.12
422.735	1591.24
423.111	1579.04
423.488	1619.04
423.864	1620.62
424.241	1635.08
424.617	1678.7
424.994	1685.48
425.37	1684.35
425.746	1725.7
426.123	1757.34
426.499	1716.66
426.875	1762.99
427.251	1795.08
427.627	1839.15
428.003	1861.74
428.379	1873.04
428.756	1885.47
429.132	1950.56
429.507	1957.56
429.883	1996.66
430.259	2033.27
430.635	2033.27
431.011	2072.36
431.387	2091.12
431.763	2157.1
432.138	2140.38
432.514	2209.98
432.89	2205.92
433.265	2245.01
433.641	2269.64
434.016	2278.68
434.392	2326.14
434.767	2372.47
435.143	2379.25
435.518	2359.36
435.894	2428.28
436.269	2447.04
436.644	2539.24
437.02	2549.18
437.395	2574.95
437.77	2597.32
438.145	2614.95
438.52	2665.11
438.895	2659.46
439.271	2692.91
439.646	2755.96
440.021	2737.43
440.395	2753.02
440.77	2787.14
441.145	2767.26
441.52	2898.1
441.895	2893.36
442.27	2855.84
442.645	2892.68
443.019	2916.63
443.394	2942.85
443.769	2962.73
444.143	2951.43
444.518	3044.76
444.892	3000.02
445.267	3067.14
445.641	3069.17
446.016	3115.05
446.39	3191.88
446.764	3171.54
447.139	3144.42
447.513	3202.27
447.887	3224.65
448.262	3243.4
448.636	3272.56
449.01	3326.34
449.384	3361.14
449.758	3372.44
450.132	3419.44
450.506	3444.3
450.88	3484.98
451.254	3470.29
451.628	3544.86
452.002	3562.27
452.376	3604.75
452.75	3680
453.123	3679.55
453.497	3754.35
453.871	3764.29
454.244	3832.77
454.618	3898.08
454.992	3918.64
455.365	3940.56
455.739	4009.71
456.112	4069.6
456.486	4110.05
456.859	4148.69
457.232	4226.2
457.606	4217.84
457.979	4326.99
458.352	4439.53
458.725	4441.34
459.099	4476.14
459.472	4549.13
459.845	4592.07
460.218	4684.5
460.591	4749.8
460.964	4703.93
461.337	4848.78
461.71	4927.65
462.083	4969.91
462.456	4985.05
462.829	5015.33
463.201	5119.96
463.574	5137.59
463.947	5211.49
464.32	5351.6
464.692	5423.46
465.065	5411.93
465.438	5510.46
465.81	5610.35
466.183	5690.34
466.555	5768.76
466.928	5835.43
467.3	5808.99
467.672	5905.48
468.045	6070.9
468.417	6086.49
468.789	6177.79
469.161	6253.95
469.534	6344.79
469.906	6468.63
470.278	6564.45
470.65	6618.68
471.022	6788.85
471.394	6936.64
471.766	6970.76
472.138	7033.36
472.51	7227.03
472.882	7292.11
473.253	7357.65
473.625	7548.37
473.997	7619.79
474.369	7697.3
474.74	7909.04
475.112	8031.3
475.484	8121.47
475.855	8235.81
476.227	8308.35
476.598	8584.96
476.97	8654.33
477.341	8899.07
477.713	8981.11
478.084	9073.31
478.455	9304.04
478.827	9346.97
479.198	9578.6
479.569	9763.46
479.94	9967.07
480.311	10075.09
480.682	10309.43
481.053	10612.93
481.424	10704
481.795	10805.01
482.166	11022.86
482.537	11069.19
482.908	11410.19
483.279	11553.69
483.65	11695.16
484.021	11941.71
484.391	12149.61
484.762	12222.6
485.133	12422.15
485.503	12593.44
485.874	12849.48
486.244	12943.26
486.615	13229.81
486.985	13346.64
487.356	13713.86
487.726	13744.82
488.097	14167.64
488.467	14138.48
488.837	14436.56
489.207	14531.02
489.578	14802.87
489.948	14966.94
490.318	15165.58
490.688	15208.96
491.058	15488.73
491.428	15719.46
491.798	15872.9
492.168	16189.73
492.538	16245.55
492.908	16457.29
493.278	16679.66
493.648	16642.15
494.017	17048.01
494.387	17041.23
494.757	17257.27
495.126	17540.65
495.496	17543.37
495.866	17721.21
496.235	17989.68
496.605	18137.02
496.974	18269.45
497.344	18436
497.713	18538.14
498.082	18604.81
498.452	18789.44
498.821	19056.77
499.19	18952.82
499.559	19377.22
499.928	19417.67
500.298	19546.93
500.667	19663.99
501.036	19838
501.405	19996.64
501.774	20011.32
502.143	20168.38
502.512	20331.09
502.88	20521.82
503.249	20682.72
503.618	20810.63
503.987	20923.39
504.356	21098.3
504.724	21148.92
505.093	21280.67
505.462	21452.19
505.83	21696.7
506.199	21806.31
506.567	22055.79
506.936	22105.28
507.304	22388.44
507.672	22559.96
508.041	22621.42
508.409	22774.64
508.777	23067.06
509.145	23332.59
509.514	23305.02
509.882	23478.35
510.25	23634.05
510.618	23712.24
510.986	23894.61
511.354	24188.62
511.722	24287.6
512.09	24541.37
512.458	24655.27
512.826	24779.11
513.193	24947.69
513.561	25164.41
513.929	25339.32
514.297	25598.3
514.664	25737.28
515.032	25885.29
515.4	26136.13
515.767	26173.87
516.135	26329.12
516.502	26314.89
516.869	26826.29
517.237	26862.22
517.604	26815.21
517.972	27338.82
518.339	27468.53
518.706	27500.62
519.073	27750.1
519.44	27907.84
519.808	28210.2
520.175	28235.51
520.542	28583.3
520.909	28751.43
521.276	28868.72
521.643	29090.86
522.009	29396.39
522.376	29517.97
522.743	29691.52
523.11	30141
523.477	30320.43
523.843	30465.96
524.21	30823.47
524.577	30999.06
524.943	31265.27
525.31	31337.58
525.676	31653.28
526.043	31801.52
526.409	32166.94
526.776	32212.59
527.142	32458.68
527.508	32497.1
527.874	32784.55
528.241	33142.5
528.607	33333.91
528.973	33544.53
529.339	33540.69
529.705	33947
530.071	34138.18
530.437	34340.44
530.803	34511.96
531.169	34680.32
531.535	34694.78
531.901	34935.23
532.267	34860.43
532.632	35337.02
532.998	35450.01
533.364	35610.01
533.73	35724.81
534.095	36070.11
534.461	36177.45
534.826	36358.92
535.192	36402.53
535.557	36748.51
535.923	36757.55
536.288	36984.66
536.653	37100.59
537.019	37229.4
537.384	37260.81
537.749	37558.89
538.114	37577.87
538.479	37537.64
538.845	37814.92
539.21	37835.49
539.575	38036.39
539.94	38116.61
540.305	38491.74
540.67	38567.9
541.034	38616.26
541.399	38760.66
541.764	38833.2
542.129	39061.44
542.494	39198.16
542.858	39345.28
543.223	39467.54
543.587	39669.56
543.952	39662.11
544.316	39881.76
544.681	39893.97
545.045	40151.59
545.41	40475.64
545.774	40472.48
546.138	40546.6
546.503	40681.06
546.867	40721.74
547.231	41116.53
547.595	41176.87
547.959	41456.18
548.324	41355.17
548.688	41544.09
549.052	41688.49
549.416	41709.06
549.779	41907.47
550.143	42001.48
550.507	42373.9
550.871	42418.64
551.235	42423.84
551.599	42919.87
551.962	42917.61
552.326	43062.02
552.689	43338.17
553.053	43203.26
553.417	43367.32
553.78	44075.1
554.143	43912.84
554.507	44130.46
554.87	44276
555.234	44770.22
555.597	44546.05
555.96	44776.55
556.323	45033.72
556.686	45077.33
557.05	45369.98
557.413	45566.58
557.776	45638.9
558.139	45964.09
558.502	45965.67
558.865	46177.19
559.228	46534.47
559.59	46563.17
559.953	46688.81
560.316	47026.88
560.679	47088.13
561.041	47413.32
561.404	47653.54
561.767	47769.24
562.129	47690.82
562.492	48146.18
562.854	48223.46
563.217	48195.67
563.579	48400.63
563.941	48652.83
564.304	48890.34
564.666	49161.29
565.028	49090.11
565.39	49318.8
565.753	49375.52
566.115	49476.31
566.477	49671.79
566.839	49788.39
567.201	49938.9
567.563	49999.46
567.925	50328.49
568.287	50322.39
568.648	50364.42
569.01	50509.73
569.372	50794.24
569.734	50754.24
570.095	50968.48
570.457	51225.19
570.819	51181.8
571.18	51241.01
571.542	51396.94
571.903	51440.78
572.265	51576.82
572.626	51641
572.987	51742.02
573.349	51829.92
573.71	51994.44
574.071	52109.92
574.432	52090.71
574.794	52386.52
575.155	52378.83
575.516	52269.23
575.877	52496.57
576.238	52516.23
576.599	52631.94
576.96	52684.59
577.32	52610.92
577.681	52708.32
578.042	52816.56
578.403	52877.35
578.763	52897.92
579.124	52925.49
579.485	52974.75
579.845	53052.49
580.206	53032.6
580.566	53044.81
580.927	53200.06
581.287	53262.2
581.648	53105.82
582.008	53279.38
582.368	53223.33
582.728	53333.39
583.089	53313.73
583.449	53206.61
583.809	53342.43
584.169	53367.06
584.529	53328.41
584.889	53569.09
585.249	53322.09
585.609	53330.9
585.969	53531.57
586.329	53350.56
586.688	53459.48
587.048	53466.49
587.408	53424.68
587.768	53430.78
588.127	53301.52
588.487	53344.91
588.846	53551.69
589.206	53366.15
589.565	53339.49
589.925	53512.36
590.284	53375.64
590.643	53553.04
591.003	53561.85
591.362	53665.81
591.721	53568.18
592.08	53562.31
592.44	53612.7
592.799	53593.72
593.158	53638.91
593.517	53630.78
593.876	53631.01
594.235	53533.38
594.593	53684.11
594.952	53702.42
595.311	53552.82
595.67	53739.25
596.029	53874.61
596.387	53784.9
596.746	53891.11
597.104	53781.96
597.463	53722.3
597.822	53853.82
598.18	53798.68
598.538	53804.33
598.897	53910.55
599.255	53579.48
599.613	54092.69
599.972	53892.69
600.33	54020.37
600.688	53874.39
601.046	54021.28
601.404	54107.83
601.762	53935.4
602.12	54179.47
602.478	54091.11
602.836	54113.25
603.194	54006.14
603.552	54179.24
603.91	54043.65
604.268	54161.39
604.625	54086.13
604.983	54165.23
605.341	54056.53
605.698	54180.37
606.056	54303.53
606.413	54282.97
606.771	54376.07
607.128	54421.04
607.485	54304.43
607.843	54341.72
608.2	54500.81
608.557	54535.39
608.914	54496.75
609.272	54659
609.629	54713.01
609.986	54781.26
610.343	54610.41
610.7	54862.39
611.057	54745.78
611.414	54738.77
611.771	54810.64
612.127	54866.45
612.484	54747.81
612.841	54891.54
613.198	54764.53
613.554	54788.71
613.911	54989.61
614.267	54989.16
614.624	54912.33
614.98	54955.72
615.337	55074.36
615.693	55072.78
616.05	55054.92
616.406	55241.36
616.762	55143.28
617.118	55138.31
617.475	55132.89
617.831	55228.48
618.187	55245.2
618.543	55310.73
618.899	55456.27
619.255	55343.95
619.611	55346.44
619.967	55463.73
620.323	55480.9
620.678	55452.43
621.034	55388.02
621.39	55427.79
621.746	55351.19
622.101	55669.82
622.457	55374.01
622.812	55513.89
623.168	55533.55
623.523	55515.7
623.879	55603.61
624.234	55383.5
624.589	55539.66
624.945	55487
625.3	55578.52
625.655	55437.74
626.01	55568.81
626.365	55622.14
626.72	55537.4
627.075	55512.76
627.43	55516.15
627.785	55405.2
628.14	55562.25
628.495	55466.66
628.85	55406.55
629.205	55373.56
629.559	55557.28
629.914	55416.04
630.269	55427.57
630.623	55290.17
630.978	55319.32
631.332	55387.57
631.687	55394.8
632.041	55286.1
632.396	55317.29
632.75	55270.28
633.104	55287.68
633.459	55125.43
633.813	55117.52
634.167	55036.39
634.521	55028.71
634.875	55184.86
635.229	55088.82
635.583	55015.6
635.937	55016.05
636.291	55023.74
636.645	54980.57
636.999	54981.25
637.352	55042.72
637.706	54846.34
638.06	54939.22
638.413	54883.4
638.767	54771.77
639.121	54877.3
639.474	54739.45
639.828	54729.51
640.181	54829.39
640.534	54696.51
640.888	54636.4
641.241	54510.3
641.594	54583.3
641.947	54675.5
642.301	54460.36
642.654	54491.1
643.007	54543.52
643.36	54444.99
643.713	54432.57
644.066	54546.24
644.419	54239.58
644.771	54072.58
645.124	53824.45
645.477	53726.37
645.83	53573.15
646.182	53424.68
646.535	53466.04
646.888	53421.75
647.24	53318.92
647.593	53469.43
647.945	53287.06
648.298	53142.43
648.65	53114.86
649.002	53081.87
649.355	53164.35
649.707	53121.87
650.059	53249.77
650.411	53663.09
650.763	53607.05
651.115	53922.07
651.467	53798.01
651.819	53780.61
652.171	53693.6
652.523	53628.07
652.875	53705.13
653.227	53546.71
653.578	53722.3
653.93	53653.38
654.282	53470.56
654.633	53481.86
654.985	53521.18
655.337	53548.97
655.688	53456.55
656.039	53605.47
656.391	53265.59
656.742	53375.64
657.094	53318.02
657.445	53456.77
657.796	53456.77
658.147	53267.4
658.498	53200.06
658.849	53283.67
659.2	53240.28
659.551	53218.36
659.902	53311.24
660.253	53173.16
660.604	53261.75
660.955	53042.55
661.306	53300.84
661.656	53059.49
662.007	53011.59
662.358	53019.04
662.708	52940.18
663.059	53001.19
663.409	52802.55
663.76	53063.11
664.11	52979.27
664.461	52989.67
664.811	52966.16
665.161	52978.37
665.511	52897.69
665.862	52890.69
666.212	52906.05
666.562	53047.97
666.912	52851.82
667.262	52875.09
667.612	52831.93
667.962	52851.59
668.312	52748.77
668.662	52792.38
669.011	52773.85
669.361	52776.56
669.711	52768.43
670.06	52738.6
670.41	52652.5
670.76	52623.12
671.109	52739.73
671.459	52570.24
671.808	52659.51
672.157	52649.34
672.507	52502.22
672.856	52443.69
673.205	52464.71
673.554	52546.74
673.904	52418.83
674.253	52611.6
674.602	52468.1
674.951	51957.6
675.3	51719.19
675.649	52289.8
675.998	52226.52
676.346	52218.39
676.695	52359.63
677.044	52123.02
677.393	52262.45
677.741	52229.91
678.09	52151.5
678.438	51940.88
678.787	52088.22
679.135	52087.54
679.484	51911.95
679.832	51980.43
680.181	51827.89
680.529	51961.67
680.877	51888.9
681.225	51841
681.573	51930.26
681.922	51659.08
682.27	51702.92
682.618	51618.18
682.966	51518.74
683.314	51537.27
683.661	51475.58
684.009	51266.1
684.357	51165.31
684.705	51269.03
685.053	51144.52
685.4	51149.71
685.748	50954.47
686.095	50942.49
686.443	50815.03
686.79	50843.06
687.138	50827.01
687.485	50772.55
687.832	50572.33
688.18	50605.1
688.527	50439.45
688.874	50447.36
689.221	50260.02
689.568	50176.86
689.915	50077.88
690.262	50112.68
690.609	49929.63
690.956	49811.67
691.303	49769.64
691.65	49643.77
691.997	49636.53
692.344	49455.75
692.69	49271.8
693.037	49430.21
693.383	49034.97
693.73	49246.49
694.077	48973.73
694.423	49128.3
694.769	48846.72
695.116	48707.74
695.462	48677.46
695.808	48644.47
696.155	48615.54
696.501	48370.8
696.847	48340.52
697.193	48108.44
697.539	48264.59
697.885	48092.17
698.231	47900.99
698.577	47815.56
698.923	47747.32
699.269	47631.84
699.614	47529.24
699.96	47400.89
700.306	47346.88
700.651	47162.25
700.997	46916.15
701.342	46991.63
701.688	46976.26
702.033	46734.24
702.379	46779.43
702.724	46545.32
703.069	46734.24
703.415	46104.65
703.76	46223.29
704.105	46318.43
704.45	46109.17
704.795	45890.64
705.14	45928.16
705.485	45869.63
705.83	45668.73
706.175	45761.16
706.52	45467.6
706.865	45339.02
707.209	45423.09
707.554	45318.68
707.899	45197.55
708.243	44942.87
708.588	45168.18
708.932	44798.69
709.277	44828.75
709.621	44843.21
709.966	44483.9
710.31	44655.65
710.654	44264.47
710.998	44420.85
711.342	44379.95
711.687	44226.96
712.031	44081.88
712.375	43992.84
712.719	43986.74
713.063	43763.69
713.407	43934.99
713.75	43659.52
714.094	43739.97
714.438	43520.31
714.782	43631.27
715.125	43360.77
715.469	43445.51
715.812	43110.38
716.156	42987.67
716.499	42958.97
716.843	42934.56
717.186	42807.33
717.53	42963.04
717.873	42802.82
718.216	42722.59
718.559	42707.22
718.902	42368.93
719.246	42562.37
719.589	42222.04
719.932	42074.02
720.275	42161.7
720.617	41892.56
720.96	42192.66
721.303	41952.22
721.646	41982.27
721.989	41773.01
722.331	41802.39
722.674	41770.07
723.016	41772.11
723.359	41556.97
723.701	41629.29
724.044	41485.56
724.386	41294.15
724.729	41398.56
725.071	41268.84
725.413	41346.81
725.755	41098.68
726.097	41001.28
726.439	40880.15
726.782	40857.33
727.124	40947.72
727.465	40832.02
727.807	40726.26
728.149	40581.86
728.491	40529.65
728.833	40609.2
729.175	40358.36
729.516	40461.41
729.858	40386.38
730.199	40444.69
730.541	40208.53
730.882	40095.54
731.224	40308.19
731.565	39923.79
731.906	40093.06
732.248	40026.17
732.589	39852.16
732.93	39598.15
733.271	39658.27
733.612	39731.71
733.953	39733.29
734.294	39471.83
734.635	39356.8
734.976	39509.12
735.317	39301.89
735.658	39357.71
735.999	39381.89
736.339	39297.82
736.68	39361.32
737.021	39216.92
737.361	38984.16
737.702	39187.54
738.042	38893.54
738.383	38793.66
738.723	38884.73
739.063	38755.92
739.404	38753.43
739.744	38795.69
740.084	38626.43
740.424	38566.99
740.764	38465.75
741.104	38622.36
741.444	38367.23
741.784	38399.09
742.124	38427.11
742.464	38300.33
742.804	38159.77
743.143	38221.69
743.483	38088.14
743.823	37976.73
744.162	38080.68
744.502	37978.08
744.841	37679.79
745.181	37954.81
745.52	37746.9
745.86	37919.1
746.199	37649.05
746.538	37552.56
746.877	37608.83
747.216	37562.28
747.556	37341.49
747.895	37366.35
748.234	37219.23
748.573	37215.17
748.911	37107.15
749.25	37053.59
749.589	36831.45
749.928	37060.14
750.267	36951.9
750.605	36904.44
750.944	36828.96
751.283	36727.04
751.621	36732.92
751.96	36568.18
752.298	36539.03
752.636	36486.37
752.975	36306.94
753.313	36245.47
