Data from White_reflection_standard_FLMS001491_043.txt Node
Date: Tue Feb 07 10:32:03 GMT 2017
User: dcchb
Spectrometer: FLMS00149
Trigger mode: 0
Integration Time (sec): 2.000000E-2
Scans to average: 10
Electric dark correction enabled: true
Nonlinearity correction enabled: false
Boxcar width: 0
XAxis mode: Wavelengths
Number of Pixels in Spectrum: 2048
>>>>>Begin Spectral Data<<<<<
341.393	-17.39
341.776	-17.39
342.16	-17.39
342.543	-76.14
342.927	-87.22
343.31	-66.65
343.693	-61
344.077	-73.43
344.46	-50.61
344.843	-42.92
345.226	-25.07
345.61	-24.62
345.993	-28.91
346.376	-4.28
346.759	14.25
347.142	25.78
347.525	46.34
347.908	49.96
348.291	50.63
348.674	82.05
349.057	108.49
349.44	108.71
349.823	131.08
350.206	170.86
350.588	224.42
350.971	243.4
351.354	261.93
351.737	274.13
352.119	287.01
352.502	314.58
352.884	317.75
353.267	304.86
353.65	334.24
354.032	355.71
354.414	332.43
354.797	344.64
355.179	359.1
355.562	375.37
355.944	374.47
356.326	383.51
356.709	382.15
357.091	393.9
357.473	387.35
357.855	379.21
358.238	400.46
358.62	387.57
359.002	400.23
359.384	413.11
359.766	408.59
360.148	403.39
360.53	409.49
360.912	383.73
361.294	402.26
361.676	419.89
362.057	396.39
362.439	416.05
362.821	382.6
363.203	388.93
363.584	404.07
363.966	399.33
364.348	406.11
364.729	393.45
365.111	397.52
365.493	415.6
365.874	415.37
366.256	396.84
366.637	400
367.019	431.19
367.4	427.57
367.781	419.21
368.163	404.52
368.544	428.25
368.925	413.34
369.306	431.42
369.688	427.57
370.069	439.55
370.45	435.03
370.831	427.57
371.212	412.21
371.593	451.53
371.974	433
372.355	462.15
372.736	440
373.117	443.39
373.498	430.51
373.879	432.32
374.26	437.52
374.641	413.11
375.021	455.6
375.402	454.01
375.783	474.35
376.163	493.11
376.544	489.27
376.925	493.11
377.305	487.01
377.686	494.46
378.066	474.58
378.447	502.37
378.827	507.35
379.208	496.05
379.588	517.06
379.968	516.61
380.349	511.87
380.729	503.96
381.109	539.66
381.489	505.54
381.87	549.83
382.25	535.37
382.63	549.83
383.01	574.91
383.39	548.25
383.77	565.42
384.15	562.71
384.53	577.85
384.91	570.17
385.29	573.11
385.67	574.01
386.049	603.39
386.429	626.21
386.809	606.33
387.189	616.5
387.568	598.87
387.948	627.34
388.328	655.82
388.707	665.99
389.087	647
389.466	657.4
389.846	666.44
390.225	671.18
390.605	693.33
390.984	694.91
391.363	698.3
391.743	712.31
392.122	714.12
392.501	713.89
392.881	740.79
393.26	733.55
393.639	748.7
394.018	761.58
394.397	761.12
394.776	742.59
395.155	779.65
395.534	792.54
395.913	803.61
396.292	789.15
396.671	825.53
397.05	842.03
397.429	816.72
397.808	863.72
398.186	844.96
398.565	865.98
398.944	845.19
399.323	880.22
399.701	863.49
400.08	905.08
400.458	879.09
400.837	903.04
401.215	909.59
401.594	951.63
401.972	948.92
402.351	942.14
402.729	981.46
403.107	965.86
403.486	960.21
403.864	975.81
404.242	1000.89
404.62	1009.48
404.999	1013.55
405.377	1012.19
405.755	1037.05
406.133	1063.04
406.511	1090.15
406.889	1123.83
407.267	1091.74
407.645	1120.21
408.023	1140.78
408.401	1143.94
408.779	1173.77
409.156	1221.22
409.534	1180.77
409.912	1205.86
410.29	1246.99
410.667	1270.26
411.045	1263.48
411.422	1275.01
411.8	1287.44
412.178	1327.89
412.555	1344.61
412.933	1341.67
413.31	1372.63
413.687	1395.46
414.065	1407.66
414.442	1438.62
414.819	1438.17
415.197	1446.08
415.574	1463.03
415.951	1500.99
416.328	1486.53
416.705	1507.32
417.082	1511.84
417.46	1543.25
417.837	1557.04
418.214	1556.36
418.591	1613.31
418.967	1611.95
419.344	1638.84
419.721	1637.26
420.098	1659.41
420.475	1717.48
420.852	1735.34
421.228	1702.79
421.605	1735.34
421.982	1749.57
422.358	1776.92
422.735	1779.63
423.111	1789.35
423.488	1851.04
423.864	1855.56
424.241	1875.9
424.617	1883.35
424.994	1913.41
425.37	1932.84
425.746	1977.36
426.123	1959.96
426.499	1988.66
426.875	2020.53
427.251	2060.07
427.627	2098.94
428.003	2135.33
428.379	2165.61
428.756	2159.73
429.132	2193.63
429.507	2222.55
429.883	2239.5
430.259	2289.22
430.635	2301.65
431.011	2342.33
431.387	2387.07
431.763	2440.85
432.138	2443.57
432.514	2491.7
432.89	2500.29
433.265	2558.82
433.641	2608.08
434.016	2613.96
434.392	2677.23
434.767	2745.7
435.143	2737.57
435.518	2742.99
435.894	2773.5
436.269	2862.54
436.644	2860.05
437.02	2907.51
437.395	2904.57
437.77	2923.55
438.145	3010.1
438.52	3030.44
438.895	3013.49
439.271	3069.76
439.646	3115.86
440.021	3126.49
440.395	3193.83
440.77	3181.4
441.145	3187.27
441.52	3248.97
441.895	3267.27
442.27	3280.38
442.645	3301.85
443.019	3363.09
443.394	3364.45
443.769	3418.68
444.143	3396.53
444.518	3438.12
444.892	3464.1
445.267	3501.39
445.641	3517.89
446.016	3540.71
446.39	3595.63
446.764	3611.22
447.139	3637.66
447.513	3667.49
447.887	3654.83
448.262	3689.63
448.636	3699.8
449.01	3748.84
449.384	3806.47
449.758	3826.13
450.132	3917.43
450.506	3940.48
450.88	3955.84
451.254	3926.01
451.628	4015.05
452.002	4040.59
452.376	4101.83
452.75	4150.19
453.123	4138.66
453.497	4249.17
453.871	4300.01
454.244	4396.73
454.618	4413.01
454.992	4440.12
455.365	4451.42
455.739	4569.61
456.112	4637.63
456.486	4729.16
456.859	4709.49
457.232	4840.34
457.606	4780.45
457.979	4903.39
458.352	4968.25
458.725	5059.77
459.099	5046.89
459.472	5201.46
459.845	5276.94
460.218	5257.73
460.591	5262.02
460.964	5328.46
461.337	5506.54
461.71	5572.97
462.083	5673.09
462.456	5658.85
462.829	5689.36
463.201	5723.93
463.574	5780.88
463.947	5903.59
464.32	6034.43
464.692	6045.96
465.065	6152.17
465.438	6236.23
465.81	6337.93
466.183	6376.12
466.555	6499.5
466.928	6556.9
467.3	6542.67
467.672	6667.64
468.045	6876.67
468.417	6840.51
468.789	6927.52
469.161	6984.46
469.534	7158.24
469.906	7300.84
470.278	7329.99
470.65	7480.72
471.022	7568.63
471.394	7764.33
471.766	7816.53
472.138	7933.14
472.51	8040.25
472.882	8227.59
473.253	8300.59
473.625	8426.01
473.997	8632.33
474.369	8670.52
474.74	8749.61
475.112	8941.7
475.484	9041.58
475.855	9207.23
476.227	9315.93
476.598	9569.71
476.97	9665.07
477.341	9897.61
477.713	10022.12
478.084	10087.66
478.455	10406.97
478.827	10410.59
479.198	10789.79
479.569	10886.73
479.94	11110.91
480.311	11191.58
480.682	11503.89
481.053	11736.2
481.424	11882.87
481.795	12060.26
482.166	12211.22
482.537	12325.57
482.908	12666.12
483.279	12761.26
483.65	13012.78
484.021	13243.06
484.391	13426.78
484.762	13591.52
485.133	13669.03
485.503	13937.5
485.874	14234.44
486.244	14350.6
486.615	14624.04
486.985	14754.43
487.356	15019.28
487.726	15226.28
488.097	15553.5
488.467	15549.21
488.837	15885.25
489.207	16119.36
489.578	16352.58
489.948	16488.39
490.318	16717.99
490.688	16907.14
491.058	17021.49
491.428	17240.92
491.798	17420.57
492.168	17811.52
492.538	17887.45
492.908	18078.18
493.278	18231.4
493.648	18387.55
494.017	18602.46
494.387	18764.49
494.757	18926.3
495.126	19124.48
495.496	19148.44
495.866	19262.78
496.235	19607.41
496.605	19784.35
496.974	19945.48
497.344	20094.18
497.713	20156.77
498.082	20493.03
498.452	20662.97
498.821	20753.59
499.19	20742.97
499.559	20941.61
499.928	21127.82
500.298	21278.32
500.667	21532.1
501.036	21494.36
501.405	21713.12
501.774	21749.5
502.143	22025.88
502.512	22051.41
502.88	22271.74
503.249	22312.42
503.618	22593.32
503.987	22715.35
504.356	22753.31
504.724	23003.93
505.093	23123.02
505.462	23219.52
505.83	23407.08
506.199	23652.73
506.567	23904.02
506.936	23930.68
507.304	24088.19
507.672	24346.04
508.041	24491.35
508.409	24644.34
508.777	24831.45
509.145	25026.47
509.514	25106.92
509.882	25314.38
510.25	25404.77
510.618	25585.33
510.986	25654.93
511.354	25940.35
511.722	26150.06
512.09	26466.21
512.458	26388.47
512.826	26631.18
513.193	26783.26
513.561	26901.91
513.929	27169.24
514.297	27403.81
514.664	27564.04
515.032	27644.48
515.4	27898.49
515.767	28076.79
516.135	28331.47
516.502	28198.59
516.869	28664.35
517.237	28932.36
517.604	28745.02
517.972	29201.96
518.339	29374.83
518.706	29466.36
519.073	29688.27
519.44	29890.98
519.808	30280.35
520.175	30247.13
520.542	30768.47
520.909	30939.31
521.276	30927.11
521.643	31227.44
522.009	31465.85
522.376	31706.98
522.743	31935.22
523.11	32328.66
523.477	32531.59
523.843	32785.14
524.21	33054.74
524.577	33222.87
524.943	33405.92
525.31	33639.36
525.676	33977.65
526.043	34127.93
526.409	34347.81
526.776	34621.7
527.142	34900.57
527.508	35030.28
527.874	35331.29
528.241	35488.8
528.607	35611.73
528.973	35987.09
529.339	36067.77
529.705	36456.91
530.071	36635.66
530.437	36783.68
530.803	37034.75
531.169	37220.96
531.535	37238.81
531.901	37411.91
532.267	37550.67
532.632	37834.95
532.998	37908.62
533.364	38131.44
533.73	38322.85
534.095	38688.71
534.461	38749.28
534.826	38766.68
535.192	39036.73
535.557	39328.92
535.923	39329.38
536.288	39568.24
536.653	39690.72
537.019	39691.85
537.384	39963.03
537.749	40074.21
538.114	40290.71
538.479	40342.23
538.845	40447.76
539.21	40452.51
539.575	40753.97
539.94	40817.92
540.305	41184.92
540.67	41075.32
541.034	41276.44
541.399	41522.76
541.764	41613.38
542.129	41815.64
542.494	41924.56
542.858	41930.44
543.223	42177.21
543.587	42398.45
543.952	42447.94
544.316	42475.06
544.681	42482.51
545.045	42662.62
545.41	43007.7
545.774	43039.79
546.138	43170.63
546.503	43290.4
546.867	43197.07
547.231	43637.96
547.595	43796.6
547.959	43863.49
548.324	43957.28
548.688	44016.26
549.052	44332.41
549.416	44333.76
549.779	44402.91
550.143	44565.85
550.507	44918.38
550.871	44991.37
551.235	45094.65
551.599	45356.11
551.962	45443.57
552.326	45533.96
552.689	45790.67
553.053	45563.79
553.417	45792.26
553.78	46371.45
554.143	46130.55
554.507	46327.84
554.87	46479.47
555.234	46859.12
555.597	46771.44
555.96	46942.96
556.323	47190.19
556.686	47185.89
557.05	47488.48
557.413	47547.92
557.776	47705.43
558.139	47915.14
558.502	48153.78
558.865	48160.33
559.228	48345.18
559.59	48537.49
559.953	48709.69
560.316	49031.27
560.679	48968.22
561.041	49368.43
561.404	49525.04
561.767	49552.84
562.129	49592.61
562.492	49918.48
562.854	49974.97
563.217	49982.2
563.579	50187.17
563.941	50274.85
564.304	50451.12
564.666	50775.85
565.028	50882.07
565.39	51084.32
565.753	51208.61
566.115	51197.99
566.477	51421.03
566.839	51484.76
567.201	51680.92
567.563	51753
567.925	51988.7
568.287	52082.94
568.648	52106.44
569.01	52190.73
569.372	52435.25
569.734	52298.3
570.095	52516.83
570.457	52724.05
570.819	52811.51
571.18	52820.55
571.542	53006.98
571.903	53006.08
572.265	53156.13
572.626	53140.76
572.987	53291.72
573.349	53373.3
573.71	53539.85
574.071	53502.56
574.432	53700.52
574.794	53866.39
575.155	53883.8
575.516	53745.95
575.877	53905.26
576.238	54080.85
576.599	54171.47
576.96	54056.67
577.32	54149.55
577.681	54276.55
578.042	54294.18
578.403	54326.5
578.763	54372.82
579.124	54397.91
579.485	54417.79
579.845	54580.27
580.206	54507.96
580.566	54557.45
580.927	54555.64
581.287	54665.24
581.648	54597.67
582.008	54719.48
582.368	54637.9
582.728	54682.87
583.089	54706.37
583.449	54684.23
583.809	54712.02
584.169	54801.96
584.529	54684.68
584.889	54939.36
585.249	54728.74
585.609	54671.57
585.969	54868.18
586.329	54747.05
586.688	54909.98
587.048	54810.78
587.408	54793.38
587.768	54775.3
588.127	54783.21
588.487	54771.23
588.846	54963.99
589.206	54765.81
589.565	54834.5
589.925	54908.4
590.284	54761.96
590.643	54884.45
591.003	54938.91
591.362	55004.22
591.721	54895.29
592.08	54923.77
592.44	54956.99
592.799	55013.93
593.158	54954.73
593.517	54980.94
593.876	54957.21
594.235	54978.46
594.593	54950.43
594.952	55032.92
595.311	54917.44
595.67	55005.35
596.029	55239.47
596.387	55169.86
596.746	55209.86
597.104	55100.49
597.463	55117.89
597.822	55304.1
598.18	55191.78
598.538	55098.23
598.897	55204.44
599.255	55056.42
599.613	55423.42
599.972	55185.91
600.33	55318.33
600.688	55239.69
601.046	55335.96
601.404	55479.46
601.762	55387.03
602.12	55534.83
602.478	55419.12
602.836	55458.89
603.194	55375.06
603.552	55448.95
603.91	55326.69
604.268	55528.05
604.625	55462.96
604.983	55629.29
605.341	55395.85
605.698	55622.51
606.056	55675.16
606.413	55624.31
606.771	55679.45
607.128	55786.57
607.485	55592.68
607.843	55643.97
608.2	55798.32
608.557	55888.26
608.914	55774.59
609.272	55911.31
609.629	55965.77
609.986	56044.87
610.343	55903.63
610.7	56090.97
611.057	56073.12
611.414	56070.18
611.771	56098.88
612.127	56224.98
612.484	56180.01
612.841	56185.2
613.198	56130.06
613.554	56156.96
613.911	56317.18
614.267	56356.5
614.624	56265.43
614.98	56253
615.337	56415.03
615.693	56325.76
616.05	56310.17
616.406	56448.93
616.762	56349.94
617.118	56394.69
617.475	56341.13
617.831	56486.89
618.187	56453.9
618.543	56495.93
618.899	56620.9
619.255	56587
619.611	56534.12
619.967	56661.8
620.323	56606.66
620.678	56532.09
621.034	56498.64
621.39	56501.35
621.746	56546.55
622.101	56808.24
622.457	56556.04
622.812	56647.79
623.168	56682.82
623.523	56712.65
623.879	56688.69
624.234	56500
624.589	56594.23
624.945	56642.82
625.3	56678.3
625.655	56612.54
626.01	56642.37
626.365	56643.95
626.72	56586.55
627.075	56573.89
627.43	56585.19
627.785	56554.91
628.14	56589.26
628.495	56599.66
628.85	56510.39
629.205	56519.88
629.559	56610.28
629.914	56466.1
630.269	56552.88
630.623	56369.83
630.978	56426.55
631.332	56452.77
631.687	56501.58
632.041	56382.71
632.396	56357.18
632.75	56304.52
633.104	56267.91
633.459	56188.82
633.813	56204.41
634.167	56217.97
634.521	56217.29
634.875	56127.8
635.229	56060.69
635.583	55963.97
635.937	55997.41
636.291	55966.68
636.645	55948.83
636.999	55904.98
637.352	55906.79
637.706	55789.96
638.06	55889.39
638.413	55826.57
638.767	55750.41
639.121	55778.43
639.474	55580.47
639.828	55647.59
640.181	55664.54
640.534	55714.48
640.888	55596.07
641.241	55452.12
641.594	55438.56
641.947	55528.05
642.301	55457.31
642.654	55459.35
643.007	55393.59
643.36	55413.7
643.713	55255.06
644.066	55437.43
644.419	55241.95
644.771	54990.66
645.124	54679.25
645.477	54591.12
645.83	54491.24
646.182	54413.05
646.535	54289.66
646.888	54430.67
647.24	54144.58
647.593	54394.97
647.945	54337.79
648.298	54078.59
648.65	54102.77
649.002	53989.78
649.355	54078.14
649.707	53973.74
650.059	54205.59
650.411	54425.93
650.763	54518.35
651.115	54792.25
651.467	54642.42
651.819	54702.98
652.171	54493.27
652.523	54511.35
652.875	54534.63
653.227	54326.04
653.578	54563.33
653.93	54440.39
654.282	54298.93
654.633	54201.75
654.985	54284.46
655.337	54265.03
655.688	54252.15
656.039	54275.42
656.391	54103.45
656.742	54130.79
657.094	54147.06
657.445	54197.46
657.796	54155.88
658.147	54077.69
658.498	54072.49
658.849	54090.12
659.2	54068.42
659.551	54017.12
659.902	54115.65
660.253	53980.74
660.604	53999.05
660.955	53857.81
661.306	53914.3
661.656	53816.45
662.007	53893.51
662.358	53830.24
662.708	53865.04
663.059	53786.4
663.409	53606.29
663.76	53904.36
664.11	53861.65
664.461	53857.58
664.811	53727.64
665.161	53762.44
665.511	53645.16
665.862	53709.34
666.212	53791.14
666.562	53706.62
666.912	53700.75
667.262	53572.84
667.612	53672.73
667.962	53601.99
668.312	53561.77
668.662	53693.52
669.011	53665.27
669.361	53554.54
669.711	53456.46
670.06	53367.42
670.41	53439.51
670.76	53413.52
671.109	53521.77
671.459	53443.35
671.808	53314.32
672.157	53390.47
672.507	53216.92
672.856	53180.08
673.205	53261.66
673.554	53250.59
673.904	53206.3
674.253	53282.45
674.602	53220.08
674.951	52739.19
675.3	52555.69
675.649	53099.63
675.998	52983.48
676.346	53027.09
676.695	53088.11
677.044	52851.28
677.393	53025.51
677.741	52978.73
678.09	52922.92
678.438	52940.32
678.787	52922.92
679.135	52891.28
679.484	52634.11
679.832	52750.27
680.181	52607.67
680.529	52723.83
680.877	52562.93
681.225	52429.37
681.573	52752.75
681.922	52440.44
682.27	52408.58
682.618	52381.46
682.966	52193.67
683.314	52262.59
683.661	52143.28
684.009	52154.8
684.357	52049.72
684.705	51905.99
685.053	51948.93
685.4	51849.72
685.748	51716.62
686.095	51731.54
686.443	51609.05
686.79	51613.35
687.138	51629.39
687.485	51564.53
687.832	51442.28
688.18	51447.25
688.527	51310.76
688.874	51242.06
689.221	51219.23
689.568	51078.67
689.915	51031.67
690.262	50965
690.609	50778.11
690.956	50757.32
691.303	50759.13
691.65	50619.02
691.997	50529.98
692.344	50348.29
692.69	50241.4
693.037	50242.76
693.383	50038.7
693.73	50197.79
694.077	49936.33
694.423	49982.43
694.769	49706.05
695.116	49671.93
695.462	49539.95
695.808	49422.22
696.155	49518.26
696.501	49207.53
696.847	49192.39
697.193	48942.46
697.539	49104.71
697.885	48741.33
698.231	48748.79
698.577	48699.07
698.923	48680.32
699.269	48384.05
699.614	48309.03
699.96	48276.94
700.306	48222.47
700.651	47971.63
700.997	47859.77
701.342	47896.16
701.688	47767.12
702.033	47690.96
702.379	47672.21
702.724	47439.9
703.069	47604.86
703.415	47158.77
703.76	47214.37
704.105	47053.69
704.45	46947.93
704.795	46755.62
705.14	46703.87
705.485	46678.79
705.83	46457.1
706.175	46501.39
706.52	46347.04
706.865	46139.59
707.209	46161.29
707.554	45934.63
707.899	46121.74
708.243	45858.24
708.588	45824.12
708.932	45453.96
709.277	45552.71
709.621	45648.08
709.966	45279.28
710.31	45344.58
710.654	44970.58
710.998	45098.26
711.342	45140.3
711.687	44907.76
712.031	44711.15
712.375	44541.44
712.719	44685.17
713.063	44509.58
713.407	44666.41
713.75	44254.44
714.094	44470.03
714.438	44051.74
714.782	44195.46
715.125	43995.69
715.469	43970.84
715.812	43870.5
716.156	43717.73
716.499	43679.32
716.843	43684.06
717.186	43447.46
717.53	43501.24
717.873	43578.08
718.216	43379.44
718.559	43305.99
718.902	42936.51
719.246	43091.54
719.589	42932.67
719.932	42640.02
720.275	42727.03
720.617	42809.96
720.96	42616.75
721.303	42725.9
721.646	42637.09
721.989	42402.74
722.331	42374.49
722.674	42353.25
723.016	42302.4
723.359	42248.17
723.701	42263.99
724.044	42011.34
724.386	41855.18
724.729	41959.36
725.071	41779.48
725.413	41814.51
725.755	41748.52
726.097	41572.03
726.439	41420.85
726.782	41356.44
727.124	41491.13
727.465	41271.92
727.807	41168.2
728.149	41143.34
728.491	41006.39
728.833	41243.22
729.175	40826.96
729.516	40793.52
729.858	40846.85
730.199	40898.15
730.541	40689.79
730.882	40701.77
731.224	40725.27
731.565	40509.91
731.906	40539.97
732.248	40546.52
732.589	40245.51
732.93	40201.67
733.271	40215.45
733.612	40257.26
733.953	40298.84
734.294	39989.02
734.635	39966.19
734.976	40031.05
735.317	39843.03
735.658	39793.77
735.999	39772.53
736.339	39567.56
736.68	39623.61
737.021	39626.32
737.361	39470.84
737.702	39536.6
738.042	39304.29
738.383	39166.67
738.723	39311.07
739.063	39203.73
739.404	39210.51
739.744	39146.56
740.084	38974.13
740.424	38910.18
740.764	38772.78
741.104	38880.12
741.444	38734.14
741.784	38645.55
742.124	38571.43
742.464	38622.28
742.804	38599.45
743.143	38545.44
743.483	38390.64
743.823	38199.69
744.162	38132.8
744.502	38254.83
744.841	38093.7
745.181	38131.44
745.52	37925.34
745.86	38058
746.199	37881.28
746.538	37849.41
746.877	38034.49
747.216	37794.95
747.556	37668.85
747.895	37755.41
748.234	37446.94
748.573	37488.52
748.911	37480.61
749.25	37455.75
749.589	37210.11
749.928	37278.58
750.267	37358.81
750.605	37195.87
750.944	37057.12
751.283	36932.83
751.621	36919.04
