Data from whiteboard_FLMS001491_00027.txt Node
Date: Wed Feb 08 11:25:50 GMT 2017
User: dcchb
Spectrometer: FLMS00149
Trigger mode: 0
Integration Time (sec): 2.000000E-2
Scans to average: 10
Electric dark correction enabled: true
Nonlinearity correction enabled: false
Boxcar width: 0
XAxis mode: Wavelengths
Number of Pixels in Spectrum: 2048
>>>>>Begin Spectral Data<<<<<
341.393	-13.8
341.776	-13.8
342.16	-13.8
342.543	-59.9
342.927	-51.76
343.31	-70.52
343.693	-68.94
344.077	-48.15
344.46	-65.55
344.843	-57.87
345.226	-39.11
345.61	-17.19
345.993	-33.01
346.376	-11.77
346.759	6.31
347.142	18.97
347.525	53.54
347.908	50.61
348.291	82.7
348.674	91.28
349.057	108.68
349.44	123.37
349.823	147.55
350.206	178.96
350.588	243.37
350.971	253.09
351.354	253.99
351.737	267.78
352.119	293.31
352.502	303.25
352.884	317.27
353.267	308
353.65	323.14
354.032	332.18
354.414	340.32
354.797	340.09
355.179	374.67
355.562	365.17
355.944	364.04
356.326	385.51
356.709	373.76
357.091	387.55
357.473	383.93
357.855	384.16
358.238	389.35
358.62	363.14
359.002	372.18
359.384	378.06
359.766	367.43
360.148	356.59
360.53	378.73
360.912	362.01
361.294	387.55
361.676	353.65
362.057	364.72
362.439	380.09
362.821	361.78
363.203	364.5
363.584	371.95
363.966	387.32
364.348	389.13
364.729	380.54
365.111	390.03
365.493	383.25
365.874	373.99
366.256	347.55
366.637	381.9
367.019	367.43
367.4	382.12
367.781	398.17
368.163	383.48
368.544	377.6
368.925	387.09
369.306	377.83
369.688	379.41
370.069	383.48
370.45	396.36
370.831	377.15
371.212	374.21
371.593	401.56
371.974	381.9
372.355	360.88
372.736	391.16
373.117	398.17
373.498	400.88
373.879	381.44
374.26	386.64
374.641	406.3
375.021	357.49
375.402	406.98
375.783	392.97
376.163	437.49
376.544	436.36
376.925	437.04
377.305	432.74
377.686	422.35
378.066	435.68
378.447	417.6
378.827	431.61
379.208	457.83
379.588	409.69
379.968	443.14
380.349	435
380.729	437.71
381.109	437.04
381.489	435.68
381.87	481.56
382.25	444.04
382.63	472.06
383.01	470.48
383.39	470.03
383.77	453.31
384.15	482.01
384.53	494.44
384.91	479.97
385.29	482.91
385.67	483.36
386.049	503.02
386.429	483.59
386.809	513.19
387.189	508.67
387.568	535.57
387.948	522.23
388.328	535.34
388.707	523.59
389.087	533.31
389.466	546.64
389.846	551.61
390.225	565.39
390.605	561.1
390.984	553.87
391.363	567.43
391.743	580.54
392.122	587.77
392.501	598.61
392.881	602.91
393.26	594.32
393.639	620.53
394.018	641.55
394.397	660.76
394.776	641.1
395.155	646.3
395.534	636.58
395.913	653.98
396.292	662.12
396.671	667.54
397.05	684.94
397.429	699.85
397.808	691.95
398.186	709.12
398.565	698.72
398.944	727.65
399.323	746.63
399.701	761.32
400.08	773.75
400.458	767.42
400.837	791.38
401.215	740.53
401.594	823.69
401.972	787.54
402.351	836.8
402.729	833.41
403.107	832.73
403.486	863.01
403.864	885.16
404.242	892.84
404.62	914.31
404.999	948.44
405.377	954.76
405.755	964.25
406.133	977.59
406.511	981.43
406.889	1002.22
407.267	1035.89
407.645	1065.72
408.023	1062.78
408.401	1078.38
408.779	1085.61
409.156	1106.62
409.534	1131.93
409.912	1149.56
410.29	1179.84
410.667	1177.81
411.045	1212.84
411.422	1244.7
411.8	1254.19
412.178	1276.11
412.555	1303
412.933	1307.3
413.31	1363.57
413.687	1349.1
414.065	1379.16
414.442	1425.26
414.819	1441.3
415.197	1481.98
415.574	1493.28
415.951	1479.49
416.328	1547.52
416.705	1549.32
417.082	1553.39
417.46	1573.73
417.837	1597.01
418.214	1606.5
418.591	1667.74
418.967	1658.47
419.344	1677.23
419.721	1689.21
420.098	1696.21
420.475	1743.67
420.852	1764.91
421.228	1788.64
421.605	1776.44
421.982	1813.72
422.358	1852.59
422.735	1877.68
423.111	1898.69
423.488	1948.64
423.864	1919.26
424.241	1962.65
424.617	1978.24
424.994	1973.72
425.37	2015.53
425.746	2033.83
426.123	2059.82
426.499	2051.23
426.875	2079.48
427.251	2138.23
427.627	2210.78
428.003	2228.4
428.379	2245.58
428.756	2293.71
429.132	2315.18
429.507	2323.31
429.883	2384.78
430.259	2434.27
430.635	2458
431.011	2478.11
431.387	2522.41
431.763	2586.36
432.138	2585.23
432.514	2604.44
432.89	2615.74
433.265	2715.17
433.641	2771.89
434.016	2794.49
434.392	2831.32
434.767	2864.09
435.143	2855.96
435.518	2928.04
435.894	2952.22
436.269	2991.32
436.644	3031.09
437.02	3093.92
437.395	3113.12
437.77	3106.34
438.145	3191.09
438.52	3204.65
438.895	3229.73
439.271	3277.87
439.646	3287.13
440.021	3376.62
440.395	3368.48
440.77	3348.37
441.145	3385.66
441.52	3436.51
441.895	3475.83
442.27	3505.66
442.645	3547.46
443.019	3576.39
443.394	3608.48
443.769	3617.97
444.143	3639.66
444.518	3678.31
444.892	3733.22
445.267	3732.54
445.641	3747.46
446.016	3761.47
446.39	3802.82
446.764	3866.32
447.139	3849.38
447.513	3862.48
447.887	3930.5
448.262	3915.82
448.636	3959.88
449.01	4056.6
449.384	4092.08
449.758	4081.01
450.132	4191.06
450.506	4201.23
450.88	4260.89
451.254	4230.16
451.628	4315.13
452.002	4349.25
452.376	4379.98
452.75	4452.52
453.123	4492.52
453.497	4538.4
453.871	4532.75
454.244	4684.83
454.618	4728.22
454.992	4773.65
455.365	4743.14
455.739	4876.69
456.112	4936.81
456.486	5002.79
456.859	5025.62
457.232	5104.48
457.606	5158.27
457.979	5218.83
458.352	5303.12
458.725	5413.4
459.099	5415.89
459.472	5605.94
459.845	5655.88
460.218	5668.76
460.591	5755.54
460.964	5780.62
461.337	5921.64
461.71	6000.51
462.083	6092.71
462.456	6137.9
462.829	6154.85
463.201	6256.54
463.574	6343.77
463.947	6368.86
464.32	6536.31
464.692	6588.51
465.065	6651.79
465.438	6723.88
465.81	6831.44
466.183	6878.22
466.555	7061.72
466.928	7092.45
467.3	7038.9
467.672	7206.58
468.045	7407.47
468.417	7429.17
468.789	7461.94
469.161	7618.77
469.534	7672.78
469.906	7890.4
470.278	7939.89
470.65	8067.8
471.022	8186.21
471.394	8393.21
471.766	8473.21
472.138	8580.78
472.51	8802.01
472.882	8895.35
473.253	8986.87
473.625	9159.97
473.997	9343.69
474.369	9431.6
474.74	9555.67
475.112	9703.91
475.484	9937.13
475.855	10060.06
476.227	10138.02
476.598	10480.84
476.97	10551.57
477.341	10867.72
477.713	10898.68
478.084	10990.88
478.455	11374.83
478.827	11340.25
479.198	11754.93
479.569	11817.53
479.94	12106.79
480.311	12172.77
480.682	12500.67
481.053	12732.76
481.424	12877.16
481.795	13127.32
482.166	13323.48
482.537	13503.36
482.908	13722.34
483.279	13884.37
483.65	14183.34
484.021	14430.79
484.391	14577
484.762	14687.06
485.133	14871.69
485.503	15201.62
485.874	15480.03
486.244	15643.42
486.615	15895.16
486.985	16156.85
487.356	16435.94
487.726	16567.01
488.097	16898.98
488.467	16990.5
488.837	17347.1
489.207	17604.95
489.578	17881.78
489.948	17992.51
490.318	18264.82
490.688	18322.44
491.058	18661.42
491.428	18994.29
491.798	19076.32
492.168	19559.02
492.538	19605.12
492.908	19777.32
493.278	19991.1
493.648	20098.89
494.017	20334.59
494.387	20437.64
494.757	20782.04
495.126	20901.81
495.496	20985.42
495.866	21135.02
496.235	21330.5
496.605	21527.1
496.974	21689.36
497.344	21845.74
497.713	22070.37
498.082	22199.18
498.452	22481.2
498.821	22548.55
499.19	22606.4
499.559	22865.37
499.928	23065.59
500.298	23143.78
500.667	23469.88
501.036	23382.42
501.405	23811.79
501.774	23707.61
502.143	24018.79
502.512	24141.27
502.88	24392.34
503.249	24342.4
503.618	24728.38
503.987	24827.36
504.356	24945.54
504.724	25138.99
505.093	25326.1
505.462	25480.45
505.83	25578.52
506.199	25798.63
506.567	26329.69
506.936	26138.06
507.304	26528.55
507.672	26662.34
508.041	26703.01
508.409	26960.18
508.777	27168.31
509.145	27329.44
509.514	27291.92
509.882	27535.53
510.25	27855.07
510.618	27891.68
510.986	27999.7
511.354	28329.18
511.722	28506.81
512.09	28867.25
512.458	28679.68
512.826	29020.47
513.193	29267.24
513.561	29269.05
513.929	29512.2
514.297	29805.98
514.664	30101.79
515.032	30018.18
515.4	30515.79
515.767	30639.63
516.135	30624.27
516.502	30644.15
516.869	31241.88
517.237	31337.02
517.604	31356
517.972	31746.72
518.339	32015.42
518.706	32169.99
519.073	32257.22
519.44	32543.31
519.808	32935.17
520.175	33003.64
520.542	33505.77
520.909	33599.78
521.276	33615.83
521.643	34066.43
522.009	34190.27
522.376	34574.9
522.743	34816.02
523.11	35167.65
523.477	35378.26
523.843	35775.32
524.21	35976.89
524.577	36430.21
524.943	36423.66
525.31	36679.7
525.676	37055.28
526.043	37302.51
526.409	37264.99
526.776	37744.98
527.142	37900.23
527.508	38033.34
527.874	38248.47
528.241	38454.79
528.607	38663.15
528.973	38991.73
529.339	38990.83
529.705	39363.24
530.071	39672.84
530.437	39667.19
530.803	40025.37
531.169	40368.87
531.535	40290.23
531.901	40386.04
532.267	40584.46
532.632	40942.86
532.998	41116.87
533.364	41195.74
533.73	41409.97
534.095	41706.23
534.461	41815.84
534.826	42003.85
535.192	42068.71
535.557	42564.74
535.923	42504.18
536.288	42640.22
536.653	42879.99
537.019	43030.49
537.384	43230.94
537.749	43381.44
538.114	43505.73
538.479	43651.49
538.845	43948.21
539.21	43973.07
539.575	44121.99
539.94	44253.29
540.305	44570.11
540.67	44380.74
541.034	44702.54
541.399	44948.63
541.764	45012.81
542.129	45206.93
542.494	45101.62
542.858	45395.85
543.223	45455.97
543.587	45607.37
543.952	45624.1
544.316	45957.42
544.681	45764.43
545.045	46082.16
545.41	46279
545.774	46434.25
546.138	46488.48
546.503	46534.13
546.867	46540.23
547.231	47054.57
547.595	46899.09
547.959	47161.23
548.324	47051.4
548.688	47212.08
549.052	47470.83
549.416	47529.36
549.779	47618.39
550.143	47691.39
550.507	47856.13
550.871	48124.6
551.235	48115.33
551.599	48420.41
551.962	48513.51
552.326	48637.13
552.689	49051.13
553.053	48823.79
553.417	48866.27
553.78	49349.2
554.143	49108.75
554.507	49454.28
554.87	49579.02
555.234	49789.19
555.597	49780.6
555.96	49975.17
556.323	50052.46
556.686	50190.53
557.05	50376.06
557.413	50462.61
557.776	50592.1
558.139	50765.2
558.502	50805.43
558.865	50923.39
559.228	51317.96
559.59	51247.23
559.953	51361.57
560.316	51649.48
560.679	51629.59
561.041	51856.48
561.404	51961.56
561.767	51996.13
562.129	52094.21
562.492	52540.53
562.854	52469.79
563.217	52421.88
563.579	52680.18
563.941	52789.78
564.304	52890.57
564.666	53148.42
565.028	53177.8
565.39	53238.59
565.753	53426.15
566.115	53569.2
566.477	53655.75
566.839	53687.61
567.201	54065.46
567.563	53966.25
567.925	54177.77
568.287	54222.06
568.648	54349.74
569.01	54445.56
569.372	54691.2
569.734	54540.47
570.095	54828.83
570.457	54889.39
570.819	54988.82
571.18	54935.04
571.542	55185.43
571.903	55296.61
572.265	55313.33
572.626	55410.05
572.987	55471.75
573.349	55501.35
573.71	55527.34
574.071	55631.97
574.432	55763.94
574.794	55935.01
575.155	55916.26
575.516	55857.05
575.877	56117.61
576.238	56026.76
576.599	56098.62
576.96	56166.87
577.32	56276.47
577.681	56247.55
578.042	56386.3
578.403	56385.62
578.763	56412.51
579.124	56425.62
579.485	56563.92
579.845	56662.9
580.206	56499.74
580.566	56542.68
580.927	56570.48
581.287	56711.72
581.648	56609.8
582.008	56700.19
582.368	56685.5
582.728	56706.29
583.089	56690.02
583.449	56697.25
583.809	56719.4
584.169	56770.24
584.529	56716.91
584.889	56995.1
585.249	56808.21
585.609	56768.89
585.969	56881.88
586.329	56743.13
586.688	56874.87
587.048	56919.62
587.408	56785.16
587.768	56824.25
588.127	56814.76
588.487	56746.97
588.846	56979.5
589.206	56785.39
589.565	56868.32
589.925	56972.95
590.284	56970.24
590.643	56927.98
591.003	57026.51
591.362	57113.06
591.721	56970.24
592.08	57025.15
592.44	57145.38
592.799	57071.48
593.158	57027.64
593.517	57085.49
593.876	57102.44
594.235	57035.77
594.593	57106.05
594.952	57159.84
595.311	57099.5
595.67	57176.79
596.029	57260.4
596.387	57293.17
596.746	57367.29
597.104	57254.07
597.463	57231.25
597.822	57290.91
598.18	57273.96
598.538	57231.93
598.897	57405.26
599.255	57207.52
599.613	57576.1
599.972	57335.43
600.33	57475.31
600.688	57315.99
601.046	57362.77
601.404	57439.61
601.762	57471.7
602.12	57497.68
602.478	57494.29
602.836	57426.27
603.194	57324.58
603.552	57355.09
603.91	57356.9
604.268	57458.14
604.625	57320.29
604.983	57464.69
605.341	57267.18
605.698	57472.82
606.056	57591.69
606.413	57506.5
606.771	57582.65
607.128	57637.34
607.485	57501.98
607.843	57536.33
608.2	57626.27
608.557	57704.01
608.914	57624.91
609.272	57798.24
609.629	57777.68
609.986	57924.56
610.343	57802.31
610.7	57965.24
611.057	57960.5
611.414	57951
611.771	57942.19
612.127	58027.61
612.484	58092.47
612.841	58097.22
613.198	58065.13
613.554	58080.04
613.911	58234.84
614.267	58150.1
614.624	58136.31
614.98	58283.2
615.337	58336.98
615.693	58230.09
616.05	58254.5
616.406	58408.39
616.762	58374.95
617.118	58348.06
617.475	58397.55
617.831	58495.17
618.187	58497.88
618.543	58501.5
618.899	58716.41
619.255	58567.03
619.611	58526.36
619.967	58636.41
620.323	58721.61
620.678	58575.62
621.034	58534.04
621.39	58548.28
621.746	58462.4
622.101	58775.39
622.457	58481.84
622.812	58595.51
623.168	58693.36
623.523	58679.35
623.879	58731.32
624.234	58527.26
624.589	58576.75
624.945	58665.11
625.3	58578.78
625.655	58576.07
626.01	58562.29
626.365	58549.41
626.72	58513.93
627.075	58393.03
627.43	58468.51
627.785	58340.6
628.14	58435.51
628.495	58427.38
628.85	58370.2
629.205	58287.49
629.559	58417.21
629.914	58325.68
630.269	58322.07
630.623	58152.81
630.978	58135.18
631.332	58273.71
631.687	58254.05
632.041	58172.69
632.396	58234.39
632.75	58044.79
633.104	58173.37
633.459	58008.63
633.813	57995.98
634.167	57959.14
634.521	58017.67
634.875	57979.25
635.229	57986.26
635.583	57877.11
635.937	57905.81
636.291	57919.37
636.645	57994.62
636.999	57855.41
637.352	57896.99
637.706	57718.92
638.06	57853.15
638.413	57785.13
638.767	57798.92
639.121	57825.81
639.474	57630.56
639.828	57669.88
640.181	57711.46
640.534	57677.57
640.888	57654.29
641.241	57502.88
641.594	57578.13
641.947	57723.21
642.301	57603.44
642.654	57581.3
643.007	57621.07
643.36	57529.77
643.713	57557.12
644.066	57694.29
644.419	57429.89
644.771	57295.43
645.124	57068.09
645.477	56948.09
645.83	56801.66
646.182	56739.51
646.535	56610.93
646.888	56648.21
647.24	56492.06
647.593	56637.82
647.945	56556.69
648.298	56351.5
648.65	56400.54
649.002	56269.92
649.355	56376.36
649.707	56387.43
650.059	56484.15
650.411	56770.02
650.763	56766.85
651.115	57043.91
651.467	56885.5
651.819	56818.38
652.171	56745.61
652.523	56749.23
652.875	56764.37
653.227	56619.97
653.578	56732.28
653.93	56695.44
654.282	56504.26
654.633	56402.34
654.985	56443.93
655.337	56412.29
655.688	56499.52
656.039	56508.33
656.391	56218.62
656.742	56327.77
657.094	56317.15
657.445	56384.49
657.796	56342.91
658.147	56285.96
658.498	56233.76
658.849	56304.72
659.2	56197.15
659.551	56103.37
659.902	56222.69
660.253	56161.9
660.604	56187.21
660.955	55979.98
661.306	56142.01
661.656	56062.01
662.007	56096.14
662.358	56048.68
662.708	56069.7
663.059	56057.95
663.409	55852.53
663.76	56025.41
664.11	56053.88
664.461	56053.65
664.811	55982.69
665.161	55947.89
665.511	55911.51
665.862	56023.82
666.212	56045.29
666.562	56067.89
666.912	55992.41
667.262	56014.56
667.612	55988.34
667.962	56097.04
668.312	56030.38
668.662	56036.03
669.011	56015.24
669.361	55936.59
669.711	55894.11
670.06	55891.62
670.41	55868.35
670.76	55812.08
671.109	55921.23
671.459	55830.83
671.808	55741.35
672.157	55756.26
672.507	55638.52
672.856	55587.9
673.205	55648.92
673.554	55731.4
673.904	55666.09
674.253	55759.42
674.602	55662.48
674.951	55211.64
675.3	55034.92
675.649	55541.8
675.998	55445.76
676.346	55483.95
676.695	55554.68
677.044	55312.2
677.393	55408.25
677.741	55448.7
678.09	55329.15
678.438	55201.02
678.787	55229.49
679.135	55258.19
679.484	55053.68
679.832	55102.27
680.181	54942.04
680.529	55089.84
680.877	54859.79
681.225	54893.23
681.573	55009.61
681.922	54740.02
682.27	54693.01
682.618	54704.31
682.966	54629.96
683.314	54663.86
683.661	54649.4
684.009	54449.4
684.357	54429.06
684.705	54353.13
685.053	54304.32
685.4	54252.34
685.748	54115.85
686.095	54127.15
686.443	54069.98
686.79	53947.04
687.138	53911.79
687.485	54001.5
687.832	53759.25
688.18	53852.13
688.527	53712.7
688.874	53692.59
689.221	53620.5
689.568	53526.26
689.915	53422.76
690.262	53523.32
690.609	53299.15
690.956	53303.22
691.303	53219.6
691.65	53001.76
691.997	53008.99
692.344	52804.25
692.69	52876.34
693.037	52974.86
693.383	52609.22
693.73	52805.83
694.077	52620.75
694.423	52532.16
694.769	52444.03
695.116	52414.65
695.462	52392.51
695.808	52273.87
696.155	52256.69
696.501	51995.23
696.847	52039.07
697.193	51777.83
697.539	51954.78
697.885	51609.02
698.231	51655.35
698.577	51718.17
698.923	51636.14
699.269	51423.72
699.614	51311.63
699.96	51174.23
700.306	51285.64
700.651	51145.53
700.997	50948.02
701.342	50887.24
701.688	50893.34
702.033	50789.38
702.379	50725.21
702.724	50662.61
703.069	50691.08
703.415	50300.81
703.76	50252.9
704.105	50320.92
704.45	50190.53
704.795	49995.73
705.14	49877.77
705.485	49889.07
705.83	49683.65
706.175	49688.4
706.52	49603.2
706.865	49491.34
707.209	49400.49
707.554	49346.94
707.899	49264.91
708.243	49109.88
708.588	48961.18
708.932	48788.99
709.277	48731.36
709.621	48814.07
709.966	48594.64
710.31	48545.38
710.654	48210.02
710.998	48319.17
711.342	48284.59
711.687	48118.95
712.031	47939.52
712.375	47808.45
712.719	47836.69
713.063	47738.39
713.407	47753.98
713.75	47562.13
714.094	47535.23
714.438	47181.8
714.782	47329.81
715.125	47184.28
715.469	47196.94
715.812	47010.28
716.156	46709.49
716.499	46793.78
716.843	46723.05
717.186	46477.18
717.53	46762.6
717.873	46469.05
718.216	46506.11
718.559	46434.25
718.902	46067.02
719.246	46163.07
719.589	46030.41
719.932	45847.14
720.275	45892.79
720.617	45813.02
720.96	45698.45
721.303	45592.23
721.646	45689.41
721.989	45399.92
722.331	45593.36
722.674	45414.61
723.016	45367.61
723.359	45205.58
723.701	45315.18
724.044	45198.35
724.386	44893.04
724.729	45072.7
725.071	44880.16
725.413	44826.83
725.755	44768.98
726.097	44599.72
726.439	44390.01
726.782	44443.11
727.124	44665.25
727.465	44391.36
727.807	44352.27
728.149	44078.83
728.491	44187.75
728.833	44303.91
729.175	44050.13
729.516	43885.61
729.858	43976
730.199	44001.54
730.541	43836.35
730.882	43919.28
731.224	43917.93
731.565	43596.81
731.906	43736.01
732.248	43698.05
732.589	43592.51
732.93	43495.11
733.271	43479.97
733.612	43586.86
733.953	43472.06
734.294	43335.34
734.635	43320.43
734.976	43334.89
735.317	43164.5
735.658	42978.97
735.999	43039.53
736.339	43009.93
736.68	43003.37
737.021	42808.58
737.361	42650.84
737.702	42867.79
738.042	42716.6
738.383	42527.91
738.723	42763.61
739.063	42509.6
739.404	42477.74
739.744	42283.85
740.084	42235.94
740.424	42186.45
740.764	42117.97
741.104	42188.93
741.444	41968.6
741.784	41823.97
742.124	41792.11
742.464	41717.98
742.804	41645.44
743.143	41750.53
743.483	41531.78
743.823	41228.28
744.162	41277.54
744.502	41332.68
744.841	41119.58
745.181	41226.92
745.52	41006.14
745.86	41000.94
746.199	40840.72
746.538	40840.95
746.877	40830.1
747.216	40782.42
747.556	40609.77
747.895	40493.16
748.234	40354.63
748.573	40341.98
748.911	40317.12
749.25	40266.27
749.589	40031.93
749.928	40141.53
750.267	40015.2
750.605	39786.96
750.944	39749.9
751.283	39493.64
751.621	39506.52
751.96	39391.72
752.298	39337.03
752.636	39380.19
