Data from white_wall_FLMS001491_096.txt Node
Date: Tue Feb 07 11:06:16 GMT 2017
User: dcchb
Spectrometer: FLMS00149
Trigger mode: 0
Integration Time (sec): 2.000000E-2
Scans to average: 10
Electric dark correction enabled: true
Nonlinearity correction enabled: false
Boxcar width: 0
XAxis mode: Wavelengths
Number of Pixels in Spectrum: 2048
>>>>>Begin Spectral Data<<<<<
341.393	-9
341.776	-9
342.16	-9
342.543	-50.58
342.927	-63.46
343.31	-66.62
343.693	-67.75
344.077	-78.6
344.46	-54.42
344.843	-59.39
345.226	-52.16
345.61	-15.55
345.993	-13.74
346.376	-6.06
346.759	-2.67
347.142	23.09
347.525	47.72
347.908	61.96
348.291	78.91
348.674	96.09
349.057	109.19
349.44	124.56
349.823	137.44
350.206	172.02
350.588	221.05
350.971	236.42
351.354	254.95
351.737	263.76
352.119	289.75
352.502	308.51
352.884	304.22
353.267	288.62
353.65	317.55
354.032	311.9
354.414	325.01
354.797	338.56
355.179	358.23
355.562	343.76
355.944	341.28
356.326	363.87
356.709	352.8
357.091	365.23
357.473	388.96
357.855	370.65
358.238	380.82
358.62	372.01
359.002	359.13
359.384	358
359.766	359.58
360.148	354.61
360.53	365.23
360.912	362.29
361.294	359.13
361.676	348.28
362.057	345.8
362.439	342.63
362.821	393.03
363.203	371.33
363.584	359.13
363.966	358.68
364.348	352.58
364.729	356.87
365.111	349.41
365.493	333.14
365.874	333.37
366.256	343.31
366.637	363.65
367.019	354.16
367.4	346.47
367.781	352.8
368.163	369.98
368.544	363.87
368.925	353.93
369.306	366.13
369.688	333.14
370.069	358.23
370.45	360.94
370.831	336.98
371.212	337.21
371.593	365.91
371.974	345.12
372.355	351.67
372.736	361.84
373.117	371.11
373.498	353.71
373.879	348.51
374.26	363.42
374.641	357.32
375.021	371.33
375.402	347.6
375.783	353.93
376.163	362.97
376.544	355.29
376.925	373.59
377.305	363.65
377.686	361.84
378.066	337.66
378.447	379.47
378.827	387.6
379.208	364.1
379.588	380.82
379.968	371.56
380.349	388.73
380.729	383.76
381.109	416.3
381.489	407.49
381.87	398.45
382.25	390.77
382.63	408.62
383.01	395.51
383.39	407.04
383.77	400.03
384.15	394.83
384.53	384.44
384.91	424.89
385.29	422.4
385.67	425.57
386.049	423.76
386.429	405.68
386.809	421.73
387.189	433.93
387.568	440.03
387.948	444.32
388.328	448.17
388.707	447.71
389.087	437.77
389.466	433.93
389.846	445.45
390.225	472.57
390.605	451.33
390.984	499.24
391.363	486.58
391.743	489.97
392.122	500.37
392.501	511.89
392.881	497.2
393.26	533.36
393.639	513.48
394.018	528.39
394.397	526.36
394.776	526.58
395.155	544.89
395.534	538.56
395.913	566.81
396.292	585.79
396.671	592.34
397.05	609.29
397.429	603.64
397.808	593.7
398.186	625.11
398.565	642.74
398.944	640.25
399.323	649.97
399.701	673.92
400.08	677.76
400.458	701.27
400.837	708.27
401.215	719.57
401.594	703.3
401.972	733.36
402.351	741.72
402.729	797.54
403.107	789.17
403.486	790.76
403.864	819
404.242	803.19
404.62	825.11
404.999	854.26
405.377	867.82
405.755	870.3
406.133	906.23
406.511	916.18
406.889	944.88
407.267	921.15
407.645	945.55
408.023	997.08
408.401	1014.7
408.779	1024.42
409.156	1032.78
409.534	1066.91
409.912	1060.58
410.29	1111.2
410.667	1133.57
411.045	1136.06
411.422	1139.67
411.8	1165.89
412.178	1175.38
412.555	1194.59
412.933	1240.69
413.31	1256.96
413.687	1293.12
414.065	1306.67
414.442	1303.06
414.819	1303.51
415.197	1342.38
415.574	1337.86
415.951	1395.26
416.328	1395.03
416.705	1420.12
417.082	1421.7
417.46	1434.58
417.837	1463.73
418.214	1438.65
418.591	1469.16
418.967	1493.11
419.344	1513.22
419.721	1543.96
420.098	1527.01
420.475	1581.92
420.852	1577.18
421.228	1600.68
421.605	1612.43
421.982	1645.65
422.358	1670.51
422.735	1664.63
423.111	1706.21
423.488	1690.85
423.864	1717.96
424.241	1734.23
424.617	1779.66
424.994	1805.19
425.37	1798.64
425.746	1803.16
426.123	1849.26
426.499	1866.43
426.875	1879.09
427.251	1934.91
427.627	1960.67
428.003	1971.29
428.379	1997.28
428.756	2014.9
429.132	2034.11
429.507	2081.34
429.883	2102.36
430.259	2173.77
430.635	2163.83
431.011	2167.89
431.387	2249.02
431.763	2292.41
432.138	2311.85
432.514	2315.46
432.89	2357.27
433.265	2397.27
433.641	2421
434.016	2437.04
434.392	2487.89
434.767	2539.18
435.143	2547.77
435.518	2554.78
435.894	2595.91
436.269	2616.02
436.644	2644.49
437.02	2707.77
437.395	2696.02
437.77	2752.06
438.145	2764.49
438.52	2806.3
438.895	2867.54
439.271	2851.49
439.646	2934.43
440.021	2936.69
440.395	2935.33
440.77	2923.81
441.145	2993.18
441.52	3089.68
441.895	3073.18
442.27	3082.22
442.645	3108.44
443.019	3137.81
443.394	3132.16
443.769	3181.88
444.143	3155.44
444.518	3247.41
444.892	3214.65
445.267	3275.66
445.641	3317.47
446.016	3310.69
446.39	3305.94
446.764	3348.65
447.139	3359.28
447.513	3459.16
447.887	3433.4
448.262	3484.7
448.636	3492.15
449.01	3563.11
449.384	3550.23
449.758	3603.34
450.132	3652.15
450.506	3663.22
450.88	3673.84
451.254	3704.35
451.628	3773.73
452.002	3843.33
452.376	3814.18
452.75	3881.07
453.123	3895.76
453.497	3952.93
453.871	3994.06
454.244	4124
454.618	4127.39
454.992	4148.18
455.365	4194.96
455.739	4273.38
456.112	4356.31
456.486	4355.41
456.859	4447.84
457.232	4501.17
457.606	4537.32
457.979	4618.23
458.352	4673.37
458.725	4752.91
459.099	4784.1
459.472	4874.26
459.845	4922.62
460.218	4917.43
460.591	4983.41
460.964	5054.15
461.337	5130.75
461.71	5271.77
462.083	5354.93
462.456	5357.19
462.829	5388.83
463.201	5442.16
463.574	5492.78
463.947	5599.9
464.32	5692.32
464.692	5739.1
465.065	5768.48
465.438	5914.24
465.81	6040.79
466.183	6034.69
466.555	6177.51
466.928	6224.51
467.3	6232.19
467.672	6354.45
468.045	6541.57
468.417	6589.7
468.789	6578.17
469.161	6728
469.534	6781.33
469.906	6963.93
470.278	7006.64
470.65	7090.48
471.022	7245.05
471.394	7373.86
471.766	7421.32
472.138	7535.66
472.51	7704.47
472.882	7803.68
473.253	7888.2
473.625	8019.72
473.997	8223.33
474.369	8295.87
474.74	8327.28
475.112	8554.17
475.484	8680.49
475.855	8850.66
476.227	8961.84
476.598	9227.37
476.97	9298.33
477.341	9539.9
477.713	9607.02
478.084	9688.6
478.455	10032.55
478.827	10044.07
479.198	10414.68
479.569	10398.64
479.94	10687.67
480.311	10792.07
480.682	11060.32
481.053	11355.22
481.424	11457.37
481.795	11571.49
482.166	11723.8
482.537	11951.82
482.908	12299.15
483.279	12258.25
483.65	12648.75
484.021	12823.66
484.391	13057.33
484.762	12995.41
485.133	13252.35
485.503	13563.98
485.874	13736.63
486.244	13812.79
486.615	14081.48
486.985	14312.89
487.356	14589.72
487.726	14775.7
488.097	15056.82
488.467	15071.74
488.837	15376.81
489.207	15634.43
489.578	15779.51
489.948	15956.23
490.318	16182.89
490.688	16323.23
491.058	16626.95
491.428	16855.87
491.798	16944.23
492.168	17334.5
492.538	17362.75
492.908	17648.84
493.278	17924.32
493.648	17895.17
494.017	18258.09
494.387	18417.64
494.757	18487.69
495.126	18722.26
495.496	18715.03
495.866	18927.45
496.235	19229.82
496.605	19336.26
496.974	19468.91
497.344	19746.87
497.713	19933.98
498.082	19977.37
498.452	20133.98
498.821	20289.23
499.19	20394.08
499.559	20603.79
499.928	20735.77
500.298	21023.44
500.667	21219.15
501.036	21214.85
501.405	21362.19
501.774	21384.79
502.143	21627.5
502.512	21792.69
502.88	22082.17
503.249	22085.79
503.618	22306.35
503.987	22316.74
504.356	22591.54
504.724	22848.93
505.093	22963.51
505.462	22948.59
505.83	23239.43
506.199	23476.04
506.567	23675.13
506.936	23705.63
507.304	23984.95
507.672	24033.99
508.041	24239.41
508.409	24454.31
508.777	24640.07
509.145	24876.68
509.514	24824.02
509.882	25111.02
510.25	25110.34
510.618	25459.03
510.986	25642.31
511.354	25895.86
511.722	26115.29
512.09	26463.98
512.458	26241.16
512.826	26543.3
513.193	26736.97
513.561	26785.33
513.929	27120.23
514.297	27432.54
514.664	27555.25
515.032	27681.8
515.4	27908.46
515.767	28081.56
516.135	28210.37
516.502	28161.34
516.869	28604.94
517.237	28788.89
517.604	28783.47
517.972	29214.64
518.339	29275.66
518.706	29433.84
519.073	29700.28
519.44	29868.18
519.808	30182.75
520.175	30066.6
520.542	30629.29
520.909	30716.97
521.276	30890.98
521.643	31025.67
522.009	31408.26
522.376	31610.51
522.743	31827.68
523.11	32114.23
523.477	32342.69
523.843	32557.6
524.21	32969.8
524.577	33237.36
524.943	33257.47
525.31	33403.91
525.676	33788.76
526.043	34057
526.409	34214.74
526.776	34576.76
527.142	34517.33
527.508	34919.35
527.874	35133.58
528.241	35343.97
528.607	35667.81
528.973	35744.19
529.339	35750.06
529.705	36190.73
530.071	36446.77
530.437	36483.6
530.803	36803.82
531.169	37083.81
531.535	37032.74
531.901	37157.48
532.267	37355.9
532.632	37538.26
532.998	37875.43
533.364	37959.95
533.73	38241.75
534.095	38578.91
534.461	38563.55
534.826	38814.16
535.192	38893.26
535.557	39197.2
535.923	38994.72
536.288	39377.54
536.653	39537.53
537.019	39511.32
537.384	39764.65
537.749	39913.57
538.114	39962.61
538.479	40178.42
538.845	40320.56
539.21	40284.86
539.575	40629.03
539.94	40674.45
540.305	40983.37
540.67	40858.86
541.034	41173.88
541.399	41321.67
541.764	41488.44
542.129	41682.34
542.494	41778.15
542.858	41978.83
543.223	41977.02
543.587	42217.24
543.952	42275.31
544.316	42422.2
544.681	42351.02
545.045	42769.09
545.41	42916.2
545.774	43132.02
546.138	43124.11
546.503	43225.8
546.867	43407.94
547.231	43724.99
547.595	43857.87
547.959	43984.87
548.324	44040.69
548.688	44078.66
549.052	44465.77
549.416	44483.17
549.779	44560.23
550.143	44588.25
550.507	45021.23
550.871	45183.04
551.235	45178.06
551.599	45472.52
551.962	45520.65
552.326	45869.12
552.689	45956.35
553.053	45979.62
553.417	46128.55
553.78	46660.96
554.143	46549.1
554.507	46671.36
554.87	46968.52
555.234	47338.68
555.597	47113.61
555.96	47445.35
556.323	47615.29
556.686	47556.53
557.05	47804.89
557.413	48134.82
557.776	48229.06
558.139	48446.68
558.502	48667.01
558.865	48694.81
559.228	49083.95
559.59	49108.58
559.953	49164.85
560.316	49605.52
560.679	49598.96
561.041	49754.44
561.404	50012.29
561.767	50179.51
562.129	50111.27
562.492	50569.56
562.854	50436.91
563.217	50605.72
563.579	50676.9
563.941	50981.75
564.304	51158.47
564.666	51330.67
565.028	51433.49
565.39	51554.62
565.753	51579.7
566.115	51831
566.477	51932.46
566.839	51986.7
567.201	52223.75
567.563	52158.67
567.925	52513.92
568.287	52464.2
568.648	52644.53
569.01	52727.02
569.372	52977.18
569.734	52890.18
570.095	53138.31
570.457	53213.56
570.819	53305.08
571.18	53387.57
571.542	53428.02
571.903	53451.97
572.265	53550.27
572.626	53693.32
572.987	53778.74
573.349	53832.07
573.71	53944.84
574.071	53985.29
574.432	54117.94
574.794	54330.59
575.155	54316.35
575.516	54257.82
575.877	54451.72
576.238	54457.82
576.599	54625.5
576.96	54522.22
577.32	54629.57
577.681	54678.6
578.042	54760.64
578.403	54719.06
578.763	54815.32
579.124	54847.64
579.485	54887.41
579.845	54951.82
580.206	54964.47
580.566	55004.25
580.927	55040.4
581.287	55068.2
581.648	55024.81
582.008	55147.07
582.368	55100.29
582.728	55189.78
583.089	55173.96
583.449	55111.14
583.809	55226.16
584.169	55255.54
584.529	55181.19
584.889	55361.75
585.249	55187.29
585.609	55164.47
585.969	55379.15
586.329	55279.04
586.688	55384.12
587.048	55314.07
587.408	55313.16
587.768	55263.67
588.127	55257.12
588.487	55247.18
588.846	55476.1
589.206	55249.89
589.565	55370.56
589.925	55471.13
590.284	55297.12
590.643	55415.08
591.003	55393.61
591.362	55547.06
591.721	55455.08
592.08	55414.86
592.44	55544.8
592.799	55512.26
593.158	55411.47
593.517	55482.88
593.876	55551.8
594.235	55468.41
594.593	55473.84
594.952	55599.03
595.311	55502.99
595.67	55566.72
596.029	55661.4
596.387	55649.65
596.746	55687.17
597.104	55591.8
597.463	55614.4
597.822	55658.24
598.18	55583.44
598.538	55603.78
598.897	55819.37
599.255	55563.33
599.613	55933.71
599.972	55803.77
600.33	55853.49
600.688	55748.86
601.046	55824.34
601.404	55920.38
601.762	55851.91
602.12	55981.85
602.478	55975.97
602.836	55995.18
603.194	55890.78
603.552	55947.72
603.91	55819.14
604.268	55987.95
604.625	55906.59
604.983	56065.46
605.341	55904.56
605.698	56093.48
606.056	56123.54
606.413	56076.53
606.771	56248.73
607.128	56303.87
607.485	56095.74
607.843	56166.48
608.2	56267.94
608.557	56355.17
608.914	56205.8
609.272	56431.55
609.629	56358.79
609.986	56499.57
610.343	56415.28
610.7	56619.57
611.057	56555.17
611.414	56560.59
611.771	56486.01
612.127	56628.16
612.484	56622.28
612.841	56675.16
613.198	56617.54
613.554	56637.42
613.911	56817.76
614.267	56768.04
614.624	56795.16
614.98	56793.58
615.337	56876.96
615.693	56836.51
616.05	56810.98
616.406	56961.26
616.762	56971.65
617.118	56880.35
617.475	56913.35
617.831	56958.54
618.187	57048.03
618.543	56999.22
618.899	57106.34
619.255	57158.99
619.611	57127.35
619.967	57240.8
620.323	57237.18
620.678	57188.82
621.034	57121.48
621.39	57077.19
621.746	57133.23
622.101	57386.56
622.457	57176.39
622.812	57231.76
623.168	57246.9
623.523	57267.92
623.879	57399.44
624.234	57163.96
624.589	57312.43
624.945	57221.36
625.3	57311.53
625.655	57267.69
626.01	57291.64
626.365	57207.13
626.72	57235.6
627.075	57330.74
627.43	57209.61
627.785	57208.26
628.14	57280.8
628.495	57267.24
628.85	57268.14
629.205	57176.84
629.559	57369.38
629.914	57186.11
630.269	57158.54
630.623	57105.89
630.978	57064.76
631.332	57136.85
631.687	57236.05
632.041	57118.31
632.396	57183.85
632.75	57017.75
633.104	57061.82
633.459	56938.21
633.813	56900.92
634.167	56900.24
634.521	56976.62
634.875	56972.33
635.229	56914.48
635.583	56813.24
635.937	56849.4
636.291	56826.8
636.645	56785.67
636.999	56719
637.352	56748.38
637.706	56648.27
638.06	56768.95
638.413	56689.63
638.767	56535.28
639.121	56646.24
639.474	56454.6
639.828	56465.68
640.181	56472.68
640.534	56499.35
640.888	56362.4
641.241	56343.19
641.594	56397.88
641.947	56456.19
642.301	56284.21
642.654	56330.76
643.007	56278.11
643.36	56335.96
643.713	56195.63
644.066	56319.47
644.419	56088.06
644.771	55907.95
645.124	55732.59
645.477	55621.63
645.83	55436.55
646.182	55405.14
646.535	55383.44
646.888	55406.27
647.24	55251.92
647.593	55323.33
647.945	55246.95
648.298	55131.25
648.65	55178.48
649.002	55042.89
649.355	55110.68
649.707	55053.28
650.059	55245.37
650.411	55558.13
650.763	55557
651.115	55690.56
651.467	55608.52
651.819	55662.53
652.171	55681.52
652.523	55525.14
652.875	55507.96
653.227	55431.35
653.578	55551.58
653.93	55532.37
654.282	55455.31
654.633	55418.7
654.985	55448.08
655.337	55364.91
655.688	55398.13
656.039	55359.94
656.391	55268.87
656.742	55226.84
657.094	55247.18
657.445	55381.64
657.796	55303.9
658.147	55232.94
658.498	55229.55
658.849	55253.73
659.2	55205.6
659.551	55075.43
659.902	55293.96
660.253	55117.92
660.604	55137.58
660.955	54993.17
661.306	55154.98
661.656	55025.49
662.007	55027.3
662.358	55007.41
662.708	54959.28
663.059	54981.65
663.409	54768.55
663.76	55008.31
664.11	55028.88
664.461	54951.82
664.811	55006.28
665.161	54935.77
665.511	54816
665.862	54824.59
666.212	54960.18
666.562	54954.08
666.912	54881.99
667.262	54802.67
667.612	54832.95
667.962	54778.26
668.312	54743.69
668.662	54844.48
669.011	54803.57
669.361	54720.41
669.711	54629.34
670.06	54662.79
670.41	54546.63
670.76	54634.09
671.109	54708.89
671.459	54576.01
671.808	54564.71
672.157	54645.61
672.507	54345.51
672.856	54432.51
673.205	54492.85
673.554	54612.39
673.904	54415.79
674.253	54638.38
674.602	54487.65
674.951	53978.06
675.3	53848.12
675.649	54365.84
675.998	54256.02
676.346	54366.3
676.695	54402.68
677.044	54170.14
677.393	54310.48
677.741	54237.03
678.09	54184.15
678.438	54099.64
678.787	54201.56
679.135	54127.88
679.484	53920.66
679.832	54048.79
680.181	53868
680.529	53959.08
680.877	53840.43
681.225	53842.47
681.573	53930.83
681.922	53751.4
682.27	53619.42
682.618	53673.89
682.966	53635.47
683.314	53617.84
683.661	53514.57
684.009	53274.35
684.357	53315.02
684.705	53341.92
685.053	53321.8
685.4	53247.23
685.748	53047.69
686.095	53103.05
686.443	53005.43
686.79	52853.12
687.138	52963.62
687.485	52884.98
687.832	52768.82
688.18	52700.13
688.527	52576.74
688.874	52504.65
689.221	52520.02
689.568	52328.61
689.915	52372.68
690.262	52335.62
690.609	52237.54
690.956	52151.67
691.303	52106.02
691.65	51956.19
691.997	51932.69
692.344	51673.26
692.69	51651.11
693.037	51689.08
693.383	51396.21
693.73	51537.67
694.077	51393.04
694.423	51307.39
694.769	51239.6
695.116	51261.29
695.462	51108.53
695.808	50941.08
696.155	50963.22
696.501	50679.16
696.847	50680.07
697.193	50559.62
697.539	50628.77
697.885	50386.06
698.231	50385.38
698.577	50265.84
698.923	50175.45
699.269	50062.68
699.614	49917.6
699.96	49760.32
700.306	49868.56
700.651	49695.91
700.997	49633.99
701.342	49510.6
701.688	49501.11
702.033	49313.77
702.379	49323.72
702.724	49183.16
703.069	49213.21
703.415	48817.97
703.76	48756.05
704.105	48922.6
704.45	48653
704.795	48472.44
705.14	48405.32
705.485	48365.1
705.83	48167.14
706.175	48275.84
706.52	48215.27
706.865	48028.16
707.209	48019.8
707.554	47950.65
707.899	47871.55
708.243	47745
708.588	47690.77
708.932	47440.6
709.277	47426.14
709.621	47410.1
709.966	47190.44
710.31	47244.22
710.654	46823.44
710.998	46964.23
711.342	46926.27
711.687	46886.49
712.031	46639.72
712.375	46569.89
712.719	46677.91
713.063	46511.36
713.407	46550
713.75	46338.48
714.094	46446.5
714.438	46167.19
714.782	46369.67
715.125	46011.26
715.469	46191.14
715.812	45949.57
716.156	45678.39
716.499	45730.59
716.843	45875.22
717.186	45544.61
717.53	45631.61
717.873	45623.93
718.216	45479.52
718.559	45253.77
718.902	45095.13
719.246	45152.53
719.589	44893.78
719.932	44828.47
720.275	44855.59
720.617	44804.29
720.96	44830.5
721.303	44693.1
721.646	44720
721.989	44387.58
722.331	44614.46
722.674	44308.48
723.016	44531.75
723.359	44456.05
723.701	44377.41
724.044	44134.02
724.386	43913.69
724.729	44039.11
725.071	43957.76
725.413	43952.33
725.755	43838.89
726.097	43713.7
726.439	43434.83
726.782	43554.38
727.124	43769.06
727.465	43504.89
727.807	43484.1
728.149	43382.4
728.491	43245.68
728.833	43404.78
729.175	43138.12
729.516	42997.78
729.858	42998.69
730.199	43031.45
730.541	42975.64
730.882	42755.75
731.224	42956.88
731.565	42618.58
731.906	42764.57
732.248	42741.29
732.589	42450
732.93	42398.25
733.271	42365.03
733.612	42375.43
733.953	42375.88
734.294	42100.86
734.635	41950.35
734.976	42151.25
735.317	41894.31
735.658	41809.34
735.999	41831.94
736.339	41794.88
736.68	41878.49
737.021	41758.72
737.361	41473.98
737.702	41677.59
738.042	41549.23
738.383	41401.21
738.723	41574.09
739.063	41345.4
739.404	41382.23
739.744	41295.68
740.084	41201.67
740.424	41288.67
740.764	41048.23
741.104	41244.61
741.444	40909.02
741.784	40741.34
742.124	40860.21
742.464	40915.12
742.804	40742.02
743.143	40610.5
743.483	40751.74
743.823	40559.88
744.162	40521.91
744.502	40556.26
744.841	40182.04
745.181	40442.59
745.52	40287.12
745.86	40299.55
746.199	40222.71
746.538	40086.22
746.877	40279.66
747.216	40092.55
747.556	40031.53
747.895	40100.68
748.234	39859.56
748.573	39828.6
748.911	39725.1
749.25	39610.3
749.589	39582.05
749.928	39509.74
750.267	39573.47
750.605	39454.15
750.944	39384.09
751.283	39153.36
751.621	39224.77
751.96	38998.56
752.298	38924.67
752.636	38809.64
752.975	38675.86
753.313	38689.65
