Data from White_paper_FLMS001491_081.txt Node
Date: Tue Feb 07 10:35:39 GMT 2017
User: dcchb
Spectrometer: FLMS00149
Trigger mode: 0
Integration Time (sec): 2.000000E-2
Scans to average: 10
Electric dark correction enabled: true
Nonlinearity correction enabled: false
Boxcar width: 0
XAxis mode: Wavelengths
Number of Pixels in Spectrum: 2048
>>>>>Begin Spectral Data<<<<<
341.393	-26.3
341.776	-26.3
342.16	-26.3
342.543	-50.93
342.927	-63.13
343.31	-68.56
343.693	-62
344.077	-62.46
344.46	-66.07
344.843	-76.69
345.226	-32.17
345.61	-23.36
345.993	-6.41
346.376	-7.09
346.759	25.23
347.142	19.58
347.525	36.52
347.908	60.48
348.291	60.48
348.674	101.83
349.057	100.7
349.44	131.21
349.823	116.97
350.206	172.11
350.588	211.66
350.971	225.9
351.354	238.1
351.737	258.67
352.119	278.78
352.502	285.11
352.884	326.23
353.267	306.35
353.65	322.84
354.032	336.63
354.414	330.3
354.797	347.93
355.179	347.02
355.562	348.38
355.944	359.68
356.326	352.67
356.709	365.1
357.091	375.05
357.473	365.33
357.855	389.06
358.238	382.73
358.62	366.23
359.002	369.85
359.384	375.27
359.766	377.08
360.148	375.27
360.53	375.72
360.912	370.75
361.294	374.59
361.676	366.23
362.057	368.27
362.439	374.82
362.821	387.48
363.203	373.69
363.584	363.07
363.966	383.86
364.348	371.66
364.729	356.06
365.111	377.08
365.493	358.1
365.874	363.52
366.256	370.75
366.637	371.2
367.019	344.09
367.4	350.64
367.781	361.94
368.163	362.62
368.544	363.52
368.925	371.2
369.306	355.84
369.688	374.59
370.069	361.71
370.45	347.48
370.831	380.47
371.212	377.98
371.593	374.37
371.974	377.08
372.355	363.07
372.736	355.61
373.117	379.11
373.498	371.66
373.879	361.71
374.26	364.2
374.641	362.62
375.021	354.93
375.402	379.79
375.783	370.08
376.163	380.92
376.544	393.8
376.925	393.13
377.305	398.1
377.686	389.28
378.066	389.51
378.447	397.87
378.827	391.77
379.208	390.64
379.588	396.51
379.968	405.33
380.349	410.3
380.729	412.33
381.109	417.53
381.489	402.16
381.87	413.69
382.25	423.41
382.63	439.9
383.01	428.6
383.39	427.7
383.77	410.75
384.15	427.47
384.53	440.58
384.91	458.89
385.29	437.64
385.67	436.74
386.049	443.97
386.429	481.48
386.809	464.54
387.189	452.78
387.568	462.28
387.948	466.12
388.328	474.71
388.707	453.24
389.087	474.71
389.466	485.1
389.846	482.84
390.225	474.71
390.605	515.38
390.984	499.34
391.363	492.78
391.743	512.44
392.122	510.64
392.501	542.73
392.881	527.36
393.26	523.74
393.639	550.86
394.018	537.75
394.397	546.12
394.776	552.9
395.155	563.52
395.534	555.83
395.913	564.42
396.292	559.45
396.671	596.96
397.05	622.05
397.429	605.32
397.808	584.98
398.186	590.18
398.565	609.39
398.944	616.62
399.323	618.66
399.701	619.79
400.08	634.02
400.458	667.24
400.837	658.43
401.215	661.37
401.594	665.89
401.972	673.57
402.351	696.62
402.729	678.77
403.107	695.04
403.486	715.15
403.864	724.42
404.242	742.04
404.62	763.06
404.999	766.22
405.377	771.87
405.755	790.85
406.133	817.97
406.511	822.04
406.889	859.33
407.267	875.6
407.645	884.19
408.023	892.77
408.401	891.64
408.779	952.66
409.156	960.79
409.534	974.8
409.912	975.03
410.29	1002.83
410.667	1023.39
411.045	1050.74
411.422	1087.8
411.8	1109.26
412.178	1125.54
412.555	1168.92
412.933	1177.96
413.31	1214.8
413.687	1236.72
414.065	1277.62
414.442	1301.58
414.819	1321.24
415.197	1345.42
415.574	1383.83
415.951	1432.65
416.328	1452.31
416.705	1472.87
417.082	1521.23
417.46	1534.79
417.837	1537.73
418.214	1577.27
418.591	1615.47
418.967	1603.49
419.344	1616.6
419.721	1669.7
420.098	1656.14
420.475	1722.81
420.852	1762.13
421.228	1797.16
421.605	1783.37
421.982	1812.97
422.358	1879.19
422.735	1905.63
423.111	1899.75
423.488	1921.45
423.864	1946.3
424.241	1997.15
424.617	1996.7
424.994	2023.59
425.37	2066.08
425.746	2077.6
426.123	2118.28
426.499	2176.81
426.875	2185.17
427.251	2210.93
427.627	2240.99
428.003	2279.86
428.379	2317.59
428.756	2341.32
429.132	2355.11
429.507	2414.09
429.883	2449.79
430.259	2498.83
430.635	2516.91
431.011	2543.13
431.387	2582.67
431.763	2660.18
432.138	2675.33
432.514	2732.95
432.89	2728.43
433.265	2820.86
433.641	2824.7
434.016	2848.88
434.392	2943.57
434.767	2970.91
435.143	2969.1
435.518	3002.55
435.894	3071.25
436.269	3101.75
436.644	3106.5
437.02	3146.73
437.395	3208.42
437.77	3244.12
438.145	3298.59
438.52	3309.88
438.895	3353.95
439.271	3375.19
439.646	3447.96
440.021	3499.26
440.395	3513.5
440.77	3465.13
441.145	3533.61
441.52	3594.62
441.895	3587.39
442.27	3618.35
442.645	3621.51
443.019	3690.21
443.394	3692.25
443.769	3741.29
444.143	3722.53
444.518	3783.77
444.892	3762.75
445.267	3828.74
445.641	3791.68
446.016	3891.34
446.39	3873.49
446.764	3973.14
447.139	3925.91
447.513	3990.77
447.887	3968.17
448.262	4022.41
448.636	4040.71
449.01	4085.91
449.384	4149.64
449.758	4127.72
450.132	4172.91
450.506	4196.87
450.88	4194.16
451.254	4247.04
451.628	4280.48
452.002	4353.93
452.376	4386.69
452.75	4479.8
453.123	4489.29
453.497	4559.57
453.871	4590.98
454.244	4644.76
454.618	4670.3
454.992	4718.44
455.365	4697.19
455.739	4866.68
456.112	4910.75
456.486	4942.61
456.859	4970.63
457.232	5130.18
457.606	5104.41
457.979	5170.85
458.352	5274.35
458.725	5328.14
459.099	5336.95
459.472	5475.25
459.845	5507.79
460.218	5541.01
460.591	5634.8
460.964	5642.93
461.337	5811.74
461.71	5853.32
462.083	5899.65
462.456	5950.27
462.829	5988.23
463.201	6103.48
463.574	6138.74
463.947	6291.73
464.32	6421.44
464.692	6411.72
465.065	6462.34
465.438	6591.83
465.81	6683.36
466.183	6716.8
466.555	6807.65
466.928	6860.98
467.3	6902.33
467.672	6996.34
468.045	7183.46
468.417	7240.4
468.789	7232.04
469.161	7390.23
469.534	7538.47
469.906	7647.62
470.278	7739.15
470.65	7831.57
471.022	7978.01
471.394	8125.58
471.766	8229.98
472.138	8289.41
472.51	8429.52
472.882	8529.63
473.253	8644.21
473.625	8797.65
473.997	8990.19
474.369	8981.6
474.74	9163.97
475.112	9341.82
475.484	9403.96
475.855	9609.61
476.227	9690.06
476.598	9978.64
476.97	10137.5
477.341	10234.22
477.713	10425.86
478.084	10511.73
478.455	10789.01
478.827	10875.11
479.198	11231.48
479.569	11190.36
479.94	11530.91
480.311	11657.24
480.682	11819.27
481.053	12129.54
481.424	12396.65
481.795	12380.15
482.166	12582.86
482.537	12852.01
482.908	13002.51
483.279	13185.33
483.65	13377.64
484.021	13743.51
484.391	13755.03
484.762	13983.73
485.133	14135.36
485.503	14216.26
485.874	14533.32
486.244	14676.37
486.615	14931.5
486.985	15156.8
487.356	15479.73
487.726	15508.43
488.097	15832.04
488.467	15910.23
488.837	16194.29
489.207	16405.81
489.578	16686.26
489.948	16698.46
490.318	17092.12
490.688	17067.94
491.058	17382.28
491.428	17577.98
491.798	17791.76
492.168	18068.59
492.538	18098.42
492.908	18361.69
493.278	18537.51
493.648	18593.32
494.017	18791.96
494.387	19049.58
494.757	19174.1
495.126	19400.99
495.496	19437.6
495.866	19599.85
496.235	19817.02
496.605	19987.19
496.974	19952.84
497.344	20281.42
497.713	20310.57
498.082	20578.36
498.452	20749.65
498.821	20798.01
499.19	20977.67
499.559	21160.26
499.928	21231.9
500.298	21371.56
500.667	21566.81
501.036	21619.46
501.405	21785.11
501.774	21863.97
502.143	22082.72
502.512	22180.8
502.88	22354.36
503.249	22382.6
503.618	22521.36
503.987	22743.05
504.356	22783.5
504.724	22982.14
505.093	23074.34
505.462	23205.63
505.83	23359.75
506.199	23605.85
506.567	23812.4
506.936	23702.34
507.304	24118.6
507.672	24120.86
508.041	24274.31
508.409	24458.48
508.777	24651.47
509.145	24842.65
509.514	24909.77
509.882	24983.21
510.25	25136.2
510.618	25401.73
510.986	25428.17
511.354	25745.23
511.722	25814.38
512.09	26092.56
512.458	26088.95
512.826	26367.13
513.193	26573.91
513.561	26564.87
513.929	26922.15
514.297	27030.84
514.664	27210.95
515.032	27316.49
515.4	27596.03
515.767	27581.11
516.135	27734.33
516.502	27677.15
516.869	28263.8
517.237	28241.88
517.604	28216.12
517.972	28581.54
518.339	28745.83
518.706	28799.61
519.073	29019.72
519.44	29266.94
519.808	29546.03
520.175	29418.58
520.542	29929.52
520.909	30040.48
521.276	30108.28
521.643	30477.53
522.009	30537.19
522.376	30831.42
522.743	31069.83
523.11	31246.1
523.477	31516.37
523.843	31622.36
524.21	31922.24
524.577	32282.46
524.943	32274.32
525.31	32439.51
525.676	32846.96
526.043	32929.44
526.409	33295.99
526.776	33470.9
527.142	33515.42
527.508	33687.84
527.874	34169.86
528.241	34153.59
528.607	34360.82
528.973	34650.53
529.339	34730.53
529.705	35024.98
530.071	35300
530.437	35478.98
530.803	35651.86
531.169	35879.2
531.535	35846.66
531.901	35957.39
532.267	36200.32
532.632	36389.69
532.998	36524.6
533.364	36711.72
533.73	36829.91
534.095	37142.89
534.461	37156.23
534.826	37490
535.192	37627.85
535.557	37775.42
535.923	37815.87
536.288	37970.67
536.653	38161.85
537.019	38172.92
537.384	38369.08
537.749	38523.2
538.114	38671.21
538.479	38692.91
538.845	38805.45
539.21	39034.37
539.575	39048.83
539.94	39172.44
540.305	39522.04
540.67	39439.33
541.034	39610.85
541.399	39854.69
541.764	39792.54
542.129	40054.23
542.494	40196.82
542.858	40334.67
543.223	40456.93
543.587	40703.25
543.952	40615.57
544.316	40998.16
544.681	40898.05
545.045	41060.3
545.41	41300.52
545.774	41318.6
546.138	41542.33
546.503	41582.1
546.867	41585.71
547.231	42035.87
547.595	42011.47
547.959	42242.65
548.324	42396.31
548.688	42244.45
549.052	42526.48
549.416	42579.36
549.779	42587.72
550.143	42728.96
550.507	43041.27
550.871	43187.93
551.235	43159.68
551.599	43524.19
551.962	43549.05
552.326	43726.22
552.689	43951.98
553.053	43921.7
553.417	43842.6
553.78	44396.94
554.143	44130.28
554.507	44462.25
554.87	44631.74
555.234	44983.37
555.597	44826.08
555.96	44838.51
556.323	45165.28
556.686	45222.68
557.05	45478.27
557.413	45556.01
557.776	45622.67
558.139	45967.75
558.502	46073.96
558.865	46108.31
559.228	46356.44
559.59	46451.12
559.953	46577.9
560.316	47019.7
560.679	47011.56
561.041	47140.37
561.404	47454.03
561.767	47595.05
562.129	47474.37
562.492	47871.42
562.854	47977.41
563.217	48007.69
563.579	48025.09
563.941	48376.04
564.304	48448.36
564.666	48705.98
565.028	48818.07
565.39	48966.76
565.753	49310.94
566.115	49314.1
566.477	49430.71
566.839	49541.21
567.201	49764.26
567.563	49828.66
567.925	50021.42
568.287	50113.4
568.648	50106.39
569.01	50453.28
569.372	50617.57
569.734	50475.2
570.095	50764.91
570.457	50951.8
570.819	50920.38
571.18	50956.54
571.542	51202.41
571.903	51240.38
572.265	51377.32
572.626	51562.4
572.987	51579.8
573.349	51720.36
573.71	51920.81
574.071	51870.19
574.432	51945.67
574.794	52223.17
575.155	52210.75
575.516	52165.32
575.877	52362.38
576.238	52377.75
576.599	52560.79
576.96	52596.05
577.32	52489.83
577.681	52744.97
578.042	52836.94
578.403	52851.86
578.763	52847.57
579.124	52958.3
579.485	53018.18
579.845	53180.21
580.206	53119.2
580.566	53176.37
580.927	53235.35
581.287	53318.97
581.648	53242.58
582.008	53476.02
582.368	53365.74
582.728	53474.44
583.089	53445.74
583.449	53452.3
583.809	53505.63
584.169	53523.48
584.529	53520.54
584.889	53812.06
585.249	53548.56
585.609	53569.13
585.969	53680.99
586.329	53655.68
586.688	53737.49
587.048	53831.72
587.408	53622.23
587.768	53781.78
588.127	53773.64
588.487	53657.94
588.846	53884.83
589.206	53730.25
589.565	53807.77
589.925	53968.67
590.284	53836.69
590.643	53969.8
591.003	54083.69
591.362	54075.78
591.721	53990.13
592.08	54021.77
592.44	54082.34
592.799	54159.62
593.158	54101.09
593.517	54096.12
593.876	54148.32
594.235	54107.19
594.593	54125.95
594.952	54239.85
595.311	54132.5
595.67	54145.16
596.029	54306.74
596.387	54256.34
596.746	54466.96
597.104	54253.63
597.463	54352.84
597.822	54471.25
598.18	54366.85
598.538	54396.23
598.897	54466.73
599.255	54275.78
599.613	54636.9
599.972	54431.25
600.33	54546.28
600.688	54498.14
601.046	54602.32
601.404	54713.05
601.762	54592.6
602.12	54757.35
602.478	54728.19
602.836	54749.21
603.194	54640.51
603.552	54666.5
603.91	54587.18
604.268	54794.18
604.625	54761.19
604.983	54775.88
605.341	54743.33
605.698	54912.82
606.056	54875.31
606.413	54846.61
606.771	54919.83
607.128	54966.61
607.485	54854.52
607.843	54938.13
608.2	55090.44
608.557	55157.11
608.914	55024.91
609.272	55160.72
609.629	55135.41
609.986	55299.93
610.343	55161.4
610.7	55361.62
611.057	55281.63
611.414	55273.04
611.771	55319.14
612.127	55381.74
612.484	55350.32
612.841	55453.82
613.198	55358.46
613.554	55340.38
613.911	55554.84
614.267	55499.47
614.624	55526.59
614.98	55505.57
615.337	55663.08
615.693	55628.28
616.05	55533.6
616.406	55681.62
616.762	55608.62
617.118	55635.51
617.475	55608.17
617.831	55695.63
618.187	55696.98
618.543	55777.43
618.899	55882.74
619.255	55858.11
619.611	55867.15
619.967	55913.93
620.323	55908.28
620.678	55864.44
621.034	55814.94
621.39	55736.98
621.746	55793.25
622.101	56066.92
622.457	55828.28
622.812	55894.26
623.168	55983.3
623.523	55943.98
623.879	56006.35
624.234	55830.09
624.589	55932.46
624.945	55984.43
625.3	56061.72
625.655	55915.28
626.01	55929.07
626.365	55977.2
626.72	56025.79
627.075	55947.37
627.43	55946.47
627.785	55930.42
628.14	55976.97
628.495	56002.28
628.85	55969.74
629.205	55925.9
629.559	56077.99
629.914	55932.91
630.269	56011.32
630.623	55832.12
630.978	55916.41
631.332	55960.7
631.687	55997.31
632.041	55899.24
632.396	55949.18
632.75	55838
633.104	55953.25
633.459	55726.59
633.813	55836.64
634.167	55747.83
634.521	55789.63
634.875	55749.41
635.229	55733.37
635.583	55671.45
635.937	55659.47
636.291	55693.37
636.645	55661.5
636.999	55582.86
637.352	55645.46
637.706	55551
638.06	55666.47
638.413	55572.47
638.767	55501.28
639.121	55529.53
639.474	55493.6
639.828	55462.64
640.181	55515.29
640.534	55533.37
640.888	55457.44
641.241	55309.2
641.594	55374.05
641.947	55452.02
642.301	55316.43
642.654	55423.77
643.007	55385.35
643.36	55348.97
643.713	55337.9
644.066	55393.71
644.419	55271.91
644.771	55079.6
645.124	54868.3
645.477	54830.56
645.83	54604.36
646.182	54595.54
646.535	54422.21
646.888	54500.4
647.24	54394.87
647.593	54622.21
647.945	54517.35
648.298	54293.85
648.65	54259.73
649.002	54215.21
649.355	54423.34
649.707	54367.98
650.059	54485.04
650.411	54784.24
650.763	54854.97
651.115	55072.59
651.467	54949.66
651.819	55041.18
652.171	54867.17
652.523	54936.78
652.875	54852.26
653.227	54707.63
653.578	55009.99
653.93	54909.66
654.282	54776.78
654.633	54744.01
654.985	54731.81
655.337	54781.75
655.688	54797.12
656.039	54854.97
656.391	54575.88
656.742	54646.16
657.094	54758.25
657.445	54812.49
657.796	54640.06
658.147	54734.75
658.498	54625.37
658.849	54693.39
659.2	54636.44
659.551	54554.19
659.902	54736.56
660.253	54591.47
660.604	54703.34
660.955	54508.99
661.306	54542.44
661.656	54601.64
662.007	54621.53
662.358	54475.77
662.708	54487.52
663.059	54549.67
663.409	54329.33
663.76	54515.09
664.11	54490.69
664.461	54478.71
664.811	54630.12
665.161	54487.97
665.511	54409.33
665.862	54383.8
666.212	54434.87
666.562	54502.66
666.912	54426.51
667.262	54402.1
667.612	54429.67
667.962	54425.6
668.312	54358.03
668.662	54536.79
669.011	54416.56
669.361	54320.52
669.711	54284.82
670.06	54203.24
670.41	54168.89
670.76	54177.7
671.109	54293.85
671.459	54215.21
671.808	54159.85
672.157	54204.14
672.507	54018.83
672.856	54020.42
673.205	54089.34
673.554	54121.2
673.904	53920.76
674.253	54139.51
674.602	54034.2
674.951	53581.78
675.3	53409.58
675.649	53831.04
675.998	53829.46
676.346	53866.75
676.695	53913.75
677.044	53699.52
677.393	53830.82
677.741	53758.73
678.09	53767.09
678.438	53656.58
678.787	53792.85
679.135	53616.13
679.484	53494.1
679.832	53577.26
680.181	53386.53
680.529	53503.14
680.877	53431.96
681.225	53345.86
681.573	53481.45
681.922	53316.71
682.27	53140.66
682.618	53221.79
682.966	53171.62
683.314	53171.85
683.661	53113.32
684.009	52927.79
684.357	52829.94
684.705	52771.41
685.053	52866.32
685.4	52678.08
685.748	52619.55
686.095	52530.96
686.443	52489.83
686.79	52347.69
687.138	52449.61
687.485	52339.1
687.832	52268.6
688.18	52335.04
688.527	52026.57
688.874	52010.07
689.221	51983.41
689.568	51983.86
689.915	51805.78
690.262	51795.16
690.609	51698.22
690.956	51595.62
691.303	51533.25
691.65	51387.49
691.997	51260.04
692.344	51146.14
692.69	51190.66
693.037	51114.73
693.383	50783.89
693.73	50988.63
694.077	50843.32
694.423	50796.32
694.769	50678.58
695.116	50544.12
695.462	50550.68
695.808	50435.65
696.155	50475.42
696.501	50036.79
696.847	50191.82
697.193	49956.12
697.539	50044.48
697.885	49792.05
698.231	49695.56
698.577	49643.58
698.923	49566.07
699.269	49395.23
699.614	49342.8
699.96	49241.11
700.306	49236.13
700.651	48998.4
700.997	48957.72
701.342	48889.25
701.688	48812.19
702.033	48672.99
702.379	48699.88
702.724	48580.11
703.069	48715.02
703.415	48155.94
703.76	48281.81
704.105	48143.51
704.45	48086.33
704.795	47908.03
705.14	47764.76
705.485	47683.63
705.83	47544.88
706.175	47689.73
706.52	47539.68
706.865	47305.79
707.209	47416.52
707.554	47097.66
707.899	47183.99
708.243	47058.34
708.588	47025.8
708.932	46725.92
709.277	46746.48
709.621	46786.26
709.966	46620.84
710.31	46611.12
710.654	46328.87
710.998	46421.29
711.342	46374.97
711.687	46287.51
712.031	46024.69
712.375	45862.44
712.719	45977.69
713.063	45871.93
713.407	46090.45
713.75	45706.51
714.094	45899.73
714.438	45560.07
714.782	45503.35
715.125	45463.35
715.469	45434.2
715.812	45252.06
716.156	44950.82
716.499	44982.69
716.843	45083.7
717.186	44736.14
717.53	45046.41
717.873	45030.6
718.216	44964.38
718.559	44697.5
718.902	44421.8
719.246	44488.24
719.589	44360.33
719.932	44153.56
720.275	44276.27
720.617	44191.97
720.96	44085.99
721.303	44095.25
721.646	44076.95
721.989	43844.19
722.331	43883.96
722.674	43853.68
723.016	43883.51
723.359	43819.1
723.701	43761.7
724.044	43471.54
724.386	43287.82
724.729	43537.08
725.071	43367.59
725.413	43424.76
725.755	43245.56
726.097	43183.19
726.439	42949.52
726.782	42984.55
727.124	43142.51
727.465	42952.01
727.807	42888.05
728.149	42882.4
728.491	42717.44
728.833	42754.95
729.175	42555.18
729.516	42438.35
729.858	42480.15
730.199	42508.85
730.541	42467.73
730.882	42260.5
731.224	42442.64
731.565	42170.11
731.906	42160.61
732.248	42193.38
732.589	41963.78
732.93	41978.25
733.271	41765.37
733.612	41919.04
733.953	42023.22
734.294	41840.17
734.635	41648.76
734.976	41637.24
735.317	41473.18
735.658	41430.69
735.999	41486.51
736.339	41357.92
736.68	41528.99
737.021	41188.44
737.361	41214.42
737.702	41415.78
738.042	41301.65
738.383	40992.96
738.723	41200.64
739.063	40840.88
739.404	41081.09
739.744	41090.36
740.084	40777.15
740.424	40962.91
740.764	40820.76
741.104	40861.89
741.444	40611.28
741.784	40551.17
742.124	40544.61
742.464	40584.38
742.804	40395.01
743.143	40410.6
743.483	40480.21
743.823	40075.47
744.162	40215.36
744.502	40312.98
744.841	39975.36
745.181	40080.67
745.52	39930.62
745.86	40117.96
746.199	40033.89
746.538	39892.65
746.877	39891.07
747.216	39887.91
747.556	39716.61
747.895	39824.4
748.234	39513
748.573	39507.13
748.911	39444.98
749.25	39487.24
749.589	39222.61
749.928	39286.11
750.267	39341.71
750.605	39312.33
750.944	39011.77
751.283	38967.7
751.621	39084.76
751.96	38805.9
752.298	38740.14
752.636	38811.32
752.975	38602.06
