Data from White_reflection_standard_FLMS001491_077.txt Node
Date: Tue Feb 07 10:32:10 GMT 2017
User: dcchb
Spectrometer: FLMS00149
Trigger mode: 0
Integration Time (sec): 2.000000E-2
Scans to average: 10
Electric dark correction enabled: true
Nonlinearity correction enabled: false
Boxcar width: 0
XAxis mode: Wavelengths
Number of Pixels in Spectrum: 2048
>>>>>Begin Spectral Data<<<<<
341.393	-21.65
341.776	-21.65
342.16	-21.65
342.543	-52.61
342.927	-68.66
343.31	-34.31
343.693	-78.83
344.077	-67.75
344.46	-67.07
344.843	-49.67
345.226	-53.74
345.61	-41.99
345.993	-13.29
346.376	-3.12
346.759	16.54
347.142	10.21
347.525	22.64
347.908	68.06
348.291	89.31
348.674	74.62
349.057	128.4
349.44	134.28
349.823	140.6
350.206	167.5
350.588	240.26
350.971	258.57
351.354	261.5
351.737	266.25
352.119	267.38
352.502	312.58
352.884	318.23
353.267	321.39
353.65	348.28
354.032	354.38
354.414	358.9
354.797	347.83
355.179	376.08
355.562	391.67
355.944	393.48
356.326	384.89
356.709	393.03
357.091	416.98
357.473	401.84
357.855	391.44
358.238	404.33
358.62	409.07
359.002	406.81
359.384	406.59
359.766	437.77
360.148	420.37
360.53	407.72
360.912	405.23
361.294	400.71
361.676	412.23
362.057	430.99
362.439	409.3
362.821	416.08
363.203	405.23
363.584	398.9
363.966	420.82
364.348	406.59
364.729	439.8
365.111	407.49
365.493	411.56
365.874	403.65
366.256	438
366.637	392.57
367.019	419.69
367.4	400.71
367.781	425.57
368.163	429.41
368.544	421.95
368.925	425.79
369.306	439.58
369.688	414.95
370.069	454.49
370.45	421.5
370.831	427.38
371.212	436.19
371.593	440.03
371.974	421.95
372.355	444.78
372.736	471.67
373.117	445.68
373.498	429.86
373.879	435.96
374.26	446.36
374.641	426.25
375.021	431.44
375.402	469.63
375.783	493.14
376.163	517.77
376.544	498.11
376.925	490.65
377.305	493.14
377.686	483.19
378.066	504.89
378.447	500.37
378.827	517.77
379.208	520.71
379.588	513.48
379.968	524.55
380.349	539.46
380.729	539.01
381.109	529.97
381.489	549.63
381.87	561.16
382.25	541.72
382.63	551.89
383.01	560.25
383.39	560.25
383.77	568.61
384.15	580.14
384.53	578.78
384.91	588.73
385.29	579.46
385.67	615.17
386.049	632.12
386.429	626.47
386.809	633.47
387.189	656.3
387.568	628.05
387.948	621.72
388.328	661.04
388.707	645.9
389.087	663.53
389.466	679.57
389.846	675.73
390.225	705.79
390.605	709.4
390.984	713.92
391.363	720.25
391.743	731.1
392.122	730.64
392.501	736.07
392.881	758.21
393.26	760.25
393.639	766.58
394.018	740.81
394.397	793.02
394.776	807.93
395.155	786.46
395.534	788.72
395.913	802.28
396.292	802.51
396.671	847.48
397.05	824.88
397.429	827.14
397.808	859.45
398.186	879.79
398.565	857.42
398.944	861.26
399.323	851.55
399.701	897.87
400.08	889.74
400.458	914.59
400.837	934.93
401.215	923.63
401.594	913.46
401.972	949.62
402.351	968.6
402.729	977.64
403.107	986.23
403.486	960.24
403.864	1015.16
404.242	1015.61
404.62	1000.69
404.999	1021.26
405.377	1058.32
405.755	1041.37
406.133	1075.72
406.511	1096.96
406.889	1079.56
407.267	1107.13
407.645	1139.9
408.023	1118.21
408.401	1150.07
408.779	1163.4
409.156	1174.93
409.534	1197.53
409.912	1223.96
410.29	1241.14
410.667	1250.18
411.045	1276.62
411.422	1285.21
411.8	1309.39
412.178	1313.23
412.555	1352.1
412.933	1374.47
413.31	1369.05
413.687	1383.06
414.065	1401.81
414.442	1402.94
414.819	1443.17
415.197	1450.85
415.574	1480.23
415.951	1498.99
416.328	1472.09
416.705	1540.11
417.082	1513.45
417.46	1585.09
417.837	1580.79
418.214	1592.54
418.591	1620.79
418.967	1638.87
419.344	1644.74
419.721	1684.52
420.098	1675.25
420.475	1705.53
420.852	1729.04
421.228	1732.65
421.605	1716.16
421.982	1757.28
422.358	1804.29
422.735	1816.27
423.111	1815.81
423.488	1846.32
423.864	1889.03
424.241	1878.86
424.617	1912.08
424.994	1914.12
425.37	1935.13
425.746	1933.32
426.123	2011.51
426.499	2049.93
426.875	2033.21
427.251	2081.8
427.627	2110.72
428.003	2108.69
428.379	2167.22
428.756	2183.04
429.132	2196.59
429.507	2228.46
429.883	2281.56
430.259	2299.64
430.635	2355.23
431.011	2338.51
431.387	2409.47
431.763	2488.34
432.138	2460.77
432.514	2531.95
432.89	2515.68
433.265	2567.66
433.641	2595.23
434.016	2628
434.392	2672.97
434.767	2726.98
435.143	2672.29
435.518	2752.06
435.894	2804.04
436.269	2852.62
436.644	2900.08
437.02	2924.49
437.395	2909.8
437.77	2924.71
438.145	2996.8
438.52	3007.65
438.895	3027.76
439.271	3075.89
439.646	3183.91
440.021	3146.17
440.395	3161.99
440.77	3187.98
441.145	3163.8
441.52	3274.53
441.895	3285.61
442.27	3299.39
442.645	3300.97
443.019	3361.31
443.394	3304.14
443.769	3409.44
444.143	3399.28
444.518	3486.73
444.892	3454.87
445.267	3508.65
445.641	3509.55
446.016	3525.83
446.39	3613.73
446.764	3639.72
447.139	3620.51
447.513	3686.5
447.887	3677.46
448.262	3710.45
448.636	3712.04
449.01	3776.44
449.384	3853.27
449.758	3884.01
450.132	3895.31
450.506	3936.44
450.88	3951.12
451.254	3989.09
451.628	3987.73
452.002	4055.75
452.376	4115.87
452.75	4145.24
453.123	4230.89
453.497	4234.28
453.871	4297.33
454.244	4376.65
454.618	4421.17
454.992	4511.79
455.365	4470.43
455.739	4599.92
456.112	4630.88
456.486	4665.46
456.859	4700.03
457.232	4776.64
457.606	4820.48
457.979	4892.57
458.352	4923.98
458.725	5039.23
459.099	5085.11
459.472	5180.92
459.845	5217.98
460.218	5298.43
460.591	5344.08
460.964	5390.64
461.337	5476.96
461.71	5557.18
462.083	5668.59
462.456	5644.19
462.829	5679.44
463.201	5810.51
463.574	5780.68
463.947	5925.76
464.32	6043.73
464.692	6080.33
465.065	6151.75
465.438	6218.64
465.81	6338.63
466.183	6352.64
466.555	6565.52
466.928	6557.84
467.3	6587.67
467.672	6702.24
468.045	6896.13
468.417	6854.78
468.789	6963.25
469.161	7036.47
469.534	7153.98
469.906	7345.39
470.278	7356.01
470.65	7483.46
471.022	7645.04
471.394	7796.67
471.766	7850.46
472.138	7975.2
472.51	8088.64
472.882	8217.91
473.253	8305.59
473.625	8453.83
473.997	8653.37
474.369	8670.55
474.74	8802.97
475.112	9015.17
475.484	9101.05
475.855	9242.74
476.227	9373.81
476.598	9584.2
476.97	9640.92
477.341	9896.73
477.713	10053.79
478.084	10103.73
478.455	10449.71
478.827	10525.19
479.198	10806.76
479.569	10798.18
479.94	11105.97
480.311	11238.16
480.682	11585.05
481.053	11774.42
481.424	11950.24
481.795	12054.19
482.166	12239.72
482.537	12398.36
482.908	12641.52
483.279	12891.91
483.65	13040.15
484.021	13297.09
484.391	13513.36
484.762	13556.97
485.133	13700.25
485.503	13980.01
485.874	14215.49
486.244	14351.53
486.615	14658.64
486.985	14815.25
487.356	15030.61
487.726	15185.41
488.097	15466.53
488.467	15550.37
488.837	15906.29
489.207	16108.77
489.578	16315.09
489.948	16530.46
490.318	16728.64
490.688	16783.33
491.058	17103.32
491.428	17315.07
491.798	17439.81
492.168	17842.29
492.538	17902.17
492.908	18096.29
493.278	18329.73
493.648	18379.22
494.017	18535.37
494.387	18773.56
494.757	18875.93
495.126	19168.58
495.496	19201.8
495.866	19355.47
496.235	19618.74
496.605	19704.61
496.974	19873.19
497.344	20042.68
497.713	20208.1
498.082	20392.5
498.452	20526.96
498.821	20720.63
499.19	20870
499.559	20995.2
499.928	21126.72
500.298	21173.04
500.667	21478.12
501.036	21430.89
501.405	21764.44
501.774	21803.76
502.143	22035.62
502.512	22035.85
502.88	22359.91
503.249	22399.68
503.618	22534.59
503.987	22607.58
504.356	22813.68
504.724	22938.65
505.093	23161.92
505.462	23314.46
505.83	23312.65
506.199	23592.42
506.567	23986.76
506.936	23848.68
507.304	24235.34
507.672	24337.26
508.041	24410.25
508.409	24550.36
508.777	24854.53
509.145	24957.8
509.514	25094.07
509.882	25236.44
510.25	25322.09
510.618	25560.5
510.986	25665.81
511.354	25950.09
511.722	26261.05
512.09	26409.07
512.458	26492.23
512.826	26670.3
513.193	26812.9
513.561	26911.2
513.929	27232.32
514.297	27360.23
514.664	27580.79
515.032	27638.41
515.4	27917.5
515.767	28045.86
516.135	28287.21
516.502	28161.79
516.869	28722.9
517.237	28788.44
517.604	28873.18
517.972	29284.47
518.339	29409.66
518.706	29408.31
519.073	29702.99
519.44	29948.63
519.808	30237.21
520.175	30159.7
520.542	30652.8
520.909	30909.51
521.276	30917.2
521.643	31289.84
522.009	31470.4
522.376	31661.36
522.743	31964.4
523.11	32116.71
523.477	32459.98
523.843	32683.25
524.21	33040.53
524.577	33298.6
524.943	33457.02
525.31	33563.68
525.676	33968.64
526.043	34125.7
526.409	34338.12
526.776	34735.17
527.142	34781.73
527.508	35054.94
527.874	35328.15
528.241	35389.85
528.607	35644.53
528.973	36015.82
529.339	36061.24
529.705	36423.04
530.071	36713.43
530.437	36757.04
530.803	36928.34
531.169	37314.99
531.535	37208.33
531.901	37434.99
532.267	37699.62
532.632	37804.25
532.998	37967.18
533.364	38240.39
533.73	38288.75
534.095	38637.22
534.461	38608.74
534.826	38830.43
535.192	39027.72
535.557	39428.38
535.923	39506.12
536.288	39498.21
536.653	39802.84
537.019	39650.53
537.384	40058.65
537.749	40153.56
538.114	40328.47
538.479	40405.31
538.845	40522.59
539.21	40556.04
539.575	40827.9
539.94	40895.46
540.305	41212.29
540.67	41151.95
541.034	41402.8
541.399	41382.91
541.764	41633.52
542.129	41748.55
542.494	41897.47
542.858	42092.04
543.223	42108.54
543.587	42365.03
543.952	42306.95
544.316	42570
544.681	42571.13
545.045	42750.1
545.41	42874.17
545.774	43031.45
546.138	43155.74
546.503	43285.01
546.867	43368.39
547.231	43668.5
547.595	43634.83
547.959	43925.44
548.324	43954.37
548.688	44149.62
549.052	44243.85
549.416	44317.97
549.779	44461.7
550.143	44669.83
550.507	44857.17
550.871	44961.12
551.235	44974.23
551.599	45271.62
551.962	45291.51
552.326	45515.91
552.689	45811.95
553.053	45581.67
553.417	45896.91
553.78	46198.6
554.143	46159.73
554.507	46444.7
554.87	46500.06
555.234	46939.83
555.597	46628.19
555.96	47003.55
556.323	47152.7
556.686	47172.81
557.05	47499.81
557.413	47560.37
557.776	47685.12
558.139	48034.94
558.502	48037.42
558.865	48166.23
559.228	48517.64
559.59	48475.38
559.953	48683.73
560.316	49024.29
560.679	48958.3
561.041	49242.36
561.404	49396.48
561.767	49643.48
562.129	49577.72
562.492	49979.52
562.854	49873.76
563.217	49909.01
563.579	50205.5
563.941	50406.17
564.304	50444.14
564.666	50795.32
565.028	50734.75
565.39	50905.6
565.753	51134.07
566.115	51268.98
566.477	51332.48
566.839	51465.36
567.201	51741.73
567.563	51744.9
567.925	51847.04
568.287	52001.16
568.648	51949.41
569.01	52339.23
569.372	52503.52
569.734	52419.23
570.095	52621.26
570.457	52734.25
570.819	52814.92
571.18	52769.5
571.542	52979.21
571.903	53022.6
572.265	53190.28
572.626	53301.01
572.987	53263.05
573.349	53383.72
573.71	53482.03
574.071	53558.18
574.432	53642.93
574.794	53840.66
575.155	53854.67
575.516	53719.76
575.877	53937.61
576.238	54017.38
576.599	54093.99
576.96	54166.53
577.32	54133.31
577.681	54268.9
578.042	54288.56
578.403	54357.03
578.763	54313.64
579.124	54398.39
579.485	54492.39
579.845	54630.02
580.206	54525.84
580.566	54543.02
580.927	54585.95
581.287	54682.67
581.648	54549.57
582.008	54795.21
582.368	54725.84
582.728	54748.89
583.089	54667.76
583.449	54737.81
583.809	54705.5
584.169	54900.52
584.529	54758.15
584.889	54879.05
585.249	54760.18
585.609	54722.9
585.969	54938.94
586.329	54759.96
586.688	54839.96
587.048	54899.16
587.408	54803.12
587.768	54791.6
588.127	54817.36
588.487	54732.84
588.846	54966.73
589.206	54772.16
589.565	54808.54
589.925	54978.26
590.284	54823.91
590.643	54912.27
591.003	54907.75
591.362	54971.7
591.721	54939.84
592.08	54941.2
592.44	54961.99
592.799	55018.48
593.158	54951.82
593.517	54954.3
593.876	54915.21
594.235	55011.93
594.593	55068.2
594.952	54995.43
595.311	54978.03
595.67	55063.68
596.029	55179.38
596.387	55147.97
596.746	55213.05
597.104	55115.66
597.463	55065.71
597.822	55247.86
598.18	55133.51
598.538	55086.5
598.897	55299.15
599.255	55004.02
599.613	55389.09
599.972	55237.23
600.33	55339.6
600.688	55236.78
601.046	55337.34
601.404	55438.81
601.762	55345.03
602.12	55438.81
602.478	55560.84
602.836	55499.6
603.194	55359.72
603.552	55504.8
603.91	55350.68
604.268	55586.15
604.625	55438.13
604.983	55678.8
605.341	55427.06
605.698	55608.75
606.056	55637.9
606.413	55604.68
606.771	55711.57
607.128	55763.55
607.485	55580.95
607.843	55659.82
608.2	55802.42
608.557	55848.74
608.914	55827.28
609.272	55931.68
609.629	55900.49
609.986	56044.67
610.343	55898.91
610.7	56102.3
611.057	56081.96
611.414	56046.25
611.771	56126.48
612.127	56166.48
612.484	56139.13
612.841	56236.53
613.198	56141.62
613.554	56205.12
613.911	56257.09
614.267	56262.74
614.624	56248.51
614.98	56322.86
615.337	56431.1
615.693	56335.74
616.05	56302.52
616.406	56502.96
616.762	56347.94
617.118	56349.07
617.475	56425.23
617.831	56437.65
618.187	56487.14
618.543	56505.22
618.899	56627.71
619.255	56592.68
619.611	56518.78
619.967	56655.5
620.323	56692.34
620.678	56625.45
621.034	56515.84
621.39	56546.13
621.746	56483.53
622.101	56855.27
622.457	56519.46
622.812	56587.03
623.168	56625.9
623.523	56652.34
623.879	56647.37
624.234	56457.09
624.589	56622.96
624.945	56655.05
625.3	56641.49
625.655	56687.82
626.01	56646.69
626.365	56674.48
626.72	56622.73
627.075	56602.4
627.43	56559.23
627.785	56554.04
628.14	56657.54
628.495	56554.26
628.85	56537.99
629.205	56466.35
629.559	56597.65
629.914	56397.88
630.269	56462.96
630.623	56462.06
630.978	56306.81
631.332	56553.36
631.687	56530.08
632.041	56286.92
632.396	56441.27
632.75	56328.73
633.104	56396.07
633.459	56290.09
633.813	56237.66
634.167	56128.96
634.521	56119.92
634.875	56180.49
635.229	56080.15
635.583	55968.06
635.937	56002.41
636.291	55856.43
636.645	56011.22
636.999	55907.95
637.352	56015.52
637.706	55819.82
638.06	55854.39
638.413	55833.38
638.767	55788.86
639.121	55775.52
639.474	55618.92
639.828	55648.52
640.181	55609.65
640.534	55609.43
640.888	55595.42
641.241	55372.15
641.594	55492.82
641.947	55541.86
642.301	55513.16
642.654	55484.69
643.007	55428.42
643.36	55355.2
643.713	55353.39
644.066	55415.76
644.419	55207.18
644.771	55038.37
645.124	54748.66
645.477	54694.2
645.83	54539.63
646.182	54390.25
646.535	54296.02
646.888	54387.76
647.24	54271.16
647.593	54291.5
647.945	54335.11
648.298	54119.98
648.65	54051.95
649.002	53952.07
649.355	54107.32
649.707	54028
650.059	54157.49
650.411	54463.92
650.763	54470.25
651.115	54788.66
651.467	54603.8
651.819	54716.12
652.171	54574.88
652.523	54449.46
652.875	54456.24
653.227	54417.37
653.578	54517.03
653.93	54479.29
654.282	54301.21
654.633	54223.02
654.985	54282.91
655.337	54280.42
655.688	54215.57
656.039	54304.15
656.391	54041.33
656.742	54103.93
657.094	54135.79
657.445	54228.45
657.796	54214.66
658.147	54127.21
658.498	54146.87
658.849	54119.75
659.2	54010.83
659.551	54010.6
659.902	54091.95
660.253	53976.48
660.604	53982.58
660.955	53890.6
661.306	54034.78
661.656	53879.08
662.007	53890.38
662.358	53891.05
662.708	53787.1
663.059	53802.7
663.409	53644.28
663.76	53848.34
664.11	53861.9
664.461	53793.2
664.811	53811.51
665.161	53743.04
665.511	53671.63
665.862	53698.29
666.212	53761.79
666.562	53730.83
666.912	53642.93
667.262	53643.38
667.612	53589.14
667.962	53624.62
668.312	53613.77
668.662	53706.65
669.011	53549.59
669.361	53503.95
669.711	53499.65
670.06	53375.14
670.41	53381.69
670.76	53376.49
671.109	53519.77
671.459	53397.06
671.808	53380.56
672.157	53416.49
672.507	53202.26
672.856	53162.71
673.205	53231.86
673.554	53253.33
673.904	53195.48
674.253	53223.73
674.602	53214.91
674.951	52709.84
675.3	52563.63
675.649	53146.67
675.998	53090.62
676.346	53141.92
676.695	53045.2
677.044	52915.94
677.393	52994.13
677.741	53000.91
678.09	52880.46
678.438	52802.72
678.787	52963.4
679.135	52889.73
679.484	52739.67
679.832	52782.38
680.181	52609.51
680.529	52647.92
680.877	52526.57
681.225	52568.83
681.573	52727.7
681.922	52406.12
682.27	52311.66
682.618	52412.22
682.966	52278.89
683.314	52322.96
683.661	52214.26
684.009	52122.51
684.357	51978.79
684.705	52014.04
685.053	51988.96
685.4	51971.33
685.748	51735.18
686.095	51826.48
686.443	51619.7
686.79	51572.02
687.138	51584.67
687.485	51497.9
687.832	51524.79
688.18	51440.27
688.527	51279.37
688.874	51276.21
689.221	51232.14
689.568	51055.88
689.915	51025.37
690.262	51000.06
690.609	50839.84
690.956	50734.3
691.303	50742.89
691.65	50547.19
691.997	50519.84
692.344	50307.65
692.69	50239.63
693.037	50217.93
693.383	50050.48
693.73	50159.18
694.077	49895
694.423	49910.37
694.769	49760.77
695.116	49685.97
695.462	49593.77
695.808	49408.46
696.155	49482.58
696.501	49163.72
696.847	49179.31
697.193	48985.87
697.539	49080.56
697.885	48803.28
698.231	48726.67
698.577	48671.98
698.923	48686.45
699.269	48378.43
699.614	48290.75
699.96	48221.37
700.306	48273.58
700.651	48013.47
700.997	47818.67
701.342	47819.12
701.688	47723.08
702.033	47690.77
702.379	47561.28
702.724	47556.76
703.069	47512.01
703.415	47136.88
703.76	47131.23
704.105	47192.47
704.45	46991.58
704.795	46692.83
705.14	46626.84
705.485	46731.69
705.83	46395.21
706.175	46524.69
706.52	46361.76
706.865	46268.66
707.209	46063.46
707.554	46026.63
707.899	46135.1
708.243	45798.61
708.588	45851.72
708.932	45432.52
709.277	45401.33
709.621	45580.54
709.966	45403.59
710.31	45293.09
710.654	45015.36
710.998	45120.44
711.342	44979.65
711.687	44762.93
712.031	44776.72
712.375	44604.75
712.719	44665.08
713.063	44650.39
713.407	44627.57
713.75	44377.41
714.094	44515.93
714.438	44152.33
714.782	44230.29
715.125	44033.69
715.469	44008.38
715.812	43926.35
716.156	43684.54
716.499	43699.23
716.843	43684.09
717.186	43392.12
717.53	43695.84
717.873	43541.04
718.216	43476.87
718.559	43274.84
718.902	42951.68
719.246	42966.14
719.589	42896.09
719.932	42710.78
720.275	42790.78
720.617	42677.79
720.96	42672.37
721.303	42681.86
721.646	42588.3
721.989	42312.15
722.331	42533.61
722.674	42351.7
723.016	42450.45
723.359	42107.86
723.701	42196
724.044	41945.38
724.386	41854.54
724.729	41949
725.071	41777.02
725.413	41832.61
725.755	41840.3
726.097	41548.33
726.439	41373.64
726.782	41402.57
727.124	41510.59
727.465	41398.5
727.807	41192.41
728.149	41098.85
728.491	41134.1
728.833	41151.28
729.175	40955.58
729.516	40933.43
729.858	40753.1
730.199	40954.9
730.541	40843.49
730.882	40713.32
731.224	40684.17
731.565	40467.23
731.906	40445.08
732.248	40465.42
732.589	40302.71
732.93	40209.15
733.271	40279.66
733.612	40253.22
733.953	40156.73
734.294	40065.43
734.635	39905.43
734.976	40047.58
735.317	39821.59
735.658	39733.46
735.999	39586.57
736.339	39541.83
736.68	39611.88
737.021	39510.64
737.361	39340.25
737.702	39590.87
738.042	39428.38
738.383	39215.96
738.723	39291.89
739.063	39139.8
739.404	39150.2
739.744	39036.08
740.084	38998.11
740.424	39019.81
740.764	39003.08
741.104	38968.51
741.444	38546.15
741.784	38673.15
742.124	38734.39
742.464	38540.05
742.804	38564.9
743.143	38536.43
743.483	38417.79
743.823	38307.51
744.162	38239.71
744.502	38288.98
744.841	38071.13
745.181	38082.66
745.52	38036.78
745.86	38040.4
746.199	37890.12
746.538	37863.45
746.877	37911.36
747.216	37854.19
747.556	37647.41
747.895	37629.79
748.234	37553.63
748.573	37477.48
748.911	37519.73
749.25	37488.1
749.589	37063.25
749.928	37237.48
750.267	37234.32
750.605	37079.97
750.944	37085.62
751.283	36922.01
751.621	37006.07
751.96	36739.64
752.298	36672.75
