Data from whiteboard_FLMS001491_00039.txt Node
Date: Wed Feb 08 11:26:17 GMT 2017
User: dcchb
Spectrometer: FLMS00149
Trigger mode: 0
Integration Time (sec): 2.000000E-2
Scans to average: 10
Electric dark correction enabled: true
Nonlinearity correction enabled: false
Boxcar width: 0
XAxis mode: Wavelengths
Number of Pixels in Spectrum: 2048
>>>>>Begin Spectral Data<<<<<
341.393	-16.57
341.776	-16.57
342.16	-16.57
342.543	-38.26
342.927	-49.33
343.31	-58.83
343.693	-83.46
344.077	-68.54
344.46	-46.85
344.843	-47.75
345.226	-36.23
345.61	-31.48
345.993	-30.58
346.376	-2.56
346.759	17.78
347.142	18.91
347.525	39.48
347.908	51.68
348.291	67.5
348.674	90.77
349.057	120.15
349.44	145.24
349.823	147.27
350.206	181.62
350.588	232.92
350.971	253.26
351.354	269.53
351.737	293.26
352.119	298.9
352.502	302.75
352.884	318.11
353.267	311.11
353.65	339.36
354.032	324.21
354.414	346.36
354.797	360.6
355.179	370.77
355.562	385.46
355.944	371.67
356.326	368.06
356.709	381.84
357.091	400.82
357.473	394.04
357.855	385.23
358.238	379.81
358.62	380.26
359.002	405.57
359.384	404.89
359.766	390.88
360.148	411.22
360.53	375.74
360.912	371.9
361.294	378.9
361.676	380.71
362.057	387.94
362.439	396.3
362.821	406.47
363.203	374.83
363.584	392.91
363.966	376.87
364.348	384.55
364.729	389.3
365.111	388.39
365.493	397.21
365.874	370.54
366.256	385.46
366.637	357.43
367.019	382.29
367.4	380.26
367.781	380.94
368.163	376.42
368.544	380.03
368.925	391.78
369.306	373.93
369.688	383.2
370.069	385.23
370.45	374.16
370.831	403.99
371.212	389.75
371.593	379.35
371.974	376.87
372.355	418
372.736	396.3
373.117	397.43
373.498	399.92
373.879	398.79
374.26	416.64
374.641	389.07
375.021	417.32
375.402	410.99
375.783	425.23
376.163	443.08
376.544	436.3
376.925	418.45
377.305	432.69
377.686	423.42
378.066	415.06
378.447	425.23
378.827	446.47
379.208	429.07
379.588	417.77
379.968	476.75
380.349	439.92
380.729	439.69
381.109	451.89
381.489	469.07
381.87	479.69
382.25	459.58
382.63	460.03
383.01	454.83
383.39	451.67
383.77	475.4
384.15	508.62
384.53	491.44
384.91	493.7
385.29	486.02
385.67	516.75
386.049	501.61
386.429	499.8
386.809	517.88
387.189	546.13
387.568	529.86
387.948	555.85
388.328	554.72
388.707	545.23
389.087	559.91
389.466	548.84
389.846	561.27
390.225	558.11
390.605	584.55
390.984	575.06
391.363	574.6
391.743	608.27
392.122	611.66
392.501	598.11
392.881	648.27
393.26	620.93
393.639	612.57
394.018	669.06
394.397	663.41
394.776	662.06
395.155	663.41
395.534	669.29
395.913	659.8
396.292	706.13
396.671	690.76
397.05	716.97
397.429	729.18
397.808	715.62
398.186	733.92
398.565	765.33
398.944	754.94
399.323	776.86
399.701	776.86
400.08	784.54
400.458	806.01
400.837	815.5
401.215	816.18
401.594	858.66
401.972	849.4
402.351	858.89
402.729	860.7
403.107	881.71
403.486	910.19
403.864	900.02
404.242	922.17
404.62	935.5
404.999	959
405.377	973.92
405.755	986.34
406.133	994.03
406.511	1019.11
406.889	1040.13
407.267	1051.43
407.645	1074.03
408.023	1106.79
408.401	1136.62
408.779	1127.58
409.156	1143.4
409.534	1187.47
409.912	1204.42
410.29	1242.61
410.667	1240.57
411.045	1279.44
411.422	1246
411.8	1287.58
412.178	1301.36
412.555	1354.02
412.933	1378.2
413.31	1382.94
413.687	1437.18
414.065	1468.82
414.442	1448.48
414.819	1497.52
415.197	1508.36
415.574	1538.19
415.951	1596.27
416.328	1568.25
416.705	1582.26
417.082	1635.14
417.46	1633.56
417.837	1649.15
418.214	1674.24
418.591	1733.67
418.967	1729.15
419.344	1751.07
419.721	1759.43
420.098	1782.71
420.475	1824.51
420.852	1840.11
421.228	1847.56
421.605	1834.91
421.982	1926.88
422.358	1914.91
422.735	1919.65
423.111	1933.44
423.488	1961.01
423.864	1988.58
424.241	2019.31
424.617	2047.33
424.994	2074.45
425.37	2113.55
425.746	2127.33
426.123	2131.62
426.499	2172.98
426.875	2191.06
427.251	2268.57
427.627	2305.18
428.003	2314.22
428.379	2348.79
428.756	2370.04
429.132	2383.6
429.507	2451.39
429.883	2482.8
430.259	2509.02
430.635	2537.94
431.011	2568.45
431.387	2655.68
431.763	2701.1
432.138	2685.06
432.514	2746.3
432.89	2766.18
433.265	2815.9
433.641	2832.4
434.016	2866.97
434.392	2950.36
434.767	3017.25
435.143	3016.12
435.518	3072.62
435.894	3118.04
436.269	3138.38
436.644	3232.39
437.02	3234.19
437.395	3252.27
437.77	3274.65
438.145	3340.41
438.52	3384.7
438.895	3440.74
439.271	3457.01
439.646	3531.59
440.021	3489.78
440.395	3521.42
440.77	3553.28
441.145	3598.25
441.52	3626.95
441.895	3646.84
442.27	3718.93
442.645	3649.1
443.019	3847.29
443.394	3795.31
443.769	3811.81
444.143	3798.02
444.518	3847.51
444.892	3890.9
445.267	3899.71
445.641	3985.14
446.016	3977.23
446.39	4029.88
446.764	4068.75
447.139	4074.85
447.513	4099.03
447.887	4083.21
448.262	4157.11
448.636	4186.49
449.01	4233.26
449.384	4295.18
449.758	4341.96
450.132	4406.37
450.506	4401.85
450.88	4460.6
451.254	4411.56
451.628	4533.82
452.002	4632.8
452.376	4650.88
452.75	4686.36
453.123	4728.17
453.497	4811.78
453.871	4830.99
454.244	4958.67
454.618	5009.29
454.992	5021.94
455.365	5114.15
455.739	5229.4
456.112	5263.29
456.486	5312.56
456.859	5380.58
457.232	5462.61
457.606	5391.88
457.979	5580.12
458.352	5713.9
458.725	5738.31
459.099	5802.26
459.472	5928.81
459.845	5955.25
460.218	6021.69
460.591	6086.1
460.964	6157.51
461.337	6299.2
461.71	6343.49
462.083	6462.36
462.456	6458.74
462.829	6542.36
463.201	6631.17
463.574	6699.19
463.947	6789.58
464.32	6977.6
464.692	6995.23
465.065	7065.96
465.438	7187.31
465.81	7330.81
466.183	7390.47
466.555	7602.67
466.928	7569.9
467.3	7625.94
467.672	7707.75
468.045	7945.26
468.417	7940.51
468.789	8008.53
469.161	8192.26
469.534	8375.53
469.906	8519.48
470.278	8577.78
470.65	8705.01
471.022	8832.47
471.394	9068.62
471.766	9081.05
472.138	9208.5
472.51	9420.25
472.882	9542.96
473.253	9666.12
473.625	9844.87
473.997	9965.32
474.369	10088.03
474.74	10198.76
475.112	10410.28
475.484	10568.47
475.855	10745.41
476.227	10794.67
476.598	11145.63
476.97	11190.14
477.341	11592.39
477.713	11738.38
478.084	11919.16
478.455	12218.59
478.827	12245.26
479.198	12662.65
479.569	12661.97
479.94	13058.34
480.311	13179.02
480.682	13443.42
481.053	13787.36
481.424	13954.36
481.795	14141.48
482.166	14356.16
482.537	14582.6
482.908	14882.93
483.279	14998.86
483.65	15248.12
484.021	15625.28
484.391	15783.92
484.762	15992.5
485.133	16128.09
485.503	16338.26
485.874	16735.76
486.244	16900.95
486.615	17240.61
486.985	17408.74
487.356	17748.84
487.726	17823.42
488.097	18321.93
488.467	18321.26
488.837	18664.98
489.207	18935.7
489.578	19134.34
489.948	19298.86
490.318	19613.42
490.688	19755.57
491.058	20129.57
491.428	20370.69
491.798	20571.59
492.168	20956.67
492.538	21025.59
492.908	21338.8
493.278	21681.62
493.648	21655.86
494.017	22016.07
494.387	22225.11
494.757	22534.03
495.126	22774.7
495.496	22870.97
495.866	23066.89
496.235	23320.45
496.605	23508.46
496.974	23624.84
497.344	23882.92
497.713	23973.76
498.082	24205.85
498.452	24525.39
498.821	24670.92
499.19	24710.47
499.559	24890.12
499.928	25066.39
500.298	25244.24
500.667	25498.24
501.036	25510.67
501.405	25850.32
501.774	25809.87
502.143	26129.41
502.512	26192.69
502.88	26476.3
503.249	26508.61
503.618	26660.25
503.987	26826.57
504.356	26987.24
504.724	27163.96
505.093	27370.96
505.462	27502.48
505.83	27753.32
506.199	27892.53
506.567	28338.62
506.936	28281.67
507.304	28657.71
507.672	28925.04
508.041	29006.85
508.409	29320.97
508.777	29510.57
509.145	29829.88
509.514	29827.62
509.882	30031.68
510.25	30343.31
510.618	30517.09
510.986	30596.64
511.354	30856.29
511.722	31205.44
512.09	31400.91
512.458	31366.11
512.826	31811.97
513.193	31887.9
513.561	32100.1
513.929	32416.03
514.297	32491.05
514.664	32866.18
515.032	32871.61
515.4	33117.48
515.767	33306.17
516.135	33573.74
516.502	33435.43
516.869	33920.85
517.237	34255.98
517.604	34035.87
517.972	34430.44
518.339	34736.87
518.706	34902.51
519.073	35088.95
519.44	35332.56
519.808	35702.72
520.175	35683.51
520.542	36225.19
520.909	36401.91
521.276	36453.21
521.643	36875.57
522.009	37160.08
522.376	37440.75
522.743	37588.32
523.11	38184.01
523.477	38434.4
523.843	38723.88
524.21	38996.87
524.577	39442.51
524.943	39531.32
525.31	39776.06
525.676	40253.79
526.043	40459.43
526.409	40682.93
526.776	41150.49
527.142	41205.85
527.508	41515.45
527.874	41707.76
528.241	41923.8
528.607	42154.08
528.973	42456.44
529.339	42611.46
529.705	43018.69
530.071	43323.99
530.437	43303.88
530.803	43578.67
531.169	43803.07
531.535	43815.27
531.901	43941.82
532.267	44212.55
532.632	44525.76
532.998	44580.9
533.364	44787.68
533.73	44938.63
534.095	45106.54
534.461	45207.33
534.826	45381.56
535.192	45420.66
535.557	45850.25
535.923	45878.72
536.288	45983.35
536.653	46264.25
537.019	46092.73
537.384	46488.65
537.749	46638.03
538.114	46790.11
538.479	46939.94
538.845	47134.28
539.21	47062.87
539.575	47313.94
539.94	47492.47
540.305	47833.47
540.67	47814.49
541.034	47953.7
541.399	48234.14
541.764	48267.13
542.129	48527.69
542.494	48757.52
542.858	48910.06
543.223	48901.02
543.587	49241.12
543.952	49251.29
544.316	49341.23
544.681	49381
545.045	49556.59
545.41	49765.17
545.774	49901.22
546.138	49829.81
546.503	50005.39
546.867	50072.96
547.231	50333.97
547.595	50439.28
547.959	50461.43
548.324	50472.05
548.688	50555.44
549.052	50633.63
549.416	50662.1
549.779	50852.83
550.143	50801.98
550.507	51126.04
550.871	51124.01
551.235	51070.45
551.599	51282.87
551.962	51343.89
552.326	51470.89
552.689	51540.27
553.053	51407.39
553.417	51582.08
553.78	51965.34
554.143	51928.96
554.507	51970.99
554.87	52118.56
555.234	52446.46
555.597	52254.6
555.96	52440.58
556.323	52607.36
556.686	52720.13
557.05	52955.15
557.413	53050.29
557.776	53202.82
558.139	53354.46
558.502	53389.71
558.865	53500.22
559.228	53718.06
559.59	53935.46
559.953	54011.16
560.316	54308.33
560.679	54410.25
561.041	54545.39
561.404	54729.56
561.767	54837.81
562.129	54806.85
562.492	55097.24
562.854	55105.15
563.217	55240.28
563.579	55375.65
563.941	55530.67
564.304	55620.84
564.666	55726.15
565.028	55894.5
565.39	55921.4
565.753	56078.68
566.115	56186.93
566.477	56245.91
566.839	56341.27
567.201	56400.25
567.563	56473.02
567.925	56606.35
568.287	56581.27
568.648	56634.82
569.01	56741.71
569.372	56868.26
569.734	56819
570.095	56946.23
570.457	57091.31
570.819	57071.88
571.18	57063.97
571.542	57254.7
571.903	57232.32
572.265	57269.16
572.626	57359.78
572.987	57427.8
573.349	57431.41
573.71	57528.13
574.071	57625.76
574.432	57722.93
574.794	57968.35
575.155	57851.29
575.516	57756.6
575.877	57907.56
576.238	58001.57
576.599	58153.2
576.96	58091.06
577.32	58186.65
577.681	58331.95
578.042	58275.46
578.403	58348.23
578.763	58412.86
579.124	58514.55
579.485	58653.3
579.845	58705.05
580.206	58701.89
580.566	58744.15
580.927	58807.42
581.287	58890.81
581.648	58844.94
582.008	59046.29
582.368	58981.66
582.728	58992.05
583.089	59035.89
583.449	58961.54
583.809	59111.14
584.169	59154.98
584.529	59079.05
584.889	59236.11
585.249	59061.43
585.609	59043.8
585.969	59259.16
586.329	59097.13
586.688	59194.08
587.048	59152.05
587.408	59055.78
587.768	59088.55
588.127	59082.22
588.487	59005.61
588.846	59189.79
589.206	58891.71
589.565	58996.12
589.925	59074.08
590.284	58979.4
590.643	58985.95
591.003	59163.8
591.362	59055.55
591.721	59014.42
592.08	58994.99
592.44	59063.01
592.799	59083.57
593.158	59025.5
593.517	59070.69
593.876	59054.42
594.235	58948.21
594.593	59071.37
594.952	59146.62
595.311	58996.8
595.67	59092.16
596.029	59229.11
596.387	59166.96
596.746	59176.45
597.104	59140.52
597.463	59164.7
597.822	59240.18
598.18	59150.69
598.538	59195.21
598.897	59412.15
599.255	59129.22
599.613	59520.85
599.972	59367.86
600.33	59461.87
600.688	59387.97
601.046	59505.71
601.404	59563.79
601.762	59574.86
602.12	59740.05
602.478	59634.07
602.836	59719.72
603.194	59607.4
603.552	59707.06
603.91	59614.63
604.268	59732.14
604.625	59672.94
604.983	59793.39
605.341	59749.54
605.698	59819.15
606.056	59873.16
606.413	59873.16
606.771	59875.87
607.128	59912.48
607.485	59815.31
607.843	59925.36
608.2	59983.21
608.557	60061.4
608.914	59976.88
609.272	60086.49
609.629	60068.86
609.986	60196.76
610.343	60024.57
610.7	60202.64
611.057	60069.31
611.414	60049.88
611.771	60108.63
612.127	60157.22
612.484	60179.59
612.841	60232.47
613.198	60124.45
613.554	60140.72
613.911	60188.18
614.267	60185.47
614.624	60141.17
614.98	60165.81
615.337	60273.82
615.693	60179.59
616.05	60171.91
616.406	60285.35
616.762	60242.19
617.118	60228.85
617.475	60276.31
617.831	60272.69
618.187	60361.96
618.543	60366.03
618.899	60487.6
619.255	60512.46
619.611	60434.72
619.967	60528.96
620.323	60492.12
620.678	60448.74
621.034	60486.47
621.39	60520.6
621.746	60457.32
622.101	60733.93
622.457	60536.42
622.812	60660.03
623.168	60672.23
623.523	60681.5
623.879	60706.13
624.234	60613.93
624.589	60758.56
624.945	60816.64
625.3	60775.96
625.655	60764.43
626.01	60832.23
626.365	60811.89
626.72	60820.93
627.075	60827.03
627.43	60762.85
627.785	60735.51
628.14	60815.73
628.495	60817.09
628.85	60809.86
629.205	60693.25
629.559	60794.49
629.914	60688.96
630.269	60702.74
630.623	60614.83
630.978	60630.65
631.332	60665.23
631.687	60673.81
632.041	60546.81
632.396	60529.41
632.75	60458.9
633.104	60433.59
633.459	60381.84
633.813	60307.04
634.167	60354.5
634.521	60293.26
634.875	60272.69
635.229	60199.48
635.583	60083.55
635.937	60157.67
636.291	60044.23
636.645	60023.66
636.999	59912.7
637.352	60000.84
637.706	59795.42
638.06	59882.87
638.413	59857.34
638.767	59759.94
639.121	59821.41
639.474	59665.71
639.828	59692.37
640.181	59676.1
640.534	59617.8
640.888	59535.09
641.241	59465.94
641.594	59492.83
641.947	59613.5
642.301	59475.65
642.654	59522.66
643.007	59577.8
643.36	59482.43
643.713	59465.03
644.066	59478.14
644.419	59408.99
644.771	59213.51
645.124	59089.68
645.477	59096.45
645.83	58954.99
646.182	58802
646.535	58675.9
646.888	58751.6
647.24	58608.78
647.593	58847.2
647.945	58764.03
648.298	58651.27
648.65	58628.22
649.002	58574.89
649.355	58728.33
649.707	58601.33
650.059	58900.08
650.411	59133.06
650.763	59119.96
651.115	59377.13
651.467	59286.51
651.819	59253.96
652.171	59169
652.523	59190.24
652.875	59210.58
653.227	59084.03
653.578	59195.89
653.93	59157.24
654.282	59030.69
654.633	58970.36
654.985	59004.48
655.337	58995.21
655.688	59012.62
656.039	59096.45
656.391	58806.97
656.742	58901.88
657.094	58771.72
657.445	58921.32
657.796	58847.65
658.147	58665.51
658.498	58726.97
658.849	58753.19
659.2	58626.64
659.551	58519.97
659.902	58633.87
660.253	58546.41
660.604	58553.19
660.955	58462.8
661.306	58453.08
661.656	58371.95
662.007	58393.2
662.358	58399.07
662.708	58288.34
663.059	58251.05
663.409	58051.28
663.76	58256.93
664.11	58252.41
664.461	58197.95
664.811	58204.95
665.161	58147.78
665.511	58066.43
665.862	58116.59
666.212	58063.26
666.562	58108.46
666.912	58022.13
667.262	57948.46
667.612	57990.49
667.962	57997.95
668.312	57938.29
668.662	58028.23
669.011	57973.55
669.361	57938.97
669.711	57937.16
670.06	57881.8
670.41	57875.24
670.76	57903.94
671.109	58012.87
671.459	57922.47
671.808	57896.49
672.157	57923.38
672.507	57823.72
672.856	57922.47
673.205	57921.8
673.554	58049.93
673.904	57946.2
674.253	58039.76
674.602	57991.4
674.951	57612.2
675.3	57507.34
675.649	57971.29
675.998	57977.16
676.346	57947.33
676.695	58017.61
677.044	57823.04
677.393	57921.12
677.741	58014.9
678.09	57936.26
678.438	57847.45
678.787	57958.41
679.135	57861.01
679.484	57691.52
679.832	57864.85
680.181	57724.51
680.529	57833.44
680.877	57700.11
681.225	57665.76
681.573	57789.14
681.922	57535.82
682.27	57471.86
682.618	57410.62
682.966	57368.59
683.314	57492.2
683.661	57364.3
684.009	57218.76
684.357	57169.5
684.705	57093.8
685.053	57056.28
685.4	57022.84
685.748	56939.9
686.095	56904.87
686.443	56781.94
686.79	56698.1
687.138	56740.36
687.485	56587.59
687.832	56545.56
688.18	56513.47
688.527	56420.14
688.874	56398.22
689.221	56254.04
689.568	56083.43
689.915	56108.06
690.262	56075.74
690.609	55957.55
690.956	55867.16
691.303	55725.92
691.65	55590.78
691.997	55569.32
692.344	55339.04
692.69	55326.84
693.037	55360.73
693.383	55133.39
693.73	55232.15
694.077	55061.76
694.423	54973.63
694.769	54882.78
695.116	54854.76
695.462	54730.69
695.808	54635.55
696.155	54735.67
696.501	54501.77
696.847	54486.86
697.193	54257.26
697.539	54451.6
697.885	54224.04
698.231	54065.4
698.577	54081.9
698.923	54152.4
699.269	53963.71
699.614	53853.2
699.96	53925.52
700.306	53786.31
700.651	53720.1
700.997	53699.99
701.342	53579.99
701.688	53570.5
702.033	53434.91
702.379	53488.92
702.724	53428.81
703.069	53435.36
703.415	53179.32
703.76	53244.63
704.105	53288.47
704.45	53210.96
704.795	53048.93
705.14	52971.42
705.485	52961.7
705.83	52840.57
706.175	52925.77
706.52	52846.9
706.865	52776.62
707.209	52807.81
707.554	52643.74
707.899	52635.38
708.243	52550.41
708.588	52489.62
708.932	52266.58
709.277	52310.64
709.621	52299.12
709.966	52125.11
710.31	52144.55
710.654	51927.38
710.998	52003.76
711.342	51854.84
711.687	51779.13
712.031	51716.31
712.375	51579.82
712.719	51578.69
713.063	51529.42
713.407	51628.63
713.75	51328.07
714.094	51314.96
714.438	51095.54
714.782	51109.77
715.125	50931.47
715.469	51060.28
715.812	50750.69
716.156	50641.08
716.499	50583.68
716.843	50715.43
717.186	50435.21
717.53	50538.04
717.873	50553.18
718.216	50302.34
718.559	50185.73
718.902	49780.09
719.246	49973.98
719.589	49832.97
719.932	49724.72
720.275	49795.68
720.617	49590.94
720.96	49566.31
721.303	49357.73
721.646	49380.78
721.989	49108.69
722.331	49214.68
722.674	49197.28
723.016	49042.03
723.359	49035.02
723.701	49065.31
724.044	48680.23
724.386	48398.88
724.729	48545.09
725.071	48496.06
725.413	48431.88
725.755	48291.31
726.097	48204.31
726.439	47972.45
726.782	48011.32
727.124	48042.06
727.465	47875.28
727.807	47738.79
728.149	47624.89
728.491	47660.6
728.833	47750.31
729.175	47502.64
729.516	47557.1
729.858	47350.1
730.199	47334.96
730.541	47280.95
730.882	47185.13
731.224	47364.79
731.565	47042.31
731.906	47058.58
732.248	47176.77
732.589	46999.37
732.93	46810.68
733.271	46793.28
733.612	46980.84
733.953	46952.37
734.294	46884.57
734.635	46701.3
734.976	46793.5
735.317	46505.15
735.658	46665.6
735.999	46595.54
736.339	46540.17
736.68	46589.44
737.021	46407.97
737.361	46279.84
737.702	46416.56
738.042	46410.23
738.383	46149.45
738.723	46425.6
739.063	46268.77
739.404	46319.39
739.744	46277.36
740.084	46088.44
740.424	46181.31
740.764	45964.82
741.104	46168.43
741.444	46104.03
741.784	45913.07
742.124	45978.83
742.464	45835.11
742.804	45777.26
743.143	45614.78
743.483	45611.61
743.823	45533.2
744.162	45450.94
744.502	45471.95
744.841	45327.78
745.181	45519.64
745.52	45178.63
745.86	45233.09
746.199	45113.09
746.538	45174.56
746.877	45247.78
747.216	45114.9
747.556	44892.08
747.895	44960.56
748.234	44811.41
748.573	44688.7
748.911	44561.24
749.25	44537.52
749.589	44421.36
749.928	44415.26
750.267	44238.31
750.605	44163.29
750.944	44203.96
751.283	43893.69
751.621	43831.55
751.96	43663.64
752.298	43730.3
752.636	43636.97
