Data from white_poster_card_FLMS001491_00062.txt Node
Date: Wed Feb 08 11:51:50 GMT 2017
User: dcchb
Spectrometer: FLMS00149
Trigger mode: 0
Integration Time (sec): 2.000000E-2
Scans to average: 10
Electric dark correction enabled: true
Nonlinearity correction enabled: false
Boxcar width: 0
XAxis mode: Wavelengths
Number of Pixels in Spectrum: 2048
>>>>>Begin Spectral Data<<<<<
341.393	-14.01
341.776	-14.01
342.16	-14.01
342.543	-47.46
342.927	-65.99
343.31	-67.79
343.693	-65.53
344.077	-62.6
344.46	-73.67
344.843	-36.61
345.226	-55.59
345.61	-23.28
345.993	-16.27
346.376	4.07
346.759	9.94
347.142	22.37
347.525	42.71
347.908	44.97
348.291	71.64
348.674	89.49
349.057	116.16
349.44	109.6
349.823	131.97
350.206	145.76
350.588	184.85
350.971	228.47
351.354	212.42
351.737	235.7
352.119	236.6
352.502	270.28
352.884	275.47
353.267	271.41
353.65	288.35
354.032	299.2
354.414	310.27
354.797	318.41
355.179	335.81
355.562	329.93
355.944	324.06
356.326	336.71
356.709	346.43
357.091	309.6
357.473	342.14
357.855	317.96
358.238	330.16
358.62	345.3
359.002	327.22
359.384	333.55
359.766	333.55
360.148	351.18
360.53	332.42
360.912	331.06
361.294	330.16
361.676	345.08
362.057	345.53
362.439	342.14
362.821	317.96
363.203	325.87
363.584	352.31
363.966	338.07
364.348	342.59
364.729	330.16
365.111	319.09
365.493	317.96
365.874	318.41
366.256	323.83
366.637	317.73
367.019	338.3
367.4	317.73
367.781	318.18
368.163	293.55
368.544	312.99
368.925	302.36
369.306	322.7
369.688	304.17
370.069	313.44
370.45	328.35
370.831	315.02
371.212	306.21
371.593	318.64
371.974	329.03
372.355	331.29
372.736	322.93
373.117	320.67
373.498	326.09
373.879	334.91
374.26	340.1
374.641	325.87
375.021	329.48
375.402	331.06
375.783	335.36
376.163	326.55
376.544	331.52
376.925	322.25
377.305	336.49
377.686	349.82
378.066	324.51
378.447	328.58
378.827	337.17
379.208	325.19
379.588	359.99
379.968	320.9
380.349	346.43
380.729	342.14
381.109	343.49
381.489	330.39
381.87	341.69
382.25	345.3
382.63	338.75
383.01	350.73
383.39	345.53
383.77	364.96
384.15	364.51
384.53	345.3
384.91	347.79
385.29	356.83
385.67	364.51
386.049	366.54
386.429	368.58
386.809	348.92
387.189	376.26
387.568	366.09
387.948	363.38
388.328	359.54
388.707	366.32
389.087	367.45
389.466	373.1
389.846	380.55
390.225	385.3
390.605	375.81
390.984	384.17
391.363	396.15
391.743	381.46
392.122	382.14
392.501	415.36
392.881	392.31
393.26	397.05
393.639	393.44
394.018	411.74
394.397	410.84
394.776	425.53
395.155	403.61
395.534	407.67
395.913	417.16
396.292	434.56
396.671	448.12
397.05	437.05
397.429	430.95
397.808	416.94
398.186	403.15
398.565	439.76
398.944	425.98
399.323	440.89
399.701	446.32
400.08	467.33
400.458	451.06
400.837	450.16
401.215	453.1
401.594	447.22
401.972	446.99
402.351	473.89
402.729	472.76
403.107	475.69
403.486	474.34
403.864	478.86
404.242	474.56
404.62	517.95
404.999	497.16
405.377	516.37
405.755	506.88
406.133	518.18
406.511	524.05
406.889	524.28
407.267	526.77
407.645	545.07
408.023	558.63
408.401	562.7
408.779	581.68
409.156	600.21
409.534	585.3
409.912	591.17
410.29	614.45
410.667	625.29
411.045	615.58
411.422	620.1
411.8	647.89
412.178	655.8
412.555	659.87
412.933	670.26
413.31	709.59
413.687	713.2
414.065	719.98
414.442	747.55
414.819	726.08
415.197	762.47
415.574	782.58
415.951	788.68
416.328	794.33
416.705	804.5
417.082	821
417.46	866.64
417.837	867.55
418.214	882.91
418.591	865.97
418.967	884.5
419.344	912.29
419.721	924.72
420.098	929.92
420.475	967.88
420.852	960.65
421.228	987.09
421.605	1019.41
421.982	1041.1
422.358	1006.75
422.735	1046.53
423.111	1048.11
423.488	1075
423.864	1095.11
424.241	1122.68
424.617	1113.19
424.994	1138.95
425.37	1147.54
425.746	1152.29
426.123	1177.82
426.499	1161.78
426.875	1201.78
427.251	1215.79
427.627	1255.33
428.003	1282.45
428.379	1278.61
428.756	1319.97
429.132	1293.53
429.507	1341.43
429.883	1336.24
430.259	1393.18
430.635	1387.99
431.011	1406.29
431.387	1420.98
431.763	1450.58
432.138	1460.75
432.514	1507.98
432.89	1482.9
433.265	1542.78
433.641	1561.31
434.016	1594.08
434.392	1614.65
434.767	1641.99
435.143	1653.74
435.518	1658.49
435.894	1643.12
436.269	1714.31
436.644	1711.82
437.02	1725.38
437.395	1736.45
437.77	1748.43
438.145	1817.13
438.52	1818.26
438.895	1818.48
439.271	1834.3
439.646	1905.94
440.021	1909.1
440.395	1908.65
440.77	1907.29
441.145	1899.61
441.52	1950.68
441.895	1957.69
442.27	1923.79
442.645	2009.21
443.019	1951.59
443.394	1990.68
443.769	2013.73
444.143	2008.99
444.518	2034.97
444.892	2059.83
445.267	2088.76
445.641	2081.08
446.016	2122.2
446.39	2091.47
446.764	2124.46
447.139	2143.45
447.513	2165.14
447.887	2156.55
448.262	2192.48
448.636	2232.26
449.01	2187.29
449.384	2221.64
449.758	2241.52
450.132	2296.44
450.506	2289.66
450.88	2318.13
451.254	2289.66
451.628	2338.7
452.002	2355.42
452.376	2378.02
452.75	2388.41
453.123	2410.11
453.497	2483.1
453.871	2464.34
454.244	2509.09
454.618	2533.49
454.992	2570.1
455.365	2610.78
455.739	2637.9
456.112	2611.23
456.486	2645.81
456.859	2668.4
457.232	2731.91
457.606	2739.36
457.979	2761.96
458.352	2812.13
458.725	2827.5
459.099	2872.24
459.472	2909.53
459.845	2939.13
460.218	2956.31
460.591	2986.14
460.964	2983.65
461.337	3078.11
461.71	3160.14
462.083	3176.19
462.456	3159.46
462.829	3188.62
463.201	3238.56
463.574	3277.88
463.947	3298.67
464.32	3368.72
464.692	3409.63
465.065	3425.45
465.438	3488.04
465.81	3521.94
466.183	3552.67
466.555	3631.09
466.928	3649.4
467.3	3656.18
467.672	3697.98
468.045	3807.13
468.417	3832.44
468.789	3869.28
469.161	3897.3
469.534	3943.4
469.906	4039.44
470.278	4043.06
470.65	4072.44
471.022	4197.18
471.394	4246.89
471.766	4312.43
472.138	4323.95
472.51	4423.16
472.882	4469.94
473.253	4554.46
473.625	4598.07
473.997	4673.32
474.369	4699.99
474.74	4743.38
475.112	4869.25
475.484	4893.66
475.855	5039.64
476.227	5068.12
476.598	5181.11
476.97	5231.27
477.341	5315.57
477.713	5402.8
478.084	5460.2
478.455	5625.16
478.827	5635.11
479.198	5769.57
479.569	5810.24
479.94	5922.33
480.311	6023.34
480.682	6165.04
481.053	6214.98
481.424	6355.31
481.795	6403.67
482.166	6496.78
482.537	6571.8
482.908	6777.67
483.279	6788.97
483.65	6883.43
484.021	7071.45
484.391	7121.39
484.762	7209.08
485.133	7276.42
485.503	7417.66
485.874	7545.56
486.244	7556.41
486.615	7756.86
486.985	7828.72
487.356	7998.89
487.726	8035.95
488.097	8189.16
488.467	8269.16
488.837	8460.57
489.207	8501.47
489.578	8607.68
489.948	8684.74
490.318	8844.51
490.688	8842.93
491.058	8991.4
491.428	9088.57
491.798	9221.9
492.168	9414.67
492.538	9416.7
492.908	9545.51
493.278	9718.61
493.648	9671.16
494.017	9818.5
494.387	9896.69
494.757	10019.62
495.126	10095.55
495.496	10089
495.866	10209.45
496.235	10314.31
496.605	10469.1
496.974	10472.04
497.344	10621.87
497.713	10656.67
498.082	10813.05
498.452	10889.43
498.821	10937.11
499.19	10939.83
499.559	11086.94
499.928	11145.02
500.298	11253.04
500.667	11290.78
501.036	11235.18
501.405	11450.55
501.774	11466.14
502.143	11632.01
502.512	11641.5
502.88	11768.05
503.249	11797.88
503.618	11872.68
503.987	12009.85
504.356	12035.62
504.724	12210.07
505.093	12233.58
505.462	12286.68
505.83	12424.76
506.199	12534.81
506.567	12688.71
506.936	12669.5
507.304	12847.57
507.672	12917.4
508.041	12878.53
508.409	13053.44
508.777	13117.62
509.145	13310.84
509.514	13231.52
509.882	13385.64
510.25	13428.12
510.618	13555.35
510.986	13617.5
511.354	13726.87
511.722	13832.86
512.09	14082.57
512.458	13964.6
512.826	14072.85
513.193	14165.28
513.561	14290.7
513.929	14403.92
514.297	14477.81
514.664	14665.83
515.032	14657.24
515.4	14874.41
515.767	14919.61
516.135	15031.02
516.502	15037.34
516.869	15165.48
517.237	15299.48
517.604	15327.28
517.972	15522.53
518.339	15687.27
518.706	15655.63
519.073	15791.45
519.44	15892.24
519.808	16105.57
520.175	16115.96
520.542	16251.55
520.909	16374.48
521.276	16514.14
521.643	16652.22
522.009	16750.29
522.376	16907.58
522.743	17064.18
523.11	17204.07
523.477	17319.77
523.843	17454.91
524.21	17604.28
524.577	17787.1
524.943	17849.25
525.31	17927.44
525.676	18057.83
526.043	18131.73
526.409	18293.08
526.776	18537.82
527.142	18516.8
527.508	18743.91
527.874	18827.53
528.241	18886.96
528.607	19022.55
528.973	19138.25
529.339	19209.21
529.705	19446.27
530.071	19658.24
530.437	19659.14
530.803	19825.47
531.169	19926.93
531.535	19944.11
531.901	20053.26
532.267	20224.1
532.632	20314.27
532.998	20457.77
533.364	20499.57
533.73	20600.36
534.095	20768.95
534.461	20912.22
534.826	20883.29
535.192	20989.05
535.557	21214.81
535.923	21187.47
536.288	21288.71
536.653	21453
537.019	21311.98
537.384	21560.34
537.749	21577.74
538.114	21708.81
538.479	21731.86
538.845	21833.78
539.21	21816.38
539.575	21938.41
539.94	22042.58
540.305	22158.51
540.67	22282.13
541.034	22354.89
541.399	22429.69
541.764	22531.16
542.129	22553.98
542.494	22555.11
542.858	22833.07
543.223	22764.37
543.587	22974.31
543.952	22782.9
544.316	23026.51
544.681	23036.46
545.045	23156.45
545.41	23218.6
545.774	23330.69
546.138	23449.1
546.503	23452.49
546.867	23441.64
547.231	23694.52
547.595	23709.89
547.959	23845.93
548.324	23855.87
548.688	23912.59
549.052	24131.12
549.416	24104
549.779	24146.48
550.143	24183.32
550.507	24360.04
550.871	24587.6
551.235	24480.26
551.599	24639.35
551.962	24830.76
552.326	24804.55
552.689	24960.7
553.053	24852.68
553.417	24978.55
553.78	25269.62
554.143	25233.23
554.507	25373.34
554.87	25574.47
555.234	25654.24
555.597	25641.81
555.96	25724.97
556.323	25941.69
556.686	25931.07
557.05	26126.09
557.413	26210.61
557.776	26204.51
558.139	26493.77
558.502	26538.51
558.865	26539.19
559.228	26855.11
559.59	26948.67
559.953	26902.12
560.316	27171.71
560.679	27188.21
561.041	27420.75
561.404	27516.34
561.767	27745.71
562.129	27665.04
562.492	27838.82
562.854	27841.08
563.217	27954.52
563.579	28170.78
563.941	28314.96
564.304	28340.27
564.666	28594.73
565.028	28560.15
565.39	28799.92
565.753	28951.78
566.115	29051.89
566.477	29201.04
566.839	29270.19
567.201	29423.86
567.563	29418.44
567.925	29646.45
568.287	29661.59
568.648	29744.53
569.01	29933.22
569.372	30045.76
569.734	29993.34
570.095	30205.31
570.457	30409.14
570.819	30394
571.18	30494.11
571.542	30613.43
571.903	30665.41
572.265	30732.75
572.626	30867.21
572.987	30983.14
573.349	30968
573.71	31118.96
574.071	31282.57
574.432	31335.22
574.794	31535.44
575.155	31567.76
575.516	31447.08
575.877	31567.53
576.238	31714.19
576.599	31783.12
576.96	31807.98
577.32	31821.31
577.681	31896.11
578.042	32180.17
578.403	32139.95
578.763	32188.08
579.124	32209.1
579.485	32313.05
579.845	32399.6
580.206	32300.39
580.566	32362.54
580.927	32454.97
581.287	32557.79
581.648	32396.21
582.008	32643.66
582.368	32591.69
582.728	32645.47
583.089	32530.44
583.449	32631.91
583.809	32593.27
584.169	32633.04
584.529	32456.1
584.889	32942.64
585.249	32575.19
585.609	32574.28
585.969	32831.68
586.329	32711.23
586.688	32666.03
587.048	32848.63
587.408	32704
587.768	32806.6
588.127	32742.87
588.487	32733.6
588.846	32913.94
589.206	32629.2
589.565	32645.02
589.925	32968.62
590.284	32748.74
590.643	32819.48
591.003	32809.08
591.362	32934.95
591.721	32836.65
592.08	32780.83
592.44	32987.38
592.799	32966.14
593.158	32907.84
593.517	32893.6
593.876	33017.89
594.235	33000.49
594.593	33066.48
594.952	33107.83
595.311	32895.18
595.67	32958.46
596.029	33204.32
596.387	33206.36
596.746	33208.17
597.104	32979.92
597.463	33083.65
597.822	33228.73
598.18	33150.77
598.538	33153.25
598.897	33297.43
599.255	33031.67
599.613	33540.59
599.972	33312.12
600.33	33394.6
600.688	33305.79
601.046	33457.88
601.404	33495.62
601.762	33456.75
602.12	33626.01
602.478	33493.36
602.836	33671.21
603.194	33535.16
603.552	33550.53
603.91	33403.42
604.268	33581.94
604.625	33583.3
604.983	33713.01
605.341	33578.33
605.698	33926.79
606.056	33844.76
606.413	33762.95
606.771	33810.41
607.128	33911.42
607.485	33710.98
607.843	33895.15
608.2	33899.9
608.557	34090.4
608.914	34018.09
609.272	34141.48
609.629	34185.09
609.986	34322.94
610.343	34163.4
610.7	34434.8
611.057	34272.77
611.414	34274.81
611.771	34372.43
612.127	34419.43
612.484	34525.19
612.841	34492.43
613.198	34529.49
613.554	34488.81
613.911	34635.02
614.267	34549.15
614.624	34590.28
614.98	34697.84
615.337	34800.21
615.693	34675.7
616.05	34624.63
616.406	34894.9
616.762	34877.05
617.118	34669.37
617.475	34785.53
617.831	34938.74
618.187	35060.77
618.543	34867.78
618.899	35082.69
619.255	35124.95
619.611	35059.19
619.967	35016.48
620.323	35178.06
620.678	35110.94
621.034	35056.71
621.39	35006.09
621.746	34829.82
622.101	35272.74
622.457	34990.72
622.812	35097.61
623.168	35139.87
623.523	35213.31
623.879	35309.13
624.234	35079.76
624.589	35119.98
624.945	35261.22
625.3	35174.89
625.655	35208.11
626.01	35271.16
626.365	35148.23
626.72	35066.65
627.075	35202.01
627.43	35108.23
627.785	35014.22
628.14	35097.38
628.495	35200.88
628.85	35214.67
629.205	35030.49
629.559	35199.75
629.914	35002.7
630.269	35071.39
630.623	34942.81
630.978	34835.02
631.332	34941
631.687	35028.01
632.041	34855.35
632.396	34916.6
632.75	34775.36
633.104	34783.72
633.459	34687.68
633.813	34696.71
634.167	34630.73
634.521	34487
634.875	34576.49
635.229	34501.69
635.583	34385.31
635.937	34355.71
636.291	34337.4
636.645	34417.63
636.999	34195.94
637.352	34442.94
637.706	34153.9
638.06	34362.49
638.413	34204.3
638.767	34007.92
639.121	34210.17
639.474	33957.98
639.828	33861.48
640.181	33957.3
640.534	34058.99
640.888	33895.61
641.241	33697.65
641.594	33757.53
641.947	33799.79
642.301	33598.89
642.654	33659.91
643.007	33669.17
643.36	33564.09
643.713	33565.67
644.066	33694.03
644.419	33488.38
644.771	33178.34
645.124	33060.37
645.477	32852.02
645.83	32723.66
646.182	32491.58
646.535	32488.86
646.888	32551.69
647.24	32213.16
647.593	32568.86
647.945	32428.98
648.298	32215.2
648.65	32087.74
649.002	32099.49
649.355	32200.96
649.707	32153.05
650.059	32250.45
650.411	32594.62
650.763	32670.55
651.115	33087.72
651.467	32929.76
651.819	32890.21
652.171	32692.93
652.523	32567.51
652.875	32781.74
653.227	32520.95
653.578	32742.42
653.93	32678.91
654.282	32531.12
654.633	32475.98
654.985	32469.43
655.337	32478.02
655.688	32353.05
656.039	32578.13
656.391	32157.8
656.742	32267.4
657.094	32307.4
657.445	32325.93
657.796	32355.99
658.147	32290
658.498	32172.94
658.849	32212.03
659.2	32113.05
659.551	32034.64
659.902	32209.77
660.253	32139.27
660.604	32152.15
660.955	32040.29
661.306	32101.53
661.656	32120.74
662.007	32107.18
662.358	32041.64
662.708	32032.15
663.059	31974.3
663.409	31790.12
663.76	31887.52
664.11	31925.49
664.461	31859.95
664.811	32018.82
665.161	31868.31
665.511	31812.27
665.862	31819.73
666.212	31944.02
666.562	31905.6
666.912	31851.37
667.262	31824.93
667.612	31695.21
667.962	31838.03
668.312	31704.25
668.662	31945.6
669.011	31717.58
669.361	31662.9
669.711	31693.86
670.06	31550.36
670.41	31648.66
670.76	31452.05
671.109	31632.61
671.459	31593.97
671.808	31649.56
672.157	31534.99
672.507	31418.38
672.856	31399.4
673.205	31365.5
673.554	31569.34
673.904	31416.58
674.253	31507.42
674.602	31327.76
674.951	31036.02
675.3	30697.5
675.649	31157.6
675.998	31182.68
676.346	31154.66
676.695	31310.36
677.044	31066.75
677.393	31185.39
677.741	31164.15
678.09	31084.83
678.438	30988.34
678.787	31089.58
679.135	31132.06
679.484	30733.43
679.832	30936.81
680.181	30753.99
680.529	30991.73
680.877	30831.51
681.225	30628.12
681.573	30889.36
681.922	30711.73
682.27	30557.84
682.618	30567.56
682.966	30417.96
683.314	30543.83
683.661	30393.33
684.009	30287.57
684.357	30235.82
684.705	30290.28
685.053	30266.1
685.4	30236.95
685.748	30021.58
686.095	29945.2
686.443	29862.49
686.79	29813
687.138	29929.83
687.485	29934.35
687.832	29686.45
688.18	29781.36
688.527	29607.13
688.874	29624.08
689.221	29619.56
689.568	29460.69
689.915	29354.26
690.262	29324.2
690.609	29149.74
690.956	29129.4
691.303	29070.42
691.65	28783.88
691.997	28904.1
692.344	28679.7
692.69	28781.62
693.037	28802.86
693.383	28593.15
693.73	28583.43
694.077	28429.53
694.423	28460.27
694.769	28332.59
695.116	28427.05
695.462	28242.65
695.808	28180.05
696.155	28220.95
696.501	27980.96
696.847	27967.4
697.193	27796.11
697.539	27951.58
697.885	27691.48
698.231	27663.23
698.577	27728.54
698.923	27533.74
699.269	27352.05
699.614	27286.06
699.96	27304.14
700.306	27256.01
700.651	27107.76
700.997	27070.93
701.342	26962.45
701.688	26921.1
702.033	26914.32
702.379	26804.94
702.724	26764.49
703.069	26797.49
703.415	26560.66
703.76	26581.67
704.105	26541
704.45	26473.88
704.795	26353.88
705.14	26235.47
705.485	26156.15
705.83	26084.06
706.175	26111.4
706.52	26038.41
706.865	25866.44
707.209	25848.13
707.554	25837.29
707.899	25805.42
708.243	25650.85
708.588	25614.47
708.932	25384.64
709.277	25362.27
709.621	25419.9
709.966	25426.68
710.31	25239.56
710.654	25080.02
710.998	25204.31
711.342	25210.18
711.687	24992.34
712.031	24970.42
712.375	24946.46
712.719	24969.06
713.063	24783.3
713.407	24995.27
713.75	24807.94
714.094	24795.73
714.438	24694.04
714.782	24612.69
715.125	24570.43
715.469	24629.63
715.812	24579.69
716.156	24423.09
716.499	24357.1
716.843	24365.01
717.186	24137.22
717.53	24308.74
717.873	24187.84
718.216	24193.04
718.559	24062.42
718.902	23962.08
719.246	24005.02
719.589	23835.31
719.932	23790.56
720.275	23929.31
720.617	23780.39
720.96	23680.96
721.303	23707.4
721.646	23640.96
721.989	23631.47
722.331	23572.49
722.674	23466.5
723.016	23525.71
723.359	23540.85
723.701	23468.99
724.044	23375.88
724.386	23318.93
724.729	23369.33
725.071	23134.98
725.413	23238.03
725.755	23347.63
726.097	23162.55
726.439	22929.57
726.782	23014.76
727.124	23101.77
727.465	22949
727.807	22909.68
728.149	22866.74
728.491	22892.96
728.833	22838.5
729.175	22828.78
729.516	22786.29
729.858	22629.01
730.199	22668.56
730.541	22711.49
730.882	22499.97
731.224	22745.62
731.565	22422.46
731.906	22503.14
732.248	22472.18
732.589	22295.23
732.93	22317.38
733.271	22347.66
733.612	22391.05
733.953	22461.78
734.294	22177.04
734.635	22285.97
734.976	22198.06
735.317	22087.1
735.658	22134.33
735.999	22045.3
736.339	22046.88
736.68	22049.36
737.021	21925.98
737.361	21853.44
737.702	22100.66
738.042	21849.82
738.383	21870.16
738.723	21943.38
739.063	21757.62
739.404	21914.68
739.744	21672.88
740.084	21647.79
740.424	21616.83
740.764	21652.31
741.104	21582.94
741.444	21494.58
741.784	21438.53
742.124	21497.29
742.464	21377.07
742.804	21459.55
743.143	21334.13
743.483	21343.39
743.823	21250.29
744.162	21195.6
744.502	21307.24
744.841	21130.52
745.181	21217.97
745.52	21061.14
745.86	21199.67
746.199	21037.41
746.538	20975.49
746.877	21067.47
747.216	21064.76
747.556	20901.37
747.895	21021.59
748.234	20846.91
748.573	20810.75
748.911	20787.7
749.25	20767.59
749.589	20569.85
749.928	20607.59
750.267	20705.9
750.605	20608.95
750.944	20599.68
751.283	20459.8
751.621	20592.45
751.96	20454.83
752.298	20432.23
752.636	20330.31
752.975	20289.64
753.313	20238.79
753.651	20300.03
753.989	20168.51
754.327	20122.86
754.666	20176.19
