Data from white_poster_card_FLMS001491_00013.txt Node
Date: Wed Feb 08 11:51:08 GMT 2017
User: dcchb
Spectrometer: FLMS00149
Trigger mode: 0
Integration Time (sec): 2.000000E-2
Scans to average: 10
Electric dark correction enabled: true
Nonlinearity correction enabled: false
Boxcar width: 0
XAxis mode: Wavelengths
Number of Pixels in Spectrum: 2048
>>>>>Begin Spectral Data<<<<<
341.393	-31.75
341.776	-31.75
342.16	-31.75
342.543	-66.78
342.927	-69.49
343.31	-82.82
343.693	-63.16
344.077	-60
344.46	-66.1
344.843	-51.41
345.226	-56.61
345.61	-44.86
345.993	-9.83
346.376	-4.41
346.759	27.91
347.142	13.67
347.525	34.24
347.908	84.4
348.291	86.44
348.674	96.83
349.057	95.7
349.44	112.65
349.823	134.57
350.206	158.53
350.588	222.93
350.971	233.78
351.354	231.52
351.737	247.79
352.119	262.48
352.502	274.23
352.884	260.22
353.267	299.54
353.65	291.63
354.032	298.64
354.414	305.42
354.797	298.86
355.179	329.37
355.562	318.07
355.944	332.76
356.326	332.08
356.709	328.47
357.091	359.43
357.473	343.38
357.855	351.06
358.238	333.21
358.62	339.31
359.002	348.35
359.384	367.11
359.766	347.67
360.148	331.63
360.53	353.1
360.912	352.65
361.294	344.51
361.676	323.95
362.057	337.28
362.439	323.49
362.821	323.49
363.203	326.66
363.584	332.08
363.966	307.22
364.348	300.44
364.729	337.51
365.111	302.25
365.493	324.4
365.874	280.56
366.256	306.32
366.637	310.39
367.019	311.74
367.4	311.29
367.781	290.95
368.163	298.41
368.544	322.14
368.925	311.29
369.306	323.04
369.688	320.1
370.069	316.04
370.45	320.33
370.831	315.58
371.212	322.14
371.593	298.41
371.974	308.13
372.355	321.23
372.736	310.39
373.117	314
373.498	332.99
373.879	302.25
374.26	297.73
374.641	312.2
375.021	317.62
375.402	330.73
375.783	320.33
376.163	322.14
376.544	354.45
376.925	337.05
377.305	336.15
377.686	339.09
378.066	325.53
378.447	320.56
378.827	323.04
379.208	342.93
379.588	338.64
379.968	328.69
380.349	335.92
380.729	331.18
381.109	341.8
381.489	346.54
381.87	347.45
382.25	333.44
382.63	337.96
383.01	359.2
383.39	353.78
383.77	346.54
384.15	335.7
384.53	343.83
384.91	330.5
385.29	358.3
385.67	365.98
386.049	371.4
386.429	368.01
386.809	356.26
387.189	356.71
387.568	362.14
387.948	351.97
388.328	363.95
388.707	381.57
389.087	390.16
389.466	388.13
389.846	360.33
390.225	401.68
390.605	385.64
390.984	378.63
391.363	383.15
391.743	390.39
392.122	384.06
392.501	396.71
392.881	402.59
393.26	413.66
393.639	391.74
394.018	392.65
394.397	412.31
394.776	420.44
395.155	413.21
395.534	423.6
395.913	421.57
396.292	399.65
396.671	387.67
397.05	413.89
397.429	400.1
397.808	420.89
398.186	418.86
398.565	393.32
398.944	433.1
399.323	419.54
399.701	436.03
400.08	424.06
400.458	451.4
400.837	433.32
401.215	470.84
401.594	446.65
401.972	463.15
402.351	459.08
402.729	452.76
403.107	489.59
403.486	466.99
403.864	464.51
404.242	456.6
404.62	476.26
404.999	490.04
405.377	499.31
405.755	471.29
406.133	496.37
406.511	488.01
406.889	501.12
407.267	516.94
407.645	512.19
408.023	529.36
408.401	515.13
408.779	541.57
409.156	550.83
409.534	557.39
409.912	557.39
410.29	572.53
410.667	585.63
411.045	598.52
411.422	600.78
411.8	620.66
412.178	648.91
412.555	615.01
412.933	667.21
413.31	653.66
413.687	674.45
414.065	686.87
414.442	679.19
414.819	716.7
415.197	740.66
415.574	722.81
415.951	760.77
416.328	753.54
416.705	778.62
417.082	754.67
417.46	824.05
417.837	828.57
418.214	824.72
418.591	849.58
418.967	866.08
419.344	878.06
419.721	904.95
420.098	887.32
420.475	918.05
420.852	917.6
421.228	930.48
421.605	942.91
421.982	984.95
422.358	977.26
422.735	979.52
423.111	991.73
423.488	1031.72
423.864	1041.89
424.241	1048.67
424.617	1061.33
424.994	1076.69
425.37	1073.08
425.746	1095.45
426.123	1136.81
426.499	1098.16
426.875	1136.35
427.251	1139.74
427.627	1157.37
428.003	1224.04
428.379	1191.27
428.756	1234.88
429.132	1239.18
429.507	1258.84
429.883	1277.14
430.259	1299.29
430.635	1319.85
431.011	1323.69
431.387	1356.69
431.763	1360.53
432.138	1363.92
432.514	1377.93
432.89	1443.69
433.265	1460.64
433.641	1478.27
434.016	1478.04
434.392	1513.52
434.767	1520.07
435.143	1537.7
435.518	1577.02
435.894	1565.95
436.269	1594.87
436.644	1612.5
437.02	1646.17
437.395	1634.42
437.77	1647.08
438.145	1663.8
438.52	1699.28
438.895	1705.15
439.271	1739.95
439.646	1772.5
440.021	1761.65
440.395	1756.68
440.77	1779.73
441.145	1800.52
441.52	1852.49
441.895	1838.48
442.27	1867.41
442.645	1838.93
443.019	1869.89
443.394	1873.28
443.769	1883
444.143	1904.7
444.518	1911.93
444.892	1920.06
445.267	1946.73
445.641	1977.91
446.016	1983.34
446.39	1949.21
446.764	1985.6
447.139	1991.93
447.513	2028.99
447.887	2022.43
448.262	2005.71
448.636	2046.39
449.01	2050.45
449.384	2101.07
449.758	2089.78
450.132	2136.33
450.506	2120.06
450.88	2150.79
451.254	2168.19
451.628	2177.91
452.002	2230.11
452.376	2234.86
452.75	2245.93
453.123	2275.53
453.497	2330.67
453.871	2280.96
454.244	2374.97
454.618	2373.38
454.992	2390.33
455.365	2381.29
455.739	2474.62
456.112	2453.83
456.486	2503.55
456.859	2476.43
457.232	2569.76
457.606	2578.35
457.979	2590.1
458.352	2638.01
458.725	2670.1
459.099	2685.47
459.472	2744.45
459.845	2751.45
460.218	2774.28
460.591	2798.68
460.964	2814.5
461.337	2884.56
461.71	2915.06
462.083	2987.15
462.456	2977.89
462.829	2964.55
463.201	3033.93
463.574	3050.2
463.947	3096.75
464.32	3209.07
464.692	3162.52
465.065	3192.12
465.438	3261.95
465.81	3269.18
466.183	3312.12
466.555	3403.64
466.928	3405
467.3	3397.76
467.672	3443.64
468.045	3564.99
468.417	3583.3
468.789	3623.29
469.161	3599.11
469.534	3690.64
469.906	3730.64
470.278	3766.12
470.65	3796.62
471.022	3898.77
471.394	3962.95
471.766	3987.58
472.138	4009.5
472.51	4084.98
472.882	4152.32
473.253	4257.4
473.625	4280
473.997	4352.77
474.369	4386.44
474.74	4435.7
475.112	4512.99
475.484	4598.86
475.855	4627.34
476.227	4680.89
476.598	4770.16
476.97	4813.55
477.341	4945.07
477.713	5035.91
478.084	5068
478.455	5176.47
478.827	5195.46
479.198	5373.31
479.569	5422.34
479.94	5510.48
480.311	5555.45
480.682	5729
481.053	5800.19
481.424	5918.6
481.795	5984.59
482.166	5999.5
482.537	6081.31
482.908	6249.89
483.279	6287.86
483.65	6411.02
484.021	6523.56
484.391	6620.05
484.762	6701.63
485.133	6768.52
485.503	6820.27
485.874	6965.58
486.244	6949.31
486.615	7161.28
486.985	7255.29
487.356	7399.24
487.726	7426.58
488.097	7590.2
488.467	7560.37
488.837	7804.65
489.207	7863.18
489.578	7998.55
489.948	8056.85
490.318	8208.03
490.688	8200.35
491.058	8273.57
491.428	8432.66
491.798	8563.5
492.168	8663.39
492.538	8662.26
492.908	8853.89
493.278	8977.73
493.648	9009.82
494.017	9115.13
494.387	9229.93
494.757	9327.78
495.126	9365.06
495.496	9417.72
495.866	9417.04
496.235	9646.64
496.605	9673.98
496.974	9698.39
497.344	9862.68
497.713	9843.47
498.082	10040.75
498.452	10070.58
498.821	10096.12
499.19	10246.17
499.559	10285.27
499.928	10337.02
500.298	10423.79
500.667	10509.89
501.036	10455.43
501.405	10648.42
501.774	10719.15
502.143	10831.24
502.512	10829.43
502.88	10970.67
503.249	10918.47
503.618	11047.05
503.987	11216.09
504.356	11219.93
504.724	11255.64
505.093	11324.11
505.462	11374.5
505.83	11498.34
506.199	11515.74
506.567	11681.39
506.936	11674.16
507.304	11869.18
507.672	11984.2
508.041	12027.59
508.409	12104.88
508.777	12129.74
509.145	12224.2
509.514	12194.82
509.882	12450.18
510.25	12489.28
510.618	12577.86
510.986	12540.8
511.354	12692.89
511.722	12817.4
512.09	12919.32
512.458	12915.71
512.826	13117.51
513.193	13212.65
513.561	13289.48
513.929	13397.5
514.297	13453.09
514.664	13521.34
515.032	13609.92
515.4	13796.13
515.767	13905.96
516.135	13888.34
516.502	13860.54
516.869	14201.55
517.237	14168.55
517.604	14184.37
517.972	14383.24
518.339	14422.33
518.706	14511.82
519.073	14681.76
519.44	14818.71
519.808	14925.14
520.175	14850.8
520.542	15176.44
520.909	15199.04
521.276	15230.67
521.643	15455.75
522.009	15484
522.376	15612.58
522.743	15748.63
523.11	15889.19
523.477	16055.96
523.843	16089.41
524.21	16357.42
524.577	16386.57
524.943	16544.54
525.31	16571.65
525.676	16741.82
526.043	16857.75
526.409	16975.49
526.776	17135.93
527.142	17154.46
527.508	17320.11
527.874	17407.56
528.241	17593.55
528.607	17664.73
528.973	17848.91
529.339	17907.44
529.705	18012.07
530.071	18258.16
530.437	18274.21
530.803	18410.25
531.169	18551.04
531.535	18536.8
531.901	18529.57
532.267	18702.22
532.632	18837.58
532.998	18908.77
533.364	18935.89
533.73	19166.84
534.095	19246.39
534.461	19326.61
534.826	19435.76
535.192	19412.03
535.557	19642.99
535.923	19624.23
536.288	19735.64
536.653	19818.35
537.019	19783.1
537.384	19991.9
537.749	20008.63
538.114	20119.81
538.479	20083.65
538.845	20187.83
539.21	20242.52
539.575	20340.14
539.94	20421.5
540.305	20602.06
540.67	20592.57
541.034	20640.7
541.399	20745.56
541.764	20772
542.129	20868.49
542.494	20994.36
542.858	21124.3
543.223	21063.51
543.587	21221.93
543.952	21267.12
544.316	21250.85
544.681	21285.2
545.045	21476.16
545.41	21564.97
545.774	21738.52
546.138	21550.51
546.503	21721.8
546.867	21745.08
547.231	21892.42
547.595	22094
547.959	22043.15
548.324	22095.8
548.688	22090.38
549.052	22317.49
549.416	22207.44
549.779	22380.77
550.143	22489.69
550.507	22587.09
550.871	22684.26
551.235	22740.31
551.599	22821.21
551.962	22945.72
552.326	23027.3
552.689	23165.83
553.053	23101.43
553.417	23112.95
553.78	23422.55
554.143	23361.76
554.507	23461.87
554.87	23552.04
555.234	23780.28
555.597	23729.21
555.96	23787.51
556.323	23982.08
556.686	24016.88
557.05	24196.31
557.413	24159.7
557.776	24272.47
558.139	24462.97
558.502	24586.81
558.865	24695.96
559.228	24808.5
559.59	24924.43
559.953	24865
560.316	25170.3
560.679	25208.94
561.041	25366.68
561.404	25547.01
561.767	25654.35
562.129	25579.33
562.492	25843.28
562.854	25796.5
563.217	25908.36
563.579	26065.87
563.941	26091.86
564.304	26345.63
564.666	26466.76
565.028	26595.12
565.39	26697.94
565.753	26737.04
566.115	26826.75
566.477	26986.75
566.839	27114.2
567.201	27320.07
567.563	27221.32
567.925	27497.47
568.287	27556.9
568.648	27624.7
569.01	27829.66
569.372	27933.39
569.734	27795.99
570.095	28036.89
570.457	28147.62
570.819	28146.27
571.18	28234.17
571.542	28271.46
571.903	28549.87
572.265	28505.58
572.626	28641.85
572.987	28626.7
573.349	28796.19
573.71	29043.64
574.071	28958.9
574.432	29115.96
574.794	29372.45
575.155	29273.02
575.516	29157.54
575.877	29245.67
576.238	29329.29
576.599	29540.13
576.96	29497.42
577.32	29600.92
577.681	29642.95
578.042	29685.66
578.403	29684.08
578.763	29659.22
579.124	29699.67
579.485	29854.47
579.845	29943.51
580.206	29908.93
580.566	29871.87
580.927	29975.6
581.287	30132.43
581.648	29985.09
582.008	30194.8
582.368	29997.97
582.728	30122.26
583.089	30118.42
583.449	30248.13
583.809	30240.67
584.169	30250.62
584.529	30219.88
584.889	30397.28
585.249	30157.29
585.609	30185.99
585.969	30437.73
586.329	30245.87
586.688	30273.89
587.048	30423.04
587.408	30285.19
587.768	30326.77
588.127	30182.14
588.487	30221.24
588.846	30455.58
589.206	30259.2
589.565	30250.17
589.925	30512.08
590.284	30307.56
590.643	30456.71
591.003	30487.67
591.362	30620.78
591.721	30512.98
592.08	30448.58
592.44	30649.7
592.799	30576.94
593.158	30475.7
593.517	30366.09
593.876	30508.69
594.235	30441.12
594.593	30529.48
594.952	30502.81
595.311	30503.94
595.67	30617.84
596.029	30724.5
596.387	30715.69
596.746	30757.04
597.104	30708.91
597.463	30570.38
597.822	30734.45
598.18	30627.78
598.538	30706.42
598.897	30862.35
599.255	30553.21
599.613	31047.43
599.972	30935.34
600.33	30963.14
600.688	30783.94
601.046	30988
601.404	31069.13
601.762	30996.13
602.12	31140.99
602.478	31050.14
602.836	31216.24
603.194	31036.36
603.552	31189.35
603.91	30999.52
604.268	31181.67
604.625	31051.73
604.983	31180.76
605.341	30976.02
605.698	31223.47
606.056	31236.81
606.413	31227.09
606.771	31384.37
607.128	31339.63
607.485	31310.93
607.843	31267.54
608.2	31440.87
608.557	31516.35
608.914	31359.74
609.272	31660.75
609.629	31653.97
609.986	31707.3
610.343	31619.85
610.7	31701.65
611.057	31720.86
611.414	31709.79
611.771	31712.73
612.127	31953.17
612.484	31833.85
612.841	32008.99
613.198	31813.74
613.554	31916.79
613.911	32061.87
614.267	32002.89
614.624	32018.48
614.98	32039.95
615.337	32157.91
615.693	32111.81
616.05	32084.02
616.406	32193.62
616.762	32163.56
617.118	32237.46
617.475	32251.02
617.831	32339.38
618.187	32294.86
618.543	32336.89
618.899	32459.15
619.255	32467.28
619.611	32325.14
619.967	32422.99
620.323	32496.89
620.678	32322.43
621.034	32328.3
621.39	32359.49
621.746	32321.3
622.101	32713.38
622.457	32417.11
622.812	32485.13
623.168	32511.12
623.523	32583.21
623.879	32635.19
624.234	32414.4
624.589	32518.13
624.945	32571.46
625.3	32483.55
625.655	32489.88
626.01	32443.33
626.365	32571.23
626.72	32532.36
627.075	32561.52
627.43	32438.81
627.785	32393.61
628.14	32492.37
628.495	32474.06
628.85	32360.39
629.205	32427.96
629.559	32515.42
629.914	32375.98
630.269	32247.4
630.623	32276.78
630.978	32274.97
631.332	32305.7
631.687	32422.09
632.041	32269.32
632.396	32359.71
632.75	32163.11
633.104	32262.09
633.459	32073.85
633.813	32159.72
634.167	32114.3
634.521	31953.85
634.875	31955.43
635.229	32055.54
635.583	31932.61
635.937	31874.76
636.291	31730.58
636.645	31691.48
636.999	31702.78
637.352	31819.39
637.706	31575.33
638.06	31734.87
638.413	31508.21
638.767	31522
639.121	31545.72
639.474	31423.47
639.828	31303.7
640.181	31426.18
640.534	31455.33
640.888	31183.7
641.241	31122.01
641.594	31248.56
641.947	31289.01
642.301	31224.15
642.654	31253.75
643.007	31126.3
643.36	31041.78
643.713	31028.45
644.066	31171.95
644.419	30885.18
644.771	30790.72
645.124	30424.62
645.477	30355.25
645.83	30195.25
646.182	30104.18
646.535	29925.88
646.888	29900.8
647.24	29815.83
647.593	30096.27
647.945	29842.04
648.298	29745.32
648.65	29654.47
649.002	29683.17
649.355	29736.28
649.707	29778.99
650.059	29845.43
650.411	30182.37
650.763	30289.26
651.115	30286.77
651.467	30363.61
651.819	30403.61
652.171	30270.05
652.523	30258.53
652.875	30105.08
653.227	30069.38
653.578	30196.38
653.93	30182.6
654.282	30042.94
654.633	29941.02
654.985	30064.18
655.337	29941.25
655.688	29945.31
656.039	30038.42
656.391	29836.62
656.742	29716.39
657.094	29842.72
657.445	29879.55
657.796	29839.1
658.147	29794.81
658.498	29817.86
658.849	29739.9
659.2	29683.63
659.551	29615.83
659.902	29882.49
660.253	29669.84
660.604	29786
660.955	29602.72
661.306	29712.78
661.656	29671.65
662.007	29516.63
662.358	29555.27
662.708	29746
663.059	29568.38
663.409	29447.93
663.76	29517.75
664.11	29460.58
664.461	29547.36
664.811	29454.48
665.161	29415.16
665.511	29471.88
665.862	29439.11
666.212	29490.41
666.562	29553.23
666.912	29387.59
667.262	29408.38
667.612	29326.8
667.962	29443.86
668.312	29228.72
668.662	29518.21
669.011	29385.33
669.361	29213.13
669.711	29228.72
670.06	29142.85
670.41	29150.53
670.76	29140.14
671.109	29135.62
671.459	29082.51
671.808	29149.63
672.157	29136.75
672.507	28918
672.856	28921.39
673.205	28943.31
673.554	29109.18
673.904	29010.42
674.253	29033.7
674.602	28922.06
674.951	28501.51
675.3	28442.08
675.649	28909.64
675.998	28854.95
676.346	28844.55
676.695	28932.23
677.044	28661.51
677.393	28665.12
677.741	28738.79
678.09	28784.89
678.438	28629.64
678.787	28566.82
679.135	28669.19
679.484	28482.75
679.832	28633.48
680.181	28500.38
680.529	28545.58
680.877	28367.05
681.225	28487.73
681.573	28574.5
681.922	28417.22
682.27	28207.51
682.618	28333.15
682.966	28253.61
683.314	28345.13
683.661	28078.7
684.009	27920.73
684.357	28004.12
684.705	27898.36
685.053	28020.85
685.4	27968.42
685.748	27714.86
686.095	27760.29
686.443	27693.85
686.79	27517.81
687.138	27599.61
687.485	27631.48
687.832	27498.15
688.18	27521.88
688.527	27419.51
688.874	27324.82
689.221	27266.51
689.568	27162.56
689.915	27080.76
690.262	27077.59
690.609	27083.92
690.956	26973.87
691.303	26898.16
691.65	26783.59
691.997	26765.96
692.344	26658.17
692.69	26593.31
693.037	26685.29
693.383	26385.63
693.73	26440.55
694.077	26293.66
694.423	26208.01
694.769	26114.68
695.116	26080.56
695.462	26016.6
695.808	26038.07
696.155	25976.61
696.501	25812.77
696.847	25861.81
697.193	25598.54
697.539	25672.43
697.885	25502.04
698.231	25375.49
698.577	25424.53
698.923	25491.19
699.269	25268.6
699.614	25169.39
699.96	25189.28
700.306	25222.27
700.651	25074.26
700.997	24984.99
701.342	24988.61
701.688	24952.68
702.033	24707.03
702.379	24897.31
702.724	24784.55
703.069	24752.46
703.415	24541.84
703.76	24622.06
704.105	24388.4
704.45	24518.56
704.795	24304.11
705.14	24195.18
705.485	24167.39
705.83	24009.43
706.175	24174.84
706.52	24075.19
706.865	23893.72
707.209	23879.71
707.554	23813.95
707.899	23776.66
708.243	23716.55
708.588	23730.34
708.932	23611.92
709.277	23643.11
709.621	23628.64
709.966	23365.15
710.31	23492.6
710.654	23201.31
710.998	23292.61
711.342	23354.08
711.687	23230.24
712.031	23073.4
712.375	23041.32
712.719	22976.68
713.063	22880.64
713.407	22984.14
713.75	22776.69
714.094	22845.39
714.438	22643.36
714.782	22684.49
715.125	22574.21
715.469	22656.92
715.812	22541.22
716.156	22359.07
716.499	22418.51
716.843	22494.89
717.186	22286.31
717.53	22419.18
717.873	22290.37
718.216	22243.6
718.559	22210.15
718.902	22081.79
719.246	22086.99
719.589	22027.78
719.932	21884.06
720.275	21988.91
720.617	21898.75
720.96	21816.04
721.303	21931.74
721.646	21823.49
721.989	21869.14
722.331	21785.98
722.674	21712.76
723.016	21718.64
723.359	21547.8
723.701	21685.19
724.044	21476.61
724.386	21417.85
724.729	21544.18
725.071	21448.59
725.413	21434.13
725.755	21415.14
726.097	21291.76
726.439	21159.78
726.782	21238.88
727.124	21309.38
727.465	21177.86
727.807	21227.8
728.149	21119.11
728.491	21032.33
728.833	21055.83
729.175	20936.96
729.516	20968.6
729.858	20912.11
730.199	20867.13
730.541	20902.84
730.882	20824.65
731.224	20893.8
731.565	20739.91
731.906	20758.89
732.248	20759.57
732.589	20651.1
732.93	20527.26
733.271	20608.84
733.612	20544.43
733.953	20567.93
734.294	20424.21
734.635	20424.66
734.976	20542.17
735.317	20362.52
735.658	20299.47
735.999	20378.56
736.339	20254.04
736.68	20299.01
737.021	20141.28
737.361	20136.31
737.702	20171.79
738.042	20075.97
738.383	19987.84
738.723	20092.01
739.063	20056.08
739.404	20033.03
739.744	19997.1
740.084	19824.68
740.424	19978.34
740.764	19882.53
741.104	19909.87
741.444	19839.37
741.784	19687.73
742.124	19869.2
742.464	19668.52
742.804	19684.57
743.143	19610.67
743.483	19647.73
743.823	19623.33
744.162	19514.4
744.502	19585.36
744.841	19522.31
745.181	19553.05
745.52	19445.93
745.86	19528.19
746.199	19397.12
746.538	19425.82
746.877	19456.1
747.216	19303.79
747.556	19324.12
747.895	19219.27
748.234	19163
748.573	19122.32
748.911	19129.55
749.25	19158.25
749.589	19024.92
749.928	18953.96
750.267	19089.55
750.605	18941.31
750.944	18929.11
751.283	18852.5
751.621	18892.05
751.96	18755.55
752.298	18755.78
752.636	18748.55
752.975	18624.71
753.313	18586.06
753.651	18689.57
753.989	18580.87
754.327	18610.25
754.666	18515.33
755.004	18529.12
