Data from White_paper_FLMS001491_099.txt Node
Date: Tue Feb 07 10:35:50 GMT 2017
User: dcchb
Spectrometer: FLMS00149
Trigger mode: 0
Integration Time (sec): 2.000000E-2
Scans to average: 10
Electric dark correction enabled: true
Nonlinearity correction enabled: false
Boxcar width: 0
XAxis mode: Wavelengths
Number of Pixels in Spectrum: 2048
>>>>>Begin Spectral Data<<<<<
341.393	-7.99
341.776	-7.99
342.16	-7.99
342.543	-58.16
342.927	-68.33
343.31	-70.59
343.693	-64.26
344.077	-74.43
344.46	-54.09
344.843	-54.32
345.226	-41.44
345.61	-24.72
345.993	-25.85
346.376	2.63
346.759	15.73
347.142	29.07
347.525	48.28
347.908	67.26
348.291	49.86
348.674	72.91
349.057	123.98
349.44	116.3
349.823	138.22
350.206	159.23
350.588	213.47
350.971	234.49
351.354	244.88
351.737	245.56
352.119	280.81
352.502	264.99
352.884	279
353.267	293.24
353.65	313.13
354.032	316.74
354.414	339.79
354.797	340.47
355.179	335.05
355.562	346.35
355.944	354.71
356.326	349.74
356.709	353.8
357.091	356.74
357.473	379.79
357.855	359.23
358.238	341.83
358.62	375.5
359.002	370.53
359.384	371.88
359.766	366.69
360.148	375.95
360.53	361.71
360.912	365.78
361.294	358.78
361.676	357.65
362.057	360.81
362.439	356.29
362.821	356.97
363.203	383.41
363.584	333.24
363.966	362.62
364.348	340.02
364.729	380.24
365.111	335.5
365.493	359
365.874	356.74
366.256	355.16
366.637	370.53
367.019	369.4
367.4	359.68
367.781	352.22
368.163	342.28
368.544	354.71
368.925	341.83
369.306	348.38
369.688	361.94
370.069	372.33
370.45	355.61
370.831	356.29
371.212	357.65
371.593	354.26
371.974	352.9
372.355	357.19
372.736	377.31
373.117	362.39
373.498	371.88
373.879	360.13
374.26	380.47
374.641	370.3
375.021	361.71
375.402	367.82
375.783	372.79
376.163	397.42
376.544	364.2
376.925	406.68
377.305	373.69
377.686	385.67
378.066	389.51
378.447	401.03
378.827	396.29
379.208	391.09
379.588	379.34
379.968	395.84
380.349	398.32
380.729	390.87
381.109	388.61
381.489	389.96
381.87	403.75
382.25	393.13
382.63	427.47
383.01	421.37
383.39	409.17
383.77	415.27
384.15	420.92
384.53	427.47
384.91	443.29
385.29	432.45
385.67	454.82
386.049	439.45
386.429	437.42
386.809	450.75
387.189	455.72
387.568	459.79
387.948	461.82
388.328	459.11
388.707	473.12
389.087	466.12
389.466	496.17
389.846	481.48
390.225	486
390.605	469.51
390.984	492.56
391.363	497.08
391.743	476.06
392.122	498.43
392.501	507.47
392.881	532.56
393.26	537.75
393.639	508.6
394.018	522.16
394.397	541.14
394.776	535.95
395.155	557.64
395.534	550.41
395.913	545.21
396.292	561.93
396.671	560.58
397.05	563.74
397.429	553.8
397.808	588.83
398.186	580.01
398.565	591.54
398.944	580.69
399.323	593.12
399.701	607.58
400.08	616.17
400.458	619.11
400.837	638.99
401.215	638.54
401.594	643.51
401.972	636.96
402.351	653.46
402.729	657.3
403.107	688.48
403.486	693
403.864	689.84
404.242	707.47
404.62	711.53
404.999	736.39
405.377	730.29
405.755	747.01
406.133	798.31
406.511	785.88
406.889	795.6
407.267	799.44
407.645	849.16
408.023	850.29
408.401	889.61
408.779	879.67
409.156	937.07
409.534	947.91
409.912	942.72
410.29	954.69
410.667	1000.11
411.045	1004.41
411.422	1065.65
411.8	1074.46
412.178	1089.15
412.555	1115.82
412.933	1136.61
413.31	1145.2
413.687	1191.52
414.065	1218.19
414.442	1250.5
414.819	1270.39
415.197	1310.39
415.574	1331.18
415.951	1341.35
416.328	1359.88
416.705	1410.27
417.082	1403.04
417.46	1475.58
417.837	1486.43
418.214	1521.01
418.591	1537.95
418.967	1558.52
419.344	1573.43
419.721	1606.88
420.098	1626.31
420.475	1645.3
420.852	1657.72
421.228	1706.31
421.605	1717.38
421.982	1724.84
422.358	1760.55
422.735	1777.5
423.111	1829.7
423.488	1844.84
423.864	1842.35
424.241	1885.52
424.617	1941.33
424.994	1879.19
425.37	1992.41
425.746	1988.56
426.123	2023.14
426.499	2003.48
426.875	2045.06
427.251	2131.61
427.627	2168.9
428.003	2189.91
428.379	2217.71
428.756	2219.07
429.132	2248.22
429.507	2297.26
429.883	2311.04
430.259	2358.95
430.635	2422
431.011	2431.94
431.387	2458.61
431.763	2493.18
432.138	2544.26
432.514	2545.61
432.89	2618.38
433.265	2660.41
433.641	2726.4
434.016	2733.18
434.392	2773.85
434.767	2816.79
435.143	2873.06
435.518	2864.02
435.894	2908.31
436.269	2983.57
436.644	2970.01
437.02	3049.33
437.395	3005.94
437.77	3078.25
438.145	3161.64
438.52	3197.12
438.895	3203.45
439.271	3183.79
439.646	3297.23
440.021	3275.99
440.395	3279.15
440.77	3258.81
441.145	3334.52
441.52	3412.71
441.895	3406.83
442.27	3465.59
442.645	3462.88
443.019	3509.43
443.394	3511.01
443.769	3527.28
444.143	3555.3
444.518	3605.02
444.892	3560.73
445.267	3624.68
445.641	3690.89
446.016	3702.19
446.39	3669.65
446.764	3701.51
447.139	3775.18
447.513	3786.48
447.887	3762.75
448.262	3803.88
448.636	3835.29
449.01	3921.62
449.384	3894.73
449.758	3926.37
450.132	4035.74
450.506	3992.13
450.88	4026.93
451.254	3984.44
451.628	4062.41
452.002	4160.48
452.376	4177.66
452.75	4198.67
453.123	4231.67
453.497	4321.38
453.871	4331.1
454.244	4408.39
454.618	4466.92
454.992	4466.46
455.365	4521.6
455.739	4645.44
456.112	4674.37
456.486	4682.5
456.859	4770.86
457.232	4836.17
457.606	4856.74
457.979	4857.87
458.352	5004.3
458.725	5016.96
459.099	5073.45
459.472	5163.85
459.845	5212.21
460.218	5282.26
460.591	5364.07
460.964	5339.66
461.337	5494.23
461.71	5562.25
462.083	5657.17
462.456	5691.52
462.829	5673.44
463.201	5745.98
463.574	5772.64
463.947	5837.95
464.32	5987.1
464.692	6041.34
465.065	6133.77
465.438	6190.03
465.81	6292.86
466.183	6330.37
466.555	6464.83
466.928	6530.59
467.3	6499.18
467.672	6618.95
468.045	6836.35
468.417	6839.06
468.789	6875.67
469.161	6983.69
469.534	7122.44
469.906	7256.9
470.278	7308.42
470.65	7418.7
471.022	7524.24
471.394	7656.89
471.766	7763.1
472.138	7803.55
472.51	7988.18
472.882	8070.89
473.253	8219.13
473.625	8326.02
473.997	8421.61
474.369	8515.4
474.74	8632.91
475.112	8770.76
475.484	8939.12
475.855	9129.17
476.227	9178.2
476.598	9389.95
476.97	9492.55
477.341	9686.89
477.713	9881.24
478.084	9906.32
478.455	10260.21
478.827	10290.94
479.198	10516.47
479.569	10547.43
479.94	10843.47
480.311	10967.76
480.682	11237.59
481.053	11481.65
481.424	11587.63
481.795	11739.04
482.166	11862.2
482.537	11997.11
482.908	12335.86
483.279	12507.83
483.65	12692.69
484.021	12962.29
484.391	13029.86
484.762	13214.71
485.133	13301.26
485.503	13431.65
485.874	13679.56
486.244	13837.07
486.615	14148.02
486.985	14313.89
487.356	14513.43
487.726	14685.86
488.097	14960.2
488.467	15009.46
488.837	15373.97
489.207	15560.64
489.578	15733.06
489.948	15860.06
490.318	16005.37
490.688	16132.82
491.058	16402.42
491.428	16548.41
491.798	16748.4
492.168	17020.48
492.538	17176.41
492.908	17346.35
493.278	17534.82
493.648	17575.95
494.017	17805.77
494.387	17947.24
494.757	18119.66
495.126	18258.64
495.496	18301.13
495.866	18407.57
496.235	18643.49
496.605	18876.93
496.974	18961
497.344	19092.52
497.713	19288
498.082	19306.75
498.452	19633.3
498.821	19756.91
499.19	19706.06
499.559	19980.18
499.928	20059.95
500.298	20078.71
500.667	20375.2
501.036	20324.8
501.405	20504.23
501.774	20595.53
502.143	20849.31
502.512	20932.02
502.88	21065.58
503.249	21066.48
503.618	21321.39
503.987	21340.82
504.356	21637.99
504.724	21658.55
505.093	21768.61
505.462	21943.07
505.83	21927.25
506.199	22233
506.567	22493.56
506.936	22560.45
507.304	22786.43
507.672	22819.88
508.041	22894.45
508.409	23146.2
508.777	23305.52
509.145	23476.81
509.514	23460.32
509.882	23757.26
510.25	23821.89
510.618	23937.59
510.986	24006.97
511.354	24316.34
511.722	24501.64
512.09	24698.47
512.458	24720.4
512.826	24860.73
513.193	24886.72
513.561	25108.41
513.929	25298.01
514.297	25616.64
514.664	25665.23
515.032	25886.69
515.4	25948.39
515.767	26106.35
516.135	26288.49
516.502	26129.85
516.869	26551.31
517.237	26728.93
517.604	26661.36
517.972	26991.52
518.339	27163.72
518.706	27165.3
519.073	27381.57
519.44	27619.08
519.808	27953.08
520.175	27843.25
520.542	28217.48
520.909	28395.33
521.276	28364.14
521.643	28738.82
522.009	28863.56
522.376	29166.61
522.743	29318.01
523.11	29503.09
523.477	29812.01
523.843	29940.37
524.21	30301.94
524.577	30594.14
524.943	30591.88
525.31	30813.79
525.676	31110.06
526.043	31298.08
526.409	31393.44
526.776	31692.19
527.142	31861.22
527.508	31908.91
527.874	32183.48
528.241	32340.08
528.607	32494.88
528.973	32761.77
529.339	32850.35
529.705	33167.18
530.071	33476.1
530.437	33485.81
530.803	33813.49
531.169	33907.27
531.535	34065.46
531.901	34020.72
532.267	34225.23
532.632	34542.51
532.998	34566.46
533.364	34944.31
533.73	34905.44
534.095	35167.13
534.461	35260.23
534.826	35393.79
535.192	35535.25
535.557	35777.28
535.923	35882.81
536.288	35952.64
536.653	36142.47
537.019	36231.05
537.384	36381.78
537.749	36490.48
538.114	36609.35
538.479	36654.32
538.845	36885.73
539.21	36881.66
539.575	37080.75
539.94	37180.63
540.305	37406.62
540.67	37448.2
541.034	37591.92
541.399	37824.46
541.764	37811.35
542.129	38046.37
542.494	38155.3
542.858	38283.88
543.223	38283.43
543.587	38652.01
543.952	38578.34
544.316	38634.15
544.681	38678.67
545.045	38965.44
545.41	39141.71
545.774	39201.6
546.138	39373.8
546.503	39381.48
546.867	39545.32
547.231	39728.81
547.595	39812.43
547.959	40044.74
548.324	40055.59
548.688	40091.52
549.052	40300.32
549.416	40352.07
549.779	40465.07
550.143	40670.71
550.507	40949.35
550.871	41126.74
551.235	40998.84
551.599	41397.7
551.962	41387.08
552.326	41432.95
552.689	41680.18
553.053	41637.01
553.417	41715.43
553.78	42265.47
554.143	42073.16
554.507	42143.21
554.87	42369.2
555.234	42745.23
555.597	42670.21
555.96	42901.39
556.323	43124.21
556.686	43076.07
557.05	43473.35
557.413	43375.95
557.776	43551.09
558.139	43834.92
558.502	43928.93
558.865	44022.71
559.228	44333.66
559.59	44318.75
559.953	44415.92
560.316	44864.5
560.679	44752.18
561.041	45124.15
561.404	45143.59
561.767	45424.71
562.129	45270.14
562.492	45757.13
562.854	45701.99
563.217	45812.04
563.579	46044.35
563.941	46373.61
564.304	46458.13
564.666	46586.71
565.028	46688.63
565.39	46834.39
565.753	47012.92
566.115	47148.51
566.477	47314.6
566.839	47601.15
567.201	47713.69
567.563	47731.32
567.925	47910.07
568.287	48093.79
568.648	48090.4
569.01	48394.12
569.372	48649.71
569.734	48522.48
570.095	48889.48
570.457	48862.59
570.819	48976.93
571.18	49095.12
571.542	49176.7
571.903	49382.57
572.265	49556.8
572.626	49594.54
572.987	49724.26
573.349	49822.56
573.71	49953.86
574.071	50079.28
574.432	50036.79
574.794	50311.59
575.155	50333.28
575.516	50393.62
575.877	50491.47
576.238	50554.52
576.599	50729.65
576.96	50851.01
577.32	50841.06
577.681	50959.48
578.042	51064.79
578.403	51024.11
578.763	51032.92
579.124	51143.88
579.485	51260.94
579.845	51350.66
580.206	51344.33
580.566	51420.26
580.927	51474.27
581.287	51618.45
581.648	51417.77
582.008	51646.69
582.368	51523.53
582.728	51617.77
583.089	51593.13
583.449	51766.92
583.809	51757.65
584.169	51860.92
584.529	51744.77
584.889	52036.29
585.249	51734.6
585.609	51816.63
585.969	51996.29
586.329	51895.95
586.688	51968.94
587.048	51907.7
587.408	51843.52
587.768	51998.1
588.127	52002.39
588.487	52035.38
588.846	52219.79
589.206	52024.99
589.565	52142.5
589.925	52246.45
590.284	52058.66
590.643	52156.51
591.003	52220.69
591.362	52379.78
591.721	52305.21
592.08	52281.7
592.44	52425.2
592.799	52352.66
593.158	52355.37
593.517	52446.45
593.876	52393.34
594.235	52353.79
594.593	52382.72
594.952	52485.31
595.311	52389.95
595.67	52480.12
596.029	52674.01
596.387	52748.13
596.746	52735.93
597.104	52648.02
597.463	52634.01
597.822	52718.98
598.18	52625.65
598.538	52626.33
598.897	52827.45
599.255	52613
599.613	53007.79
599.972	52838.75
600.33	52938.86
600.688	52799.88
601.046	52818.41
601.404	53088.69
601.762	52997.84
602.12	53055.92
602.478	53054.34
602.836	53055.92
603.194	52911.97
603.552	52997.17
603.91	53019.31
604.268	53130.5
604.625	53092.3
604.983	53187.44
605.341	52982.7
605.698	53069.48
606.056	53254.79
606.413	53162.81
606.771	53327.78
607.128	53296.59
607.485	53201.23
607.843	53300.66
608.2	53423.14
608.557	53514.89
608.914	53324.16
609.272	53562.12
609.629	53599.86
609.986	53668.33
610.343	53480.99
610.7	53756.02
611.057	53699.52
611.414	53695.9
611.771	53729.12
612.127	53776.35
612.484	53859.52
612.841	53931.6
613.198	53784.26
613.554	53838.27
613.911	54021.55
614.267	53935.9
614.624	53922.79
614.98	53966.18
615.337	54092.05
615.693	53989.91
616.05	54091.15
616.406	54109.23
616.762	54038.72
617.118	54058.83
617.475	54090.7
617.831	54193.52
618.187	54222.44
618.543	54220.18
618.899	54355.1
619.255	54208.89
619.611	54191.71
619.967	54386.73
620.323	54417.92
620.678	54318.49
621.034	54220.18
621.39	54189.22
621.746	54192.84
622.101	54527.52
622.457	54209.56
622.812	54383.34
623.168	54390.58
623.523	54339.5
623.879	54436.22
624.234	54210.02
624.589	54423.34
624.945	54374.76
625.3	54445.94
625.655	54378.37
626.01	54396.23
626.365	54400.97
626.72	54395.55
627.075	54391.25
627.43	54365.94
627.785	54348.77
628.14	54452.04
628.495	54390.12
628.85	54428.09
629.205	54346.06
629.559	54582.43
629.914	54334.31
630.269	54364.59
630.623	54337.7
630.978	54308.09
631.332	54378.37
631.687	54400.29
632.041	54377.02
632.396	54363.46
632.75	54290.01
633.104	54286.85
633.459	54141.54
633.813	54221.09
634.167	54200.75
634.521	54126.85
634.875	54217.7
635.229	54192.61
635.583	53965.28
635.937	54103.58
636.291	54043.47
636.645	54141.54
636.999	53978.38
637.352	54144.71
637.706	53926.41
638.06	54024.71
638.413	53967.99
638.767	53873.75
639.121	53945.39
639.474	53803.47
639.828	53775.45
640.181	53817.71
640.534	53954.2
640.888	53778.61
641.241	53706.98
641.594	53820.2
641.947	53805.73
642.301	53724.38
642.654	53831.95
643.007	53770.25
643.36	53653.87
643.713	53688.67
644.066	53690.25
644.419	53455.68
644.771	53420.88
645.124	53069.25
645.477	53079.2
645.83	52831.29
646.182	52783.61
646.535	52791.52
646.888	52699.32
647.24	52635.82
647.593	52759.88
647.945	52699.32
648.298	52574.58
648.65	52582.49
649.002	52499.78
649.355	52596.72
649.707	52592.88
650.059	52762.6
650.411	53051.63
650.763	53185.18
651.115	53449.36
651.467	53330.49
651.819	53296.59
652.171	53303.15
652.523	53211.4
652.875	53228.35
653.227	53091.85
653.578	53280.1
653.93	53198.06
654.282	53090.72
654.633	52991.52
654.985	53097.28
655.337	53006.43
655.688	53019.99
656.039	53209.14
656.391	52881.91
656.742	52978.64
657.094	53026.32
657.445	53040.33
657.796	52965.08
658.147	52936.6
658.498	52944.74
658.849	53025.64
659.2	52926.43
659.551	52812.76
659.902	52965.98
660.253	52912.65
660.604	52913.78
660.955	52800.11
661.306	52891.18
661.656	52832.42
662.007	52885.98
662.358	52795.14
662.708	52847.34
663.059	52905.42
663.409	52573.45
663.76	52920.78
664.11	52779.77
664.461	52777.51
664.811	52764.86
665.161	52770.28
665.511	52671.07
665.862	52659.55
666.212	52779.77
666.562	52722.6
666.912	52726.89
667.262	52653.9
667.612	52739.32
667.962	52683.05
668.312	52624.29
668.662	52742.48
669.011	52608.02
669.361	52562.15
669.711	52492.09
670.06	52578.65
670.41	52429.27
670.76	52458.65
671.109	52479.67
671.459	52361.7
671.808	52379.55
672.157	52430.4
672.507	52205.1
672.856	52168.49
673.205	52257.75
673.554	52317.64
673.904	52170.29
674.253	52377.3
674.602	52206.9
674.951	51692.34
675.3	51587.71
675.649	52130.07
675.998	52057.53
676.346	52098.43
676.695	52062.28
677.044	51934.14
677.393	51995.84
677.741	51911.32
678.09	51911.77
678.438	51832.68
678.787	51816.86
679.135	51803.07
679.484	51647.37
679.832	51620.7
680.181	51399.92
680.529	51490.99
680.877	51584.1
681.225	51474.72
681.573	51622.96
681.922	51357.89
682.27	51302.52
682.618	51319.02
682.966	51175.97
683.314	51246.93
683.661	51185.46
684.009	50872.7
684.357	50893.94
684.705	50737.56
685.053	50914.73
685.4	50799.03
685.748	50634.74
686.095	50609.66
686.443	50510.23
686.79	50446.72
687.138	50463.67
687.485	50361.08
687.832	50310.91
688.18	50304.13
688.527	50109.33
688.874	50049.9
689.221	49933.97
689.568	49886.29
689.915	49774.43
690.262	49842.45
690.609	49578.95
690.956	49541.21
691.303	49482.23
691.65	49275
691.997	49283.59
692.344	49026.42
692.69	48955.01
693.037	49041.34
693.383	48717.5
693.73	48912.98
694.077	48625.08
694.423	48621.46
694.769	48547.34
695.116	48470.96
695.462	48374.91
695.808	48238.65
696.155	48314.13
696.501	47965.89
696.847	48021.7
697.193	47739.45
697.539	47856.51
697.885	47509.4
698.231	47474.83
698.577	47460.36
698.923	47277.32
699.269	47301.5
699.614	46953.71
699.96	46952.13
700.306	46888.17
700.651	46708.74
700.997	46583.78
701.342	46657.67
701.688	46614.73
702.033	46364.12
702.379	46334.52
702.724	46360.73
703.069	46407.96
703.415	45916.9
703.76	45945.37
704.105	45888.43
704.45	45549.9
704.795	45467.42
705.14	45451.38
705.485	45340.42
705.83	45250.02
706.175	45323.7
706.52	45125.28
706.865	45067.88
707.209	44958.28
707.554	44810.26
707.899	44958.51
708.243	44656.37
708.588	44584.05
708.932	44396.04
709.277	44377.96
709.621	44368.92
709.966	44125.76
710.31	44269.49
710.654	43781.81
710.998	44025.88
711.342	43851.87
711.687	43981.81
712.031	43701.37
712.375	43599.9
712.719	43863.17
713.063	43583.18
713.407	43663.85
713.75	43336.85
714.094	43304.99
714.438	43179.8
714.782	43173.24
715.125	42946.58
715.469	43021.61
715.812	42882.86
716.156	42849.18
716.499	42701.84
716.843	42732.35
717.186	42483.32
717.53	42712.46
717.873	42604.9
718.216	42468.86
718.559	42312.02
718.902	41943.22
719.246	42053.72
719.589	41965.37
719.932	41971.92
720.275	41878.81
720.617	41855.76
720.96	41735.09
721.303	41941.64
721.646	41727.86
721.989	41564.02
722.331	41776.44
722.674	41501.2
723.016	41534.64
723.359	41516.34
723.701	41397.47
724.044	41261.43
724.386	40971.95
724.729	41294.42
725.071	40967.65
725.413	41076.35
725.755	41029.8
726.097	40883.36
726.439	40638.39
726.782	40757.94
727.124	40822.34
727.465	40614.67
727.807	40834.55
728.149	40466.42
728.491	40506.42
728.833	40445.86
729.175	40268.69
729.516	40283.83
729.858	40177.16
730.199	40161.35
730.541	40146.66
730.882	40177.62
731.224	40275.69
731.565	39965.19
731.906	39991.41
732.248	39813.56
732.589	39778.3
732.93	39542.83
733.271	39657.4
733.612	39593.68
733.953	39656.27
734.294	39563.85
734.635	39278.43
734.976	39552.1
735.317	39324.76
735.658	39302.16
735.999	39225.78
736.339	39209.73
736.68	39207.7
737.021	39141.26
737.361	38954.15
737.702	39155.72
738.042	38935.16
738.383	38816.07
738.723	38862.17
739.063	38623.31
739.404	38809.74
739.744	38793.25
740.084	38546.47
740.424	38594.83
740.764	38528.39
741.104	38639.13
741.444	38320.72
741.784	38371.34
742.124	38518
742.464	38322.75
742.804	38282.75
743.143	38075.07
743.483	38245.69
743.823	37978.8
744.162	38020.61
744.502	38074.85
744.841	37734.29
745.181	38026.03
745.52	37865.59
745.86	37918.69
746.199	37841.86
746.538	37635.99
746.877	37776.1
747.216	37628.98
747.556	37523
747.895	37579.72
748.234	37373.85
748.573	37370.23
748.911	37332.94
749.25	37256.56
749.589	37069.68
749.928	37247.07
750.267	37148.77
750.605	37072.84
750.944	36913.07
751.283	36804.6
751.621	36961.88
751.96	36520.08
752.298	36717.14
752.636	36698.16
752.975	36518.73
753.313	36418.39
