Data from White_paper_FLMS001491_049.txt Node
Date: Tue Feb 07 10:35:09 GMT 2017
User: dcchb
Spectrometer: FLMS00149
Trigger mode: 0
Integration Time (sec): 2.000000E-2
Scans to average: 10
Electric dark correction enabled: true
Nonlinearity correction enabled: false
Boxcar width: 0
XAxis mode: Wavelengths
Number of Pixels in Spectrum: 2048
>>>>>Begin Spectral Data<<<<<
341.393	-8.56
341.776	-8.56
342.16	-8.56
342.543	-77.48
342.927	-53.53
343.31	-58.73
343.693	-67.54
344.077	-53.08
344.46	-69.8
344.843	-54.43
345.226	-45.17
345.61	-15.56
345.993	-12.63
346.376	6.81
346.759	3.64
347.142	23.3
347.525	38.22
347.908	44.09
348.291	70.99
348.674	83.87
349.057	106.01
349.44	134.71
349.823	148.72
350.206	159.8
350.588	229.17
350.971	260.81
351.354	262.39
351.737	284.77
352.119	292.22
352.502	312.56
352.884	290.19
353.267	309.4
353.65	326.35
354.032	335.61
354.414	332.22
354.797	350.53
355.179	336.74
355.562	362.05
355.944	357.08
356.326	344.43
356.709	362.5
357.091	382.17
357.473	395.72
357.855	378.55
358.238	357.53
358.62	372.67
359.002	366.35
359.384	375.39
359.766	378.1
360.148	346.91
360.53	363.41
360.912	360.47
361.294	364.09
361.676	377.65
362.057	384.2
362.439	369.28
362.821	356.18
363.203	348.95
363.584	364.76
363.966	355.05
364.348	363.86
364.729	358.66
365.111	344.2
365.493	348.04
365.874	363.41
366.256	379.23
366.637	353.01
367.019	349.62
367.4	366.8
367.781	377.87
368.163	376.74
368.544	371.77
368.925	374.26
369.306	359.11
369.688	363.18
370.069	365.22
370.45	368.83
370.831	373.8
371.212	386.46
371.593	359.57
371.974	357.76
372.355	350.75
372.736	380.36
373.117	365.22
373.498	379
373.879	359.11
374.26	380.58
374.641	358.44
375.021	370.87
375.402	395.05
375.783	378.78
376.163	409.73
376.544	381.71
376.925	402.5
377.305	371.77
377.686	384.42
378.066	410.64
378.447	397.08
378.827	420.36
379.208	413.12
379.588	426.01
379.968	400.02
380.349	416.74
380.729	397.98
381.109	411.99
381.489	423.52
381.87	408.61
382.25	416.06
382.63	428.27
383.01	439.79
383.39	425.1
383.77	431.88
384.15	447.7
384.53	449.96
384.91	454.25
385.29	454.25
385.67	434.59
386.049	460.36
386.429	430.53
386.809	439.56
387.189	481.37
387.568	441.6
387.948	474.82
388.328	468.49
388.707	472.11
389.087	473.46
389.466	463.29
389.846	479.79
390.225	500.35
390.605	501.03
390.984	522.05
391.363	493.35
391.743	497.42
392.122	500.13
392.501	517.53
392.881	523.63
393.26	512.56
393.639	529.73
394.018	547.58
394.397	546
394.776	541.03
395.155	570.63
395.534	559.11
395.913	560.47
396.292	593.23
396.671	573.12
397.05	576.28
397.429	609.96
397.808	599.33
398.186	602.72
398.565	626
398.944	613.8
399.323	614.25
399.701	613.8
400.08	648.82
400.458	627.81
400.837	650.86
401.215	659.22
401.594	691.99
401.972	680.01
402.351	709.39
402.729	678.65
403.107	708.94
403.486	704.42
403.864	736.51
404.242	721.59
404.62	763.17
404.999	767.69
405.377	756.84
405.755	789.39
406.133	787.13
406.511	806.33
406.889	826.22
407.267	868.03
407.645	868.71
408.023	882.04
408.401	889.95
408.779	938.08
409.156	942.15
409.534	938.53
409.912	976.5
410.29	1006.1
410.667	1037.06
411.045	1039.1
411.422	1066.44
411.8	1098.53
412.178	1113.45
412.555	1180.79
412.933	1157.29
413.31	1225.08
413.687	1227.79
414.065	1301.01
414.442	1279.32
414.819	1328.81
415.197	1378.52
415.574	1375.59
415.951	1397.73
416.328	1446.32
416.705	1462.14
417.082	1501.91
417.46	1485.86
417.837	1507.33
418.214	1573.55
418.591	1609.93
418.967	1606.54
419.344	1651.51
419.721	1665.07
420.098	1679.76
420.475	1698.97
420.852	1738.06
421.228	1786.87
421.605	1773.77
421.982	1792.75
422.358	1831.17
422.735	1854.67
423.111	1890.15
423.488	1907.77
423.864	1960.43
424.241	1970.15
424.617	1988
424.994	2013.08
425.37	2007.66
425.746	2087.66
426.123	2100.99
426.499	2086.75
426.875	2130.14
427.251	2188.9
427.627	2238.16
428.003	2242
428.379	2260.08
428.756	2293.08
429.132	2354.32
429.507	2363.58
429.883	2422.56
430.259	2421.89
430.635	2519.51
431.011	2493.3
431.387	2581.2
431.763	2621.43
432.138	2627.53
432.514	2675.44
432.89	2720.86
433.265	2791.82
433.641	2806.96
434.016	2826.62
434.392	2940.52
434.767	2932.61
435.143	2933.96
435.518	2995.2
435.894	3032.49
436.269	3040.4
436.644	3120.85
437.02	3167.4
437.395	3124.01
437.77	3189.32
438.145	3246.5
438.52	3312.03
438.895	3303.67
439.271	3379.83
439.646	3423.67
440.021	3423.22
440.395	3487.17
440.77	3443.1
441.145	3456.89
441.52	3552.03
441.895	3582.53
442.27	3579.82
442.645	3564
443.019	3636.77
443.394	3646.94
443.769	3680.16
444.143	3686.94
444.518	3730.1
444.892	3737.56
445.267	3765.8
445.641	3812.58
446.016	3805.13
446.39	3823.88
446.764	3885.35
447.139	3836.09
447.513	3931
447.887	3915.63
448.262	3926.7
448.636	3967.38
449.01	4031.33
449.384	4047.38
449.758	4075.4
450.132	4143.65
450.506	4169.64
450.88	4177.09
451.254	4196.3
451.628	4216.87
452.002	4296.19
452.376	4318.33
452.75	4354.94
453.123	4418.67
453.497	4495.73
453.871	4424.32
454.244	4556.29
454.618	4607.82
454.992	4699.79
455.365	4663.41
455.739	4795.16
456.112	4841.26
456.486	4868.15
456.859	4926.45
457.232	5013.46
457.606	4983.17
457.979	5093.91
458.352	5187.24
458.725	5242.83
459.099	5285.99
459.472	5359.89
459.845	5365.76
460.218	5471.52
460.591	5549.94
460.964	5574.12
461.337	5706.77
461.71	5807.33
462.083	5843.49
462.456	5832.19
462.829	5902.47
463.201	5970.49
463.574	6042.13
463.947	6152.63
464.32	6273.08
464.692	6306.98
465.065	6305.85
465.438	6406.41
465.81	6484.83
466.183	6584.26
466.555	6687.31
466.928	6751.04
467.3	6781.09
467.672	6898.6
468.045	7067.64
468.417	7095.89
468.789	7081.42
469.161	7247.52
469.534	7407.74
469.906	7519.83
470.278	7577
470.65	7704.68
471.022	7828.97
471.394	7976.99
471.766	8006.15
472.138	8147.16
472.51	8299.92
472.882	8406.81
473.253	8580.37
473.625	8670.31
473.997	8856.29
474.369	8906.23
474.74	8984.65
475.112	9142.16
475.484	9308.71
475.855	9447.46
476.227	9572.21
476.598	9743.05
476.97	9879.99
477.341	10073.66
477.713	10306.88
478.084	10336.25
478.455	10560.43
478.827	10712.74
479.198	10958.61
479.569	10964.03
479.94	11272.73
480.311	11388.43
480.682	11707.74
481.053	11941.86
481.424	12070.22
481.795	12128.07
482.166	12332.36
482.537	12517.44
482.908	12829.07
483.279	12965.11
483.65	13136.41
484.021	13420.47
484.391	13565.77
484.762	13645.55
485.133	13794.69
485.503	13996.5
485.874	14278.97
486.244	14345.41
486.615	14732.52
486.985	14893.87
487.356	15151.04
487.726	15263.58
488.097	15578.6
488.467	15610.69
488.837	15917.35
489.207	16128.42
489.578	16411.8
489.948	16507.39
490.318	16689.53
490.688	16736.76
491.058	17005.46
491.428	17205.68
491.798	17347.37
492.168	17696.74
492.538	17710.07
492.908	17939.9
493.278	18223.96
493.648	18197.74
494.017	18559.54
494.387	18672.53
494.757	18857.84
495.126	18992.52
495.496	19095.57
495.866	19184.38
496.235	19359.75
496.605	19604.71
496.974	19656.91
497.344	19770.81
497.713	19990.01
498.082	20112.49
498.452	20378.25
498.821	20360.4
499.19	20521.75
499.559	20613.95
499.928	20859.37
500.298	20871.8
500.667	21122.86
501.036	21163.54
501.405	21359.01
501.774	21427.94
502.143	21593.81
502.512	21652.34
502.88	21926.23
503.249	21955.38
503.618	22083.74
503.987	22258.43
504.356	22296.39
504.724	22530.06
505.093	22630.39
505.462	22699.54
505.83	22883.49
506.199	23044.17
506.567	23292.3
506.936	23312.86
507.304	23619.75
507.672	23787.88
508.041	23685.06
508.409	23936.57
508.777	24172.27
509.145	24326.85
509.514	24318.26
509.882	24605.71
510.25	24694.29
510.618	24767.06
510.986	24902.88
511.354	25203.21
511.722	25373.37
512.09	25579.24
512.458	25584.89
512.826	25794.6
513.193	25979.68
513.561	26026.69
513.929	26276.63
514.297	26601.81
514.664	26696.28
515.032	26729.04
515.4	26971.97
515.767	27026.66
516.135	27308.69
516.502	27078.41
516.869	27584.39
517.237	27756.36
517.604	27638.62
517.972	27877.94
518.339	28184.37
518.706	28289.68
519.073	28383.46
519.44	28604.25
519.808	28894.64
520.175	28971.02
520.542	29214.63
520.909	29388.41
521.276	29429.54
521.643	29918.34
522.009	29960.37
522.376	30078.33
522.743	30422.73
523.11	30685.55
523.477	30825.21
523.843	31020
524.21	31457.73
524.577	31619.54
524.943	31695.69
525.31	31867.66
525.676	32198.05
526.043	32255
526.409	32450.47
526.776	32827.64
527.142	32941.99
527.508	33130.68
527.874	33413.39
528.241	33553.27
528.607	33683.21
528.973	33903.77
529.339	33961.17
529.705	34357.32
530.071	34580.81
530.437	34702.39
530.803	34748.27
531.169	35125.88
531.535	35064.87
531.901	35257.41
532.267	35488.36
532.632	35659.2
532.998	35832.53
533.364	36044.05
533.73	36094.22
534.095	36361.11
534.461	36517.94
534.826	36826.4
535.192	36879.28
535.557	37220.52
535.923	37018.04
536.288	37343.23
536.653	37462.55
537.019	37431.59
537.384	37572.83
537.749	37826.38
538.114	37913.83
538.479	37924.23
538.845	38201.74
539.21	38204.45
539.575	38409.19
539.94	38532.35
540.305	38846.69
540.67	38686.24
541.034	38818.44
541.399	39057.98
541.764	39102.73
542.129	39281.26
542.494	39423.17
542.858	39531.87
543.223	39641.47
543.587	39853.44
543.952	39887.12
544.316	40119.65
544.681	40089.82
545.045	40266.77
545.41	40575.01
545.774	40626.53
546.138	40593.09
546.503	40820.65
546.867	40838.73
547.231	41249.34
547.595	41254.31
547.959	41391.48
548.324	41427.87
548.688	41499.73
549.052	41691.36
549.416	41660.4
549.779	41865.14
550.143	42008.64
550.507	42321.4
550.871	42450.89
551.235	42313.72
551.599	42640.04
551.962	42910.31
552.326	42879.13
552.689	43085.22
553.053	42955.51
553.417	43048.84
553.78	43589.39
554.143	43445.89
554.507	43705.09
554.87	43692.44
555.234	44157.74
555.597	43998.42
555.96	44170.39
556.323	44192.99
556.686	44455.58
557.05	44767.21
557.413	44708.01
557.776	44885.63
558.139	45078.39
558.502	45135.11
558.865	45383.92
559.228	45477.93
559.59	45640.64
559.953	45932.83
560.316	46251.69
560.679	46131.47
561.041	46401.75
561.404	46523.1
561.767	46721.51
562.129	46642.64
562.492	47192.23
562.854	47036.31
563.217	47148.39
563.579	47338.67
563.941	47573.47
564.304	47748.6
564.666	48053
565.028	47995.15
565.39	48258.19
565.753	48340
566.115	48496.38
566.477	48710.84
566.839	48842.13
567.201	49060.21
567.563	49129.58
567.925	49370.48
568.287	49405.06
568.648	49448.45
569.01	49602.34
569.372	49849.11
569.734	49755.1
570.095	50042.78
570.457	50266.73
570.819	50212.04
571.18	50273.73
571.542	50540.85
571.903	50561.41
572.265	50746.04
572.626	50776.55
572.987	50901.51
573.349	51085.69
573.71	51132.47
574.071	51344.89
574.432	51322.07
574.794	51570.88
575.155	51532.23
575.516	51534.49
575.877	51757.09
576.238	51738.1
576.599	51920.47
576.96	51856.97
577.32	52015.38
577.681	52099
578.042	52189.39
578.403	52220.8
578.763	52269.61
579.124	52254.7
579.485	52464.64
579.845	52480.68
580.206	52431.42
580.566	52590.28
580.927	52647.23
581.287	52624.63
581.648	52549.61
582.008	52742.82
582.368	52736.49
582.728	52884.29
583.089	52768.81
583.449	52822.82
583.809	52846.77
584.169	52940.11
584.529	52923.61
584.889	53077.28
585.249	52890.84
585.609	52896.04
585.969	53052.19
586.329	53075.24
586.688	53030.05
587.048	53132.19
587.408	53101.91
587.768	53055.58
588.127	53000.89
588.487	53057.84
588.846	53306.65
589.206	53010.61
589.565	53118.41
589.925	53237.5
590.284	53194.56
590.643	53298.97
591.003	53363.14
591.362	53410.83
591.721	53353.88
592.08	53282.47
592.44	53437.95
592.799	53399.98
593.158	53436.59
593.517	53394.1
593.876	53564.72
594.235	53487.21
594.593	53432.75
594.952	53528.79
595.311	53474.1
595.67	53627.09
596.029	53739.63
596.387	53811.95
596.746	53696.24
597.104	53642.91
597.463	53580.31
597.822	53813.08
598.18	53684.27
598.538	53700.31
598.897	53866.41
599.255	53599.97
599.613	54056.46
599.972	53822.34
600.33	54011.94
600.688	53809.46
601.046	53938.72
601.404	54053.52
601.762	53991.83
602.12	54139.4
602.478	54128.77
602.836	54171.71
603.194	54043.13
603.552	54059.4
603.91	54045.16
604.268	54089
604.625	54067.08
604.983	54234.76
605.341	54123.8
605.698	54163.58
606.056	54298.26
606.413	54249.9
606.771	54399.28
607.128	54468.65
607.485	54314.76
607.843	54319.05
608.2	54476.79
608.557	54514.75
608.914	54486.73
609.272	54513.62
609.629	54547.29
609.986	54667.74
610.343	54569.44
610.7	54750.91
611.057	54727.4
611.414	54660.74
611.771	54798.36
612.127	54793.16
612.484	54868.42
612.841	54883.1
613.198	54706.16
613.554	54794.97
613.911	54964.01
614.267	54890.56
614.624	54926.49
614.98	54958.36
615.337	55188.63
615.693	55007.85
616.05	55013.95
616.406	55147.96
616.762	55034.74
617.118	55059.37
617.475	55121.06
617.831	55204
618.187	55186.37
618.543	55181.85
618.899	55291.91
619.255	55267.95
619.611	55199.25
619.967	55311.12
620.323	55312.47
620.678	55231.57
621.034	55183.21
621.39	55247.84
621.746	55220.05
622.101	55482.19
622.457	55262.08
622.812	55349.08
623.168	55419.14
623.523	55448.29
623.879	55462.75
624.234	55268.86
624.589	55356.76
624.945	55382.53
625.3	55447.61
625.655	55358.12
626.01	55450.55
626.365	55428.18
626.72	55416.88
627.075	55392.92
627.43	55292.59
627.785	55342.75
628.14	55426.37
628.495	55389.31
628.85	55362.41
629.205	55335.3
629.559	55473.82
629.914	55347.73
630.269	55356.76
630.623	55266.37
630.978	55291.68
631.332	55348.86
631.687	55408.29
632.041	55346.82
632.396	55377.1
632.75	55316.54
633.104	55291.23
633.459	55194.28
633.813	55143.44
634.167	55230.44
634.521	55168.07
634.875	55178.24
635.229	55132.82
635.583	55032.03
635.937	55047.39
636.291	55004.01
636.645	55055.3
636.999	55012.37
637.352	55007.62
637.706	54932.82
638.06	55084.68
638.413	54971.01
638.767	54924.91
639.121	54988.41
639.474	54814.63
639.828	54807.4
640.181	54977.11
640.534	54834.97
640.888	54807.85
641.241	54779.6
641.594	54791.13
641.947	54822.99
642.301	54714.3
642.654	54835.87
643.007	54789.77
643.36	54780.73
643.713	54677.91
644.066	54806.04
644.419	54618.25
644.771	54410.8
645.124	54149.79
645.477	54149.79
645.83	53941.43
646.182	53880.42
646.535	53806.07
646.888	53907.54
647.24	53784.6
647.593	53844.26
647.945	53851.49
648.298	53787.31
648.65	53713.19
649.002	53519.75
649.355	53732.17
649.707	53706.19
650.059	53858.5
650.411	54182.33
650.763	54102.11
651.115	54504.58
651.467	54336.23
651.819	54316.57
652.171	54253.52
652.523	54140.3
652.875	54251.03
653.227	54133.29
653.578	54303.69
653.93	54369.9
654.282	54214.2
654.633	54117.7
654.985	54120.41
655.337	54176.23
655.688	54164.71
656.039	54286.28
656.391	54004.26
656.742	54019.62
657.094	54086.97
657.445	54210.58
657.796	54037.93
658.147	54000.19
658.498	54028.66
658.849	54117.48
659.2	53976.91
659.551	53912.73
659.902	54127.87
660.253	54001.77
660.604	53937.37
660.955	53858.27
661.306	53929.01
661.656	53921.1
662.007	53882.23
662.358	53883.81
662.708	53811.27
663.059	53865.5
663.409	53654.44
663.76	53874.54
664.11	53809.23
664.461	53837.93
664.811	53816.24
665.161	53806.52
665.511	53693.53
665.862	53741.67
666.212	53772.17
666.562	53820.76
666.912	53740.54
667.262	53741.89
667.612	53682.46
667.962	53704.6
668.312	53630.26
668.662	53797.94
669.011	53688.33
669.361	53580.77
669.711	53607.43
670.06	53617.38
670.41	53535.57
670.76	53452.41
671.109	53598.17
671.459	53474.1
671.808	53439.08
672.157	53452.41
672.507	53325.41
672.856	53292.86
673.205	53348.23
673.554	53479.07
673.904	53222.36
674.253	53426.87
674.602	53341.9
674.951	52842.71
675.3	52738.75
675.649	53181
675.998	53210.61
676.346	53140.78
676.695	53224.62
677.044	52993.44
677.393	53130.38
677.741	53016.71
678.09	52992.31
678.438	52899.65
678.787	52992.08
679.135	52972.87
679.484	52755.7
679.832	52861.46
680.181	52654.24
680.529	52800
680.877	52650.4
681.225	52615.37
681.573	52780.34
681.922	52509.16
682.27	52464.19
682.618	52553.9
682.966	52360.23
683.314	52516.39
683.661	52317.07
684.009	52132.89
684.357	52080.47
684.705	52077.3
685.053	52001.6
685.4	51993.01
685.748	51726.13
686.095	51885.22
686.443	51696.3
686.79	51637.77
687.138	51666.92
687.485	51621.95
687.832	51488.17
688.18	51489.52
688.527	51198
688.874	51330.88
689.221	51271.45
689.568	51137.67
689.915	50983.55
690.262	51014.96
690.609	50912.59
690.956	50904.45
691.303	50773.61
691.65	50565.25
691.997	50687.96
692.344	50243.23
692.69	50280.74
693.037	50332.26
693.383	50061.31
693.73	50225.6
694.077	49899.73
694.423	50042.55
694.769	49853.41
695.116	49849.11
695.462	49709.68
695.808	49439.63
696.155	49665.84
696.501	49353.08
696.847	49318.51
697.193	49132.3
697.539	49132.3
697.885	49030.6
698.231	48883.94
698.577	48765.98
698.923	48836.48
699.269	48531.18
699.614	48476.72
699.96	48261.36
700.306	48379.32
700.651	48259.32
700.997	48047.58
701.342	48049.61
701.688	48040.57
702.033	47828.83
702.379	47817.08
702.724	47654.59
703.069	47773.24
703.415	47360.14
703.76	47336.64
704.105	47447.14
704.45	47133.48
704.795	46999.47
705.14	46787.5
705.485	46818.01
705.83	46676.77
706.175	46851.23
706.52	46611.23
706.865	46467.96
707.209	46428.86
707.554	46248.3
707.899	46325.36
708.243	46122.88
708.588	46093.51
708.932	45782.78
709.277	45816
709.621	45814.64
709.966	45487.65
710.31	45802.89
710.654	45384.37
710.998	45546.18
711.342	45498.49
711.687	45292.85
712.031	45234.09
712.375	44940.99
712.719	45088.56
713.063	44920.66
713.407	45102.8
713.75	44830.26
714.094	44754.11
714.438	44681.57
714.782	44665.97
715.125	44442.48
715.469	44408.35
715.812	44303.27
716.156	44217.62
716.499	44082.94
716.843	44288.81
717.186	43852.21
717.53	44133.78
717.873	44099.89
718.216	44037.51
718.559	43687.92
718.902	43520.24
719.246	43520.24
719.589	43437.08
719.932	43263.07
720.275	43359.57
720.617	43339.91
720.96	43115.05
721.303	43179.46
721.646	43240.02
721.989	42867.83
722.331	43026.69
722.674	42838.22
723.016	42974.27
723.359	42850.88
723.701	42772.24
724.044	42477.78
724.386	42448.4
724.729	42560.72
725.071	42410.21
725.413	42295.64
725.755	42338.12
726.097	42182.42
726.439	42117.79
726.782	42138.13
727.124	42165.47
727.465	41942.65
727.807	41971.81
728.149	41791.7
728.491	41797.8
728.833	41815.88
729.175	41694.53
729.516	41468.99
729.858	41586.96
730.199	41534.53
730.541	41344.03
730.882	41394.42
731.224	41562.55
731.565	41222
731.906	41291.15
732.248	41306.29
732.589	40959.86
732.93	41055.45
733.271	40930.93
733.612	41048.67
733.953	41034.43
734.294	40855.45
734.635	40744.72
734.976	40801.67
735.317	40599.86
735.658	40560.54
735.999	40530.49
736.339	40388.34
736.68	40584.05
737.021	40362.81
737.361	40121.01
737.702	40415.91
738.042	40303.15
738.383	40090.95
738.723	40185.86
739.063	40034
739.404	40043.72
739.744	40002.82
740.084	39940
740.424	39937.96
740.764	39922.14
741.104	40021.57
741.444	39685.31
741.784	39692.77
742.124	39689.38
742.464	39533.68
742.804	39590.85
743.143	39418.65
743.483	39493
743.823	39254.82
744.162	39177.08
744.502	39253.46
744.841	38977.99
745.181	39338.88
745.52	39046.01
745.86	39168.26
746.199	39077.64
746.538	39010.53
746.877	39065.22
747.216	39014.37
747.556	38907.71
747.895	38982.73
748.234	38679.24
748.573	38713.59
748.911	38562.86
749.25	38624.55
749.589	38431.79
749.928	38494.84
750.267	38414.39
750.605	38279.47
750.944	38306.14
751.283	38053.72
751.621	38103.43
751.96	38025.92
752.298	37991.8
752.636	38008.29
752.975	37748.41
753.313	37729.43
753.651	37801.75
