Data from White_reflection_standard_FLMS001491_008.txt Node
Date: Tue Feb 07 10:31:56 GMT 2017
User: dcchb
Spectrometer: FLMS00149
Trigger mode: 0
Integration Time (sec): 2.000000E-2
Scans to average: 10
Electric dark correction enabled: true
Nonlinearity correction enabled: false
Boxcar width: 0
XAxis mode: Wavelengths
Number of Pixels in Spectrum: 2048
>>>>>Begin Spectral Data<<<<<
341.393	-5.31
341.776	-5.31
342.16	-5.31
342.543	-75.82
342.927	-67.91
343.31	-61.35
343.693	-50.73
344.077	-74.69
344.46	-58.64
344.843	-53.44
345.226	-57.06
345.61	-34.69
345.993	-20.23
346.376	-15.48
346.759	-2.6
347.142	27
347.525	43.5
347.908	65.42
348.291	76.04
348.674	105.19
349.057	111.75
349.44	117.17
349.823	121.47
350.206	171.63
350.588	238.75
350.971	233.78
351.354	257.06
351.737	267
352.119	286.43
352.502	293.44
352.884	303.38
353.267	315.13
353.65	322.36
354.032	334.57
354.414	341.57
354.797	356.71
355.179	351.29
355.562	370.5
355.944	380.44
356.326	371.4
356.709	389.03
357.091	380.44
357.473	403.04
357.855	397.39
358.238	383.83
358.62	411.63
359.002	399.2
359.384	396.71
359.766	401.91
360.148	409.37
360.53	398.52
360.912	399.88
361.294	402.59
361.676	381.8
362.057	396.49
362.439	384.28
362.821	426.99
363.203	416.83
363.584	410.95
363.966	407.79
364.348	403.49
364.729	408.46
365.111	404.17
365.493	399.2
365.874	403.72
366.256	399.42
366.637	405.3
367.019	406.88
367.4	390.16
367.781	390.84
368.163	402.14
368.544	409.82
368.925	444.85
369.306	429.71
369.688	433.1
370.069	422.7
370.45	421.12
370.831	438.29
371.212	437.16
371.593	433.55
371.974	451.17
372.355	437.39
372.736	434.23
373.117	458.18
373.498	437.16
373.879	415.24
374.26	412.08
374.641	432.42
375.021	450.95
375.402	459.76
375.783	470.38
376.163	484.17
376.544	495.24
376.925	476.71
377.305	478.07
377.686	485.07
378.066	492.08
378.447	491.4
378.827	490.5
379.208	529.14
379.588	510.83
379.968	521.46
380.349	525.97
380.729	511.51
381.109	530.95
381.489	538.18
381.87	533.21
382.25	544.73
382.63	554.67
383.01	561.68
383.39	563.26
383.77	554.45
384.15	561.91
384.53	582.47
384.91	577.5
385.29	582.24
385.67	576.6
386.049	603.71
386.429	613.88
386.809	609.59
387.189	617.05
387.568	621.11
387.948	645.07
388.328	640.32
388.707	651.4
389.087	645.75
389.466	657.72
389.846	678.97
390.225	683.03
390.605	724.39
390.984	675.12
391.363	690.26
391.743	697.04
392.122	700.43
392.501	710.38
392.881	756.48
393.26	730.49
393.639	734.1
394.018	754.9
394.397	761.22
394.776	783.82
395.155	774.78
395.534	753.31
395.913	810.94
396.292	793.54
396.671	800.32
397.05	821.33
397.429	841.9
397.808	840.09
398.186	850.71
398.565	870.37
398.944	846.42
399.323	873.54
399.701	895.46
400.08	867.21
400.458	893.65
400.837	896.59
401.215	916.47
401.594	933.65
401.972	921.9
402.351	930.48
402.729	930.71
403.107	996.24
403.486	976.81
403.864	985.17
404.242	1017.04
404.62	1006.41
404.999	1022.91
405.377	1042.8
405.755	1048.22
406.133	1056.36
406.511	1066.3
406.889	1087.09
407.267	1104.26
407.645	1118.95
408.023	1135.22
408.401	1129.12
408.779	1155.11
409.156	1173.19
409.534	1186.07
409.912	1213.87
410.29	1274.2
410.667	1269.68
411.045	1291.15
411.422	1273.98
411.8	1295.22
412.178	1318.27
412.555	1339.74
412.933	1350.36
413.31	1383.35
413.687	1376.8
414.065	1407.76
414.442	1426.06
414.819	1449.11
415.197	1467.19
415.574	1489.34
415.951	1491.37
416.328	1502.67
416.705	1493.86
417.082	1538.15
417.46	1553.52
417.837	1590.58
418.214	1580.18
418.591	1614.76
418.967	1602.78
419.344	1627.19
419.721	1640.52
420.098	1662.22
420.475	1724.81
420.852	1676.68
421.228	1718.94
421.605	1736.56
421.982	1737.92
422.358	1762.78
422.735	1829.9
423.111	1793.51
423.488	1843.45
423.864	1842.78
424.241	1879.16
424.617	1885.94
424.994	1879.84
425.37	1949.67
425.746	1961.87
426.123	2007.29
426.499	1980.63
426.875	2024.69
427.251	2051.58
427.627	2108.53
428.003	2129.32
428.379	2128.64
428.756	2173.16
429.132	2219.72
429.507	2269.66
429.883	2257.68
430.259	2281.41
430.635	2303.78
431.011	2378.13
431.387	2387.85
431.763	2418.81
432.138	2461.74
432.514	2483.44
432.89	2523.89
433.265	2566.37
433.641	2631
434.016	2640.04
434.392	2664
434.767	2716.65
435.143	2688.4
435.518	2731.79
435.894	2791.9
436.269	2823.77
436.644	2865.8
437.02	2908.06
437.395	2906.7
437.77	2898.57
438.145	2989.41
438.52	3000.94
438.895	3061.5
439.271	3059.24
439.646	3132.46
440.021	3152.35
440.395	3205.9
440.77	3188.96
441.145	3197.54
441.52	3241.38
441.895	3240.03
442.27	3322.51
442.645	3304.88
443.019	3365.22
443.394	3383.07
443.769	3410.19
444.143	3393.24
444.518	3513.92
444.892	3429.4
445.267	3454.03
445.641	3525.22
446.016	3552.79
446.39	3569.74
446.764	3613.8
447.139	3605.22
447.513	3648.15
447.887	3652.45
448.262	3645.67
448.636	3696.96
449.01	3749.17
449.384	3820.58
449.758	3821.71
450.132	3862.16
450.506	3906.22
450.88	3945.55
451.254	3986
451.628	4030.74
452.002	4058.31
452.376	4143.28
452.75	4136.73
453.123	4183.73
453.497	4241.58
453.871	4280.68
454.244	4401.81
454.618	4383.73
454.992	4449.71
455.365	4455.59
455.739	4592.76
456.112	4621.23
456.486	4670.95
456.859	4730.38
457.232	4805.41
457.606	4805.41
457.979	4858.29
458.352	5012.41
458.725	5038.4
459.099	5075.23
459.472	5166.98
459.845	5226.42
460.218	5293.76
460.591	5325.62
460.964	5371.05
461.337	5437.94
461.71	5559.06
462.083	5621.43
462.456	5662.56
462.829	5672.51
463.201	5827.76
463.574	5830.92
463.947	5897.59
464.32	6003.8
464.692	6078.82
465.065	6108.2
465.438	6238.82
465.81	6327.86
466.183	6320.85
466.555	6558.13
466.928	6557.45
467.3	6609.66
467.672	6703.67
468.045	6826.15
468.417	6858.01
468.789	6924.22
469.161	7058.91
469.534	7188.62
469.906	7322.18
470.278	7365.8
470.65	7453.02
471.022	7660.93
471.394	7777.76
471.766	7821.15
472.138	7847.14
472.51	8071.09
472.882	8255.04
473.253	8275.6
473.625	8454.13
473.997	8601.47
474.369	8653.67
474.74	8739.54
475.112	8921.91
475.484	9120.78
475.855	9207.1
476.227	9354.22
476.598	9566.19
476.97	9687.54
477.341	9932.51
477.713	9980.64
478.084	10122.56
478.455	10400.74
478.827	10509.67
479.198	10812.71
479.569	10793.28
479.94	11139.93
480.311	11219.25
480.682	11489.98
481.053	11714.61
481.424	12001.61
481.795	11983.3
482.166	12221.94
482.537	12429.39
482.908	12636.39
483.279	12829.15
483.65	13002.03
484.021	13325.19
484.391	13444.96
484.762	13537.61
485.133	13737.15
485.503	13966.53
485.874	14256.91
486.244	14329
486.615	14559.28
486.985	14817.58
487.356	15014.41
487.726	15161.97
488.097	15429.09
488.467	15551.12
488.837	15819.13
489.207	16047.83
489.578	16344.99
489.948	16401.72
490.318	16714.93
490.688	16823.4
491.058	17045.99
491.428	17232.88
491.798	17463.16
492.168	17762.36
492.538	17854.78
492.908	18044.84
493.278	18372.29
493.648	18294.32
494.017	18615.44
494.387	18879.39
494.757	18960.74
495.126	19145.15
495.496	19182.21
495.866	19304.69
496.235	19550.33
496.605	19722.31
496.974	19849.53
497.344	20132.01
497.713	20134.5
498.082	20354.38
498.452	20628.72
498.821	20652.45
499.19	20769.06
499.559	21017.41
499.928	21138.77
500.298	21253.79
500.667	21435.03
501.036	21454.46
501.405	21715.93
501.774	21696.94
502.143	21985.75
502.512	22004.51
502.88	22216.7
503.249	22254.44
503.618	22499.41
503.987	22582.57
504.356	22797.93
504.724	22903.92
505.093	23126.51
505.462	23128.09
505.83	23425.94
506.199	23509.55
506.567	23902.76
506.936	23938.92
507.304	24115.86
507.672	24317.21
508.041	24356.08
508.409	24737.77
508.777	24767.37
509.145	25005.33
509.514	25013.92
509.882	25239
510.25	25356.96
510.618	25586.56
510.986	25615.26
511.354	25913.33
511.722	26115.58
512.09	26339.53
512.458	26495.91
512.826	26682.35
513.193	26932.06
513.561	26856.58
513.929	27160.98
514.297	27379.51
514.664	27589.9
515.032	27772.94
515.4	27985.59
515.767	28086.15
516.135	28370.89
516.502	28194.17
516.869	28783.99
517.237	28944.21
517.604	28792.58
517.972	29193.24
518.339	29407.7
518.706	29426.68
519.073	29705.77
519.44	29977.63
519.808	30288.36
520.175	30132.43
520.542	30803.82
520.909	30860.77
521.276	30860.32
521.643	31248.56
522.009	31469.57
522.376	31644.48
522.743	31871.14
523.11	32223.9
523.477	32559.26
523.843	32726.03
524.21	33017.55
524.577	33178.22
524.943	33530.98
525.31	33570.53
525.676	33850.97
526.043	34183.85
526.409	34256.61
526.776	34657.73
527.142	34684.4
527.508	34987.22
527.874	35233.31
528.241	35510.14
528.607	35537.71
528.973	35926.17
529.339	35989
529.705	36381.98
530.071	36646.38
530.437	36819.48
530.803	37037.11
531.169	37223.54
531.535	37271.9
531.901	37405.01
532.267	37551.22
532.632	37865.56
532.998	38019
533.364	38264.64
533.73	38198.2
534.095	38715.25
534.461	38757.06
534.826	38883.16
535.192	39018.97
535.557	39333.54
535.923	39330.38
536.288	39511.84
536.653	39772.17
537.019	39705.74
537.384	39992.96
537.749	40149.11
538.114	40122.67
538.479	40365.38
538.845	40560.18
539.21	40424.36
539.575	40741.64
539.94	40851.47
540.305	41235.64
540.67	41154.06
541.034	41332.59
541.399	41355.18
541.764	41470.21
542.129	41737.55
542.494	41752.46
542.858	41978.9
543.223	41988.61
543.587	42283.52
543.952	42446.68
544.316	42417.3
544.681	42488.71
545.045	42783.39
545.41	42861.13
545.774	43058.42
546.138	43007.57
546.503	43125.31
546.867	43345.19
547.231	43671.51
547.595	43693.2
547.959	43894.33
548.324	43950.14
548.688	44009.58
549.052	44293.41
549.416	44232.4
549.779	44418.15
550.143	44645.72
550.507	44872.15
550.871	44969.55
551.235	44982.66
551.599	45324.12
551.962	45374.29
552.326	45593.72
552.689	45647.73
553.053	45698.8
553.417	45824.9
553.78	46307.37
554.143	46093.82
554.507	46314.6
554.87	46426.69
555.234	46840.92
555.597	46835.72
555.96	46886.11
556.323	47033.23
556.686	47188.48
557.05	47544.17
557.413	47554.34
557.776	47581.69
558.139	48021.22
558.502	47951.62
558.865	48140.77
559.228	48471.38
559.59	48547.99
559.953	48687.42
560.316	49024.36
560.679	48838.6
561.041	49253.96
561.404	49419.6
561.767	49684.91
562.129	49517.46
562.492	49971
562.854	49952.25
563.217	50103.2
563.579	50156.08
563.941	50406.7
564.304	50427.04
564.666	50800.36
565.028	50787.03
565.39	50901.83
565.753	51110.63
566.115	51306.11
566.477	51370.97
566.839	51532.77
567.201	51654.8
567.563	51711.97
567.925	51912.19
568.287	51959.65
568.648	52024.51
569.01	52265.18
569.372	52422.92
569.734	52396.25
570.095	52688.9
570.457	52705.17
570.819	52804.37
571.18	52752.62
571.542	52967.53
571.903	53066.06
572.265	53175.89
572.626	53305.15
572.987	53296.56
573.349	53365.72
573.71	53462.44
574.071	53528.88
574.432	53623.56
574.794	53818.36
575.155	53780.62
575.516	53704.69
575.877	53925.25
576.238	54056.32
576.599	54066.26
576.96	54118.46
577.32	54117.11
577.681	54304.9
578.042	54309.87
578.403	54257.9
578.763	54296.54
579.124	54447.95
579.485	54507.83
579.845	54625.57
580.206	54537.66
580.566	54503.09
580.927	54534.27
581.287	54646.81
581.648	54568.17
582.008	54709.63
582.368	54658.34
582.728	54671.9
583.089	54664.44
583.449	54675.96
583.809	54770.88
584.169	54776.07
584.529	54808.16
584.889	54919.57
585.249	54775.85
585.609	54616.08
585.969	54875.28
586.329	54782.63
586.688	54845.45
587.048	54825.56
587.408	54734.04
587.768	54787.82
588.127	54794.83
588.487	54738.79
588.846	54950.08
589.206	54769.97
589.565	54713.7
589.925	54956.86
590.284	54823.3
590.643	54770.88
591.003	54890.87
591.362	54954.15
591.721	54961.38
592.08	54877.31
592.44	55017.65
592.799	55007.03
593.158	55004.99
593.517	54971.32
593.876	54936.52
594.235	54926.13
594.593	54942.62
594.952	55095.61
595.311	54906.92
595.67	55004.99
596.029	55205.44
596.387	55207.02
596.746	55211.32
597.104	55141.26
597.463	55114.37
597.822	55168.38
598.18	55089.29
598.538	55065.11
598.897	55282.73
599.255	55013.58
599.613	55394.14
599.972	55195.95
600.33	55383.29
600.688	55182.39
601.046	55319.56
601.404	55402.72
601.762	55430.52
602.12	55486.79
602.478	55473.68
602.836	55474.36
603.194	55370.63
603.552	55459.9
603.91	55376.28
604.268	55484.3
604.625	55431.2
604.983	55512.78
605.341	55404.31
605.698	55576.5
606.056	55619.44
606.413	55635.26
606.771	55686.33
607.128	55772.43
607.485	55643.4
607.843	55670.51
608.2	55800.68
608.557	55875.48
608.914	55748.93
609.272	55935.37
609.629	55957.06
609.986	56004.97
610.343	55892.43
610.7	56089.94
611.057	56015.82
611.414	55994.8
611.771	56155.47
612.127	56140.33
612.484	56115.93
612.841	56244.96
613.198	56120.67
613.554	56145.76
613.911	56265.75
614.267	56185.75
614.624	56218.75
614.98	56256.03
615.337	56399.08
615.693	56366.09
616.05	56232.98
616.406	56493.77
616.762	56337.39
617.118	56367.44
617.475	56397.05
617.831	56445.41
618.187	56461.91
618.543	56471.4
618.899	56668
619.255	56484.73
619.611	56508.91
619.967	56625.29
620.323	56711.39
620.678	56576.25
621.034	56501.9
621.39	56604.73
621.746	56558.63
622.101	56726.31
622.457	56569.25
622.812	56625.29
623.168	56596.59
623.523	56607.44
623.879	56683.37
624.234	56544.84
624.589	56588.23
624.945	56672.3
625.3	56623.26
625.655	56659.87
626.01	56595.69
626.365	56640.66
626.72	56566.54
627.075	56621.68
627.43	56530.15
627.785	56507.78
628.14	56646.53
628.495	56604.73
628.85	56451.51
629.205	56455.13
629.559	56550.94
629.914	56411.06
630.269	56468.91
630.623	56404.28
630.978	56334.45
631.332	56477.05
631.687	56510.04
632.041	56333.32
632.396	56388.01
632.75	56371.74
633.104	56346.43
633.459	56218.52
633.813	56181.01
634.167	56162.48
634.521	56139.88
634.875	56181.46
635.229	56143.04
635.583	55996.83
635.937	55997.28
636.291	55962.03
636.645	55913.45
636.999	55940.11
637.352	55927.68
637.706	55720.46
638.06	55917.51
638.413	55735.82
638.767	55728.59
639.121	55872.99
639.474	55625.77
639.828	55665.77
640.181	55729.72
640.534	55631.19
640.888	55589.61
641.241	55466.68
641.594	55490.63
641.947	55527.24
642.301	55436.85
642.654	55428.71
643.007	55458.09
643.36	55325.44
643.713	55338.09
644.066	55384.65
644.419	55189.4
644.771	54979.23
645.124	54706.02
645.477	54639.58
645.83	54474.16
646.182	54418.8
646.535	54349.42
646.888	54289.98
647.24	54208.18
647.593	54373.37
647.945	54271.23
648.298	54179.03
648.65	54070.78
649.002	54024
649.355	54088.63
649.707	54020.39
650.059	54162.76
650.411	54453.82
650.763	54546.93
651.115	54821.95
651.467	54687.71
651.819	54689.97
652.171	54485.91
652.523	54471
652.875	54440.49
653.227	54406.14
653.578	54521.84
653.93	54442.3
654.282	54320.04
654.633	54228.97
654.985	54263.09
655.337	54347.16
655.688	54213.6
656.039	54305.8
656.391	54089.31
656.742	54119.82
657.094	54047.05
657.445	54172.02
657.796	54157.79
658.147	54075.08
658.498	54079.59
658.849	54069.88
659.2	54129.54
659.551	53942.42
659.902	54048.64
660.253	53974.06
660.604	54047.51
660.955	53837.12
661.306	53968.19
661.656	53895.65
662.007	53852.93
662.358	53852.71
662.708	53820.39
663.059	53928.64
663.409	53720.28
663.76	53831.69
664.11	53814.52
664.461	53735.42
664.811	53804.57
665.161	53730.68
665.511	53682.32
665.862	53607.29
666.212	53783.78
666.562	53741.3
666.912	53598.03
667.262	53591.25
667.612	53531.36
667.962	53617.69
668.312	53558.7
668.662	53693.16
669.011	53547.18
669.361	53472.61
669.711	53553.96
670.06	53423.12
670.41	53443.91
670.76	53381.53
671.109	53442.78
671.459	53378.14
671.808	53347.18
672.157	53374.75
672.507	53164.82
672.856	53230.58
673.205	53206.17
673.554	53306.96
673.904	53165.49
674.253	53339.05
674.602	53233.74
674.951	52785.62
675.3	52652.51
675.649	53079.17
675.998	53051.37
676.346	53046.4
676.695	53149
677.044	52902.45
677.393	53006.63
677.741	53026.74
678.09	52877.59
678.438	52843.24
678.787	52846.86
679.135	52834.2
679.484	52710.14
679.832	52692.74
680.181	52586.3
680.529	52623.36
680.877	52560.09
681.225	52542.69
681.573	52734.55
681.922	52444.84
682.27	52344.5
682.618	52438.28
682.966	52268.57
683.314	52268.57
683.661	52222.92
684.009	52052.76
684.357	51992.64
684.705	52012.08
685.053	52007.33
685.4	51899.99
685.748	51808.47
686.095	51782.03
686.443	51605.99
686.79	51611.86
687.138	51559.21
687.485	51580.23
687.832	51585.88
688.18	51443.28
688.527	51199.9
688.874	51273.57
689.221	51197.86
689.568	50975.5
689.915	50919.23
690.262	50933.69
690.609	50851.66
690.956	50743.64
691.303	50761.94
691.65	50549.07
691.997	50530.99
692.344	50266.14
692.69	50199.7
693.037	50193.6
693.383	49922.64
693.73	50060.94
694.077	49842.19
694.423	49844.23
694.769	49742.53
695.116	49585.25
695.462	49476.55
695.808	49560.62
696.155	49489.66
696.501	49210.12
696.847	49236.33
697.193	48952.27
697.539	48990.46
697.885	48884.93
698.231	48717.93
698.577	48673.41
698.923	48606.74
699.269	48390.48
699.614	48210.6
699.96	48248.34
700.306	48195
700.651	47974.67
700.997	47908.46
701.342	47784.62
701.688	47748.24
702.033	47579.65
702.379	47633.89
702.724	47421.46
703.069	47567.9
703.415	47089.72
703.76	47105.99
704.105	47127.24
704.45	46967.69
704.795	46618.55
705.14	46649.73
705.485	46607.48
705.83	46436.18
706.175	46520.7
706.52	46445.22
706.865	46206.13
707.209	46199.58
707.554	46067.15
707.899	46130.65
708.243	45767.95
708.588	45854.73
708.932	45535.19
709.277	45497.67
709.621	45658.35
709.966	45181.52
710.31	45271.69
710.654	44982.89
710.998	45070.57
711.342	44976.11
711.687	44802.55
712.031	44698.6
712.375	44533.41
712.719	44713.29
713.063	44588.77
713.407	44574.53
713.75	44367.08
714.094	44394.43
714.438	44067.2
714.782	44190.82
715.125	43883.48
715.469	44060.88
715.812	43806.42
716.156	43658.63
716.499	43580.66
716.843	43574.11
717.186	43400.33
717.53	43714.44
717.873	43550.15
718.216	43328.01
718.559	43248.47
718.902	43050.28
719.246	43067.46
719.589	42998.76
719.932	42815.94
720.275	42849.83
720.617	42682.38
720.96	42584.76
721.303	42521.03
721.646	42622.72
721.989	42260.92
722.331	42542.72
722.674	42435.38
723.016	42318.1
723.359	42353.12
723.701	42298.44
724.044	42125.79
724.386	41766.25
724.729	41897.99
725.071	41757.66
725.413	41775.74
725.755	41631.56
726.097	41587.27
726.439	41306.15
726.782	41342.53
727.124	41488.51
727.465	41287.39
727.807	41251.68
728.149	41211.23
728.491	41033.84
728.833	41166.26
729.175	40876.33
729.516	40795.2
729.858	40888.53
730.199	40872.48
730.541	40817.34
730.882	40654.19
731.224	40719.04
731.565	40407.41
731.906	40641.98
732.248	40545.94
732.589	40311.6
732.93	40153.63
733.271	40120.41
733.612	40206.97
733.953	40249
734.294	40035.44
734.635	39972.17
734.976	39953.64
735.317	39766.75
735.658	39690.14
735.999	39757.71
736.339	39634.33
736.68	39695.34
737.021	39387.1
737.361	39391.39
737.702	39633.2
738.042	39322.92
738.383	39325.41
738.723	39361.11
739.063	39112.3
739.404	39250.15
739.744	39035.02
740.084	39038.63
740.424	39072.76
740.764	38727
741.104	39047.45
741.444	38715.93
741.784	38664.86
742.124	38784.4
742.464	38761.35
742.804	38487.91
743.143	38304.64
743.483	38407.01
743.823	38236.4
744.162	38049.06
744.502	38334.92
744.841	38005.22
745.181	38200.46
745.52	38044.76
745.86	38074.14
746.199	37847.25
746.538	37881.6
746.877	37815.84
747.216	37731.32
747.556	37671.89
747.895	37718.22
748.234	37557.32
748.573	37544.21
748.911	37458.34
749.25	37330.43
749.589	37166.14
749.928	37249.08
750.267	37219.25
750.605	37075.52
750.944	37046.37
751.283	36872.59
751.621	36887.05
751.96	36773.16
752.298	36701.29
752.636	36676.21
