Data from White_paper_FLMS001491_009.txt Node
Date: Tue Feb 07 10:34:35 GMT 2017
User: dcchb
Spectrometer: FLMS00149
Trigger mode: 0
Integration Time (sec): 2.000000E-2
Scans to average: 10
Electric dark correction enabled: true
Nonlinearity correction enabled: false
Boxcar width: 0
XAxis mode: Wavelengths
Number of Pixels in Spectrum: 2048
>>>>>Begin Spectral Data<<<<<
341.393	-3.63
341.776	-3.63
342.16	-3.63
342.543	-63.74
342.927	-61.26
343.31	-74.59
343.693	-83.18
344.077	-61.71
344.46	-51.76
344.843	-47.92
345.226	-52.67
345.61	-11.99
345.993	-19.67
346.376	6.99
346.759	-0.01
347.142	29.82
347.525	42.47
347.908	61
348.291	69.14
348.674	73.2
349.057	120.89
349.44	137.16
349.823	155.69
350.206	170.6
350.588	231.62
350.971	243.14
351.354	246.99
351.737	292.63
352.119	294.22
352.502	285.63
352.884	290.37
353.267	296.48
353.65	328.56
354.032	342.12
354.414	312.52
354.797	351.16
355.179	362.69
355.562	356.36
355.944	361.78
356.326	336.7
356.709	357.04
357.091	365.17
357.473	385.29
357.855	378.96
358.238	354.1
358.62	364.72
359.002	352.52
359.384	364.5
359.766	371.95
360.148	376.02
360.53	354.78
360.912	374.89
361.294	360.2
361.676	412.63
362.057	381.44
362.439	349.58
362.821	351.84
363.203	368.79
363.584	369.47
363.966	347.55
364.348	362.69
364.729	357.26
365.111	352.29
365.493	358.62
365.874	357.72
366.256	371.73
366.637	362.24
367.019	348.68
367.4	349.58
367.781	357.04
368.163	366.53
368.544	354.33
368.925	353.65
369.306	344.16
369.688	364.72
370.069	350.26
370.45	371.73
370.831	376.25
371.212	362.24
371.593	361.56
371.974	354.78
372.355	367.21
372.736	364.95
373.117	372.41
373.498	368.56
373.879	368.79
374.26	378.28
374.641	350.71
375.021	371.5
375.402	375.12
375.783	381.9
376.163	399.3
376.544	397.49
376.925	378.51
377.305	383.48
377.686	393.42
378.066	387.77
378.447	369.02
378.827	405.85
379.208	397.04
379.588	397.94
379.968	392.52
380.349	400.65
380.729	411.73
381.109	402.46
381.489	432.06
381.87	419.41
382.25	404.72
382.63	422.12
383.01	448.11
383.39	428
383.77	446.53
384.15	426.19
384.53	420.99
384.91	430.48
385.29	444.49
385.67	466.87
386.049	442.46
386.429	440.43
386.809	430.26
387.189	452.63
387.568	468
387.948	452.86
388.328	463.02
388.707	461.44
389.087	486.53
389.466	481.78
389.846	498.28
390.225	489.46
390.605	489.92
390.984	493.53
391.363	484.27
391.743	517.71
392.122	515.68
392.501	530.37
392.881	523.14
393.26	540.31
393.639	522.68
394.018	549.35
394.397	548.45
394.776	556.81
395.155	547.77
395.534	567.43
395.913	566.3
396.292	563.13
396.671	590.7
397.05	604.94
397.429	572.85
397.808	571.04
398.186	596.35
398.565	609.91
398.944	596.58
399.323	615.79
399.701	639.74
400.08	623.47
400.458	628.22
400.837	659.4
401.215	672.96
401.594	666.86
401.972	660.76
402.351	679.29
402.729	685.17
403.107	679.97
403.486	706.18
403.864	723.58
404.242	734.88
404.62	732.62
404.999	758.16
405.377	779.4
405.755	779.4
406.133	804.26
406.511	825.73
406.889	822.11
407.267	861.21
407.645	863.24
408.023	900.3
408.401	900.98
408.779	932.62
409.156	948.44
409.534	942.56
409.912	991.37
410.29	1019.62
410.667	1028.21
411.045	1061.43
411.422	1096.23
411.8	1117.47
412.178	1147.98
412.555	1151.82
412.933	1220.97
413.31	1236.34
413.687	1245.83
414.065	1284.7
414.442	1297.58
414.819	1321.76
415.197	1351.59
415.574	1409.67
415.951	1377.12
416.328	1425.49
416.705	1449.89
417.082	1479.49
417.46	1507.06
417.837	1545.71
418.214	1547.97
418.591	1582.54
418.967	1630
419.344	1636.55
419.721	1648.98
420.098	1700.96
420.475	1718.58
420.852	1743.22
421.228	1759.49
421.605	1774.18
421.982	1832.71
422.358	1847.17
422.735	1868.64
423.111	1861.63
423.488	1933.49
423.864	1934.4
424.241	1972.14
424.617	1987.96
424.994	2042.87
425.37	2011.46
425.746	2037.67
426.123	2112.92
426.499	2098.69
426.875	2161.28
427.251	2194.05
427.627	2242.64
428.003	2274.28
428.379	2291.9
428.756	2306.14
429.132	2365.8
429.507	2372.58
429.883	2407.61
430.259	2499.36
430.635	2487.15
431.011	2537.77
431.387	2567.6
431.763	2632.69
432.138	2648.73
432.514	2680.82
432.89	2712
433.265	2765.11
433.641	2792.68
434.016	2847.37
434.392	2862.74
434.767	2927.37
435.143	2937.54
435.518	3001.26
435.894	3037.87
436.269	3083.75
436.644	3142.73
437.02	3120.58
437.395	3187.47
437.77	3207.81
438.145	3240.35
438.52	3291.88
438.895	3323.51
439.271	3360.35
439.646	3444.42
440.021	3401.03
440.395	3472.21
440.77	3472.21
441.145	3503.85
441.52	3568.93
441.895	3565.32
442.27	3623.62
442.645	3619.78
443.019	3647.8
443.394	3662.04
443.769	3704.52
444.143	3681.92
444.518	3743.84
444.892	3771.64
445.267	3766.21
445.641	3851.41
446.016	3827.68
446.39	3867
446.764	3874.23
447.139	3830.85
447.513	3954.91
447.887	3930.5
448.262	3966.21
448.636	4004.63
449.01	4047.11
449.384	4078.3
449.758	4078.07
450.132	4146.32
450.506	4146.77
450.88	4186.77
451.254	4219.31
451.628	4264.73
452.002	4350.38
452.376	4289.82
452.75	4375.01
453.123	4396.48
453.497	4466.54
453.871	4528.23
454.244	4582.46
454.618	4637.15
454.992	4676.25
455.365	4672.86
455.739	4826.75
456.112	4864.72
456.486	4850.25
456.859	4956.69
457.232	5016.35
457.606	5031.72
457.979	5111.49
458.352	5251.15
458.725	5272.39
459.099	5259.28
459.472	5428.77
459.845	5508.99
460.218	5485.49
460.591	5507.64
460.964	5563.68
461.337	5756.22
461.71	5795.09
462.083	5861.98
462.456	5905.59
462.829	5864.01
463.201	6032.6
463.574	6022.43
463.947	6129.32
464.32	6277.33
464.692	6278.92
465.065	6367.5
465.438	6488.18
465.81	6518.91
466.183	6614.28
466.555	6732.24
466.928	6842.97
467.3	6804.78
467.672	6882.52
468.045	7084.77
468.417	7134.94
468.789	7174.26
469.161	7313.24
469.534	7420.36
469.906	7544.65
470.278	7623.74
470.65	7736.51
471.022	7888.37
471.394	7990.51
471.766	8100.34
472.138	8212.65
472.51	8284.29
472.882	8464.17
473.253	8605.86
473.625	8680.66
473.997	8924.05
474.369	9024.83
474.74	9014.44
475.112	9243.58
475.484	9333.75
475.855	9547.98
476.227	9575.33
476.598	9872.49
476.97	9929.44
477.341	10127.4
477.713	10306.38
478.084	10324.01
478.455	10690.33
478.827	10749.76
479.198	11031.33
479.569	11016.87
479.94	11353.36
480.311	11457.54
480.682	11701.37
481.053	11982.95
481.424	12165.09
481.795	12235.6
482.166	12425.65
482.537	12625.19
482.908	12866.77
483.279	12940.66
483.65	13249.13
484.021	13506.75
484.391	13580.19
484.762	13697.7
485.133	13808.89
485.503	13978.15
485.874	14314.64
486.244	14419.04
486.615	14751.46
486.985	15009.31
487.356	15111.45
487.726	15340.83
488.097	15675.73
488.467	15660.59
488.837	16004.76
489.207	16203.85
489.578	16419.67
489.948	16473.23
490.318	16743.73
490.688	16814.91
491.058	17150.04
491.428	17322.24
491.798	17457.38
492.168	17868.89
492.538	17820.08
492.908	18029.12
493.278	18372.61
493.648	18316.57
494.017	18539.61
494.387	18638.14
494.757	18830.68
495.126	19036.77
495.496	19190.89
495.866	19237.45
496.235	19463.2
496.605	19646.93
496.974	19692.12
497.344	19897.09
497.713	20001.49
498.082	20147.03
498.452	20452.1
498.821	20536.17
499.19	20606.68
499.559	20717.18
499.928	20910.4
500.298	21093.89
500.667	21265.19
501.036	21219.77
501.405	21475.35
501.774	21448.24
502.143	21676.48
502.512	21836.93
502.88	21967.54
503.249	21953.31
503.618	22201.44
503.987	22271.94
504.356	22364.82
504.724	22420.19
505.093	22586.06
505.462	22708.54
505.83	22921.19
506.199	23079.83
506.567	23428.07
506.936	23399.14
507.304	23697.44
507.672	23745.58
508.041	23763.43
508.409	24014.27
508.777	24331.78
509.145	24409.06
509.514	24415.16
509.882	24670.07
510.25	24756.62
510.618	24896.51
510.986	25013.11
511.354	25263.73
511.722	25448.58
512.09	25648.35
512.458	25607.67
512.826	25990.71
513.193	26020.54
513.561	26075.46
513.929	26307.32
514.297	26530.14
514.664	26744.14
515.032	26810.81
515.4	27000.63
515.767	27197.24
516.135	27301.87
516.502	27192.49
516.869	27671.12
517.237	27763.55
517.604	27658.47
517.972	28131
518.339	28035.41
518.706	28353.14
519.073	28537.09
519.44	28591.32
519.808	28970.3
520.175	28989.73
520.542	29370.97
520.909	29517.63
521.276	29564.18
521.643	29932.31
522.009	30042.81
522.376	30289.58
522.743	30500.65
523.11	30717.37
523.477	30861.1
523.843	31150.13
524.21	31471.02
524.577	31596.67
524.943	31678.02
525.31	31965.02
525.676	32238.23
526.043	32481.62
526.409	32572.01
526.776	32849.74
527.142	33103.52
527.508	33120.92
527.874	33420.35
528.241	33527.47
528.607	33633.9
528.973	33994.12
529.339	34070.05
529.705	34428.91
530.071	34629.13
530.437	34781.44
530.803	35075
531.169	35255.78
531.535	35138.27
531.901	35385.27
532.267	35476.79
532.632	35715.88
532.998	35792.94
533.364	35966.5
533.73	36148.87
534.095	36453.72
534.461	36559.02
534.826	36866.36
535.192	36851.9
535.557	37164.43
535.923	37209.18
536.288	37353.13
536.653	37502.28
537.019	37461.37
537.384	37733.91
537.749	37981.81
538.114	37913.11
538.479	38028.82
538.845	38197.63
539.21	38207.57
539.575	38384.29
539.94	38434.46
540.305	38856.37
540.67	38930.04
541.034	39029.92
541.399	39156.7
541.764	39292.51
542.129	39327.77
542.494	39554.2
542.858	39723.46
543.223	39781.99
543.587	39938.14
543.952	39949.44
544.316	40173.39
544.681	40063.79
545.045	40427.4
545.41	40519.37
545.774	40712.59
546.138	40731.34
546.503	40767.5
546.867	40921.62
547.231	41277.32
547.595	41269.18
547.959	41453.81
548.324	41489.29
548.688	41612.68
549.052	41708.04
549.416	41951.2
549.779	41987.13
550.143	42060.35
550.507	42235.03
550.871	42483.61
551.235	42548.47
551.599	42757.05
551.962	42836.83
552.326	42980.55
552.689	43204.73
553.053	43053.09
553.417	43181.9
553.78	43680.87
554.143	43385.74
554.507	43709.12
554.87	43795.22
555.234	44223
555.597	43974.87
555.96	44271.59
556.323	44406.5
556.686	44405.6
557.05	44807.62
557.413	44816.43
557.776	44876.32
558.139	45138.91
558.502	45218.23
558.865	45306.59
559.228	45592.91
559.59	45771.89
559.953	45780.7
560.316	46273.12
560.679	46253.91
561.041	46545.88
561.404	46729.83
561.767	46789.04
562.129	46887.79
562.492	47114.91
562.854	47049.14
563.217	47272.19
563.579	47331.62
563.941	47632.63
564.304	47826.98
564.666	48129.34
565.028	48081.43
565.39	48234.65
565.753	48384.93
566.115	48646.84
566.477	48692.04
566.839	48904.46
567.201	49184.91
567.563	49033.72
567.925	49352.81
568.287	49359.14
568.648	49543.77
569.01	49759.58
569.372	50040.48
569.734	49838.22
570.095	50200.02
570.457	50367.93
570.819	50360.02
571.18	50309.4
571.542	50615.83
571.903	50611.54
572.265	50852.66
572.626	50870.51
572.987	50899.44
573.349	51132.2
573.71	51211.07
574.071	51258.3
574.432	51421.01
574.794	51678.4
575.155	51517.05
575.516	51425.53
575.877	51792.97
576.238	51837.04
576.599	51925.63
576.96	51934.89
577.32	52030.03
577.681	52148.9
578.042	52215.79
578.403	52222.12
578.763	52313.41
579.124	52307.76
579.485	52542.56
579.845	52567.87
580.206	52529.23
580.566	52580.07
580.927	52635.89
581.287	52702.55
581.648	52699.39
582.008	52808.99
582.368	52732.61
582.728	52829.33
583.089	52830.01
583.449	52848.77
583.809	52919.95
584.169	53053.51
584.529	52894.64
584.889	53179.6
585.249	53030
585.609	52893.96
585.969	53225.03
586.329	53091.02
586.688	53137.12
587.048	53151.81
587.408	53143
587.768	53177.8
588.127	53251.02
588.487	53149.77
588.846	53421.18
589.206	53202.43
589.565	53212.15
589.925	53430.9
590.284	53271.58
590.643	53319.04
591.003	53434.29
591.362	53484.23
591.721	53394.06
592.08	53442.87
592.44	53534.62
592.799	53570.33
593.158	53492.36
593.517	53503.89
593.876	53547.28
594.235	53500.5
594.593	53583.21
594.952	53675.41
595.311	53648.74
595.67	53710.66
596.029	53906.14
596.387	53823.66
596.746	53822.98
597.104	53693.26
597.463	53775.3
597.822	53875.86
598.18	53847.61
598.538	53779.59
598.897	53975.29
599.255	53724
599.613	54220.48
599.972	54057.77
600.33	54027.27
600.688	53930.77
601.046	54004.67
601.404	54129.64
601.762	54102.52
602.12	54190.65
602.478	54183.19
602.836	54266.36
603.194	54093.48
603.552	54166.7
603.91	54031.79
604.268	54351.1
604.625	54141.61
604.983	54358.33
605.341	54204.66
605.698	54296.41
606.056	54339.57
606.413	54359.01
606.771	54463.19
607.128	54523.52
607.485	54313.81
607.843	54413.7
608.2	54501.15
608.557	54656.63
608.914	54511.32
609.272	54689.4
609.629	54713.12
609.986	54862.95
610.343	54584.54
610.7	54838.54
611.057	54852.78
611.414	54865.66
611.771	54779.56
612.127	54939.56
612.484	54855.27
612.841	54978.2
613.198	54829.28
613.554	54936.17
613.911	55100.23
614.267	55088.03
614.624	54987.47
614.98	55058.88
615.337	55175.94
615.693	55086.67
616.05	55065.88
616.406	55280.11
616.762	55145.2
617.118	55117.86
617.475	55246.89
617.831	55261.81
618.187	55285.31
618.543	55310.85
618.899	55406.21
619.255	55410.05
619.611	55376.38
619.967	55405.08
620.323	55453.9
620.678	55412.09
621.034	55342.71
621.39	55392.43
621.746	55308.36
622.101	55628.58
622.457	55396.27
622.812	55485.31
623.168	55536.38
623.523	55544.97
623.879	55595.13
624.234	55361.02
624.589	55528.24
624.945	55534.8
625.3	55552.65
625.655	55520.33
626.01	55489.37
626.365	55545.42
626.72	55457.28
627.075	55471.97
627.43	55447.57
627.785	55429.71
628.14	55531.63
628.495	55513.1
628.85	55493.67
629.205	55451.64
629.559	55581.58
629.914	55478.98
630.269	55431.07
630.623	55391.75
630.978	55389.72
631.332	55539.77
631.687	55524.4
632.041	55358.98
632.396	55429.49
632.75	55356.04
633.104	55377.96
633.459	55271.98
633.813	55287.35
634.167	55276.72
634.521	55257.06
634.875	55326.21
635.229	55294.58
635.583	55170.96
635.937	55132.55
636.291	55194.92
636.645	55221.81
636.999	55110.85
637.352	55164.86
637.706	55068.59
638.06	55191.53
638.413	55118.99
638.767	55050.06
639.121	55080.35
639.474	54956.51
639.828	54994.25
640.181	54993.79
640.534	55007.13
640.888	54945.43
641.241	54879.67
641.594	54869.5
641.947	54937.3
642.301	54930.97
642.654	54957.64
643.007	54904.08
643.36	54876.06
643.713	54861.59
644.066	54963.29
644.419	54766.68
644.771	54577.99
645.124	54351.33
645.477	54300.48
645.83	54144.78
646.182	54047.6
646.535	53859.36
646.888	54000.37
647.24	53886.25
647.593	54040.82
647.945	53976.65
648.298	53747.27
648.65	53769.87
649.002	53765.58
649.355	53923.77
649.707	53808.74
650.059	53996.08
650.411	54197.88
650.763	54323.76
651.115	54635.61
651.467	54531.66
651.819	54522.39
652.171	54425.67
652.523	54403.3
652.875	54434.71
653.227	54217.54
653.578	54470.64
653.93	54458.67
654.282	54261.61
654.633	54231.55
654.985	54242.63
655.337	54267.71
655.688	54269.07
656.039	54383.41
656.391	54127.6
656.742	54128.73
657.094	54240.14
657.445	54373.7
657.796	54149.07
658.147	54181.84
658.498	54217.54
658.849	54250.76
659.2	54203.08
659.551	54011.45
659.902	54196.75
660.253	54127.83
660.604	54112.91
660.955	54010.09
661.306	54086.25
661.656	54056.87
662.007	54007.83
662.358	54050.09
662.708	54053.25
663.059	53987.94
663.409	53877.89
663.76	54044.44
664.11	54067.72
664.461	54011
664.811	54010.77
665.161	54007.83
665.511	53858.46
665.862	53905.91
666.212	54011
666.562	54012.58
666.912	54088.06
667.262	53923.99
667.612	53943.65
667.962	53956.31
668.312	53888.96
668.662	53994.05
669.011	53832.24
669.361	53891.9
669.711	53754.5
670.06	53786.59
670.41	53679.93
670.76	53721.96
671.109	53824.56
671.459	53705.47
671.808	53651.23
672.157	53728.52
672.507	53512.03
672.856	53568.97
673.205	53511.12
673.554	53636.54
673.904	53464.34
674.253	53690.33
674.602	53512.7
674.951	53157.68
675.3	52942.1
675.649	53388.19
675.998	53414.85
676.346	53380.96
676.695	53413.95
677.044	53279.26
677.393	53360.39
677.741	53336.44
678.09	53175.08
678.438	53117.69
678.787	53223.45
679.135	53128.76
679.484	52967.41
679.832	53037.01
680.181	52875.43
680.529	52971.7
680.877	52781.87
681.225	52803.34
681.573	52989.55
681.922	52703.46
682.27	52719.5
682.618	52707.98
682.966	52540.75
683.314	52686.74
683.661	52439.74
684.009	52385.95
684.357	52204.26
684.705	52281.1
685.053	52264.15
685.4	52264.6
685.748	52084.72
686.095	52100.31
686.443	51862.58
686.79	51806.76
687.138	51897.6
687.485	51848.79
687.832	51627.78
688.18	51749.81
688.527	51604.73
688.874	51432.98
689.221	51526.54
689.568	51298.3
689.915	51163.16
690.262	51261.01
690.609	51111.86
690.956	51018.98
691.303	50962.94
691.65	50757.3
691.997	50713
692.344	50636.85
692.69	50586
693.037	50499.67
693.383	50295.84
693.73	50344.65
694.077	50224.88
694.423	50211.1
694.769	50114.6
695.116	49986.69
695.462	49947.15
695.808	49781.73
696.155	49760.49
696.501	49452.24
696.847	49577.89
697.193	49305.81
697.539	49489.31
697.885	49210.67
698.231	49051.13
698.577	49127.73
698.923	49115.76
699.269	48776.78
699.614	48664.47
699.96	48593.74
700.306	48561.42
700.651	48569.1
700.997	48275.1
701.342	48278.49
701.688	48182.67
702.033	48316.68
702.379	48179.06
702.724	47942.23
703.069	48034.88
703.415	47535.23
703.76	47628.79
704.105	47501.56
704.45	47598.28
704.795	47290.49
705.14	47087.11
705.485	46985.64
705.83	47005.08
706.175	47045.98
706.52	46842.14
706.865	46852.09
707.209	46742.71
707.554	46619.33
707.899	46621.81
708.243	46397.86
708.588	46442.15
708.932	46079.23
709.277	46029.51
709.621	46066.12
709.966	45822.96
710.31	45981.15
710.654	45636.07
710.998	45780.25
711.342	45747.71
711.687	45545.45
712.031	45444.89
712.375	45215.29
712.719	45318.57
713.063	45262.75
713.407	45334.16
713.75	45077.67
714.094	45146.6
714.438	44884.46
714.782	44886.94
715.125	44709.77
715.469	44730.79
715.812	44540.28
716.156	44404.24
716.499	44385.94
716.843	44366.28
717.186	44087.87
717.53	44307.07
717.873	44296.67
718.216	44117.47
718.559	43930.81
718.902	43829.57
719.246	43849.45
719.589	43802.68
719.932	43586.64
720.275	43637.26
720.617	43602.91
720.96	43512.97
721.303	43408.11
721.646	43437.94
721.989	43121.11
722.331	43131.51
722.674	43187.78
723.016	43143.26
723.359	43016.26
723.701	42977.39
724.044	42793.44
724.386	42664.17
724.729	42857.62
725.071	42631.41
725.413	42670.95
725.755	42539.21
726.097	42526.1
726.439	42278.42
726.782	42183.28
727.124	42539.66
727.465	42220.57
727.807	42154.58
728.149	42200.01
728.491	42107.81
728.833	42071.65
729.175	41997.98
729.516	41824.42
729.858	41813.12
730.199	41931.76
730.541	41789.62
730.882	41574.03
731.224	41821.49
731.565	41476.41
731.906	41572.68
732.248	41663.07
732.589	41418.78
732.93	41301.5
733.271	41296.75
733.612	41269.86
733.953	41302.63
734.294	41104.22
734.635	41015.86
734.976	41132.92
735.317	40880.04
735.658	40885.01
735.999	40830.78
736.339	40656.77
736.68	40838.69
737.021	40672.36
737.361	40533.61
737.702	40676.66
738.042	40543.55
738.383	40442.31
738.723	40476.21
739.063	40355.53
739.404	40548.52
739.744	40302.43
740.084	40117.58
740.424	40165.26
740.764	40100.85
741.104	40336.78
741.444	40061.98
741.784	39897.24
742.124	40013.85
742.464	39896.56
742.804	39824.48
743.143	39770.47
743.483	39681.43
743.823	39445.28
744.162	39547.19
744.502	39525.5
744.841	39489.79
745.181	39471.72
745.52	39400.98
745.86	39403.24
746.199	39332.51
746.538	39224.27
746.877	39277.6
747.216	39241.67
747.556	39008
747.895	39042.12
748.234	39015.91
748.573	38876.7
748.911	38828.12
749.25	38822.69
749.589	38709.7
749.928	38603.26
750.267	38718.06
750.605	38691.62
750.944	38572.08
751.283	38386.32
751.621	38453.21
751.96	38086.67
752.298	38089.15
752.636	38169.38
752.975	38139.32
753.313	37917.86
