Data from whiteboard_FLMS001491_00017.txt Node
Date: Wed Feb 08 11:25:29 GMT 2017
User: dcchb
Spectrometer: FLMS00149
Trigger mode: 0
Integration Time (sec): 2.000000E-2
Scans to average: 10
Electric dark correction enabled: true
Nonlinearity correction enabled: false
Boxcar width: 0
XAxis mode: Wavelengths
Number of Pixels in Spectrum: 2048
>>>>>Begin Spectral Data<<<<<
341.393	-13.84
341.776	-13.84
342.16	-13.84
342.543	-67.63
342.927	-80.28
343.31	-68.08
343.693	-79.6
344.077	-61.98
344.46	-42.99
344.843	-41.41
345.226	-39.6
345.61	-33.5
345.993	-28.76
346.376	-10.68
346.759	10.56
347.142	25.93
347.525	61.18
347.908	30
348.291	73.16
348.674	102.09
349.057	103.67
349.44	114.29
349.823	138.7
350.206	163.33
350.588	206.72
350.971	235.42
351.354	270.22
351.737	267.28
352.119	284.91
352.502	292.59
352.884	299.37
353.267	313.83
353.65	326.94
354.032	317.68
354.414	343.44
354.797	353.38
355.179	358.58
355.562	379.59
355.944	360.61
356.326	352.93
356.709	387.5
357.091	376.66
357.473	376.43
357.855	369.65
358.238	382.31
358.62	384.57
359.002	375.75
359.384	395.41
359.766	383.44
360.148	396.77
360.53	370.33
360.912	392.93
361.294	394.51
361.676	384.11
362.057	380.05
362.439	379.82
362.821	392.93
363.203	371.23
363.584	372.59
363.966	391.35
364.348	378.69
364.729	384.34
365.111	386.6
365.493	372.14
365.874	362.87
366.256	394.74
366.637	362.19
367.019	371.01
367.4	390.67
367.781	387.73
368.163	362.19
368.544	368.07
368.925	385.7
369.306	399.48
369.688	353.83
370.069	361.29
370.45	381.18
370.831	381.63
371.212	373.49
371.593	396.54
371.974	375.07
372.355	399.71
372.736	410.1
373.117	389.99
373.498	386.6
373.879	414.17
374.26	399.71
374.641	396.77
375.021	371.46
375.402	401.29
375.783	403.55
376.163	426.82
376.544	427.28
376.925	409.42
377.305	434.96
377.686	411.46
378.066	438.58
378.447	432.47
378.827	421.4
379.208	403.32
379.588	434.73
379.968	435.19
380.349	443.1
380.729	442.42
381.109	428.41
381.489	441.06
381.87	451.91
382.25	453.72
382.63	465.24
383.01	472.93
383.39	464.34
383.77	495.98
384.15	461.4
384.53	481.96
384.91	471.57
385.29	455.07
385.67	492.59
386.049	494.85
386.429	471.12
386.809	504.11
387.189	502.53
387.568	508.4
387.948	508.4
388.328	504.11
388.707	514.28
389.087	513.83
389.466	536.43
389.846	541.62
390.225	528.74
390.605	555.86
390.984	542.08
391.363	582.3
391.743	590.89
392.122	594.73
392.501	579.59
392.881	616.88
393.26	606.48
393.639	611
394.018	626.14
394.397	617.55
394.776	633.83
395.155	640.15
395.534	645.8
395.913	619.81
396.292	645.12
396.671	655.52
397.05	672.92
397.429	676.08
397.808	688.51
398.186	701.17
398.565	709.53
398.944	737.1
399.323	706.82
399.701	739.13
400.08	752.24
400.458	768.06
400.837	766.48
401.215	766.7
401.594	788.62
401.972	815.06
402.351	797.44
402.729	836.76
403.107	787.95
403.486	852.35
403.864	865.23
404.242	865.46
404.62	882.63
404.999	886.02
405.377	900.48
405.755	920.37
406.133	955.85
406.511	957.88
406.889	981.16
407.267	1005.79
407.645	995.85
408.023	1015.74
408.401	1057.32
408.779	1067.71
409.156	1054.61
409.534	1084.21
409.912	1130.54
410.29	1141.38
410.667	1145.68
411.045	1166.24
411.422	1205.79
411.8	1195.17
412.178	1243.3
412.555	1253.92
412.933	1282.17
413.31	1307.93
413.687	1337.54
414.065	1352.45
414.442	1356.52
414.819	1368.5
415.197	1375.05
415.574	1419.79
415.951	1445.78
416.328	1469.51
416.705	1467.48
417.082	1481.49
417.46	1491.43
417.837	1508.38
418.214	1544.31
418.591	1556.51
418.967	1563.29
419.344	1595.38
419.721	1615.49
420.098	1587.02
420.475	1666.57
420.852	1617.3
421.228	1691.88
421.605	1737.75
421.982	1707.02
422.358	1768.26
422.735	1786.79
423.111	1781.82
423.488	1835.38
423.864	1810.07
424.241	1850.74
424.617	1890.52
424.994	1880.8
425.37	1924.41
425.746	1940.01
426.123	1928.71
426.499	1968.25
426.875	2001.25
427.251	2081.92
427.627	2090.28
428.003	2127.12
428.379	2140.68
428.756	2153.79
429.132	2214.12
429.507	2259.77
429.883	2263.61
430.259	2331.86
430.635	2343.84
431.011	2363.5
431.387	2377.96
431.763	2422.25
432.138	2462.03
432.514	2468.81
432.89	2503.38
433.265	2576.82
433.641	2635.81
434.016	2636.94
434.392	2731.62
434.767	2745.18
435.143	2749.48
435.518	2745.63
435.894	2775.01
436.269	2843.03
436.644	2900.21
437.02	2917.15
437.395	2902.24
437.77	2979.07
438.145	3038.06
438.52	3070.82
438.895	3099.97
439.271	3102.23
439.646	3184.49
440.021	3169.8
440.395	3226.98
440.77	3186.3
441.145	3247.99
441.52	3328.22
441.895	3284.6
442.27	3302.23
442.645	3334.77
443.019	3406.41
443.394	3399.18
443.769	3453.41
444.143	3416.35
444.518	3520.3
444.892	3524.37
445.267	3530.92
445.641	3578.61
446.016	3593.75
446.39	3622.67
446.764	3639.17
447.139	3623.13
447.513	3720.07
447.887	3748.77
448.262	3752.84
448.636	3751.26
449.01	3835.77
449.384	3829.45
449.758	3862.44
450.132	3972.04
450.506	3993.96
450.88	4001.42
451.254	4011.36
451.628	4061.08
452.002	4071.93
452.376	4162.55
452.75	4201.87
453.123	4190.57
453.497	4277.12
453.871	4364.12
454.244	4462.43
454.618	4483.44
454.992	4518.69
455.365	4539.94
455.739	4651.8
456.112	4680.72
456.486	4719.82
456.859	4796.2
457.232	4879.14
457.606	4904.9
457.979	4931.34
458.352	5063.09
458.725	5105.8
459.099	5182.86
459.472	5251.33
459.845	5267.83
460.218	5373.81
460.591	5452.68
460.964	5433.7
461.337	5592.34
461.71	5656.07
462.083	5727.7
462.456	5762.28
462.829	5799.34
463.201	5901.71
463.574	5902.84
463.947	6051.99
464.32	6239.1
464.692	6240.23
465.065	6255.82
465.438	6397.97
465.81	6436.61
466.183	6531.3
466.555	6658.75
466.928	6673.44
467.3	6777.84
467.672	6865.07
468.045	6991.17
468.417	7122.24
468.789	7077.05
469.161	7211.51
469.534	7333.31
469.906	7456.92
470.278	7525.4
470.65	7642.23
471.022	7773.3
471.394	7890.81
471.766	8076.57
472.138	8157.92
472.51	8263.46
472.882	8411.7
473.253	8570.57
473.625	8653.5
473.997	8802.2
474.369	8906.6
474.74	9004.9
475.112	9130.1
475.484	9279.02
475.855	9454.38
476.227	9606.47
476.598	9861.38
476.97	9924.65
477.341	10194.25
477.713	10326.45
478.084	10397.64
478.455	10701.36
478.827	10797.17
479.198	11167.11
479.569	11114.45
479.94	11425.63
480.311	11559.87
480.682	11795.11
481.053	11973.19
481.424	12172.28
481.795	12422.67
482.166	12622.44
482.537	12714.41
482.908	12995.08
483.279	13130.22
483.65	13382.19
484.021	13595.29
484.391	13823.76
484.762	13977.66
485.133	14112.34
485.503	14290.42
485.874	14575.38
486.244	14712.55
486.615	15066.67
486.985	15267.11
487.356	15553.21
487.726	15646.99
488.097	16003.36
488.467	16046.08
488.837	16356.12
489.207	16485.61
489.578	16848.31
489.948	16970.57
490.318	17280.62
490.688	17323.1
491.058	17548.63
491.428	17804
491.798	17949.53
492.168	18330.31
492.538	18413.24
492.908	18698.89
493.278	18887.58
493.648	18928.49
494.017	19138.65
494.387	19319.66
494.757	19558.07
495.126	19748.8
495.496	19928.46
495.866	20050.94
496.235	20364.15
496.605	20526.64
496.974	20543.58
497.344	20784.48
497.713	20913.74
498.082	21147.18
498.452	21291.59
498.821	21406.61
499.19	21588.08
499.559	21753.5
499.928	21941.51
500.298	22013.15
500.667	22221.28
501.036	22250.21
501.405	22479.8
501.774	22464.44
502.143	22689.97
502.512	22797.08
502.88	23058.32
503.249	23052.9
503.618	23137.87
503.987	23348.26
504.356	23582.37
504.724	23693.11
505.093	23756.61
505.462	23965.42
505.83	24050.61
506.199	24388.68
506.567	24679.07
506.936	24569.92
507.304	24926.07
507.672	24980.53
508.041	25172.84
508.409	25476.11
508.777	25616.9
509.145	25841.07
509.514	25964.68
509.882	25994.74
510.25	26290.78
510.618	26424.11
510.986	26588.17
511.354	26642.86
511.722	26929.4
512.09	27315.61
512.458	27319.23
512.826	27568.26
513.193	27762.6
513.561	27826.78
513.929	28046.21
514.297	28408.01
514.664	28698.4
515.032	28672.64
515.4	28840.32
515.767	29017.03
516.135	29285.95
516.502	29121.44
516.869	29701.76
517.237	29784.7
517.604	29680.52
517.972	29995.54
518.339	30332.71
518.706	30388.97
519.073	30435.3
519.44	30739.02
519.808	31122.29
520.175	31074.15
520.542	31387.37
520.909	31570.86
521.276	31675.04
521.643	32085.43
522.009	32129.95
522.376	32552.76
522.743	32685.86
523.11	33011.96
523.477	33333.53
523.843	33448.56
524.21	33881.09
524.577	34141.87
524.943	34263
525.31	34351.36
525.676	34873.15
526.043	35156.08
526.409	35206.02
526.776	35644.88
527.142	35878.32
527.508	36006.23
527.874	36354.47
528.241	36632.43
528.607	36685.76
528.973	37107.89
529.339	37002.13
529.705	37353.31
530.071	37729.12
530.437	37856.12
530.803	38066.97
531.169	38231.93
531.535	38194.42
531.901	38389.22
532.267	38686.84
532.632	38784.69
532.998	38995.98
533.364	39153.94
533.73	39369.76
534.095	39456.53
534.461	39696.98
534.826	39976.52
535.192	40041.83
535.557	40490.86
535.923	40419.22
536.288	40625.54
536.653	40797.29
537.019	40625.77
537.384	40995.48
537.749	41043.84
538.114	41215.36
538.479	41313.89
538.845	41514.33
539.21	41465.75
539.575	41740.54
539.94	41922.46
540.305	42065.96
540.67	42129.91
541.034	42244.48
541.399	42474.98
541.764	42598.37
542.129	42712.04
542.494	42874.97
542.858	43093.27
543.223	42986.38
543.587	43283.1
543.952	43333.72
544.316	43370.78
544.681	43566.26
545.045	43791.33
545.41	43930.31
545.774	44036.98
546.138	44195.62
546.503	44333.92
546.867	44328.72
547.231	44716.06
547.595	44877.41
547.959	44926.22
548.324	44876.05
548.688	44865.88
549.052	45241.92
549.416	45322.14
549.779	45384.74
550.143	45666.31
550.507	45834.67
550.871	45855.01
551.235	46003.25
551.599	46282.57
551.962	46422.68
552.326	46468.1
552.689	46780.86
553.053	46600.98
553.417	46814.08
553.78	47315.99
554.143	47129.78
554.507	47263.79
554.87	47500.84
555.234	47779.25
555.597	47619.26
555.96	47794.84
556.323	47998.68
556.686	48128.62
557.05	48381.27
557.413	48458.78
557.776	48489.97
558.139	48931.54
558.502	48935.15
558.865	48878.43
559.228	49225.54
559.59	49316.61
559.953	49353.67
560.316	49771.97
560.679	49771.97
561.041	49977.16
561.404	50088.34
561.767	50416.7
562.129	50280.2
562.492	50569.46
562.854	50661.21
563.217	50697.37
563.579	50871.6
563.941	51117.92
564.304	51248.54
564.666	51314.75
565.028	51354.75
565.39	51558.36
565.753	51752.48
566.115	51782.31
566.477	52018.01
566.839	52091
567.201	52285.35
567.563	52297.78
567.925	52502.29
568.287	52617.32
568.648	52621.16
569.01	52820.02
569.372	53026.8
569.734	52916.29
570.095	53207.81
570.457	53368.71
570.819	53377.98
571.18	53279.45
571.542	53643.5
571.903	53590.62
572.265	53765.54
572.626	53845.53
572.987	53972.31
573.349	54053.89
573.71	54102.7
574.071	54225.41
574.432	54315.35
574.794	54515.57
575.155	54466.76
575.516	54542.69
575.877	54576.14
576.238	54676.25
576.599	54758.96
576.96	54746.07
577.32	54779.97
577.681	54969.8
578.042	54982
578.403	54986.75
578.763	54995.79
579.124	55089.34
579.485	55217.47
579.845	55191.03
580.206	55205.05
580.566	55172.73
580.927	55209.11
581.287	55346.74
581.648	55141.54
582.008	55325.04
582.368	55250.24
582.728	55249.34
583.089	55264.93
583.449	55243.69
583.809	55324.59
584.169	55347.41
584.529	55248.43
584.889	55451.59
585.249	55268.32
585.609	55247.98
585.969	55398.71
586.329	55239.4
586.688	55381.31
587.048	55348.32
587.408	55348.32
587.768	55407.3
588.127	55390.58
588.487	55336.34
588.846	55538.82
589.206	55343.35
589.565	55352.16
589.925	55511.03
590.284	55412.95
590.643	55547.64
591.003	55596.22
591.362	55742.43
591.721	55702.21
592.08	55651.59
592.44	55773.17
592.799	55766.61
593.158	55729.55
593.517	55736.78
593.876	55803.67
594.235	55800.96
594.593	55838.02
594.952	55942.2
595.311	55840.28
595.67	55881.19
596.029	56014.97
596.387	56075.53
596.746	56075.76
597.104	55921.86
597.463	56013.84
597.822	56066.94
598.18	55951.01
598.538	56011.8
598.897	56156.89
599.255	55870.56
599.613	56248.41
599.972	56072.82
600.33	56111.01
600.688	56004.12
601.046	56078.69
601.404	56193.95
601.762	56162.53
602.12	56220.39
602.478	56155.3
602.836	56132.48
603.194	55918.93
603.552	56041.63
603.91	55986.27
604.268	56085.02
604.625	56000.05
604.983	56053.61
605.341	55943.11
605.698	56154.17
606.056	56122.99
606.413	56105.81
606.771	56202.76
607.128	56262.42
607.485	56142.42
607.843	56232.14
608.2	56336.99
608.557	56396.88
608.914	56303.1
609.272	56435.75
609.629	56393.71
609.986	56551.45
610.343	56472.36
610.7	56599.36
611.057	56648.4
611.414	56600.72
611.771	56631
612.127	56737.21
612.484	56789.86
612.841	56784.44
613.198	56769.98
613.554	56797.09
613.911	56969.97
614.267	57024.88
614.624	56975.85
614.98	57006.58
615.337	57138.78
615.693	57085.9
616.05	57110.76
616.406	57237.76
616.762	57210.64
617.118	57141.27
617.475	57249.06
617.831	57317.08
618.187	57310.98
618.543	57323.63
618.899	57395.72
619.255	57409.06
619.611	57421.71
619.967	57454.03
620.323	57477.53
620.678	57428.72
621.034	57368.15
621.39	57331.77
621.746	57359.11
622.101	57552.33
622.457	57369.96
622.812	57415.38
623.168	57444.76
623.523	57424.65
623.879	57401.15
624.234	57301.49
624.589	57324.99
624.945	57381.26
625.3	57336.74
625.655	57291.32
626.01	57320.24
626.365	57320.92
626.72	57339
627.075	57343.52
627.43	57254.48
627.785	57150.53
628.14	57204.99
628.495	57296.74
628.85	57160.47
629.205	57143.98
629.559	57205.67
629.914	57104.2
630.269	57079.35
630.623	56973.13
630.978	56949.41
631.332	57079.12
631.687	57110.98
632.041	56978.33
632.396	57028.27
632.75	56885.23
633.104	56990.08
633.459	56861.5
633.813	56863.08
634.167	56898.79
634.521	56917.99
634.875	56983.53
635.229	56779.47
635.583	56746.47
635.937	56835.74
636.291	56711.9
636.645	56721.16
636.999	56672.8
637.352	56749.41
637.706	56621.05
638.06	56717.55
638.413	56653.14
638.767	56581.73
639.121	56616.99
639.474	56523.2
639.828	56464.45
640.181	56493.6
640.534	56523.88
640.888	56477.1
641.241	56312.59
641.594	56368.18
641.947	56466.26
642.301	56398.46
642.654	56411.34
643.007	56340.16
643.36	56297.9
643.713	56292.7
644.066	56349.42
644.419	56110.56
644.771	55948.53
645.124	55705.15
645.477	55606.84
645.83	55534.75
646.182	55447.98
646.535	55396.9
646.888	55343.35
647.24	55202.33
647.593	55364.59
647.945	55230.58
648.298	55080.3
648.65	55020.87
649.002	54995.33
649.355	55108.78
649.707	55015.9
650.059	55112.62
650.411	55464.93
650.763	55475.55
651.115	55651.59
651.467	55580.18
651.819	55637.58
652.171	55544.02
652.523	55458.15
652.875	55442.78
653.227	55313.52
653.578	55529.1
653.93	55411.37
654.282	55301.77
654.633	55252.95
654.985	55307.64
655.337	55266.06
655.688	55254.76
656.039	55418.6
656.391	55183.8
656.742	55158.49
657.094	55163.69
657.445	55274.42
657.796	55130.92
658.147	55062.9
658.498	54975.67
658.849	55055.9
659.2	55040.3
659.551	54932.51
659.902	55050.7
660.253	55075.11
660.604	55109.45
660.955	54905.62
661.306	55040.76
661.656	54814.1
662.007	54851.83
662.358	54895.68
662.708	54879.18
663.059	54785.85
663.409	54621.33
663.76	54825.85
664.11	54859.52
664.461	54896.13
664.811	54897.48
665.161	54769.8
665.511	54741.1
665.862	54850.93
666.212	54872.17
666.562	54881.66
666.912	54807.09
667.262	54713.31
667.612	54711.05
667.962	54753.31
668.312	54655
668.662	54826.52
669.011	54743.36
669.361	54602.12
669.711	54633.54
670.06	54639.41
670.41	54602.8
670.76	54508.34
671.109	54609.13
671.459	54569.81
671.808	54472.64
672.157	54558.96
672.507	54378.85
672.856	54378.85
673.205	54455.46
673.554	54535.46
673.904	54564.16
674.253	54570.26
674.602	54449.59
674.951	53958.07
675.3	53828.81
675.649	54347.44
675.998	54279.19
676.346	54382.47
676.695	54414.33
677.044	54188.35
677.393	54265.64
677.741	54251.62
678.09	54137.05
678.438	54121.91
678.787	54061.8
679.135	54056.38
679.484	53846.66
679.832	53918.98
680.181	53752.88
680.529	53802.14
680.877	53721.47
681.225	53721.24
681.573	53841.69
681.922	53624.75
682.27	53607.57
682.618	53510.85
682.966	53405.77
683.314	53490.97
683.661	53369.61
684.009	53287.58
684.357	53125.33
684.705	53132.11
685.053	53125.55
685.4	53068.38
685.748	52904.54
686.095	52896.63
686.443	52739.8
686.79	52787.93
687.138	52649.41
687.485	52676.07
687.832	52530.77
688.18	52549.75
688.527	52263.43
688.874	52287.38
689.221	52204.45
689.568	52186.14
689.915	52020.5
690.262	52072.7
690.609	51881.74
690.956	51867.51
691.303	51826.15
691.65	51618.7
691.997	51637.91
692.344	51426.16
692.69	51398.14
693.037	51346.39
693.383	51100.29
693.73	51174.87
694.077	51039.96
694.423	51039.51
694.769	50899.4
695.116	50922.9
695.462	50904.82
695.808	50750.02
696.155	50725.39
696.501	50511.38
696.847	50631.83
697.193	50224.61
697.539	50511.84
697.885	50171.51
698.231	50051.28
698.577	50187.32
698.923	50043.15
699.269	49788.46
699.614	49784.4
699.96	49739.2
700.306	49796.6
700.651	49557.06
700.997	49461.24
701.342	49433.67
701.688	49488.81
702.033	49287.01
702.379	49059.22
702.724	49104.19
703.069	49213.11
703.415	48785.78
703.76	48901.71
704.105	48905.55
704.45	48726.12
704.795	48436.64
705.14	48322.74
705.485	48341.5
705.83	48179.24
706.175	48261.27
706.52	48153.25
706.865	48050.88
707.209	47953.26
707.554	47849.76
707.899	47847.27
708.243	47600.95
708.588	47633.49
708.932	47432.37
709.277	47366.83
709.621	47408.64
709.966	47047.52
710.31	47332.03
710.654	46912.38
710.998	47130.46
711.342	46943.34
711.687	46724.82
712.031	46527.08
712.375	46533.86
712.719	46499.29
713.063	46421.77
713.407	46491.15
713.75	46215.68
714.094	46196.92
714.438	45985.63
714.782	45984.95
715.125	45765.29
715.469	45753.54
715.812	45485.08
716.156	45346.32
716.499	45398.07
716.843	45272.43
717.186	45119.89
717.53	45323.27
717.873	45217.29
718.216	44885.09
718.559	44815.26
718.902	44403.75
719.246	44745.89
719.589	44500.02
719.932	44320.13
720.275	44273.58
720.617	44141.16
720.96	44089.41
721.303	44074.49
721.646	44167.6
721.989	43740.94
722.331	44064.1
722.674	43672.92
723.016	43593.15
723.359	43700.94
723.701	43578.91
724.044	43440.38
724.386	43176.89
724.729	43406.71
725.071	43321.52
725.413	43265.25
725.755	43068.42
726.097	42971.02
726.439	42738.71
726.782	42669.1
727.124	42817.12
727.465	42776.22
727.807	42622.1
728.149	42457.13
728.491	42314.99
728.833	42440.64
729.175	42159.96
729.516	42200.42
729.858	42142.11
730.199	42217.36
730.541	42006.07
730.882	41871.61
731.224	42101.44
731.565	41690.15
731.906	41721.56
732.248	41795.45
732.589	41670.71
732.93	41485.63
733.271	41664.61
733.612	41671.39
733.953	41627.78
734.294	41408.8
734.635	41340.55
734.976	41490.83
735.317	41268.01
735.658	41166.54
735.999	41092.87
736.339	41013.78
736.68	41147.56
737.021	41065.76
737.361	40980.33
737.702	41101.24
738.042	40833.22
738.383	40747.57
738.723	40964.52
739.063	40731.08
739.404	40784.86
739.744	40570.63
740.084	40657.86
740.424	40654.24
740.764	40460.12
741.104	40524.3
741.444	40302.84
741.784	40196.4
742.124	40343.29
742.464	40317.08
742.804	40171.77
743.143	40181.03
743.483	40143.75
743.823	39878.44
744.162	39823.53
744.502	39853.81
744.841	39798.67
745.181	39876.18
745.52	39603.65
745.86	39685.23
746.199	39360.04
746.538	39441.62
746.877	39584.67
747.216	39364.11
747.556	39386.03
747.895	39373.82
748.234	39121.85
748.573	39144
748.911	38984.46
749.25	39040.95
749.589	38695.2
749.928	38826.72
750.267	38816.78
750.605	38634.41
750.944	38694.29
751.283	38510.12
751.621	38478.48
751.96	38316.45
752.298	38339.5
752.636	38223.35
752.975	38015.89
