Data from whiteboard_FLMS001491_00015.txt Node
Date: Wed Feb 08 11:25:28 GMT 2017
User: dcchb
Spectrometer: FLMS00149
Trigger mode: 0
Integration Time (sec): 2.000000E-2
Scans to average: 10
Electric dark correction enabled: true
Nonlinearity correction enabled: false
Boxcar width: 0
XAxis mode: Wavelengths
Number of Pixels in Spectrum: 2048
>>>>>Begin Spectral Data<<<<<
341.393	-23.47
341.776	-23.47
342.16	-23.47
342.543	-60.76
342.927	-63.25
343.31	-75.45
343.693	-72.96
344.077	-67.54
344.46	-54.21
344.843	-61.89
345.226	-53.3
345.61	-32.51
345.993	-44.04
346.376	-3.14
346.759	21.27
347.142	48.84
347.525	42.51
347.908	66.69
348.291	87.03
348.674	88.16
349.057	110.53
349.44	130.42
349.823	137.2
350.206	157.09
350.588	214.71
350.971	237.76
351.354	254.71
351.737	263.98
352.119	298.1
352.502	284.31
352.884	304.88
353.267	301.49
353.65	323.64
354.032	324.77
354.414	339.91
354.797	334.71
355.179	340.13
355.562	363.41
355.944	353.69
356.326	365.67
356.709	372.45
357.091	369.51
357.473	372.67
357.855	378.55
358.238	384.2
358.62	380.81
359.002	377.87
359.384	367.48
359.766	395.27
360.148	372.22
360.53	379.68
360.912	400.92
361.294	369.28
361.676	389.17
362.057	380.81
362.439	387.59
362.821	407.48
363.203	363.86
363.584	375.84
363.966	371.77
364.348	363.18
364.729	362.5
365.111	369.96
365.493	380.81
365.874	382.84
366.256	381.94
366.637	385.55
367.019	371.77
367.4	381.49
367.781	387.59
368.163	343.3
368.544	379.23
368.925	368.61
369.306	382.84
369.688	362.96
370.069	380.81
370.45	382.39
370.831	376.52
371.212	369.28
371.593	383.3
371.974	383.52
372.355	376.29
372.736	389.62
373.117	393.69
373.498	381.71
373.879	380.36
374.26	394.82
374.641	389.62
375.021	366.57
375.402	407.7
375.783	415.61
376.163	414.48
376.544	414.71
376.925	394.82
377.305	411.99
377.686	425.78
378.066	412.45
378.447	434.14
378.827	410.19
379.208	444.99
379.588	428.04
379.968	427.81
380.349	435.27
380.729	441.15
381.109	444.54
381.489	439.34
381.87	437.3
382.25	466
382.63	439.79
383.01	446.12
383.39	450.64
383.77	449.73
384.15	472.78
384.53	467.13
384.91	464.65
385.29	480.24
385.67	486.34
386.049	500.35
386.429	492.44
386.809	492.44
387.189	513.91
387.568	517.3
387.948	489.51
388.328	524.08
388.707	523.86
389.087	540.35
389.466	541.26
389.846	563.4
390.225	550.07
390.605	535.16
390.984	542.16
391.363	553.23
391.743	585.55
392.122	557.08
392.501	587.81
392.881	602.95
393.26	607.24
393.639	604.31
394.018	637.75
394.397	616.74
394.776	627.58
395.155	637.3
395.534	622.61
395.913	617.19
396.292	664.87
396.671	671.65
397.05	679.33
397.429	680.69
397.808	697.64
398.186	691.99
398.565	674.81
398.944	694.25
399.323	689.95
399.701	715.72
400.08	732.21
400.458	738.77
400.837	757.97
401.215	780.12
401.594	763.17
401.972	759.78
402.351	797.97
402.729	796.17
403.107	827.13
403.486	844.07
403.864	874.81
404.242	840.91
404.62	918.2
404.999	898.54
405.377	895.82
405.755	928.59
406.133	930.17
406.511	949.38
406.889	992.77
407.267	989.38
407.645	999.78
408.023	1004.75
408.401	1016.72
408.779	1054.69
409.156	1069.83
409.534	1078.19
409.912	1104.86
410.29	1127.91
410.667	1141.24
411.045	1189.38
411.422	1177.62
411.8	1203.84
412.178	1217.85
412.555	1240.67
412.933	1256.27
413.31	1306.21
413.687	1313.44
414.065	1362.03
414.442	1371.52
414.819	1396.6
415.197	1393.21
415.574	1418.97
415.951	1414.23
416.328	1459.88
416.705	1474.79
417.082	1468.46
417.46	1510.27
417.837	1550.95
418.214	1550.04
418.591	1588.69
418.967	1619.42
419.344	1611.51
419.721	1617.84
420.098	1639.76
420.475	1675.24
420.852	1675.92
421.228	1689.25
421.605	1704.84
421.982	1765.63
422.358	1758.85
422.735	1771.73
423.111	1770.15
423.488	1810.83
423.864	1839.3
424.241	1855.57
424.617	1894.22
424.994	1901.9
425.37	1922.01
425.746	1954.78
426.123	1984.16
426.499	1977.83
426.875	2045.17
427.251	2044.72
427.627	2110.48
428.003	2120.65
428.379	2165.62
428.756	2161.55
429.132	2203.81
429.507	2202
429.883	2259.86
430.259	2296.92
430.635	2316.13
431.011	2343.7
431.387	2407.42
431.763	2425.95
432.138	2490.36
432.514	2496.46
432.89	2512.05
433.265	2587.98
433.641	2609.45
434.016	2637.47
434.392	2665.49
434.767	2734.42
435.143	2745.49
435.518	2761.31
435.894	2787.3
436.269	2869.78
436.644	2890.35
437.02	2944.36
437.395	2937.58
437.77	2946.39
438.145	3038.14
438.52	3019.38
438.895	3096.44
439.271	3132.15
439.646	3128.99
440.021	3204.24
440.395	3227.97
440.77	3156.78
441.145	3225.25
441.52	3255.31
441.895	3263.45
442.27	3306.61
442.645	3337.79
443.019	3393.84
443.394	3395.87
443.769	3448.75
444.143	3437.9
444.518	3493.95
444.892	3490.56
445.267	3524.91
445.641	3540.95
446.016	3588.41
446.39	3613.04
446.764	3653.04
447.139	3640.38
447.513	3719.93
447.887	3706.6
448.262	3769.42
448.636	3754.73
449.01	3840.83
449.384	3864.79
449.758	3911.34
450.132	3933.71
450.506	3966.7
450.88	4034.72
451.254	3991.79
451.628	4059.13
452.002	4116.53
452.376	4182.07
452.75	4179.58
453.123	4253.93
453.497	4286.47
453.871	4323.3
454.244	4430.65
454.618	4446.24
454.992	4514.49
455.365	4522.17
455.739	4631.32
456.112	4653.01
456.486	4742.05
456.859	4781.6
457.232	4862.5
457.606	4883.74
457.979	4934.14
458.352	5051.65
458.725	5138.88
459.099	5132.77
459.472	5237.86
459.845	5350.85
460.218	5406.21
460.591	5416.16
460.964	5434.46
461.337	5557.17
461.71	5636.72
462.083	5790.84
462.456	5775.92
462.829	5788.8
463.201	5915.13
463.574	5917.61
463.947	6008.91
464.32	6162.13
464.692	6250.71
465.065	6282.8
465.438	6350.6
465.81	6456.36
466.183	6523.25
466.555	6689.57
466.928	6739.29
467.3	6669.23
467.672	6842.56
468.045	7037.36
468.417	6999.39
468.789	7107.64
469.161	7191.03
469.534	7330.68
469.906	7470.79
470.278	7545.59
470.65	7655.19
471.022	7845.7
471.394	7979.25
471.766	8002.98
472.138	8104
472.51	8297.66
472.882	8443.42
473.253	8515.74
473.625	8652.68
473.997	8869.17
474.369	8930.64
474.74	8936.06
475.112	9142.16
475.484	9254.7
475.855	9445.66
476.227	9573.56
476.598	9808.13
476.97	9951.41
477.341	10193.43
477.713	10298.74
478.084	10400.66
478.455	10690.37
478.827	10746.64
479.198	11089.91
479.569	11010.81
479.94	11417.13
480.311	11467.3
480.682	11800.85
481.053	12063.44
481.424	12259.37
481.795	12389.76
482.166	12579.81
482.537	12756.08
482.908	13061.15
483.279	13116.75
483.65	13384.31
484.021	13604.19
484.391	13807.12
484.762	13909.72
485.133	14100.67
485.503	14320.56
485.874	14624.73
486.244	14755.12
486.615	15064.04
486.985	15189.91
487.356	15511.26
487.726	15613.4
488.097	15969.78
488.467	16025.6
488.837	16324.8
489.207	16574.28
489.578	16940.15
489.948	16958.45
490.318	17181.5
490.688	17271.66
491.058	17604.99
491.428	17793.68
491.798	17917.07
492.168	18337.63
492.538	18344.86
492.908	18602.03
493.278	18780.55
493.648	18868.91
494.017	19253.08
494.387	19333.53
494.757	19594.77
495.126	19824.59
495.496	19902.56
495.866	20051.48
496.235	20263.45
496.605	20407.85
496.974	20529.88
497.344	20803.55
497.713	20986.14
498.082	21121.51
498.452	21269.53
498.821	21423.19
499.19	21528.95
499.559	21671.32
499.928	21875.84
500.298	22054.82
500.667	22283.74
501.036	22136.85
501.405	22441.25
501.774	22599.21
502.143	22657.51
502.512	22831.97
502.88	23007.56
503.249	23109.03
503.618	23280.55
503.987	23394.22
504.356	23491.61
504.724	23673.76
505.093	23724.15
505.462	23779.97
505.83	24083.01
506.199	24320.52
506.567	24563.22
506.936	24601.64
507.304	24824.23
507.672	24985.36
508.041	25141.97
508.409	25438.91
508.777	25597.77
509.145	25864.21
509.514	25934.49
509.882	26127.93
510.25	26296.96
510.618	26359.11
510.986	26519.1
511.354	26767.01
511.722	27126.09
512.09	27219.2
512.458	27258.07
512.826	27545.74
513.193	27740.54
513.561	27801.11
513.929	28063.02
514.297	28344.59
514.664	28671.59
515.032	28715.21
515.4	29012.6
515.767	28976.22
516.135	29206.04
516.502	29086.04
516.869	29597.22
517.237	29837.21
517.604	29728.51
517.972	30153.59
518.339	30321.49
518.706	30318.33
519.073	30535.27
519.44	30683.74
519.808	31096.39
520.175	31085.09
520.542	31441.91
520.909	31607.33
521.276	31602.36
521.643	32048.45
522.009	32267.65
522.376	32407.31
522.743	32680.52
523.11	32934.98
523.477	33238.7
523.843	33371.13
524.21	33892.7
524.577	34193.93
524.943	34223.08
525.31	34564.54
525.676	35040.01
526.043	35202.04
526.409	35212.21
526.776	35536.04
527.142	35783.49
527.508	35967.9
527.874	36290.6
528.241	36525.17
528.607	36582.12
528.973	36934.65
529.339	37128.54
529.705	37242.21
530.071	37719.04
530.437	37820.73
530.803	37851.24
531.169	38300.49
531.535	38323.09
531.901	38212.13
532.267	38564.21
532.632	38828.39
532.998	38882.4
533.364	39211.2
533.73	39248.94
534.095	39592.43
534.461	39647.57
534.826	39939.77
535.192	40000.33
535.557	40361.68
535.923	40381.79
536.288	40564.16
536.653	40745.4
537.019	40656.36
537.384	40931.61
537.749	41040.76
538.114	41286.63
538.479	41234.65
538.845	41576.34
539.21	41492.72
539.575	41760.74
539.94	41827.18
540.305	42078.02
540.67	42059.26
541.034	42191.24
541.399	42492.92
541.764	42543.54
542.129	42800.03
542.494	42978.79
542.858	43132.91
543.223	43207.48
543.587	43299
543.952	43388.04
544.316	43450.19
544.681	43475.27
545.045	43760.23
545.41	43985.09
545.774	44074.35
546.138	44327.45
546.503	44269.15
546.867	44362.93
547.231	44662.58
547.595	44813.09
547.959	44896.7
548.324	44996.59
548.688	45190.7
549.052	45248.1
549.416	45371.26
549.779	45348.44
550.143	45461.66
550.507	45848.09
550.871	45877.92
551.235	45894.87
551.599	46348.64
551.962	46413.27
552.326	46469.99
552.689	46705.47
553.053	46589.54
553.417	46780.27
553.78	47294.15
554.143	47196.75
554.507	47286.47
554.87	47496.18
555.234	47919.22
555.597	47745.21
555.96	47861.14
556.323	48053.23
556.686	47946.79
557.05	48476.95
557.413	48420.68
557.776	48511.52
558.139	48836.26
558.502	48909.7
558.865	48942.92
559.228	49199.64
559.59	49263.82
559.953	49369.58
560.316	49773.18
560.679	49734.31
561.041	50021.99
561.404	50142.44
561.767	50333.17
562.129	50277.58
562.492	50622.2
562.854	50587.85
563.217	50663.1
563.579	50861.74
563.941	51097.89
564.304	51260.6
564.666	51314.16
565.028	51462.18
565.39	51505.34
565.753	51729.29
566.115	51778.78
566.477	51927.02
566.839	52058.32
567.201	52311.2
567.563	52288.37
567.925	52434.13
568.287	52535.82
568.648	52697.63
569.01	52827.57
569.372	52983.27
569.734	52934.91
570.095	53169.25
570.457	53311.62
570.819	53359.08
571.18	53381.9
571.542	53604.27
571.903	53588.68
572.265	53755.22
572.626	53898.95
572.987	53912.51
573.349	54049.68
573.71	54175.78
574.071	54237.7
574.432	54377.58
574.794	54530.8
575.155	54499.61
575.516	54385.94
575.877	54588.42
576.238	54647.86
576.599	54749.78
576.96	54747.06
577.32	54881.52
577.681	54972.82
578.042	54980.05
578.403	54979.37
578.763	54970.79
579.124	55096.43
579.485	55137.56
579.845	55212.36
580.206	55162.19
580.566	55154.06
580.927	55276.31
581.287	55335.52
581.648	55240.61
582.008	55389.76
582.368	55302.53
582.728	55306.6
583.089	55282.64
583.449	55213.04
583.809	55301.17
584.169	55299.59
584.529	55250.78
584.889	55449.64
585.249	55319.48
585.609	55291.68
585.969	55405.13
586.329	55336.88
586.688	55415.07
587.048	55339.59
587.408	55379.14
587.768	55374.39
588.127	55361.74
588.487	55330.55
588.846	55539.36
589.206	55305.69
589.565	55477.89
589.925	55482.64
590.284	55439.25
590.643	55523.31
591.003	55572.13
591.362	55711.78
591.721	55643.54
592.08	55641.96
592.44	55676.3
592.799	55720.15
593.158	55735.74
593.517	55726.47
593.876	55838.56
594.235	55780.71
594.593	55798.56
594.952	55911.1
595.311	55820.03
595.67	55961.27
596.029	56098.21
596.387	56069.06
596.746	56095.95
597.104	55963.53
597.463	56001.04
597.822	56129.17
598.18	55985
598.538	56004.43
598.897	56131.21
599.255	55831.55
599.613	56242.84
599.972	56060.48
600.33	56095.73
600.688	56029.74
601.046	56082.62
601.404	56218.44
601.762	56104.09
602.12	56198.32
602.478	56233.58
602.836	56097.08
603.194	55919.69
603.552	56087.37
603.91	55999.69
604.268	56083.75
604.625	56067.48
604.983	56076.52
605.341	56051.44
605.698	56153.58
606.056	56171.21
606.413	56083.07
606.771	56210.98
607.128	56239.45
607.485	56108.84
607.843	56156.29
608.2	56278.32
608.557	56410.75
608.914	56336.85
609.272	56449.62
609.629	56444.19
609.986	56540.69
610.343	56437.41
610.7	56614.58
611.057	56580.24
611.414	56627.69
611.771	56642.61
612.127	56705.2
612.484	56807.35
612.841	56794.24
613.198	56702.27
613.554	56780.91
613.911	56992.88
614.267	56959.66
614.624	56986.78
614.98	57064.97
615.337	57149.03
615.693	57124.63
616.05	57079.43
616.406	57281.91
616.762	57155.14
617.118	57211.41
617.475	57253.89
617.831	57314
618.187	57346.54
618.543	57348.8
618.899	57449.82
619.255	57378.63
619.611	57393.1
619.967	57489.14
620.323	57520.78
620.678	57382.47
621.034	57375.69
621.39	57339.09
621.746	57299.76
622.101	57657.72
622.457	57326.43
622.812	57347.22
623.168	57436.94
623.523	57449.59
623.879	57474.9
624.234	57214.12
624.589	57344.06
624.945	57337.5
625.3	57363.27
625.655	57330.5
626.01	57362.36
626.365	57265.64
626.72	57282.59
627.075	57302.25
627.43	57266.09
627.785	57199.65
628.14	57250.5
628.495	57240.11
628.85	57206.43
629.205	57030.62
629.559	57253.44
629.914	57038.75
630.269	57054.57
630.623	57008.02
630.978	57021.35
631.332	57117.17
631.687	57099.54
632.041	57023.39
632.396	57083.73
632.75	57003.95
633.104	56936.61
633.459	56843.05
633.813	56891.87
634.167	56885.99
634.521	56890.51
634.875	56947.91
635.229	56865.2
635.583	56668.37
635.937	56696.39
636.291	56709.05
636.645	56742.72
636.999	56671.53
637.352	56791.3
637.706	56576.85
638.06	56708.37
638.413	56630.63
638.767	56650.74
639.121	56709.95
639.474	56488.94
639.828	56518.77
640.181	56592.66
640.534	56570.74
640.888	56418.21
641.241	56350.64
641.594	56427.25
641.947	56502.72
642.301	56326.46
642.654	56379.34
643.007	56353.57
643.36	56313.12
643.713	56255.72
644.066	56308.6
644.419	56137.31
644.771	56011.89
645.124	55674.72
645.477	55698.68
645.83	55547.95
646.182	55445.35
646.535	55313.83
646.888	55319.7
647.24	55152.93
647.593	55368.29
647.945	55287.61
648.298	55102.99
648.65	55043.1
649.002	55006.94
649.355	55088.3
649.707	55129.65
650.059	55158.35
650.411	55480.38
650.763	55490.77
651.115	55691.22
651.467	55658.23
651.819	55590.88
652.171	55468.63
652.523	55433.6
652.875	55434.05
653.227	55386.14
653.578	55471.56
653.93	55439.02
654.282	55279.93
654.633	55260.27
654.985	55255.3
655.337	55329.65
655.688	55336.65
656.039	55381.62
656.391	55133.04
656.742	55178.92
657.094	55174.17
657.445	55241.06
657.796	55191.57
658.147	55175.53
658.498	55077.68
658.849	55116.55
659.2	55029.99
659.551	55003.33
659.902	55068.86
660.253	54965.14
660.604	54988.19
660.955	54934.18
661.306	54966.94
661.656	54866.61
662.007	54898.25
662.358	54847.4
662.708	54815.76
663.059	54771.24
663.409	54670.91
663.76	54943.22
664.11	54787.06
664.461	54891.01
664.811	54829.55
665.161	54869.77
665.511	54784.35
665.862	54813.28
666.212	54911.13
666.562	54855.76
666.912	54792.03
667.262	54776.44
667.612	54727.63
667.962	54703.67
668.312	54659.38
668.662	54845.37
669.011	54742.77
669.361	54668.65
669.711	54714.52
670.06	54653.05
670.41	54570.8
670.76	54482.44
671.109	54670.23
671.459	54579.61
671.808	54580.97
672.157	54571.02
672.507	54382.78
672.856	54422.78
673.205	54485.15
673.554	54524.02
673.904	54423.46
674.253	54662.77
674.602	54525.37
674.951	54016.01
675.3	53860.31
675.649	54404.47
675.998	54383.91
676.346	54301.43
676.695	54377.81
677.044	54126.51
677.393	54197.93
677.741	54277.47
678.09	54231.82
678.438	54119.28
678.787	54133.97
679.135	54046.52
679.484	53807.65
679.832	53925.84
680.181	53654.21
680.529	53803.13
680.877	53761.55
681.225	53712.97
681.573	53816.92
681.922	53557.72
682.27	53484.05
682.618	53529.47
682.966	53466.65
683.314	53424.61
683.661	53376.93
684.009	53167.22
684.357	53070.95
684.705	53148.46
685.053	53034.34
685.4	52995.92
685.748	52938.07
686.095	52811.97
686.443	52659.43
686.79	52668.7
687.138	52654.46
687.485	52673.45
687.832	52560.68
688.18	52530.85
688.527	52294.7
688.874	52238.43
689.221	52275.26
689.568	52176.51
689.915	52004.54
690.262	52141.71
690.609	51950.75
690.956	51757.76
691.303	51789.4
691.65	51674.6
691.997	51656.98
692.344	51380.82
692.69	51372.01
693.037	51361.62
693.383	51175.18
693.73	51171.34
694.077	51049.53
694.423	51014.96
694.769	50790.11
695.116	50759.15
695.462	50862.19
695.808	50682.54
696.155	50795.75
696.501	50507.4
696.847	50494.07
697.193	50278.03
697.539	50559.6
697.885	50164.58
698.231	49982.89
698.577	50223.57
698.923	50043.01
699.269	49935.66
699.614	49773.41
699.96	49697.03
700.306	49606.41
700.651	49574.32
700.997	49394.21
701.342	49462.91
701.688	49411.61
702.033	49330.71
702.379	49334.78
702.724	49090.71
703.069	49246.42
703.415	48684.17
703.76	48784.06
704.105	48801.23
704.45	48619.09
704.795	48457.96
705.14	48434.46
705.485	48360.11
705.83	48112.44
706.175	48196.73
706.52	48074.47
706.865	48009.16
707.209	48056.84
707.554	47846
707.899	47982.5
708.243	47711.32
708.588	47634.71
708.932	47344.77
709.277	47396.52
709.621	47395.84
709.966	47136.87
710.31	47138
710.654	46971
710.998	47055.51
711.342	46936.2
711.687	46807.16
712.031	46699.14
712.375	46410.56
712.719	46437.23
713.063	46427.96
713.407	46419.6
713.75	46237.68
714.094	46102.09
714.438	45861.42
714.782	46015.54
715.125	45642.22
715.469	45808.32
715.812	45589.34
716.156	45305.96
716.499	45242.91
716.843	45388.21
717.186	45084.49
717.53	45288.55
717.873	45176.02
718.216	45112.74
718.559	44781
718.902	44659.64
719.246	44668.68
719.589	44502.81
719.932	44328.13
720.275	44215.36
720.617	44276.15
720.96	44081.81
721.303	44030.06
721.646	44108.47
721.989	43881.13
722.331	44002.94
722.674	43864.64
723.016	43782.38
723.359	43608.15
723.701	43746
724.044	43327.02
724.386	43165.67
724.729	43375.38
725.071	43155.73
725.413	43183.98
725.755	43096.3
726.097	42996.64
726.439	42736.08
726.782	42874.83
727.124	42914.15
727.465	42570.66
727.807	42729.07
728.149	42531.34
728.491	42390.55
728.833	42195.3
729.175	42289.76
729.516	42212.48
729.858	42045.7
730.199	42207.28
730.541	42040.5
730.882	41972.26
731.224	42032.82
731.565	41712.83
731.906	41721.19
732.248	41894.75
732.589	41577.47
732.93	41564.13
733.271	41612.95
733.612	41745.6
733.953	41605.49
734.294	41431.03
734.635	41253.63
734.976	41389.45
735.317	41291.15
735.658	41161.66
735.999	41167.76
736.339	40995.33
736.68	41221.54
737.021	41115.56
737.361	40878.73
737.702	41151.49
738.042	40896.58
738.383	40740.2
738.723	40924.38
739.063	40723.7
739.404	40890.7
739.744	40676.47
740.084	40635.8
740.424	40637.6
740.764	40402.58
741.104	40634.21
741.444	40268.35
741.784	40230.83
742.124	40325.75
742.464	40245.07
742.804	40158.97
743.143	40253.89
743.483	40189.25
743.823	39956.49
744.162	39727.8
744.502	39885.99
744.841	39752.88
745.181	39912.88
745.52	39729.15
745.86	39754.92
746.199	39553.34
746.538	39389.73
746.877	39575.71
747.216	39434.47
747.556	39374.36
747.895	39350.18
748.234	39080.36
748.573	39016.4
748.911	38925.33
749.25	39067.7
749.589	38822.96
749.928	38869.97
750.267	38943.86
750.605	38704.77
750.944	38735.28
751.283	38456.19
751.621	38516.3
751.96	38288.96
752.298	38311.79
752.636	38291.9
