Data from white_poster_card_FLMS001491_00023.txt Node
Date: Wed Feb 08 11:51:17 GMT 2017
User: dcchb
Spectrometer: FLMS00149
Trigger mode: 0
Integration Time (sec): 2.000000E-2
Scans to average: 10
Electric dark correction enabled: true
Nonlinearity correction enabled: false
Boxcar width: 0
XAxis mode: Wavelengths
Number of Pixels in Spectrum: 2048
>>>>>Begin Spectral Data<<<<<
341.393	-29.62
341.776	-29.62
342.16	-29.62
342.543	-66
342.927	-77.53
343.31	-98.09
343.693	-76.4
344.077	-50.18
344.46	-47.92
344.843	-55.15
345.226	-34.82
345.61	-19.67
345.993	-19.45
346.376	-12.44
346.759	23.94
347.142	35.01
347.525	30.95
347.908	48.35
348.291	71.62
348.674	98.97
349.057	105.29
349.44	119.08
349.823	147.1
350.206	155.69
350.588	212.86
350.971	215.12
351.354	219.64
351.737	233.43
352.119	226.19
352.502	253.99
352.884	282.24
353.267	283.59
353.65	295.35
354.032	318.62
354.414	309.81
354.797	311.84
355.179	305.51
355.562	339.41
355.944	308.45
356.326	325.18
356.709	333.31
357.091	339.86
357.473	359.98
357.855	340.54
358.238	324.95
358.62	338.51
359.002	350.26
359.384	325.85
359.766	338.06
360.148	356.13
360.53	333.99
360.912	334.21
361.294	339.19
361.676	328.79
362.057	323.14
362.439	328.11
362.821	306.64
363.203	336.25
363.584	324.72
363.966	336.7
364.348	332.18
364.729	316.81
365.111	321.79
365.493	297.38
365.874	317.49
366.256	314.78
366.637	325.63
367.019	331.73
367.4	320.43
367.781	318.85
368.163	321.56
368.544	310.71
368.925	315.68
369.306	332.18
369.688	319.53
370.069	329.02
370.45	308.23
370.831	325.85
371.212	315.68
371.593	322.01
371.974	310.49
372.355	312.29
372.736	298.96
373.117	302.8
373.498	323.37
373.879	311.62
374.26	319.07
374.641	308.23
375.021	292.41
375.402	313.65
375.783	310.03
376.163	323.37
376.544	345.29
376.925	331.28
377.305	319.75
377.686	313.2
378.066	318.17
378.447	338.06
378.827	329.69
379.208	333.31
379.588	325.4
379.968	324.95
380.349	323.82
380.729	330.82
381.109	350.03
381.489	363.59
381.87	345.74
382.25	325.63
382.63	352.29
383.01	351.62
383.39	331.28
383.77	345.06
384.15	334.67
384.53	343.93
384.91	359.98
385.29	349.58
385.67	377.6
386.049	364.95
386.429	350.03
386.809	334.44
387.189	371.05
387.568	377.38
387.948	355
388.328	342.12
388.707	361.78
389.087	364.5
389.466	371.95
389.846	346.87
390.225	388
390.605	384.83
390.984	364.04
391.363	390.26
391.743	369.24
392.122	408.34
392.501	381.9
392.881	402.01
393.26	364.95
393.639	395.68
394.018	390.94
394.397	406.53
394.776	406.98
395.155	386.42
395.534	416.25
395.913	411.73
396.292	408.11
396.671	428.22
397.05	412.18
397.429	415.12
397.808	411.05
398.186	407.43
398.565	432.29
398.944	415.34
399.323	418.73
399.701	423.7
400.08	423.48
400.458	450.82
400.837	450.14
401.215	438.39
401.594	426.87
401.972	434.32
402.351	451.95
402.729	447.21
403.107	450.37
403.486	468.9
403.864	459.63
404.242	486.75
404.62	472.97
404.999	454.66
405.377	486.07
405.755	478.62
406.133	466.64
406.511	475
406.889	512.29
407.267	483.14
407.645	500.09
408.023	555.23
408.401	518.62
408.779	515
409.156	555
409.534	555.23
409.912	566.07
410.29	569.24
410.667	575.11
411.045	568.78
411.422	573.53
411.8	609.24
412.178	613.3
412.555	648.1
412.933	643.81
413.31	646.52
413.687	659.4
414.065	696.01
414.442	681.55
414.819	726.29
415.197	726.75
415.574	743.47
415.951	713.64
416.328	747.76
416.705	780.98
417.082	792.51
417.46	778.27
417.837	819.17
418.214	800.64
418.591	844.26
418.967	850.81
419.344	854.88
419.721	863.69
420.098	889.91
420.475	903.01
420.852	893.75
421.228	966.74
421.605	939.62
421.982	939.4
422.358	962.67
422.735	977.14
423.111	970.13
423.488	1011.71
423.864	1022.56
424.241	1021.65
424.617	1061.65
424.994	1075.44
425.37	1084.7
425.746	1081.09
426.123	1100.97
426.499	1116.57
426.875	1128.77
427.251	1141.88
427.627	1173.51
428.003	1189.33
428.379	1180.52
428.756	1182.33
429.132	1220.29
429.507	1240.41
429.883	1281.08
430.259	1287.86
430.635	1283.34
431.011	1297.8
431.387	1349.78
431.763	1355.43
432.138	1359.5
432.514	1383.68
432.89	1391.14
433.265	1421.19
433.641	1464.81
434.016	1455.09
434.392	1476.56
434.767	1525.82
435.143	1525.82
435.518	1526.27
435.894	1543.22
436.269	1601.53
436.644	1608.98
437.02	1618.47
437.395	1637.91
437.77	1665.48
438.145	1666.83
438.52	1671.35
438.895	1690.11
439.271	1751.13
439.646	1737.57
440.021	1743.67
440.395	1768.98
440.77	1736.21
441.145	1771.46
441.52	1801.52
441.895	1791.13
442.27	1829.54
442.645	1825.02
443.019	1859.6
443.394	1864.8
443.769	1875.87
444.143	1842.2
444.518	1885.59
444.892	1895.76
445.267	1933.49
445.641	1949.31
446.016	1938.69
446.39	1929.2
446.764	1978.92
447.139	2004
447.513	2000.39
447.887	2014.85
448.262	2011.23
448.636	2016.66
449.01	2046.26
449.384	2042.42
449.758	2072.93
450.132	2119.7
450.506	2104.79
450.88	2096.88
451.254	2131.46
451.628	2178.23
452.002	2197.89
452.376	2184.34
452.75	2209.42
453.123	2216.2
453.497	2246.03
453.871	2263.2
454.244	2327.38
454.618	2340.72
454.992	2384.1
455.365	2355.63
455.739	2428.4
456.112	2445.57
456.486	2471.56
456.859	2458.45
457.232	2512.91
457.606	2524.89
457.979	2536.87
458.352	2608.73
458.725	2604.44
459.099	2634.72
459.472	2708.39
459.845	2734.83
460.218	2729.41
460.591	2754.94
460.964	2781.16
461.337	2832.91
461.71	2872.23
462.083	2885.56
462.456	2895.95
462.829	2906.12
463.201	2956.74
463.574	3007.36
463.947	3007.59
464.32	3090.3
464.692	3095.5
465.065	3131.2
465.438	3195.61
465.81	3207.81
466.183	3249.62
466.555	3314.02
466.928	3331.65
467.3	3311.09
467.672	3390.18
468.045	3496.84
468.417	3532.1
468.789	3495.71
469.161	3546.11
469.534	3548.59
469.906	3687.57
470.278	3720.34
470.65	3740.45
471.022	3813.9
471.394	3864.29
471.766	3857.96
472.138	3900
472.51	4021.58
472.882	4045.3
473.253	4139.54
473.625	4163.72
473.997	4245.75
474.369	4244.62
474.74	4315.58
475.112	4372.07
475.484	4448.91
475.855	4542.24
476.227	4576.59
476.598	4701.56
476.97	4705.4
477.341	4825.4
477.713	4902.91
478.084	4877.6
478.455	5015.9
478.827	5063.81
479.198	5212.5
479.569	5234.65
479.94	5360.52
480.311	5426.74
480.682	5552.16
481.053	5673.96
481.424	5731.13
481.795	5793.28
482.166	5863.33
482.537	6000.28
482.908	6093.61
483.279	6121.86
483.65	6207.51
484.021	6327.5
484.391	6440.95
484.762	6466.93
485.133	6555.97
485.503	6672.8
485.874	6782.63
486.244	6827.6
486.615	6912.35
486.985	7100.14
487.356	7110.53
487.726	7266.91
488.097	7381.49
488.467	7358.66
488.837	7597.98
489.207	7695.15
489.578	7757.97
489.948	7782.38
490.318	7970.17
490.688	8031.41
491.058	8098.3
491.428	8175.82
491.798	8302.14
492.168	8417.39
492.538	8437.96
492.908	8600.66
493.278	8656.93
493.648	8668.46
494.017	8876.59
494.387	8912.97
494.757	9014.21
495.126	9029.35
495.496	9086.07
495.866	9259.4
496.235	9303.7
496.605	9421.43
496.974	9477.25
497.344	9490.13
497.713	9603.8
498.082	9627.08
498.452	9786.4
498.821	9838.15
499.19	9911.82
499.559	9976.45
499.928	10107.97
500.298	10129.21
500.667	10203.79
501.036	10195.42
501.405	10336.66
501.774	10319.49
502.143	10500.95
502.512	10480.16
502.88	10629.08
503.249	10627.28
503.618	10700.5
503.987	10676.77
504.356	10852.36
504.724	10971.67
505.093	10985.69
505.462	11054.61
505.83	11062.29
506.199	11223.19
506.567	11392.23
506.936	11362.4
507.304	11530.3
507.672	11507.03
508.041	11510.42
508.409	11706.12
508.777	11813.23
509.145	11965.32
509.514	11962.84
509.882	11996.73
510.25	12125.09
510.618	12229.72
510.986	12183.85
511.354	12355.82
511.722	12457.96
512.09	12641.91
512.458	12624.51
512.826	12761.46
513.193	12806.88
513.561	12838.52
513.929	12951.96
514.297	13084.39
514.664	13239.64
515.032	13234.21
515.4	13411.16
515.767	13381.55
516.135	13564.37
516.502	13420.42
516.869	13629.91
517.237	13846.85
517.604	13763.92
517.972	13879.17
518.339	13968.88
518.706	14166.85
519.073	14116.45
519.44	14328.2
519.808	14396.22
520.175	14490.9
520.542	14715.08
520.909	14781.97
521.276	14786.72
521.643	14872.82
522.009	15068.06
522.376	15172.24
522.743	15227.16
523.11	15515.51
523.477	15622.4
523.843	15629.63
524.21	15871.66
524.577	16015.38
524.943	16103.07
525.31	16088.38
525.676	16277.75
526.043	16371.08
526.409	16469.38
526.776	16733.56
527.142	16707.57
527.508	16947.11
527.874	16994.34
528.241	17108.69
528.607	17144.62
528.973	17342.81
529.339	17320.21
529.705	17601.1
530.071	17581.22
530.437	17747.09
530.803	17811.27
531.169	17915.67
531.535	17976.24
531.901	17952.06
532.267	18241.99
532.632	18269.79
532.998	18336.23
533.364	18460.97
533.73	18499.84
534.095	18696.22
534.461	18769.44
534.826	18829.77
535.192	18962.2
535.557	19120.16
535.923	19008.07
536.288	19129.88
536.653	19281.51
537.019	19300.5
537.384	19256.65
537.749	19493.48
538.114	19480.15
538.479	19610.77
538.845	19634.5
539.21	19697.77
539.575	19817.09
539.94	19903.19
540.305	19963.98
540.67	20042.85
541.034	20132.11
541.399	20211.88
541.764	20278.55
542.129	20476.28
542.494	20470.41
542.858	20465.66
543.223	20535.04
543.587	20699.33
543.952	20662.04
544.316	20748.14
544.681	20790.63
545.045	20864.75
545.41	21054.8
545.774	21057.74
546.138	21179.99
546.503	21184.06
546.867	21196.94
547.231	21423.15
547.595	21500.44
547.959	21490.04
548.324	21541.34
548.688	21616.59
549.052	21702.47
549.416	21697.04
549.779	21830.37
550.143	21879.64
550.507	22128.9
550.871	22092.29
551.235	22087.31
551.599	22243.02
551.962	22380.41
552.326	22520.07
552.689	22504.93
553.053	22427.87
553.417	22463.58
553.78	22820.85
554.143	22861.31
554.507	22892.27
554.87	23059.49
555.234	23197.34
555.597	23076.67
555.96	23136.55
556.323	23338.58
556.686	23309.43
557.05	23630.78
557.413	23627.84
557.776	23750.55
558.139	23814.73
558.502	23981.28
558.865	24011.56
559.228	24290.87
559.59	24234.38
559.953	24393.47
560.316	24555.27
560.679	24665.1
561.041	24765.66
561.404	24777.87
561.767	25084.3
562.129	25040.01
562.492	25199.78
562.854	25269.15
563.217	25277.97
563.579	25416.94
563.941	25517.96
564.304	25596.15
564.666	25858.97
565.028	25828.91
565.39	25962.02
565.753	26179.86
566.115	26154.1
566.477	26260.76
566.839	26400.65
567.201	26474.32
567.563	26596.57
567.925	26778.72
568.287	26865.95
568.648	26869.56
569.01	27121.08
569.372	27248.08
569.734	27186.62
570.095	27453.95
570.457	27401.3
570.819	27523.56
571.18	27555.87
571.542	27714.06
571.903	27727.17
572.265	27813.27
572.626	27991.79
572.987	28119.7
573.349	28207.15
573.71	28219.58
574.071	28272.24
574.432	28390.43
574.794	28613.02
575.155	28641.49
575.516	28508.39
575.877	28562.4
576.238	28758.55
576.599	28830.19
576.96	28853.01
577.32	28838.1
577.681	28959.68
578.042	29101.14
578.403	29096.85
578.763	29146.79
579.124	29163.51
579.485	29242.38
579.845	29407.12
580.206	29239.44
580.566	29352.43
580.927	29351.53
581.287	29456.84
581.648	29305.2
582.008	29512.43
582.368	29408.03
582.728	29476.27
583.089	29551.98
583.449	29388.37
583.809	29549.72
584.169	29613.9
584.529	29485.99
584.889	29636.95
585.249	29663.61
585.609	29417.97
585.969	29590.39
586.329	29684.18
586.688	29645.53
587.048	29654.57
587.408	29594.91
587.768	29572.32
588.127	29639.66
588.487	29546.33
588.846	29847.56
589.206	29686.21
589.565	29521.92
589.925	29784.29
590.284	29700.22
590.643	29659.77
591.003	29816.6
591.362	29898.41
591.721	29757.85
592.08	29776.6
592.44	29922.59
592.799	29840.33
593.158	29896.37
593.517	29821.57
593.876	29960.1
594.235	29814.34
594.593	29866.77
594.952	30002.13
595.311	29863.61
595.67	29843.49
596.029	30130.49
596.387	30080.55
596.746	30084.84
597.104	29967.33
597.463	29965.53
597.822	30153.54
598.18	30010.27
598.538	29981.34
598.897	30179.98
599.255	29941.35
599.613	30335.69
599.972	30114
600.33	30204.39
600.688	30092.3
601.046	30201.45
601.404	30293.88
601.762	30283.26
602.12	30368
602.478	30397.15
602.836	30375.01
603.194	30242.58
603.552	30386.08
603.91	30316.25
604.268	30477.15
604.625	30427.89
604.983	30537.26
605.341	30325.97
605.698	30537.26
606.056	30568.9
606.413	30539.52
606.771	30724.15
607.128	30687.09
607.485	30521.44
607.843	30681.89
608.2	30821.55
608.557	30820.42
608.914	30657.26
609.272	30892.05
609.629	30987.65
609.986	31048.66
610.343	30852.96
610.7	31077.36
611.057	31072.16
611.414	31189.22
611.771	31168.66
612.127	31183.12
612.484	31172.05
612.841	31279.84
613.198	31177.92
613.554	31214.31
613.911	31464.24
614.267	31343.79
614.624	31247.98
614.98	31506.5
615.337	31480.97
615.693	31525.03
616.05	31515.99
616.406	31603.67
616.762	31544.47
617.118	31427.18
617.475	31549.66
617.831	31563.22
618.187	31525.48
618.543	31633.96
618.899	31814.52
619.255	31738.59
619.611	31706.04
619.967	31774.07
620.323	31902.2
620.678	31700.62
621.034	31692.26
621.39	31643
621.746	31707.4
622.101	32152.59
622.457	31757.34
622.812	31845.02
623.168	31906.04
623.523	31861.07
623.879	32014.29
624.234	31818.81
624.589	31835.31
624.945	31895.19
625.3	31923.67
625.655	31829.66
626.01	31867.17
626.365	31784.91
626.72	31890.9
627.075	31809.77
627.43	31798.47
627.785	31657.46
628.14	31690.68
628.495	31922.99
628.85	31791.47
629.205	31746.5
629.559	31901.29
629.914	31639.83
630.269	31688.87
630.623	31646.16
630.978	31581.08
631.332	31683.22
631.687	31798.92
632.041	31677.12
632.396	31537.01
632.75	31542.66
633.104	31464.24
633.459	31320.29
633.813	31433.06
634.167	31461.08
634.521	31242.1
634.875	31362.1
635.229	31235.55
635.583	31113.29
635.937	31075.33
636.291	31069.9
636.645	31097.02
636.999	31014.31
637.352	31074.2
637.706	30921.21
638.06	31025.16
638.413	30854.32
638.767	30826.97
639.121	30795.56
639.474	30701.78
639.828	30795.11
640.181	30844.37
640.534	30652.06
640.888	30536.81
641.241	30479.18
641.594	30535.23
641.947	30592.4
642.301	30528.67
642.654	30639.41
643.007	30374.1
643.36	30445.96
643.713	30372.97
644.066	30593.98
644.419	30288.23
644.771	30163.49
645.124	29730.28
645.477	29692.54
645.83	29540.23
646.182	29450.06
646.535	29449.61
646.888	29449.83
647.24	29241.7
647.593	29390.85
647.945	29307.92
648.298	29067.92
648.65	29117.86
649.002	28943.18
649.355	29032.44
649.707	29067.02
650.059	29174.36
650.411	29478.53
650.763	29438.53
651.115	29857.05
651.467	29771.41
651.819	29582.94
652.171	29523.05
652.523	29546.78
652.875	29525.31
653.227	29363.96
653.578	29538.42
653.93	29532.99
654.282	29386.78
654.633	29164.19
654.985	29402.38
655.337	29375.71
655.688	29453.45
656.039	29428.82
656.391	29181.82
656.742	29107.24
657.094	29288.71
657.445	29305.88
657.796	29270.18
658.147	29161.03
658.498	29096.85
658.849	29185.21
659.2	29044.42
659.551	29183.85
659.902	29151.54
660.253	29079.67
660.604	29064.98
660.955	28983.86
661.306	29075.38
661.656	28849.17
662.007	28989.96
662.358	29058.43
662.708	28987.92
663.059	29000.81
663.409	28756.97
663.76	28925.33
664.11	28937.3
664.461	28893.01
664.811	28936.85
665.161	28759.91
665.511	28758.1
665.862	28737.76
666.212	28811.43
666.562	28921.94
666.912	28789.96
667.262	28804.65
667.612	28744.09
667.962	28676.07
668.312	28626.8
668.662	28769.62
669.011	28812.79
669.361	28617.09
669.711	28564.66
670.06	28554.72
670.41	28554.94
670.76	28445.11
671.109	28655.73
671.459	28525.34
671.808	28632.91
672.157	28626.35
672.507	28376.64
672.856	28335.96
673.205	28444.44
673.554	28516.75
673.904	28510.65
674.253	28416.41
674.602	28344.1
674.951	28047.38
675.3	27935.97
675.649	28352.91
675.998	28310.65
676.346	28370.77
676.695	28359.47
677.044	28039.47
677.393	28282.63
677.741	28267.94
678.09	28222.97
678.438	28070.66
678.787	28163.31
679.135	28165.57
679.484	27922.42
679.832	28014.84
680.181	27834.51
680.529	27894.62
680.877	27863.66
681.225	27808.29
681.573	27979.82
681.922	27801.51
682.27	27585.02
682.618	27671.8
682.966	27576.44
683.314	27626.83
683.661	27564.46
684.009	27448.98
684.357	27379.6
684.705	27386.16
685.053	27512.26
685.4	27385.03
685.748	27106.84
686.095	27230.68
686.443	27003.12
686.79	26929.67
687.138	26971.25
687.485	27107.07
687.832	26875.21
688.18	26948.88
688.527	26839.96
688.874	26833.4
689.221	26745.5
689.568	26625.27
689.915	26481.78
690.262	26576.46
690.609	26363.36
690.956	26430.48
691.303	26413.75
691.65	26193.42
691.997	26181.67
692.344	26049.92
692.69	25993.65
693.037	26074.55
693.383	25703.04
693.73	25907.78
694.077	25659.65
694.423	25760.89
694.769	25635.24
695.116	25546.21
695.462	25531.52
695.808	25367.91
696.155	25449.03
696.501	25301.47
696.847	25214.46
697.193	25068.93
697.539	25135.82
697.885	25056.73
698.231	24858.09
698.577	24951.65
698.923	24977.18
699.269	24783.29
699.614	24631.65
699.96	24577.64
700.306	24634.59
700.651	24500.36
700.997	24504.2
701.342	24354.83
701.688	24332.68
702.033	24193.02
702.379	24240.93
702.724	24156.41
703.069	24186.47
703.415	23967.27
703.76	24012.69
704.105	24009.07
704.45	23844.33
704.795	23753.26
705.14	23674.39
705.485	23632.13
705.83	23635.07
706.175	23592.13
706.52	23503.32
706.865	23423.1
707.209	23247.96
707.554	23206.38
707.899	23306.27
708.243	23185.82
708.588	23187.62
708.932	22967.29
709.277	22960.51
709.621	23041.19
709.966	22824.02
710.31	22967.74
710.654	22724.36
710.998	22885.71
711.342	22705.6
711.687	22593.74
712.031	22526.17
712.375	22443.01
712.719	22600.97
713.063	22471.26
713.407	22558.94
713.75	22326.86
714.094	22309.68
714.438	22240.08
714.782	22331.6
715.125	22154.66
715.469	22238.95
715.812	22045.51
716.156	22017.03
716.499	21988.79
716.843	22036.02
717.186	21862.69
717.53	22003.7
717.873	21930.93
718.216	21855.46
718.559	21715.57
718.902	21566.2
719.246	21599.64
719.589	21542.92
719.932	21544.96
720.275	21428.35
720.617	21511.74
720.96	21396.49
721.303	21451.63
721.646	21374.79
721.989	21346.32
722.331	21379.31
722.674	21277.39
723.016	21297.96
723.359	21182.03
723.701	21151.97
724.044	21047.57
724.386	20992.65
724.729	21049.38
725.071	20985.42
725.413	21000.11
725.755	20926.22
726.097	20908.81
726.439	20636.96
726.782	20782.04
727.124	20820
727.465	20709.72
727.807	20708.82
728.149	20640.12
728.491	20502.5
728.833	20549.05
729.175	20486.9
729.516	20499.11
729.858	20368.94
730.199	20556.73
730.541	20443.52
730.882	20380.92
731.224	20441.93
731.565	20215.73
731.906	20303.41
732.248	20306.12
732.589	20150.42
732.93	20105.67
733.271	20101.6
733.612	20202.39
733.953	20184.31
734.294	20165.56
734.635	19994.94
734.976	20043.53
735.317	19940.93
735.658	19976.18
735.999	19962.4
736.339	19843.53
736.68	19954.49
737.021	19843.53
737.361	19852.12
737.702	19913.59
738.042	19795.85
738.383	19692.12
738.723	19778.67
739.063	19615.52
739.404	19758.11
739.744	19614.84
740.084	19574.61
740.424	19565.57
740.764	19468.4
741.104	19502.52
741.444	19419.36
741.784	19320.16
742.124	19422.07
742.464	19292.13
742.804	19251.68
743.143	19303.43
743.483	19284.45
743.823	19186.83
744.162	19149.09
744.502	19226.37
744.841	19148.63
745.181	19162.87
745.52	19011.46
745.86	19118.81
746.199	18983.89
746.538	19022.99
746.877	18893.73
747.216	18973.95
747.556	18818.02
747.895	18871.58
748.234	18727.86
748.573	18830.23
748.911	18729.89
749.25	18731.47
749.589	18586.39
749.928	18685.14
750.267	18645.37
750.605	18548.2
750.944	18542.55
751.283	18510.23
751.621	18485.83
751.96	18454.19
752.298	18315.89
752.636	18391.82
752.975	18241.77
753.313	18274.99
753.651	18283.57
753.989	18123.8
754.327	18172.84
754.666	18042.22
