Data from White_reflection_standard_FLMS001491_032.txt Node
Date: Tue Feb 07 10:32:01 GMT 2017
User: dcchb
Spectrometer: FLMS00149
Trigger mode: 0
Integration Time (sec): 2.000000E-2
Scans to average: 10
Electric dark correction enabled: true
Nonlinearity correction enabled: false
Boxcar width: 0
XAxis mode: Wavelengths
Number of Pixels in Spectrum: 2048
>>>>>Begin Spectral Data<<<<<
341.393	15.49
341.776	15.49
342.16	15.49
342.543	-33.32
342.927	-63.83
343.31	-60.89
343.693	-62.92
344.077	-61.34
344.46	-50.04
344.843	-56.37
345.226	-26.09
345.61	-41
345.993	-23.6
346.376	-18.4
346.759	10.52
347.142	48.04
347.525	58.43
347.908	29.96
348.291	68.37
348.674	74.25
349.057	111.08
349.44	123.97
349.823	154.93
350.206	195.38
350.588	249.16
350.971	227.92
351.354	259.1
351.737	272.89
352.119	310.85
352.502	301.81
352.884	313.79
353.267	338.88
353.65	331.42
354.032	353.56
354.414	375.94
354.797	355.82
355.179	359.89
355.562	377.74
355.944	377.52
356.326	393.34
356.709	382.94
357.091	428.59
357.473	399.89
357.855	396.5
358.238	421.58
358.62	406.67
359.002	401.47
359.384	419.78
359.766	412.77
360.148	420.23
360.53	385.88
360.912	432.43
361.294	420.68
361.676	393.79
362.057	397.63
362.439	413.22
362.821	401.47
363.203	410.06
363.584	393.34
363.966	413.68
364.348	406.44
364.729	417.29
365.111	411.19
365.493	407.8
365.874	408.93
366.256	426.78
366.637	418.87
367.019	431.75
367.4	411.87
367.781	441.25
368.163	408.93
368.544	436.5
368.925	433.11
369.306	433.34
369.688	420.46
370.069	438.76
370.45	420.91
370.831	413.45
371.212	453.45
371.593	436.5
371.974	443.51
372.355	437.18
372.736	462.49
373.117	460.23
373.498	458.65
373.879	467.46
374.26	444.18
374.641	451.41
375.021	445.99
375.402	468.59
375.783	486.89
376.163	498.42
376.544	495.71
376.925	488.02
377.305	490.51
377.686	501.81
378.066	500.68
378.447	488.93
378.827	518.76
379.208	512.88
379.588	493
379.968	504.29
380.349	510.17
380.729	551.98
381.109	557.63
381.489	537.51
381.87	534.12
382.25	542.49
382.63	552.2
383.01	574.58
383.39	581.58
383.77	588.59
384.15	600.56
384.53	588.13
384.91	596.27
385.29	606.89
385.67	605.99
386.049	620.9
386.429	625.65
386.809	621.81
387.189	629.94
387.568	605.31
387.948	621.58
388.328	630.17
388.707	647.79
389.087	665.65
389.466	667.68
389.846	688.7
390.225	685.08
390.605	673.78
390.984	688.24
391.363	695.02
391.743	704.52
392.122	701.35
392.501	725.31
392.881	739.32
393.26	743.16
393.639	746.32
394.018	766.43
394.397	785.42
394.776	793.1
395.155	789.71
395.534	789.26
395.913	791.97
396.292	789.48
396.671	838.75
397.05	824.06
397.429	820.67
397.808	819.09
398.186	863.61
398.565	860.67
398.944	851.4
399.323	867.45
399.701	889.6
400.08	880.56
400.458	889.14
400.837	890.05
401.215	908.13
401.594	944.96
401.972	936.83
402.351	961.91
402.729	957.16
403.107	978.86
403.486	984.73
403.864	1005.52
404.242	1014.56
404.62	1033.09
404.999	1038.07
405.377	1045.52
405.755	1036.03
406.133	1090.04
406.511	1090.95
406.889	1096.82
407.267	1136.14
407.645	1145.18
408.023	1151.74
408.401	1171.4
408.779	1156.25
409.156	1236.25
409.534	1206.42
409.912	1208.46
410.29	1249.13
410.667	1271.05
411.045	1284.16
411.422	1304.95
411.8	1299.75
412.178	1342.46
412.555	1349.7
412.933	1368.23
413.31	1343.82
413.687	1394.67
414.065	1406.42
414.442	1415.68
414.819	1467.43
415.197	1458.85
415.574	1518.28
415.951	1521.44
416.328	1510.37
416.705	1534.55
417.082	1540.2
417.46	1528.67
417.837	1573.19
418.214	1560.54
418.591	1611.16
418.967	1602.34
419.344	1668.56
419.721	1657.26
420.098	1674.89
420.475	1686.41
420.852	1698.16
421.228	1718.27
421.605	1732.96
421.982	1753.53
422.358	1781.55
422.735	1812.96
423.111	1787.2
423.488	1841.89
423.864	1859.06
424.241	1902.68
424.617	1917.82
424.994	1907.87
425.37	1949.23
425.746	1947.87
426.123	1984.48
426.499	2035.33
426.875	2046.4
427.251	2075.78
427.627	2124.37
428.003	2152.84
428.379	2130.92
428.756	2181.99
429.132	2182.44
429.507	2230.58
429.883	2264.47
430.259	2292.72
430.635	2338.6
431.011	2382.44
431.387	2437.8
431.763	2426.05
432.138	2460.63
432.514	2485.26
432.89	2507.18
433.265	2558.7
433.641	2602.09
434.016	2627.63
434.392	2698.14
434.767	2732.48
435.143	2705.14
435.518	2748.98
435.894	2794.18
436.269	2862.65
436.644	2844.35
437.02	2921.86
437.395	2902.88
437.77	2958.47
438.145	3006.38
438.52	3003.44
438.895	3071.68
439.271	3087.05
439.646	3152.13
440.021	3136.99
440.395	3209.08
440.77	3180.61
441.145	3152.36
441.52	3237.56
441.895	3283.88
442.27	3347.61
442.645	3362.98
443.019	3357.1
443.394	3373.37
443.769	3442.52
444.143	3405.01
444.518	3453.82
444.892	3452.69
445.267	3482.75
445.641	3544.44
446.016	3554.61
446.39	3577.89
446.764	3610.2
447.139	3592.58
447.513	3668.96
447.887	3699.92
448.262	3713.7
448.636	3737.43
449.01	3793.93
449.384	3803.42
449.758	3879.35
450.132	3882.74
450.506	3906.47
450.88	3930.65
451.254	3964.77
451.628	4019.91
452.002	4059.23
452.376	4112.56
452.75	4143.3
453.123	4152.56
453.497	4282.05
453.871	4261.94
454.244	4361.82
454.618	4405.66
454.992	4514.58
455.365	4498.54
455.739	4632.55
456.112	4617.63
456.486	4705.09
456.859	4754.13
457.232	4792.77
457.606	4826.44
457.979	4875.93
458.352	4976.49
458.725	5023.27
459.099	5126.09
459.472	5189.82
459.845	5241.12
460.218	5315.92
460.591	5324.28
460.964	5386.2
461.337	5479.08
461.71	5584.61
462.083	5632.75
462.456	5667.77
462.829	5676.14
463.201	5790.71
463.574	5834.32
463.947	5942.12
464.32	6012.62
464.692	6093.98
465.065	6139.63
465.438	6276.8
465.81	6306.18
466.183	6360.41
466.555	6552.05
466.928	6558.82
467.3	6524.02
467.672	6680.18
468.045	6830.68
468.417	6854.64
468.789	6887.86
469.161	7044.01
469.534	7163.78
469.906	7310.22
470.278	7291.91
470.65	7470.89
471.022	7648.51
471.394	7757.44
471.766	7839.24
472.138	7935.06
472.51	8124.66
472.882	8191.32
473.253	8299.12
473.625	8414.14
473.997	8584.99
474.369	8701.59
474.74	8832.89
475.112	8983.85
475.484	9093.22
475.855	9250.73
476.227	9304.52
476.598	9653.43
476.97	9705.41
477.341	9862.47
477.713	10066.76
478.084	10089.58
478.455	10433.53
478.827	10468.78
479.198	10801.88
479.569	10854.08
479.94	11155.99
480.311	11203.9
480.682	11528.19
481.053	11752.13
481.424	11925.01
481.795	12025.35
482.166	12285.45
482.537	12457.43
482.908	12682.05
483.279	12778.77
483.65	13039.56
484.021	13345.99
484.391	13487.91
484.762	13500.11
485.133	13691.52
485.503	13949.82
485.874	14184.84
486.244	14328.34
486.615	14635.45
486.985	14765.16
487.356	15134.19
487.726	15185.94
488.097	15588.64
488.467	15590.45
488.837	15983.21
489.207	16042.19
489.578	16305.46
489.948	16469.3
490.318	16728.27
490.688	16755.39
491.058	17018.89
491.428	17228.37
491.798	17472.21
492.168	17794.91
492.538	17916.94
492.908	18014.57
493.278	18299.08
493.648	18299.76
494.017	18548.34
494.387	18733.65
494.757	18906.3
495.126	19078.04
495.496	19183.35
495.866	19396.23
496.235	19541.76
496.605	19715.09
496.974	19886.16
497.344	19969.09
497.713	20198.01
498.082	20413.38
498.452	20640.94
498.821	20641.17
499.19	20699.7
499.559	20990.99
499.928	21123.64
500.298	21242.05
500.667	21492.67
501.036	21473.91
501.405	21720.01
501.774	21773.11
502.143	22004.52
502.512	22045.88
502.88	22320.9
503.249	22430.72
503.618	22545.07
503.987	22781
504.356	22856.48
504.724	22988.68
505.093	23047.66
505.462	23057.37
505.83	23355.22
506.199	23612.84
506.567	23802.67
506.936	23830.23
507.304	24215.76
507.672	24267.74
508.041	24320.17
508.409	24632.25
508.777	24864.56
509.145	24931.45
509.514	25070.88
509.882	25319.46
510.25	25293.02
510.618	25530.3
510.986	25720.58
511.354	26004.87
511.722	26139.33
512.09	26389.04
512.458	26475.36
512.826	26737.73
513.193	26840.55
513.561	26956.03
513.929	27182.69
514.297	27387.66
514.664	27579.51
515.032	27737.25
515.4	27927.08
515.767	28101.54
516.135	28319.38
516.502	28230.12
516.869	28726.83
517.237	28837.56
517.604	28922.98
517.972	29295.85
518.339	29446.13
518.706	29500.59
519.073	29673.7
519.44	29933.35
519.808	30163.18
520.175	30217.64
520.542	30768.13
520.909	30838.19
521.276	30875.25
521.643	31289.47
522.009	31479.75
522.376	31722
522.743	31907.76
523.11	32259.17
523.477	32437.92
523.843	32711.58
524.21	33149.99
524.577	33321.06
524.943	33392.47
525.31	33538.91
525.676	33935.51
526.043	34195.39
526.409	34245.33
526.776	34732.32
527.142	34947.91
527.508	35080.33
527.874	35381.34
528.241	35424.96
528.607	35692.3
528.973	36025.17
529.339	35964.83
529.705	36417.02
530.071	36558.04
530.437	36713.51
530.803	36970
531.169	37170.45
531.535	37202.76
531.901	37486.37
532.267	37631.68
532.632	37749.19
532.998	38168.39
533.364	38162.97
533.73	38239.8
534.095	38564.76
534.461	38796.4
534.826	39027.35
535.192	39092.88
535.557	39246.33
535.923	39302.14
536.288	39489.48
536.653	39837.72
537.019	39682.93
537.384	39970.38
537.749	40128.56
538.114	40332.63
538.479	40274.55
538.845	40560.64
539.21	40541.43
539.575	40771.71
539.94	40926.28
540.305	41324.01
540.67	41127.18
541.034	41343.67
541.399	41338.48
541.764	41677.45
542.129	41786.6
542.494	41875.86
542.858	42021.85
543.223	42061.17
543.587	42363.53
543.952	42336.64
544.316	42413.25
544.681	42492.8
545.045	42738.21
545.41	43029.05
545.774	43009.84
546.138	43122.38
546.503	43225.21
546.867	43197.64
547.231	43714.68
547.595	43808.69
547.959	43942.93
548.324	44018.18
548.688	44020.89
549.052	44200.32
549.416	44307.66
549.779	44411.84
550.143	44523.7
550.507	44845.95
550.871	44838.27
551.235	44977.25
551.599	45284.81
551.962	45404.81
552.326	45488.2
552.689	45746.72
553.053	45614.07
553.417	45825.59
553.78	46256.09
554.143	46064
554.507	46444.1
554.87	46503.09
555.234	46976.29
555.597	46763.19
555.96	46948.95
556.323	46987.59
556.686	47148.49
557.05	47451.31
557.413	47581.02
557.776	47674.35
558.139	47862.6
558.502	48029.6
558.865	48125.19
559.228	48453.32
559.59	48454.45
559.953	48768.79
560.316	49095.11
560.679	49015.34
561.041	49261.66
561.404	49453.97
561.767	49618.26
562.129	49531.25
562.492	49984.12
562.854	49916.78
563.217	49991.36
563.579	50195.42
563.941	50389.99
564.304	50562.87
564.666	50826.14
565.028	50827.94
565.39	50949.3
565.753	51130.31
566.115	51222.74
566.477	51402.84
566.839	51530.3
567.201	51698.65
567.563	51666.57
567.925	51981.59
568.287	52031.3
568.648	52029.95
569.01	52256.15
569.372	52438.97
569.734	52440.78
570.095	52496.15
570.457	52769.36
570.819	52852.75
571.18	52849.36
571.542	53029.02
571.903	53126.41
572.265	53194.43
572.626	53224.72
572.987	53334.32
573.349	53478.04
573.71	53455.9
574.071	53519.85
574.432	53689.34
574.794	53858.15
575.155	53837.81
575.516	53759.84
575.877	53965.94
576.238	54017.69
576.599	54165.93
576.96	54131.36
577.32	54133.84
577.681	54192.15
578.042	54345.36
578.403	54227.85
578.763	54315.31
579.124	54301.75
579.485	54455.87
579.845	54538.58
580.206	54546.26
580.566	54544.23
580.927	54528.41
581.287	54663.32
581.648	54641.63
582.008	54795.3
582.368	54671.01
582.728	54745.81
583.089	54718.01
583.449	54702.42
583.809	54792.13
584.169	54804.11
584.529	54748.29
584.889	54951.45
585.249	54690.67
585.609	54713.26
585.969	54915.97
586.329	54755.75
586.688	54831.45
587.048	54809.76
587.408	54759.59
587.768	54771.12
588.127	54833.49
588.487	54726.6
588.846	54878.91
589.206	54788.29
589.565	54745.58
589.925	54979.7
590.284	54883.66
590.643	54882.07
591.003	54954.16
591.362	54982.41
591.721	54913.71
592.08	54937.67
592.44	55033.03
592.799	54977.89
593.158	54962.75
593.517	54973.37
593.876	55009.08
594.235	54939.7
594.593	54983.77
594.952	55035.52
595.311	55031.67
595.67	55002.3
596.029	55237.77
596.387	55223.08
596.746	55205.68
597.104	55073.48
597.463	55114.16
597.822	55176.53
598.18	55147.6
598.538	55156.19
598.897	55259.47
599.255	55016.31
599.613	55471.66
599.972	55179.02
600.33	55336.07
600.688	55238
601.046	55331.33
601.404	55416.07
601.762	55409.74
602.12	55441.38
602.478	55482.96
602.836	55436.64
603.194	55398.22
603.552	55438.67
603.91	55343.08
604.268	55513.47
604.625	55486.13
604.983	55575.39
605.341	55410.65
605.698	55587.14
606.056	55634.82
606.413	55661.04
606.771	55699.23
607.128	55727.25
607.485	55629.4
607.843	55724.31
608.2	55845.66
608.557	55877.53
608.914	55793.91
609.272	56032.55
609.629	56035.26
609.986	56060.35
610.343	55946.68
610.7	56122.72
611.057	56054.92
611.414	56056.51
611.771	56136.05
612.127	56179.89
612.484	56140.12
612.841	56222.83
613.198	56098.77
613.554	56181.47
613.911	56327.01
614.267	56275.71
614.624	56221.47
614.98	56298.99
615.337	56413.56
615.693	56313.45
616.05	56260.79
616.406	56484.52
616.762	56365.65
617.118	56400.68
617.475	56462.82
617.831	56448.13
618.187	56460.56
618.543	56521.35
618.899	56690.16
619.255	56553.22
619.611	56510.96
619.967	56613.55
620.323	56596.15
620.678	56574.91
621.034	56555.25
621.39	56536.72
621.746	56475.7
622.101	56760.44
622.457	56606.32
622.812	56592.54
623.168	56671.18
623.523	56661.91
623.879	56704.4
624.234	56476.38
624.589	56614.91
624.945	56635.7
625.3	56620.56
625.655	56686.77
626.01	56689.48
626.365	56639.32
626.72	56590.96
627.075	56620.11
627.43	56587.57
627.785	56525.87
628.14	56603.38
628.495	56609.94
628.85	56553.67
629.205	56483.39
629.559	56596.38
629.914	56524.29
630.269	56542.82
630.623	56407.01
630.978	56389.83
631.332	56459.21
631.687	56501.47
632.041	56401.81
632.396	56415.37
632.75	56289.72
633.104	56248.14
633.459	56264.41
633.813	56251.3
634.167	56186.45
634.521	56114.36
634.875	56199.1
635.229	56138.54
635.583	55971.08
635.937	56039.78
636.291	56003.4
636.645	56038.2
636.999	55877.75
637.352	55945.77
637.706	55774.93
638.06	55869.62
638.413	55761.37
638.767	55738.55
639.121	55794.37
639.474	55622.62
639.828	55682.05
640.181	55661.04
640.534	55673.92
640.888	55470.31
641.241	55424.21
641.594	55490.65
641.947	55570.87
642.301	55440.03
642.654	55415.39
643.007	55442.29
643.36	55354.15
643.713	55354.83
644.066	55449.97
644.419	55193.48
644.771	55061.5
645.124	54772.25
645.477	54677.79
645.83	54596.21
646.182	54404.12
646.535	54331.58
646.888	54412.48
647.24	54219.27
647.593	54341.3
647.945	54322.31
648.298	54157.12
648.65	54072.15
649.002	53948.99
649.355	54139.04
649.707	54100.17
650.059	54034.41
650.411	54484.8
650.763	54561.18
651.115	54734.06
651.467	54655.87
651.819	54645.92
652.171	54501.97
652.523	54465.14
652.875	54508.75
653.227	54369.77
653.578	54570.22
653.93	54424.68
654.282	54306.95
654.633	54198.25
654.985	54389.66
655.337	54238.02
655.688	54327.96
656.039	54388.98
656.391	54109.66
656.742	54056.56
657.094	54145.14
657.445	54304.24
657.796	54131.59
658.147	54052.04
658.498	54069.21
658.849	54176.33
659.2	54053.62
659.551	54050.46
659.902	54072.6
660.253	53967.52
660.604	53970.91
660.955	53842.1
661.306	54032.38
661.656	53938.6
662.007	53916.45
662.358	53855.43
662.708	53824.02
663.059	53939.27
663.409	53648.43
663.76	53820.86
664.11	53826.51
664.461	53844.36
664.811	53801.42
665.161	53763.01
665.511	53645.72
665.862	53637.59
666.212	53704.03
666.562	53675.1
666.912	53621.09
667.262	53648.21
667.612	53650.92
667.962	53634.2
668.312	53599.17
668.662	53681.43
669.011	53647.76
669.361	53521.21
669.711	53549.68
670.06	53433.07
670.41	53407.76
670.76	53349.91
671.109	53418.84
671.459	53365.96
671.808	53273.08
672.157	53360.31
672.507	53306.75
672.856	53257.71
673.205	53260.87
673.554	53310.59
673.904	53255
674.253	53385.39
674.602	53171.38
674.951	52772.75
675.3	52588.8
675.649	53165.28
675.998	53096.81
676.346	52961.22
676.695	53108.34
677.044	52925.52
677.393	53014.55
677.741	53067.66
678.09	52783.37
678.438	52818.63
678.787	52918.28
679.135	52906.08
679.484	52688.01
679.832	52742.92
680.181	52635.58
680.529	52706.09
680.877	52543.38
681.225	52472.19
681.573	52730.49
681.922	52422.93
682.27	52337.28
682.618	52399.2
682.966	52337.96
683.314	52353.78
683.661	52218.42
684.009	52062.04
684.357	51998.76
684.705	51946.33
685.053	52045.31
685.4	51894.81
685.748	51758.09
686.095	51825.43
686.443	51585.89
686.79	51559.22
687.138	51553.57
687.485	51548.15
687.832	51429.96
688.18	51357.87
688.527	51214.37
688.874	51298.44
689.221	51192
689.568	50972.12
689.915	50907.49
690.262	50923.53
690.609	50888.73
690.956	50781.39
691.303	50742.3
691.65	50467.27
691.997	50560.38
692.344	50271.35
692.69	50239.71
693.037	50333.27
693.383	50057.79
693.73	50168.07
694.077	49866.16
694.423	49884.92
694.769	49782.09
695.116	49731.47
695.462	49645.83
695.808	49403.57
696.155	49529.45
696.501	49216.91
696.847	49158.16
697.193	48954.77
697.539	49054.66
697.885	48798.84
698.231	48697.83
698.577	48650.15
698.923	48644.27
699.269	48489.02
699.614	48286.77
699.96	48227.56
700.306	48239.08
700.651	48044.74
700.997	47902.82
701.342	47877.06
701.688	47864.86
702.033	47679.1
702.379	47589.84
702.724	47527.01
703.069	47577.63
703.415	47104.65
703.76	47110.75
704.105	47103.52
704.45	46884.32
704.795	46805.9
705.14	46650.65
705.485	46574.27
705.83	46484.55
706.175	46459.47
706.52	46421.05
706.865	46309.42
707.209	46099.25
707.554	46108.75
707.899	46221.74
708.243	45885.7
708.588	45679.15
708.932	45588.53
709.277	45530.23
709.621	45547.4
709.966	45313.96
710.31	45469.44
710.654	45090.69
710.998	45061.77
711.342	45046.63
711.687	44964.82
712.031	44691.16
712.375	44696.13
712.719	44666.52
713.063	44572.97
713.407	44590.59
713.75	44342.01
714.094	44375.01
714.438	44211.17
714.782	44213.65
715.125	43939.31
715.469	44063.15
715.812	43966.65
716.156	43692.31
716.499	43727.79
716.843	43636.27
717.186	43428.82
717.53	43564.41
717.873	43598.75
718.216	43522.82
718.559	43310.17
718.902	42862.95
719.246	43092.55
719.589	42973.01
719.932	42878.77
720.275	42840.13
720.617	42853.92
720.96	42702.51
721.303	42668.38
721.646	42525.11
721.989	42388.39
722.331	42546.81
722.674	42343.87
723.016	42263.2
723.359	42128.06
723.701	42147.49
724.044	41841.74
724.386	41765.81
724.729	41891.91
725.071	41862.76
725.413	41906.37
725.755	41680.84
726.097	41631.8
726.439	41293.5
726.782	41456.66
727.124	41536.66
727.465	41362.2
727.807	41418.93
728.149	41114.75
728.491	41199.5
728.833	41288.53
729.175	41023.91
729.516	40894.87
729.858	40901.2
730.199	40864.14
730.541	40837.47
730.882	40668.21
731.224	40817.81
731.565	40471.61
731.906	40425.05
732.248	40583.69
732.589	40262.35
732.93	40084.95
733.271	40306.86
733.612	40243.14
733.953	40333.08
734.294	40117.49
734.635	40027.32
734.976	40125.17
735.317	39798.63
735.658	39834.33
735.999	39833.66
736.339	39628.69
736.68	39660.55
737.021	39502.82
737.361	39490.61
737.702	39558.63
738.042	39340.11
738.383	39170.4
738.723	39322.71
739.063	39176.72
739.404	39181.92
739.744	39056.73
740.084	38965.88
740.424	38865.32
740.764	38882.49
741.104	38977.86
741.444	38700.58
741.784	38672.1
742.124	38768.6
742.464	38631.88
742.804	38572.9
743.143	38433.92
743.483	38442.51
743.823	38264.88
744.162	38054.95
744.502	38247.26
744.841	38082.97
745.181	38183.3
745.52	38007.26
745.86	38082.52
746.199	37934.04
746.538	37913.93
746.877	38004.78
747.216	37722.75
747.556	37786.93
747.895	37670.78
748.234	37462.42
748.573	37474.17
748.911	37462.87
749.25	37267.17
749.589	37105.14
749.928	37316.66
750.267	37205.7
750.605	37167.74
750.944	37101.07
751.283	36875.32
751.621	36949.89
751.96	36730.01
