Data from white_poster_card_FLMS001491_00021.txt Node
Date: Wed Feb 08 11:51:16 GMT 2017
User: dcchb
Spectrometer: FLMS00149
Trigger mode: 0
Integration Time (sec): 2.000000E-2
Scans to average: 10
Electric dark correction enabled: true
Nonlinearity correction enabled: false
Boxcar width: 0
XAxis mode: Wavelengths
Number of Pixels in Spectrum: 2048
>>>>>Begin Spectral Data<<<<<
341.393	-4.18
341.776	-4.18
342.16	-4.18
342.543	-69.49
342.927	-80.34
343.31	-57.06
343.693	-61.58
344.077	-49.83
344.46	-69.26
344.843	-62.03
345.226	-55.93
345.61	-29.04
345.993	-27.23
346.376	-0.56
346.759	-6.67
347.142	21.36
347.525	41.92
347.908	64.07
348.291	92.31
348.674	94.8
349.057	104.74
349.44	122.6
349.823	143.84
350.206	173.22
350.588	200.11
350.971	188.58
351.354	235.14
351.737	254.8
352.119	243.72
352.502	233.33
352.884	294.12
353.267	281.46
353.65	280.78
354.032	295.47
354.414	320.78
354.797	332.31
355.179	310.16
355.562	317.84
355.944	330.73
356.326	353.1
356.709	333.89
357.091	329.37
357.473	335.7
357.855	343.38
358.238	335.92
358.62	336.83
359.002	329.14
359.384	338.41
359.766	319.43
360.148	345.64
360.53	357.84
360.912	339.31
361.294	336.6
361.676	331.4
362.057	313.55
362.439	330.73
362.821	309.48
363.203	308.58
363.584	322.82
363.966	335.92
364.348	329.6
364.729	326.66
365.111	346.32
365.493	324.85
365.874	317.39
366.256	312.65
366.637	338.18
367.019	303.83
367.4	305.19
367.781	309.26
368.163	315.13
368.544	300.22
368.925	319.43
369.306	332.08
369.688	313.1
370.069	299.31
370.45	317.17
370.831	325.3
371.212	327.79
371.593	332.53
371.974	309.71
372.355	317.84
372.736	333.66
373.117	318.3
373.498	332.08
373.879	318.75
374.26	319.65
374.641	327.34
375.021	312.87
375.402	318.97
375.783	330.5
376.163	335.7
376.544	327.11
376.925	322.59
377.305	320.1
377.686	339.54
378.066	326.88
378.447	329.14
378.827	318.07
379.208	328.01
379.588	331.18
379.968	334.34
380.349	330.05
380.729	347
381.109	349.48
381.489	333.89
381.87	359.43
382.25	333.89
382.63	361.01
383.01	341.8
383.39	346.54
383.77	340.89
384.15	348.8
384.53	345.41
384.91	371.4
385.29	370.27
385.67	344.96
386.049	362.14
386.429	342.7
386.809	375.47
387.189	345.87
387.568	364.85
387.948	365.75
388.328	374.11
388.707	376.6
389.087	363.72
389.466	362.14
389.846	369.82
390.225	382.93
390.605	371.18
390.984	384.96
391.363	368.24
391.743	391.74
392.122	369.37
392.501	381.57
392.881	377.05
393.26	376.15
393.639	404.17
394.018	399.88
394.397	411.4
394.776	401.23
395.155	402.81
395.534	409.37
395.913	411.63
396.292	428.58
396.671	424.06
397.05	409.37
397.429	411.4
397.808	410.05
398.186	419.76
398.565	439.88
398.944	430.16
399.323	408.24
399.701	421.8
400.08	427.67
400.458	440.33
400.837	415.02
401.215	453.89
401.594	447.33
401.972	449.59
402.351	435.36
402.729	464.51
403.107	463.38
403.486	429.93
403.864	468.8
404.242	461.8
404.62	469.48
404.999	466.09
405.377	487.11
405.755	479.42
406.133	486.2
406.511	488.46
406.889	509.7
407.267	504.05
407.645	516.26
408.023	520.1
408.401	539.76
408.779	535.92
409.156	534.11
409.534	535.92
409.912	559.19
410.29	570.95
410.667	589.25
411.045	587.89
411.422	590.38
411.8	625.41
412.178	598.97
412.555	623.83
412.933	637.84
413.31	654.33
413.687	672.41
414.065	666.99
414.442	668.57
414.819	692.3
415.197	733.88
415.574	733.65
415.951	748.57
416.328	740.66
416.705	764.16
417.082	771.17
417.46	785.4
417.837	815.91
418.214	818.17
418.591	845.29
418.967	837.83
419.344	862.01
419.721	869.02
420.098	889.36
420.475	903.59
420.852	886.64
421.228	949.69
421.605	939.75
421.982	962.35
422.358	999.41
422.735	993.08
423.111	989.69
423.488	1003.7
423.864	1019.07
424.241	1050.03
424.617	1059.29
424.994	1044.61
425.37	1076.02
425.746	1063.81
426.123	1095.23
426.499	1100.42
426.875	1099.75
427.251	1131.83
427.627	1123.02
428.003	1156.24
428.379	1194.88
428.756	1238.27
429.132	1250.93
429.507	1243.02
429.883	1261.77
430.259	1273.3
430.635	1287.54
431.011	1285.28
431.387	1323.47
431.763	1389
432.138	1366.4
432.514	1369.57
432.89	1410.92
433.265	1445.05
433.641	1465.39
434.016	1485.5
434.392	1490.92
434.767	1536.57
435.143	1486.18
435.518	1575.89
435.894	1537.93
436.269	1574.53
436.644	1627.19
437.02	1635.55
437.395	1608.66
437.77	1647.53
438.145	1667.19
438.52	1700.86
438.895	1669.67
439.271	1729.11
439.646	1729.56
440.021	1759.16
440.395	1760.97
440.77	1783.34
441.145	1765.94
441.52	1787.41
441.895	1799.61
442.27	1838.93
442.645	1807.52
443.019	1829.67
443.394	1851.82
443.769	1890.01
444.143	1869.67
444.518	1886.62
444.892	1878.03
445.267	1918.93
445.641	1919.61
446.016	1961.42
446.39	1945.6
446.764	1930.68
447.139	1989.44
447.513	1994.86
447.887	1973.39
448.262	2005.26
448.636	2000.96
449.01	2041.87
449.384	2066.73
449.758	2060.17
450.132	2105.59
450.506	2068.31
450.88	2113.96
451.254	2104.46
451.628	2126.16
452.002	2175.42
452.376	2192.6
452.75	2207.29
453.123	2241.86
453.497	2283.22
453.871	2250.68
454.244	2314.63
454.618	2322.09
454.992	2351.69
455.365	2359.6
455.739	2394.85
456.112	2441.63
456.486	2459.48
456.859	2505.81
457.232	2494.51
457.606	2500.61
457.979	2551.68
458.352	2632.59
458.725	2577.22
459.099	2647.5
459.472	2696.09
459.845	2699.48
460.218	2704.45
460.591	2755.97
460.964	2761.62
461.337	2782.64
461.71	2868.29
462.083	2920.94
462.456	2904.67
462.829	2908.74
463.201	2948.28
463.574	2985.35
463.947	3040.26
464.32	3097.66
464.692	3084.55
465.065	3103.76
465.438	3209.29
465.81	3216.98
466.183	3212.23
466.555	3331.55
466.928	3315.73
467.3	3324.09
467.672	3386.69
468.045	3451.77
468.417	3478.67
468.789	3552.11
469.161	3515.5
469.534	3588.04
469.906	3663.75
470.278	3714.82
470.65	3735.83
471.022	3821.48
471.394	3859.9
471.766	3896.96
472.138	3891.31
472.51	3995.04
472.882	4049.27
473.253	4114.36
473.625	4129.5
473.997	4222.15
474.369	4289.04
474.74	4320.9
475.112	4375.59
475.484	4447.45
475.855	4515.47
476.227	4532.2
476.598	4700.33
476.97	4715.7
477.341	4849.93
477.713	4877.5
478.084	4924.96
478.455	5081.34
478.827	5092.18
479.198	5244.49
479.569	5283.36
479.94	5302.12
480.311	5444.04
480.682	5536.46
481.053	5651.72
481.424	5743.24
481.795	5804.25
482.166	5799.73
482.537	5896
482.908	6060.07
483.279	6126.51
483.65	6227.75
484.021	6348.42
484.391	6432.49
484.762	6491.69
485.133	6587.28
485.503	6637.9
485.874	6765.36
486.244	6783.44
486.615	6971.46
486.985	6989.53
487.356	7154.95
487.726	7213.71
488.097	7359.92
488.467	7401.05
488.837	7517.43
489.207	7622.96
489.578	7703.64
489.948	7783.86
490.318	7930.3
490.688	8001.48
491.058	8131.65
491.428	8143.4
491.798	8291.19
492.168	8439.44
492.538	8470.62
492.908	8577.29
493.278	8703.61
493.648	8691.86
494.017	8770.96
494.387	8935.25
494.757	8984.06
495.126	9030.16
495.496	9146.31
495.866	9210.04
496.235	9278.51
496.605	9358.06
496.974	9450.49
497.344	9513.31
497.713	9610.71
498.082	9721.89
498.452	9815.22
498.821	9832.85
499.19	9880.53
499.559	9954.2
499.928	10011.38
500.298	10116.68
500.667	10246.85
501.036	10242.33
501.405	10278.71
501.774	10386.28
502.143	10414.3
502.512	10401.65
502.88	10643.9
503.249	10631.25
503.618	10730
503.987	10715.09
504.356	10779.49
504.724	10896.55
505.093	10987.17
505.462	11058.81
505.83	11102.42
506.199	11187.62
506.567	11341.96
506.936	11382.41
507.304	11560.71
507.672	11451.56
508.041	11612.24
508.409	11672.57
508.777	11781.95
509.145	11906.01
509.514	11927.03
509.882	12034.15
510.25	12097.42
510.618	12160.47
510.986	12216.06
511.354	12374.7
511.722	12452.21
512.09	12604.08
512.458	12566.79
512.826	12668.71
513.193	12750.29
513.561	12813.11
513.929	12990.51
514.297	13066.89
514.664	13202.48
515.032	13212.42
515.4	13375.58
515.767	13353.89
516.135	13451.96
516.502	13407.22
516.869	13728.79
517.237	13801.56
517.604	13756.81
517.972	13991.38
518.339	14006.98
518.706	14063.02
519.073	14170.59
519.44	14234.77
519.808	14428.21
520.175	14422.78
520.542	14672.95
520.909	14732.61
521.276	14795.2
521.643	14964.01
522.009	15038.14
522.376	15121.98
522.743	15220.05
523.11	15421.85
523.477	15554.28
523.843	15606.71
524.21	15704.78
524.577	16005.34
524.943	16163.3
525.31	16081.5
525.676	16273.58
526.043	16317.2
526.409	16521.26
526.776	16678.54
527.142	16694.82
527.508	16850.52
527.874	16985.2
528.241	16992.43
528.607	17127.35
528.973	17330.28
529.339	17333.67
529.705	17553.32
530.071	17619.31
530.437	17730.95
530.803	17823.83
531.169	17902.24
531.535	17949.92
531.901	18009.58
532.267	18205.96
532.632	18192.85
532.998	18339.97
533.364	18512.62
533.73	18466.07
534.095	18598.95
534.461	18711.71
534.826	18891.14
535.192	18884.14
535.557	19075.32
535.923	19067.18
536.288	19069.89
536.653	19238.93
537.019	19167.07
537.384	19301.98
537.749	19413.39
538.114	19465.36
538.479	19596.66
538.845	19600.05
539.21	19687.5
539.575	19732.48
539.94	19807.28
540.305	19935.63
540.67	19983.77
541.034	20021.06
541.399	20163.65
541.764	20250.43
542.129	20353.25
542.494	20351.22
542.858	20420.82
543.223	20570.19
543.587	20654.49
543.952	20588.95
544.316	20688.61
544.681	20726.57
545.045	20818.32
545.41	21016.96
545.774	21117.98
546.138	21148.71
546.503	21260.8
546.867	21228.26
547.231	21326.56
547.595	21418.76
547.959	21472.54
548.324	21484.97
548.688	21570.39
549.052	21710.95
549.416	21656.94
549.779	21773.33
550.143	21856.49
550.507	22068.91
550.871	22101.9
551.235	22075.24
551.599	22264.16
551.962	22322.01
552.326	22423.7
552.689	22552.29
553.053	22450.14
553.417	22541.44
553.78	22812.85
554.143	22775.79
554.507	22996.57
554.87	22962.9
555.234	23202.21
555.597	23022.33
555.96	23255.55
556.323	23389.33
556.686	23348.2
557.05	23651.02
557.413	23645.14
557.776	23719.49
558.139	23959.93
558.502	23900.05
558.865	23942.31
559.228	24156.54
559.59	24266.37
559.953	24297.1
560.316	24642.4
560.679	24475.4
561.041	24585.23
561.404	24902.96
561.767	24939.12
562.129	24910.64
562.492	25210.98
562.854	25154.48
563.217	25344.98
563.579	25423.85
563.941	25461.59
564.304	25657.07
564.666	25749.72
565.028	25921.01
565.39	25962.14
565.753	26178.86
566.115	26108.35
566.477	26191.29
566.839	26471.51
567.201	26453.88
567.563	26572.07
567.925	26813.19
568.287	26887.32
568.648	26884.83
569.01	27062.45
569.372	27270.81
569.734	27202.34
570.095	27346.06
570.457	27424.93
570.819	27498.15
571.18	27548.54
571.542	27682.77
571.903	27758.48
572.265	27942.88
572.626	28067.4
572.987	28051.8
573.349	28048.42
573.71	28155.76
574.071	28306.71
574.432	28447.05
574.794	28551.23
575.155	28511.91
575.516	28476.2
575.877	28527.5
576.238	28644.11
576.599	28711
576.96	28788.96
577.32	28733.82
577.681	28955.28
578.042	28921.39
578.403	29038.22
578.763	29016.3
579.124	29000.71
579.485	29306.46
579.845	29279.12
580.206	29241.38
580.566	29300.36
580.927	29382.62
581.287	29498.55
581.648	29211.55
582.008	29532.67
582.368	29377.65
582.728	29477.08
583.089	29432.33
583.449	29507.59
583.809	29494.93
584.169	29553.69
584.529	29448.38
584.889	29617.41
585.249	29457.42
585.609	29443.41
585.969	29717.07
586.329	29524.31
586.688	29676.39
587.048	29484.08
587.408	29515.72
587.768	29451.99
588.127	29510.3
588.487	29518.43
588.846	29745.09
589.206	29423.75
589.565	29590.75
589.925	29814.24
590.284	29566.79
590.643	29519.34
591.003	29727.92
591.362	29858.76
591.721	29702.38
592.08	29729.5
592.44	29809.72
592.799	29861.7
593.158	29783.96
593.517	29767.69
593.876	29848.82
594.235	29778.54
594.593	29902.6
594.952	29954.58
595.311	29810.18
595.67	29970.4
596.029	29961.59
596.387	30109.38
596.746	30135.37
597.104	29907.12
597.463	29962.94
597.822	30029.38
598.18	29941.92
598.538	29993.22
598.897	30112.54
599.255	29836.39
599.613	30219.66
599.972	30237.06
600.33	30313.89
600.688	30084.75
601.046	30179.21
601.404	30175.36
601.762	30297.62
602.12	30409.48
602.478	30338.75
602.836	30376.94
603.194	30239.54
603.552	30393.21
603.91	30339.2
604.268	30352.54
604.625	30230.05
604.983	30403.83
605.341	30198.87
605.698	30484.74
606.056	30564.96
606.413	30550.5
606.771	30644.05
607.128	30689.02
607.485	30566.77
607.843	30576.94
608.2	30814.67
608.557	30765.86
608.914	30690.15
609.272	30744.16
609.629	30964.04
609.986	30953.88
610.343	30905.06
610.7	31067.77
611.057	31105.96
611.414	30979.64
611.771	31006.3
612.127	31163.36
612.484	31116.36
612.841	31321.55
613.198	31037.26
613.554	31143.25
613.911	31451.94
614.267	31266.86
614.624	31292.85
614.98	31423.92
615.337	31539.85
615.693	31396.8
616.05	31304.83
616.406	31606.97
616.762	31436.12
617.118	31472.96
617.475	31515.67
617.831	31588.43
618.187	31530.36
618.543	31560.87
618.899	31766.06
619.255	31750.01
619.611	31710.69
619.967	31786.17
620.323	31809.45
620.678	31702.33
621.034	31659.17
621.39	31815.32
621.746	31639.06
622.101	32021.19
622.457	31674.08
622.812	31806.06
623.168	31671.82
623.523	31764.93
623.879	31867.3
624.234	31752.05
624.589	31894.19
624.945	31721.99
625.3	31807.41
625.655	31835.43
626.01	31748.66
626.365	31797.47
626.72	31825.04
627.075	31771.26
627.43	31804.93
627.785	31688.32
628.14	31730.35
628.495	31762.89
628.85	31730.13
629.205	31561.09
629.559	31822.78
629.914	31575.1
630.269	31620.07
630.623	31610.58
630.978	31489.23
631.332	31718.38
631.687	31667.08
632.041	31451.94
632.396	31396.12
632.75	31426.63
633.104	31459.62
633.459	31251.95
633.813	31342.34
634.167	31234.77
634.521	31325.17
634.875	31284.94
635.229	31300.08
635.583	31213.3
635.937	31050.6
636.291	31105.51
636.645	31182.12
636.999	30983.25
637.352	31008.11
637.706	30811.73
638.06	30952.97
638.413	30900.09
638.767	30863.26
639.121	30833.65
639.474	30586.2
639.828	30620.32
640.181	30663.94
640.534	30692.87
640.888	30582.59
641.241	30518.86
641.594	30425.53
641.947	30571.96
642.301	30577.61
642.654	30499.88
643.007	30313.89
643.36	30337.85
643.713	30342.82
644.066	30365.42
644.419	30205.19
644.771	30087.68
645.124	29796.84
645.477	29724.53
645.83	29447.7
646.182	29350.98
646.535	29410.19
646.888	29299.91
647.24	29173.13
647.593	29355.27
647.945	29197.09
648.298	28983.53
648.65	29121.16
649.002	28933.82
649.355	29028.95
649.707	28995.51
650.059	29159.35
650.411	29380.13
650.763	29515.5
651.115	29722.27
651.467	29617.87
651.819	29590.07
652.171	29620.13
652.523	29515.27
652.875	29437.76
653.227	29310.08
653.578	29536.74
653.93	29457.42
654.282	29340.36
654.633	29286.8
654.985	29356.18
655.337	29302.39
655.688	29283.41
656.039	29362.96
656.391	29101.04
656.742	29159.57
657.094	29206.58
657.445	29258.78
657.796	29204.99
658.147	29189.18
658.498	29056.98
658.849	29147.82
659.2	29143.08
659.551	29068.05
659.902	29162.51
660.253	29019.24
660.604	29005.68
660.955	28944.21
661.306	28976.07
661.656	28795.29
662.007	28857.89
662.358	28853.37
662.708	28871.9
663.059	28903.08
663.409	28759.13
663.76	28859.24
664.11	28795.74
664.461	28921.61
664.811	28824.89
665.161	28834.84
665.511	28672.81
665.862	28894.27
666.212	28808.4
666.562	28768.62
666.912	28668.51
667.262	28661.51
667.612	28644.33
667.962	28684.33
668.312	28582.19
668.662	28769.3
669.011	28601.39
669.361	28706.25
669.711	28463.32
670.06	28410.21
670.41	28444.56
670.76	28507.16
671.109	28550.32
671.459	28545.58
671.808	28501.51
672.157	28527.27
672.507	28253.16
672.856	28325.24
673.205	28413.83
673.554	28451.79
673.904	28128.19
674.253	28574.5
674.602	28315.3
674.951	27894.75
675.3	27676
675.649	28174.97
675.998	28159.82
676.346	28294.06
676.695	28377.67
677.044	28092.93
677.393	28249.99
677.741	28112.59
678.09	28086.83
678.438	28152.82
678.787	28034.86
679.135	28095.19
679.484	27875.99
679.832	27967.51
680.181	27766.84
680.529	27934.07
680.877	27848.19
681.225	27805.48
681.573	27920.96
681.922	27664.92
682.27	27571.59
682.618	27638.71
682.966	27597.35
683.314	27685.71
683.661	27546.06
684.009	27346.74
684.357	27473.29
684.705	27219.51
685.053	27331.82
685.4	27353.52
685.748	27110.36
686.095	27149
686.443	27153.52
686.79	26946.75
687.138	26989.23
687.485	27040.08
687.832	26897.94
688.18	26963.92
688.527	26720.54
688.874	26728.9
689.221	26741.78
689.568	26630.83
689.915	26450.49
690.262	26568
690.609	26356.48
690.956	26400.32
691.303	26297.5
691.65	26119.2
691.997	26205.3
692.344	26093.89
692.69	26036.26
693.037	26001.01
693.383	25787.01
693.73	25737.74
694.077	25760.34
694.423	25678.76
694.769	25608.03
695.116	25536.39
695.462	25451.42
695.808	25361.93
696.155	25469.95
696.501	25327.58
696.847	25284.42
697.193	25061.6
697.539	25202.39
697.885	24885.79
698.231	24854.83
698.577	24959.68
698.923	24875.84
699.269	24730.54
699.614	24662.06
699.96	24540.94
700.306	24545.46
700.651	24514.95
700.997	24361.28
701.342	24416.19
701.688	24349.3
702.033	24162.64
702.379	24215.3
702.724	24136.43
703.069	24127.61
703.415	23860.28
703.76	23841.97
704.105	23893.5
704.45	23847.17
704.795	23770.34
705.14	23609.66
705.485	23630.9
705.83	23434.07
706.175	23539.16
706.52	23393.62
706.865	23351.59
707.209	23345.94
707.554	23282.89
707.899	23249.67
708.243	23068.88
708.588	23120.86
708.932	22980.53
709.277	23057.13
709.621	23062.56
709.966	22813.07
710.31	22913.63
710.654	22765.62
710.998	22804.94
711.342	22716.35
711.687	22558.84
712.031	22548.9
712.375	22581.21
712.719	22587.77
713.063	22399.98
713.407	22550.25
713.75	22353.2
714.094	22314.33
714.438	22162.69
714.782	22277.49
715.125	22232.97
715.469	22154.11
715.812	22140.77
716.156	21945.75
716.499	21991.4
716.843	22000.66
717.186	21818.97
717.53	21942.13
717.873	21922.7
718.216	21856.94
718.559	21711.86
718.902	21627.11
719.246	21560.68
719.589	21548.02
719.932	21493.56
720.275	21484.52
720.617	21486.55
720.96	21309.84
721.303	21404.07
721.646	21418.76
721.989	21204.98
722.331	21260.57
722.674	21357.97
723.016	21209.27
723.359	21212.66
723.701	21162.49
724.044	20970.64
724.386	20953.46
724.729	21040.92
725.071	20995.49
725.413	20977.64
725.755	20906.46
726.097	20841.15
726.439	20734.26
726.782	20774.71
727.124	20851.99
727.465	20676.18
727.807	20616.52
728.149	20693.13
728.491	20534.71
728.833	20608.61
729.175	20576.52
729.516	20422.85
729.858	20470.99
730.199	20415.85
730.541	20357.09
730.882	20269.18
731.224	20424.89
731.565	20300.37
731.906	20289.75
732.248	20318.45
732.589	20158
732.93	20110.77
733.271	20106.7
733.612	20160.49
733.953	20094.95
734.294	20044.78
734.635	19934.28
734.976	20138.79
735.317	19856.09
735.658	19947.61
735.999	19851.12
736.339	19896.99
736.68	19912.13
737.021	19801.63
737.361	19854.05
737.702	19825.13
738.042	19759.14
738.383	19624.91
738.723	19653.61
739.063	19601.86
739.404	19556.21
739.744	19561.18
740.084	19518.02
740.424	19511.69
740.764	19461.3
741.104	19519.6
741.444	19375.65
741.784	19270.79
742.124	19353.28
742.464	19300.17
742.804	19323.45
743.143	19312.15
743.483	19247.52
743.823	19047.3
744.162	19118.25
744.502	19153.06
744.841	19079.61
745.181	19082.55
745.52	18933.63
745.86	18996.45
746.199	18952.38
746.538	18864.02
746.877	19043.45
747.216	18955.09
747.556	18824.02
747.895	18911.25
748.234	18777.25
748.573	18710.13
748.911	18718.94
749.25	18700.64
749.589	18544.94
749.928	18560.3
750.267	18636.91
750.605	18557.59
750.944	18498.16
751.283	18380.42
751.621	18446.86
751.96	18340.65
752.298	18333.19
752.636	18338.39
752.975	18188.56
753.313	18185.17
753.651	18279.63
753.989	18104.27
754.327	18153.99
754.666	18017.04
