Data from White_reflection_standard_FLMS001491_014.txt Node
Date: Tue Feb 07 10:31:58 GMT 2017
User: dcchb
Spectrometer: FLMS00149
Trigger mode: 0
Integration Time (sec): 2.000000E-2
Scans to average: 10
Electric dark correction enabled: true
Nonlinearity correction enabled: false
Boxcar width: 0
XAxis mode: Wavelengths
Number of Pixels in Spectrum: 2048
>>>>>Begin Spectral Data<<<<<
341.393	-12.97
341.776	-12.97
342.16	-12.97
342.543	-59.52
342.927	-72.17
343.31	-60.65
343.693	-59.74
344.077	-73.3
344.46	-62.23
344.843	-49.12
345.226	-53.19
345.61	-30.37
345.993	-13.87
346.376	0.37
346.759	-0.08
347.142	39.24
347.525	43.53
347.908	53.25
348.291	71.55
348.674	95.51
349.057	99.12
349.44	131.21
349.823	135.73
350.206	167.14
350.588	222.73
350.971	255.95
351.354	270.64
351.737	271.09
352.119	280.59
352.502	301.38
352.884	300.02
353.267	333.01
353.65	331.66
354.032	348.38
354.414	358.55
354.797	352
355.179	369.85
355.562	374.59
355.944	389.51
356.326	382.5
356.709	386.8
357.091	390.19
357.473	401.26
357.855	409.17
358.238	393.35
358.62	384.54
359.002	417.98
359.384	427.7
359.766	404.65
360.148	396.06
360.53	409.85
360.912	411.88
361.294	392.45
361.676	400.58
362.057	401.03
362.439	401.94
362.821	413.01
363.203	401.03
363.584	418.44
363.966	386.35
364.348	398.77
364.729	393.8
365.111	387.48
365.493	411.2
365.874	408.94
366.256	428.38
366.637	396.51
367.019	407.81
367.4	428.38
367.781	401.03
368.163	421.15
368.544	423.41
368.925	410.3
369.306	429.96
369.688	411.43
370.069	422.5
370.45	432.22
370.831	435.38
371.212	446.91
371.593	432.22
371.974	426.12
372.355	441.71
372.736	448.04
373.117	458.21
373.498	452.78
373.879	453.24
374.26	454.14
374.641	446.46
375.021	456.85
375.402	476.29
375.783	470.19
376.163	496.85
376.544	508.38
376.925	493.24
377.305	479
377.686	502.5
378.066	516.06
378.447	487.36
378.827	494.59
379.208	502.73
379.588	495.95
379.968	518.09
380.349	523.74
380.729	508.38
381.109	519.9
381.489	546.12
381.87	559.45
382.25	564.42
382.63	552.9
383.01	575.95
383.39	571.43
383.77	572.33
384.15	570.3
384.53	587.02
384.91	561.03
385.29	597.64
385.67	592.44
386.049	613.46
386.429	605.55
386.809	619.11
387.189	627.7
387.568	617.75
387.948	633.8
388.328	654.59
388.707	643.97
389.087	648.49
389.466	665.43
389.846	683.29
390.225	684.87
390.605	688.26
390.984	691.65
391.363	679.22
391.743	727.13
392.122	689.39
392.501	738.88
392.881	747.01
393.26	768.93
393.639	740.69
394.018	772.1
394.397	768.48
394.776	779.56
395.155	802.38
395.534	786.34
395.913	767.13
396.292	826.56
396.671	820.23
397.05	837.63
397.429	846.45
397.808	843.06
398.186	830.4
398.565	838.76
398.944	855.03
399.323	867.24
399.701	885.77
400.08	896.39
400.458	883.73
400.837	918.08
401.215	923.96
401.594	924.86
401.972	987.23
402.351	934.13
402.729	948.36
403.107	952.88
403.486	1008.02
403.864	997.4
404.242	993.34
404.62	1012.32
404.999	1029.27
405.377	1039.66
405.755	1061.81
406.133	1080.56
406.511	1065.88
406.889	1102.49
407.267	1132.09
407.645	1120.79
408.023	1121.02
408.401	1148.36
408.779	1157.4
409.156	1202.6
409.534	1191.07
409.912	1217.74
410.29	1241.24
410.667	1278.53
411.045	1297.73
411.422	1261.58
411.8	1293.44
412.178	1329.15
412.555	1354.46
412.933	1360.33
413.31	1383.38
413.687	1387.9
414.065	1397.84
414.442	1411.4
414.819	1447.33
415.197	1467.67
415.574	1491.63
415.951	1515.81
416.328	1543.6
416.705	1534.11
417.082	1533.21
417.46	1557.39
417.837	1579.99
418.214	1598.97
418.591	1626.09
418.967	1580.89
419.344	1624.51
419.721	1663.83
420.098	1638.97
420.475	1701.57
420.852	1699.31
421.228	1698.18
421.605	1743.37
421.982	1782.69
422.358	1784.05
422.735	1835.57
423.111	1780.66
423.488	1830.83
423.864	1864.27
424.241	1879.64
424.617	1894.78
424.994	1916.93
425.37	1954.21
425.746	1942.92
426.123	1980.43
426.499	2030.14
426.875	2027.21
427.251	2043.48
427.627	2120.09
428.003	2128.67
428.379	2167.09
428.756	2175.68
429.132	2228.56
429.507	2247.31
429.883	2296.35
430.259	2313.07
430.635	2330.48
431.011	2358.5
431.387	2432.39
431.763	2450.47
432.138	2442.79
432.514	2507.65
432.89	2523.24
433.265	2558.49
433.641	2612.05
434.016	2630.35
434.392	2701.31
434.767	2713.74
435.143	2736.11
435.518	2741.99
435.894	2795.55
436.269	2833.74
436.644	2878.48
437.02	2938.82
437.395	2883.23
437.77	2928.2
438.145	2980.4
438.52	3030.12
438.895	3077.57
439.271	3070.12
439.646	3165.26
440.021	3170
440.395	3164.58
440.77	3184.01
441.145	3197.35
441.52	3270.56
441.895	3266.5
442.27	3342.43
442.645	3337.45
443.019	3355.99
443.394	3348.75
443.769	3412.93
444.143	3392.59
444.518	3530.9
444.892	3461.75
445.267	3492.48
445.641	3529.31
446.016	3559.82
446.39	3558.01
446.764	3625.81
447.139	3623.32
447.513	3654.96
447.887	3669.2
448.262	3696.54
448.636	3702.64
449.01	3741.74
449.384	3790.1
449.758	3852.47
450.132	3908.51
450.506	3937.66
450.88	3938.12
451.254	3944.9
451.628	3988.74
452.002	4056.98
452.376	4091.79
452.75	4149.18
453.123	4164.55
453.497	4283.42
453.871	4263.31
454.244	4378.78
454.618	4475.05
454.992	4515.95
455.365	4477.54
455.739	4542.17
456.112	4640.92
456.486	4676.18
456.859	4734.71
457.232	4807.92
457.606	4761.15
457.979	4859.45
458.352	4991.2
458.725	5012.66
459.099	5068.26
459.472	5181.7
459.845	5264.18
460.218	5260.12
460.591	5300.34
460.964	5349.15
461.337	5529.49
461.71	5539.43
462.083	5625.53
462.456	5687.68
462.829	5669.14
463.201	5770.84
463.574	5798.63
463.947	5927.89
464.32	6068
464.692	6083.37
465.065	6146.87
465.438	6244.72
465.81	6300.99
466.183	6349.35
466.555	6521.78
466.928	6560.19
467.3	6531.49
467.672	6671.83
468.045	6809.68
468.417	6886.97
468.789	6925.38
469.161	7008.32
469.534	7155.21
469.906	7283.11
470.278	7379.61
470.65	7436.33
471.022	7550.23
471.394	7800.39
471.766	7846.94
472.138	7895.75
472.51	8105.46
472.882	8200.6
473.253	8311.56
473.625	8447.83
473.997	8607.6
474.369	8680.14
474.74	8756.97
475.112	8962.84
475.484	9115.83
475.855	9313.79
476.227	9362.15
476.598	9600.57
476.97	9707.91
477.341	9871.75
477.713	10039.88
478.084	10077.84
478.455	10380.21
478.827	10486.65
479.198	10781.33
479.569	10742.91
479.94	11168.44
480.311	11249.79
480.682	11471.48
481.053	11752.37
481.424	11951.47
481.795	12095.87
482.166	12226.49
482.537	12418.57
482.908	12651.56
483.279	12789.41
483.65	13003.19
484.021	13293.8
484.391	13427.81
484.762	13574.7
485.133	13631.42
485.503	13951.64
485.874	14201.8
486.244	14317.73
486.615	14567.89
486.985	14744.39
487.356	15058.95
487.726	15259.63
488.097	15437.25
488.467	15598.6
488.837	15857.8
489.207	16056.22
489.578	16297.79
489.948	16437
490.318	16660.04
490.688	16754.28
491.058	17093.7
491.428	17234.26
491.798	17402.4
492.168	17765.55
492.538	17927.13
492.908	18154.92
493.278	18336.38
493.648	18363.95
494.017	18561.69
494.387	18737.05
494.757	18916.03
495.126	19084.16
495.496	19165.29
495.866	19398.28
496.235	19573.86
496.605	19824.25
496.974	19919.84
497.344	20004.81
497.713	20194.41
498.082	20402.54
498.452	20571.35
498.821	20725.92
499.19	20775.64
499.559	20966.14
499.928	21072.13
500.298	21396.41
500.667	21477.54
501.036	21556.18
501.405	21734.71
501.774	21731.32
502.143	21977.42
502.512	22087.47
502.88	22281.36
503.249	22376.5
503.618	22552.54
503.987	22682.48
504.356	22878.41
504.724	23011.51
505.093	23019.65
505.462	23241.79
505.83	23363.14
506.199	23595.9
506.567	23851.04
506.936	23940.3
507.304	24164.7
507.672	24205.83
508.041	24469.1
508.409	24615.77
508.777	24787.06
509.145	25025.02
509.514	24954.29
509.882	25178.01
510.25	25318.8
510.618	25457.78
510.986	25653.7
511.354	25848.95
511.722	26133.69
512.09	26424.53
512.458	26293.91
512.826	26781.13
513.193	26771.41
513.561	26969.83
513.929	27161.46
514.297	27372.53
514.664	27615.69
515.032	27702.92
515.4	27927.32
515.767	28114.2
516.135	28389.9
516.502	28226.29
516.869	28570.69
517.237	28847.74
517.604	28825.15
517.972	29118.02
518.339	29439.82
518.706	29461.97
519.073	29627.16
519.44	29952.8
519.808	30252.23
520.175	30129.29
520.542	30720.01
520.909	30811.76
521.276	30863.74
521.643	31374.01
522.009	31449.94
522.376	31601.12
522.743	31969.02
523.11	32154.32
523.477	32558.61
523.843	32648.77
524.21	33183.45
524.577	33269.55
524.943	33415.76
525.31	33464.12
525.676	33905.69
526.043	34210.77
526.409	34427.71
526.776	34719.68
527.142	34790.86
527.508	34982.72
527.874	35309.72
528.241	35432.88
528.607	35544.74
528.973	35858.63
529.339	35936.37
529.705	36241.9
530.071	36597.15
530.437	36791.26
530.803	37047.08
531.169	37220.18
531.535	37143.8
531.901	37404.81
532.267	37547.63
532.632	37942.65
532.998	37884.34
533.364	38217.89
533.73	38376.31
534.095	38510.32
534.461	38673.93
534.826	38892.23
535.192	39129.73
535.557	39419.67
535.923	39396.39
536.288	39556.39
536.653	39726.78
537.019	39590.74
537.384	39909.15
537.749	40041.35
538.114	40274.79
538.479	40254.68
538.845	40381.23
539.21	40556.59
539.575	40744.83
539.94	40783.48
540.305	41147.76
540.67	41064.15
541.034	41350.01
541.399	41473.85
541.764	41671.14
542.129	41739.61
542.494	41799.27
542.858	41912.49
543.223	42158.81
543.587	42352.93
543.952	42224.79
544.316	42558.57
544.681	42463.88
545.045	42659.36
545.41	42981.38
545.774	42963.98
546.138	43219.57
546.503	43187.03
546.867	43277.65
547.231	43620.01
547.595	43776.84
547.959	43923.96
548.324	44083.05
548.688	44058.42
549.052	44188.13
549.416	44344.51
549.779	44452.76
550.143	44611.85
550.507	44789.47
550.871	44862.69
551.235	44920.32
551.599	45308.78
551.962	45334.54
552.326	45489.34
552.689	45711.71
553.053	45617.7
553.417	45697.24
553.78	46297.45
554.143	46130.68
554.507	46318.92
554.87	46508.75
555.234	46887.5
555.597	46670.1
555.96	46885.69
556.323	47035.97
556.686	47181.73
557.05	47405.22
557.413	47575.16
557.776	47627.59
558.139	47837.75
558.502	48075.49
558.865	48153.45
559.228	48428.02
559.59	48502.82
559.953	48659.2
560.316	48929.93
560.679	48965.86
561.041	49257.83
561.404	49332.63
561.767	49599.29
562.129	49536.92
562.492	50021.65
562.854	49983.23
563.217	49890.58
563.579	50143.46
563.941	50474.75
564.304	50512.49
564.666	50760.84
565.028	50763.78
565.39	50880.16
565.753	51168.74
566.115	51204.67
566.477	51343.42
566.839	51555.17
567.201	51733.47
567.563	51730.53
567.925	51938.21
568.287	51896.86
568.648	52077.19
569.01	52276.51
569.372	52438.08
569.734	52328.93
570.095	52632.2
570.457	52608.25
570.819	52810.28
571.18	52845.98
571.542	53083.72
571.903	53076.94
572.265	53183.83
572.626	53292.3
572.987	53269.93
573.349	53380.66
573.71	53543.82
574.071	53629.24
574.432	53694.1
574.794	53818.39
575.155	53849.12
575.516	53708.33
575.877	53930.7
576.238	53994.43
576.599	54106.29
576.96	54057.25
577.32	54199.62
577.681	54261.77
578.042	54302.44
578.403	54311.71
578.763	54392.84
579.124	54394.64
579.485	54534.75
579.845	54570.91
580.206	54494.3
580.566	54497.01
580.927	54570.91
581.287	54706.27
581.648	54544.92
582.008	54726.39
582.368	54761.87
582.728	54719.83
583.089	54682.32
583.449	54669.66
583.809	54741.07
584.169	54745.14
584.529	54696.78
584.889	54871.47
585.249	54700.17
585.609	54719.61
585.969	54831.02
586.329	54751.24
586.688	54861.98
587.048	54828.08
587.408	54765.93
587.768	54822.2
588.127	54802.99
588.487	54777.23
588.846	54965.48
589.206	54756.67
589.565	54757.57
589.925	54898.13
590.284	54758.48
590.643	54937.45
591.003	54876.21
591.362	54926.61
591.721	54947.85
592.08	54974.06
592.44	54951.46
592.799	54953.05
593.158	55028.07
593.517	54972.03
593.876	55036.21
594.235	54907.62
594.593	54979.94
594.952	55038.02
595.311	54925.02
595.67	55025.14
596.029	55173.61
596.387	55146.71
596.746	55213.15
597.104	55049.77
597.463	55111.69
597.822	55163.89
598.18	55144
598.538	55050.45
598.897	55255.41
599.255	54980.84
599.613	55438.68
599.972	55257.22
600.33	55351
600.688	55175.41
601.046	55343.54
601.404	55447.04
601.762	55379.48
602.12	55453.82
602.478	55421.28
602.836	55475.74
603.194	55347.16
603.552	55468.97
603.91	55409.31
604.268	55440.27
604.625	55462.19
604.983	55595.97
605.341	55474.61
605.698	55629.86
606.056	55613.82
606.413	55548.74
606.771	55672.12
607.128	55803.42
607.485	55650.66
607.843	55690.43
608.2	55810.65
608.557	55914.83
608.914	55715.74
609.272	55953.25
609.629	55893.13
609.986	55983.3
610.343	55937.2
610.7	56079.12
611.057	56055.16
611.414	56049.51
611.771	56059.23
612.127	56182.17
612.484	56214.71
612.841	56183.52
613.198	56119.34
613.554	56223.75
613.911	56325.67
614.267	56282.5
614.624	56192.34
614.98	56290.41
615.337	56427.81
615.693	56221.26
616.05	56324.54
616.406	56444.08
616.762	56367.02
617.118	56381.71
617.475	56393.23
617.831	56461.48
618.187	56474.36
618.543	56410.18
618.899	56618.77
619.255	56563.85
619.611	56531.08
619.967	56644.98
620.323	56672.78
620.678	56538.32
621.034	56461.48
621.39	56576.28
621.746	56503.74
622.101	56810.4
622.457	56468.49
622.812	56579.9
623.168	56576.96
623.523	56568.6
623.879	56750.51
624.234	56503.97
624.589	56608.14
624.945	56684.07
625.3	56662.83
625.655	56626.9
626.01	56610.63
626.365	56684.98
626.72	56607.47
627.075	56642.27
627.43	56586
627.785	56570.41
628.14	56578.99
628.495	56620.57
628.85	56503.06
629.205	56476.17
629.559	56588.26
629.914	56513.91
630.269	56479.79
630.623	56434.14
630.978	56411.54
631.332	56455.38
631.687	56453.57
632.041	56388.94
632.396	56409.73
632.75	56268.94
633.104	56245.22
633.459	56196.4
633.813	56177.87
634.167	56187.14
634.521	56221.49
634.875	56184.88
635.229	56080.02
635.583	55993.7
635.937	56005.45
636.291	55966.81
636.645	55944.88
636.999	55927.94
637.352	55970.87
637.706	55803.42
638.06	55903.76
638.413	55861.72
638.767	55717.77
639.121	55788.05
639.474	55560.71
639.828	55653.82
640.181	55682.29
640.534	55602.07
640.888	55570.66
641.241	55475.74
641.594	55533.82
641.947	55557.78
642.301	55459.25
642.654	55390.55
643.007	55383.54
643.36	55416.54
643.713	55338.35
644.066	55406.37
644.419	55132.7
644.771	54995.53
645.124	54795.08
645.477	54594.41
645.83	54469.44
646.182	54416.56
646.535	54252.95
646.888	54384.25
647.24	54207.53
647.593	54310.35
647.945	54159.62
648.298	54058.15
648.65	54103.58
649.002	53930.93
649.355	54095.44
649.707	54039.62
650.059	54147.64
650.411	54458.37
650.763	54441.87
651.115	54730.68
651.467	54590.57
651.819	54636.67
652.171	54457.92
652.523	54472.61
652.875	54586.05
653.227	54315.55
653.578	54546.05
653.93	54463.12
654.282	54319.84
654.633	54199.17
654.985	54279.17
655.337	54256.34
655.688	54255.89
656.039	54276.45
656.391	54077.59
656.742	54119.85
657.094	54148.1
657.445	54226.29
657.796	54192.39
658.147	53983.35
658.498	54051.15
658.849	54057.93
659.2	54012.96
659.551	53975.22
659.902	54025.16
660.253	53918.27
660.604	54024.03
660.955	53878.5
661.306	54065.39
661.656	53906.97
662.007	53896.35
662.358	53907.65
662.708	53902.9
663.059	53809.57
663.409	53729.58
663.76	53911.94
664.11	53839.4
664.461	53845.51
664.811	53741.1
665.161	53694.55
665.511	53615.23
665.862	53730.93
666.212	53757.15
666.562	53760.76
666.912	53685.74
667.262	53665.17
667.612	53620.2
667.962	53588.11
668.312	53541.33
668.662	53644.15
669.011	53604.83
669.361	53544.5
669.711	53468.79
670.06	53479.41
670.41	53425.63
670.76	53347.89
671.109	53456.36
671.459	53327.1
671.808	53319.87
672.157	53383.37
672.507	53097.95
672.856	53251.85
673.205	53231.96
673.554	53320.1
673.904	53164.17
674.253	53384.95
674.602	53215.47
674.951	52750.62
675.3	52573.67
675.649	53059.54
675.998	53099.76
676.346	53038.75
676.695	53103.83
677.044	52855.25
677.393	52965.08
677.741	53016.37
678.09	52890.95
678.438	52820.22
678.787	52901.35
679.135	52867.9
679.484	52615.71
679.832	52824.74
680.181	52611.64
680.529	52637.63
680.877	52524.41
681.225	52552.66
681.573	52673.11
681.922	52402.15
682.27	52386.33
682.618	52458.87
682.966	52275.38
683.314	52266.34
683.661	52245.77
684.009	52035.84
684.357	51996.51
684.705	51947.25
685.053	51922.39
685.4	51847.14
685.748	51812.11
686.095	51743.64
686.443	51588.62
686.79	51621.83
687.138	51657.77
687.485	51552.46
687.832	51427.49
688.18	51507.26
688.527	51210.77
688.874	51295.29
689.221	51140.27
689.568	51080.61
689.915	50996.31
690.262	50872.48
690.609	50810.78
690.956	50792.7
691.303	50715.87
691.65	50516.33
691.997	50430
692.344	50330.34
692.69	50305.71
693.037	50295.99
693.383	50053.06
693.73	50146.39
694.077	49896.23
694.423	49882.67
694.769	49804.48
695.116	49578.05
695.462	49504.38
695.808	49377.83
696.155	49463.7
696.501	49228
696.847	49360.65
697.193	49034.78
697.539	49077.04
697.885	48815.81
698.231	48642.48
698.577	48738.52
698.923	48677.05
699.269	48361.13
699.614	48237.74
699.96	48219.89
700.306	48204.52
700.651	48048.37
700.997	47906
701.342	47959.33
701.688	47772.67
702.033	47644.99
702.379	47636.18
702.724	47461.04
703.069	47622.84
703.415	47099.02
703.76	47265.34
704.105	46979.47
704.45	47011.79
704.795	46700.38
705.14	46501.97
705.485	46699.25
705.83	46529.54
706.175	46482.08
706.52	46341.07
706.865	46190.79
707.209	46051.36
707.554	46008.65
707.899	46101.3
708.243	45763.46
708.588	45780.41
708.932	45542.22
709.277	45430.36
709.621	45487.08
709.966	45177.71
710.31	45409.34
710.654	44895.68
710.998	45113.76
711.342	44971.61
711.687	44873.31
712.031	44694.11
712.375	44648.01
712.719	44709.7
713.063	44669.93
713.407	44643.49
713.75	44338.41
714.094	44377.96
714.438	44112.65
714.782	44224.52
715.125	44013.22
715.469	44161.24
715.812	43677.64
716.156	43625.66
716.499	43675.83
716.843	43690.74
717.186	43406.46
717.53	43690.97
717.873	43554.02
718.216	43506.12
718.559	43241.26
718.902	42886.92
719.246	43118.33
719.589	42814.16
719.932	42738
720.275	42831.56
720.617	42684.44
720.96	42674.73
721.303	42680.37
721.646	42649.87
721.989	42280.39
722.331	42545.46
722.674	42385.47
723.016	42237.45
723.359	42116.1
723.701	42287.16
724.044	41911.36
724.386	41775.31
724.729	42009.88
725.071	41851.47
725.413	41725.37
725.755	41772.83
726.097	41571.03
726.439	41212.62
726.782	41372.61
727.124	41593.62
727.465	41287.42
727.807	41394.99
728.149	41207.65
728.491	41154.31
728.833	41149.12
729.175	40928.1
729.516	40822.34
729.858	40851.27
730.199	40860.08
730.541	40749.35
730.882	40522.92
731.224	40811.05
731.565	40400.21
731.906	40555.91
732.248	40566.53
732.589	40293.55
732.93	40060.78
733.271	40361.34
733.612	40294.45
733.953	40215.81
734.294	40146.2
734.635	39886.1
734.976	40209.93
735.317	39839.32
735.658	39789.83
735.999	39658.53
736.339	39622.15
736.68	39816.72
737.021	39539.21
737.361	39388.94
737.702	39579.89
738.042	39281.59
738.383	39282.5
738.723	39365.66
739.063	39160.02
739.404	39160.24
739.744	38969.51
740.084	38920.7
740.424	39033.47
740.764	38940.59
741.104	38996.18
741.444	38724.55
741.784	38583.53
742.124	38703.53
742.464	38595.74
742.804	38571.78
743.143	38385.12
743.483	38386.02
743.823	38097.44
744.162	38191.91
744.502	38189.42
744.841	38118.01
745.181	38323.2
745.52	38001.4
745.86	38078.46
746.199	37981.06
746.538	37874.85
746.877	37897.22
747.216	37765.25
747.556	37590.34
747.895	37712.82
748.234	37501.53
748.573	37434.64
748.911	37312.83
749.25	37610
749.589	37102.22
749.928	37274.19
750.267	37347.41
750.605	37122.1
750.944	36984.03
751.283	36908.78
751.621	36907.42
751.96	36599.4
752.298	36759.17
