Data from whiteboard_FLMS001491_00048.txt Node
Date: Wed Feb 08 11:26:40 GMT 2017
User: dcchb
Spectrometer: FLMS00149
Trigger mode: 0
Integration Time (sec): 2.000000E-2
Scans to average: 10
Electric dark correction enabled: true
Nonlinearity correction enabled: false
Boxcar width: 0
XAxis mode: Wavelengths
Number of Pixels in Spectrum: 2048
>>>>>Begin Spectral Data<<<<<
341.393	-16.57
341.776	-16.57
342.16	-16.57
342.543	-63.8
342.927	-42.1
343.31	-57.7
343.693	-61.54
344.077	-66.51
344.46	-77.13
344.843	-54.53
345.226	-53.4
345.61	-38.71
345.993	-19.05
346.376	2.64
346.759	15.97
347.142	31.57
347.525	34.05
347.908	59.14
348.291	83.54
348.674	98.23
349.057	103.43
349.44	142.52
349.823	124.45
350.206	171.22
350.588	239.7
350.971	234.05
351.354	248.06
351.737	249.87
352.119	271.33
352.502	288.51
352.884	310.2
353.267	305.01
353.65	311.56
354.032	346.36
354.414	339.81
354.797	354.04
355.179	343.65
355.562	362.18
355.944	350.2
356.326	346.13
356.709	385.68
357.091	363.08
357.473	380.26
357.855	381.39
358.238	383.42
358.62	361.73
359.002	377.09
359.384	357.89
359.766	384.78
360.148	368.28
360.53	385
360.912	373.25
361.294	370.54
361.676	372.8
362.057	389.75
362.439	392.01
362.821	391.56
363.203	379.81
363.584	381.16
363.966	383.65
364.348	371.9
364.729	364.67
365.111	377.09
365.493	374.61
365.874	370.09
366.256	373.25
366.637	357.21
367.019	371.22
367.4	350.65
367.781	360.6
368.163	365.34
368.544	354.72
368.925	366.25
369.306	364.67
369.688	399.24
370.069	366.25
370.45	375.51
370.831	371.9
371.212	385.46
371.593	392.01
371.974	387.04
372.355	373.7
372.736	390.43
373.117	380.48
373.498	403.99
373.879	397.89
374.26	395.63
374.641	367.83
375.021	371.45
375.402	390.88
375.783	419.58
376.163	417.55
376.544	423.65
376.925	417.32
377.305	419.81
377.686	411.67
378.066	435.62
378.447	417.32
378.827	428.17
379.208	445.57
379.588	423.42
379.968	429.75
380.349	443.31
380.729	433.14
381.109	422.52
381.489	459.13
381.87	453.02
382.25	446.02
382.63	451.89
383.01	467.49
383.39	461.84
383.77	454.61
384.15	471.78
384.53	478.33
384.91	445.12
385.29	473.36
385.67	485.57
386.049	480.82
386.429	469.52
386.809	501.61
387.189	502.06
387.568	494.61
387.948	512.46
388.328	503.87
388.707	517.2
389.087	518.33
389.466	548.39
389.846	561.5
390.225	537.99
390.605	530.31
390.984	532.57
391.363	586.81
391.743	572.8
392.122	598.11
392.501	580.25
392.881	582.06
393.26	601.72
393.639	601.95
394.018	619.8
394.397	643.3
394.776	625.45
395.155	659.35
395.534	627.94
395.913	648.05
396.292	667.26
396.671	676.3
397.05	679.01
397.429	693.92
397.808	697.31
398.186	710.19
398.565	713.13
398.944	732.79
399.323	749.06
399.701	759.01
400.08	753.58
400.458	770.3
400.837	802.62
401.215	783.64
401.594	793.35
401.972	821.38
402.351	851.43
402.729	836.74
403.107	873.35
403.486	879.45
403.864	879.68
404.242	882.84
404.62	919.23
404.999	933.01
405.377	934.14
405.755	972.79
406.133	1006.91
406.511	992.67
406.889	1023.63
407.267	1046.23
407.645	1069.96
408.023	1104.08
408.401	1092.56
408.779	1093.01
409.156	1134.81
409.534	1143.4
409.912	1177.53
410.29	1194.47
410.667	1249.39
411.045	1224.53
411.422	1306.34
411.8	1286
412.178	1323.51
412.555	1351.08
412.933	1366.9
413.31	1395.82
413.687	1430.85
414.065	1463.39
414.442	1490.96
414.819	1489.16
415.197	1513.11
415.574	1537.29
415.951	1561.24
416.328	1602.83
416.705	1593.56
417.082	1647.57
417.46	1639.43
417.837	1632.43
418.214	1696.38
418.591	1690.51
418.967	1716.04
419.344	1738.87
419.721	1788.36
420.098	1774.12
420.475	1832.42
420.852	1839.66
421.228	1845.08
421.605	1901.12
421.982	1909.48
422.358	1909.03
422.735	1978.18
423.111	1893.44
423.488	1974.79
423.864	2031.97
424.241	2057.73
424.617	2092.08
424.994	2137.27
425.37	2136.6
425.746	2135.24
426.123	2194.9
426.499	2209.36
426.875	2243.26
427.251	2283.94
427.627	2334.56
428.003	2375.91
428.379	2397.61
428.756	2425.4
429.132	2484.38
429.507	2489.58
429.883	2473.31
430.259	2568
430.635	2582.01
431.011	2588.79
431.387	2658.84
431.763	2707.65
432.138	2738.16
432.514	2773.64
432.89	2821.55
433.265	2850.7
433.641	2881.66
434.016	2928.67
434.392	2961.21
434.767	3037.82
435.143	2997.59
435.518	3109.68
435.894	3113.75
436.269	3170.47
436.644	3210.24
437.02	3270.58
437.395	3276.91
437.77	3316
438.145	3375.89
438.52	3445.04
438.895	3473.74
439.271	3473.28
439.646	3585.6
440.021	3568.88
440.395	3607.07
440.77	3662.88
441.145	3652.94
441.52	3729.32
441.895	3730.23
442.27	3755.54
442.645	3768.87
443.019	3872.82
443.394	3823.11
443.769	3912.59
444.143	3842.77
444.518	3929.32
444.892	3917.57
445.267	3967.96
445.641	4046.38
446.016	4016.32
446.39	4069.2
446.764	4102.19
447.139	4101.29
447.513	4172.02
447.887	4227.39
448.262	4207.73
448.636	4187.16
449.01	4292.02
449.384	4330.89
449.758	4393.03
450.132	4439.36
450.506	4440.72
450.88	4479.81
451.254	4512.35
451.628	4599.13
452.002	4655.85
452.376	4652.46
452.75	4710.99
453.123	4789.63
453.497	4870.99
453.871	4936.07
454.244	5016.75
454.618	5077.99
454.992	5168.16
455.365	5179.68
455.739	5316.4
456.112	5397.08
456.486	5415.38
456.859	5486.79
457.232	5560.24
457.606	5540.57
457.979	5672.55
458.352	5791.19
458.725	5877.51
459.099	5926.78
459.472	6024.18
459.845	6035.02
460.218	6099.2
460.591	6183.95
460.964	6223.04
461.337	6349.37
461.71	6476.14
462.083	6538.29
462.456	6577.38
462.829	6607.89
463.201	6693.54
463.574	6735.57
463.947	6848.11
464.32	6967.88
464.692	7033.42
465.065	7152.06
465.438	7219.85
465.81	7347.76
466.183	7392.5
466.555	7625.72
466.928	7675.66
467.3	7594.76
467.672	7805.37
468.045	8047.63
468.417	8039.04
468.789	8161.52
469.161	8231.8
469.534	8379.37
469.906	8583.21
470.278	8660.04
470.65	8749.98
471.022	9006.25
471.394	9164.89
471.766	9230.65
472.138	9373.24
472.51	9594.93
472.882	9729.62
473.253	9879.44
473.625	9962.61
473.997	10187.23
474.369	10245.31
474.74	10418.86
475.112	10581.8
475.484	10769.36
475.855	10991.28
476.227	11051.62
476.598	11340.87
476.97	11433.08
477.341	11678.72
477.713	11863.35
478.084	11974.53
478.455	12208.87
478.827	12273.73
479.198	12687.28
479.569	12691.35
479.94	13055.41
480.311	13207.49
480.682	13478.9
481.053	13753.92
481.424	13993.01
481.795	14121.14
482.166	14286.56
482.537	14551.86
482.908	14841.57
483.279	15025.75
483.65	15298.06
484.021	15576.92
484.391	15874.31
484.762	15981.43
485.133	16123.35
485.503	16319.5
485.874	16830.9
486.244	16881.07
486.615	17309.53
486.985	17493.48
487.356	17833.81
487.726	18010.76
488.097	18366.45
488.467	18514.92
488.837	18921.01
489.207	19197.62
489.578	19454.11
489.948	19697.72
490.318	19871.5
490.688	20124.15
491.058	20403.69
491.428	20690.46
491.798	20897.68
492.168	21297.67
492.538	21402.76
492.908	21594.62
493.278	21940.37
493.648	21995.96
494.017	22366.35
494.387	22508.26
494.757	22737.41
495.126	22901.7
495.496	22938.31
495.866	23084.97
496.235	23233.67
496.605	23407.9
496.974	23713.88
497.344	23908.68
497.713	23983.71
498.082	24162.01
498.452	24515.67
498.821	24427.76
499.19	24635.89
499.559	24722.67
499.928	25037.01
500.298	25196.78
500.667	25267.74
501.036	25304.35
501.405	25500.5
501.774	25792.25
502.143	25985.69
502.512	26073.37
502.88	26196.75
503.249	26244.21
503.618	26594.03
503.987	26670.19
504.356	26953.34
504.724	27163.73
505.093	27214.13
505.462	27571.18
505.83	27716.49
506.199	28029.93
506.567	28350.6
506.936	28445.74
507.304	28805.5
507.672	28992.39
508.041	29033.52
508.409	29432.15
508.777	29724.57
509.145	29839.6
509.514	29949.65
509.882	30192.58
510.25	30348.51
510.618	30700.14
510.986	30773.58
511.354	31099.45
511.722	31415.37
512.09	31632.09
512.458	31626.89
512.826	31914.57
513.193	32084.51
513.561	32128.12
513.929	32471.62
514.297	32905.05
514.664	32891.72
515.032	32985.28
515.4	33226.85
515.767	33446.96
516.135	33561.53
516.502	33503.23
516.869	34124.91
517.237	34130.56
517.604	34151.57
517.972	34520.15
518.339	34745.46
518.706	34682.41
519.073	35030.42
519.44	35207.14
519.808	35592.67
520.175	35515.38
520.542	35892.09
520.909	36178.41
521.276	36083.27
521.643	36589.93
522.009	36700.89
522.376	37026.3
522.743	37283.92
523.11	37625.15
523.477	38016.33
523.843	38284.57
524.21	38745.35
524.577	38913.71
524.943	39140.37
525.31	39490.19
525.676	39760.69
526.043	40093.34
526.409	40258.31
526.776	40734.68
527.142	40740.78
527.508	41176.25
527.874	41445.85
528.241	41804.71
528.607	41816.23
528.973	42218.71
529.339	42472.48
529.705	42843.77
530.071	43098.23
530.437	43253.03
530.803	43602.85
531.169	43757.2
531.535	43794.48
531.901	44268.37
532.267	44321.02
532.632	44598.08
532.998	44781.12
533.364	45037.62
533.73	45108.12
534.095	45441.9
534.461	45574.32
534.826	45794.66
535.192	45902.9
535.557	46240.3
535.923	46262.67
536.288	46310.35
536.653	46477.58
537.019	46398.03
537.384	46658.59
537.749	46707.4
538.114	46807.51
538.479	46891.58
538.845	47030.56
539.21	46923.22
539.575	47270.78
539.94	47261.96
540.305	47379.02
540.67	47635.51
541.034	47630.77
541.399	47754.61
541.764	47771.33
542.129	47969.52
542.494	48154.6
542.858	48164.76
543.223	48220.81
543.587	48503.96
543.952	48428.94
544.316	48503.06
544.681	48585.09
545.045	48800.91
545.41	48980.79
545.774	49093.33
546.138	49171.29
546.503	49225.75
546.867	49329.48
547.231	49643.6
547.595	49864.15
547.959	50015.56
548.324	50022.12
548.688	50077.93
549.052	50290.81
549.416	50383.46
549.779	50480.86
550.143	50550.46
550.507	50832.27
550.871	51037.23
551.235	51008.08
551.599	51254.85
551.962	51370.78
552.326	51567.84
552.689	51838.11
553.053	51620.94
553.417	51712.24
553.78	52239.91
554.143	52145.9
554.507	52323.75
554.87	52406.69
555.234	52778.88
555.597	52630.86
555.96	52805.09
556.323	52954.92
556.686	53019.78
557.05	53241.24
557.413	53268.13
557.776	53310.17
558.139	53495.92
558.502	53548.13
558.865	53685.07
559.228	53823.15
559.59	53850.94
559.953	53945.4
560.316	54184.72
560.679	54159.41
561.041	54380.42
561.404	54395.34
561.767	54664.93
562.129	54485.73
562.492	54796
562.854	54748.09
563.217	54746.06
563.579	54889.33
563.941	55076.9
564.304	55160.96
564.666	55232.38
565.028	55156.67
565.39	55312.15
565.753	55402.77
566.115	55505.36
566.477	55580.84
566.839	55612.48
567.201	55801.17
567.563	55809.76
567.925	56061.51
568.287	55973.37
568.648	56075.74
569.01	56234.38
569.372	56418.56
569.734	56350.99
570.095	56487.26
570.457	56592.79
570.819	56620.14
571.18	56682.51
571.542	56831.88
571.903	56872.56
572.265	57034.14
572.626	57066.68
572.987	57173.12
573.349	57293.34
573.71	57359.1
574.071	57473.67
574.432	57479.1
574.794	57705.76
575.155	57781.91
575.516	57691.97
575.877	57817.62
576.238	57869.37
576.599	58016.03
576.96	58025.07
577.32	58019.87
577.681	58193.88
578.042	58276.82
578.403	58274.1
578.763	58318.4
579.124	58393.65
579.485	58468.67
579.845	58572.4
580.206	58526.53
580.566	58615.34
580.927	58598.39
581.287	58748.22
581.648	58624.6
582.008	58778.27
582.368	58696.92
582.728	58753.86
583.089	58853.3
583.449	58771.94
583.809	58811.04
584.169	58839.51
584.529	58721.78
584.889	58893.97
585.249	58779.63
585.609	58784.82
585.969	58874.09
586.329	58752.73
586.688	58779.4
587.048	58781.21
587.408	58689.91
587.768	58733.07
588.127	58682.45
588.487	58557.94
588.846	58783.02
589.206	58637.03
589.565	58626.18
589.925	58663.47
590.284	58600.42
590.643	58645.39
591.003	58676.58
591.362	58628.67
591.721	58555.68
592.08	58588.22
592.44	58623.25
592.799	58639.74
593.158	58590.48
593.517	58559.29
593.876	58520.2
594.235	58497.83
594.593	58534.66
594.952	58604.94
595.311	58476.81
595.67	58527.2
596.029	58627.99
596.387	58682.91
596.746	58623.47
597.104	58572.85
597.463	58576.24
597.822	58790.25
598.18	58633.64
598.538	58640.65
598.897	58752.51
599.255	58605.85
599.613	58996.8
599.972	58796.58
600.33	58812.62
600.688	58762
601.046	58879.96
601.404	58984.59
601.762	58957.02
602.12	59110.92
602.478	59136
602.836	59105.27
603.194	59089.45
603.552	59056
603.91	59035.44
604.268	59233.4
604.625	59204.47
604.983	59277.24
605.341	59267.3
605.698	59325.6
606.056	59311.36
606.413	59423.9
606.771	59513.39
607.128	59531.47
607.485	59384.81
607.843	59493.05
608.2	59634.52
608.557	59739.83
608.914	59618.25
609.272	59746.61
609.629	59780.96
609.986	59868.86
610.343	59732.82
610.7	59867.96
611.057	59882.2
611.414	59867.06
611.771	59885.81
612.127	59924.68
612.484	59922.87
612.841	60043.77
613.198	59925.81
613.554	59933.49
613.911	60137.56
614.267	60060.72
614.624	60023.21
614.98	60022.98
615.337	60083.32
615.693	60032.93
616.05	59983.21
616.406	60130.78
616.762	59985.47
617.118	59983.21
617.475	59957
617.831	60030.44
618.187	59984.79
618.543	60001.97
618.899	60089.65
619.255	60057.79
619.611	60007.39
619.967	60048.29
620.323	60062.08
620.678	59963.1
621.034	59950.44
621.39	59902.08
621.746	59847.4
622.101	60091
622.457	59839.26
622.812	59877.68
623.168	59884.23
623.523	59896.21
623.879	59903.21
624.234	59791.58
624.589	59870.22
624.945	59847.62
625.3	59851.01
625.655	59834.74
626.01	59814.4
626.365	59898.47
626.72	59805.14
627.075	59808.98
627.43	59768.08
627.785	59740.28
628.14	59744.8
628.495	59702.09
628.85	59710.9
629.205	59674.07
629.559	59786.61
629.914	59655.99
630.269	59697.57
630.623	59683.56
630.978	59645.37
631.332	59785.7
631.687	59777.79
632.041	59646.5
632.396	59761.07
632.75	59571.02
633.104	59712.26
633.459	59649.89
633.813	59621.41
634.167	59650.56
634.521	59653.95
634.875	59731.01
635.229	59699.6
635.583	59574.86
635.937	59618.93
636.291	59652.37
636.645	59666.38
636.999	59531.92
637.352	59682.2
637.706	59537.35
638.06	59683.11
638.413	59541.19
638.767	59533.28
639.121	59539.38
639.474	59431.59
639.828	59453.73
640.181	59495.77
640.534	59455.54
640.888	59408.08
641.241	59377.58
641.594	59412.15
641.947	59454.64
642.301	59386.62
642.654	59335.77
643.007	59326.73
643.36	59321.08
643.713	59219.39
644.066	59331.7
644.419	59137.36
644.771	58986.85
645.124	58804.03
645.477	58705.28
645.83	58555.23
646.182	58395.91
646.535	58252.18
646.888	58324.05
647.24	58059.87
647.593	58173.09
647.945	58143.49
648.298	58030.72
648.65	57946.65
649.002	57844.28
649.355	57887.9
649.707	57880.22
650.059	58023.04
650.411	58260.77
650.763	58229.58
651.115	58404.95
651.467	58226.65
651.819	58169.47
652.171	58119.53
652.523	58093.32
652.875	58051.74
653.227	57979.2
653.578	58150.04
653.93	57973.77
654.282	57932.87
654.633	57761.57
654.985	57886.77
655.337	57835.47
655.688	57878.18
656.039	57851.52
656.391	57571.07
656.742	57627.11
657.094	57700.79
657.445	57717.51
657.796	57567.23
658.147	57623.95
658.498	57555.25
658.849	57599.54
659.2	57588.92
659.551	57430.51
659.902	57591.18
660.253	57494.69
660.604	57494.91
660.955	57426.67
661.306	57411.75
661.656	57426.67
662.007	57477.29
662.358	57494.46
662.708	57467.34
663.059	57442.94
663.409	57244.3
663.76	57512.77
664.11	57469.38
664.461	57502.6
664.811	57441.58
665.161	57397.52
665.511	57412.66
665.862	57454.01
666.212	57518.19
666.562	57529.26
666.912	57482.26
667.262	57364.52
667.612	57414.92
667.962	57437.52
668.312	57343.51
668.662	57457.18
669.011	57456.5
669.361	57488.81
669.711	57482.49
670.06	57412.88
670.41	57396.61
670.76	57318.87
671.109	57411.3
671.459	57380.12
671.808	57344.86
672.157	57368.36
672.507	57193
672.856	57217.63
673.205	57298.54
673.554	57387.35
673.904	57242.94
674.253	57396.16
674.602	57232.32
674.951	56962.73
675.3	56757.08
675.649	57157.52
675.998	57136.96
676.346	57182.15
676.695	57199.56
677.044	57051.99
677.393	57149.84
677.741	57164.53
678.09	57147.58
678.438	57073
678.787	57076.85
679.135	57069.62
679.484	56811.99
679.832	56902.16
680.181	56769.74
680.529	56862.62
680.877	56805.22
681.225	56626.46
681.573	56883.63
681.922	56573.13
682.27	56493.59
682.618	56551.89
682.966	56406.36
683.314	56439.58
683.661	56313.93
684.009	56154.39
684.357	56155.97
684.705	56050.66
685.053	56143.09
685.4	56069.42
685.748	55901.28
686.095	55940.83
686.443	55727.96
686.79	55576.77
687.138	55679.82
687.485	55761.63
687.832	55523.89
688.18	55496.1
688.527	55328.19
688.874	55385.37
689.221	55245.03
689.568	55078.71
689.915	55082.55
690.262	55087.52
690.609	54949.67
690.956	54836
691.303	54727.53
691.65	54643.92
691.997	54629
692.344	54397.6
692.69	54363.92
693.037	54403.92
693.383	54074.44
693.73	54123.25
694.077	54047.32
694.423	53987.44
694.769	53863.37
695.116	53871.06
695.462	53755.58
695.808	53589.48
696.155	53545.41
696.501	53318.3
696.847	53342.26
697.193	53111.08
697.539	53250.28
697.885	53056.61
698.231	52831.99
698.577	52949.05
698.923	52860.91
699.269	52717.19
699.614	52529.4
699.96	52633.35
700.306	52570.75
700.651	52447.14
700.997	52299.35
701.342	52250.76
701.688	52226.13
702.033	52166.24
702.379	52138.9
702.724	52052.12
703.069	52035.85
703.415	51799.92
703.76	51764.9
704.105	51832.69
704.45	51659.81
704.795	51519.7
705.14	51457.11
705.485	51421.63
705.83	51305.7
706.175	51470.67
706.52	51330.78
706.865	51162.65
707.209	51213.5
707.554	51074.74
707.899	51314.06
708.243	50945.26
708.588	51017.12
708.932	50825.94
709.277	50845.37
709.621	50860.96
709.966	50659.84
710.31	50803.34
710.654	50401.32
710.998	50447.19
711.342	50465.5
711.687	50421.2
712.031	50233.41
712.375	50112.51
712.719	50199.97
713.063	50085.17
713.407	50230.93
713.75	50099.18
714.094	49929.69
714.438	49750.03
714.782	49857.83
715.125	49676.82
715.469	49743.93
715.812	49449.02
716.156	49301.68
716.499	49446.54
716.843	49405.86
717.186	49158.41
717.53	49341
717.873	49354.34
718.216	49229.14
718.559	48988.92
718.902	48731.3
719.246	48792.09
719.589	48640.68
719.932	48625.77
720.275	48476.85
720.617	48429.62
720.96	48358.21
721.303	48341.94
721.646	48275.95
721.989	48133.13
722.331	48028.27
722.674	47862.17
723.016	47892
723.359	47795.73
723.701	47743.98
724.044	47594.84
724.386	47192.36
724.729	47448.4
725.071	47181.51
725.413	47039.37
725.755	47047.28
726.097	46913.72
726.439	46777.91
726.782	46720.28
727.124	46758.93
727.465	46494.98
727.807	46466.96
728.149	46360.52
728.491	46191.03
728.833	46140.64
729.175	45974.54
729.516	45833.98
729.858	45633.76
730.199	45739.74
730.541	45727.99
730.882	45627.66
731.224	45553.53
731.565	45266.54
731.906	45318.29
732.248	45261.34
732.589	45067.67
732.93	44893.66
733.271	44984.51
733.612	45026.99
733.953	44898.18
734.294	44679.43
734.635	44588.14
734.976	44652.99
735.317	44299.78
735.658	44321.93
735.999	44352.66
736.339	44095.27
736.68	44422.94
737.021	44061.37
737.361	43934.14
737.702	44061.6
738.042	43914.71
738.383	43780.47
738.723	43975.04
739.063	43760.36
739.404	43729.4
739.744	43578.44
740.084	43436.75
740.424	43477.66
740.764	43413.03
741.104	43500.48
741.444	43390.65
741.784	43155.63
742.124	43249.19
742.464	43211.45
742.804	43136.65
743.143	43061.62
743.483	43086.25
743.823	42706.15
744.162	42799.71
744.502	42783.89
744.841	42750.9
745.181	42923.55
745.52	42649.66
745.86	42743.89
746.199	42643.78
746.538	42527.62
746.877	42581.18
747.216	42612.14
747.556	42464.12
747.895	42474.52
748.234	42296.44
748.573	42432.03
748.911	42344.58
749.25	42225.26
749.589	42148.2
749.928	42194.98
750.267	42177.58
750.605	42006.28
750.944	41991.37
751.283	41815.33
751.621	41924.25
751.96	41685.84
752.298	41690.36
752.636	41772.62
752.975	41388.45
