Data from white_steel_sheet_FLMS001491_078.txt Node
Date: Tue Feb 07 10:58:27 GMT 2017
User: dcchb
Spectrometer: FLMS00149
Trigger mode: 0
Integration Time (sec): 2.000000E-2
Scans to average: 10
Electric dark correction enabled: true
Nonlinearity correction enabled: false
Boxcar width: 0
XAxis mode: Wavelengths
Number of Pixels in Spectrum: 2048
>>>>>Begin Spectral Data<<<<<
341.393	-11.41
341.776	-11.41
342.16	-11.41
342.543	-51.86
342.927	-56.83
343.31	-72.2
343.693	-75.14
344.077	-60.9
344.46	-45.08
344.843	-30.17
345.226	-31.52
345.61	-38.08
345.993	-18.64
346.376	-27.46
346.759	8.25
347.142	14.35
347.525	44.63
347.908	60
348.291	76.04
348.674	96.38
349.057	99.55
349.44	100.9
349.823	124.4
350.206	146.55
350.588	201.46
350.971	211.41
351.354	222.93
351.737	235.59
352.119	243.95
352.502	264.51
352.884	271.29
353.267	283.27
353.65	300.22
354.032	290.95
354.414	311.74
354.797	293.89
355.179	334.79
355.562	330.95
355.944	355.13
356.326	347.45
356.709	350.61
357.091	358.75
357.473	347.9
357.855	347.67
358.238	342.25
358.62	345.41
359.002	363.72
359.384	344.74
359.766	339.54
360.148	344.74
360.53	328.69
360.912	358.07
361.294	330.95
361.676	339.99
362.057	342.25
362.439	334.79
362.821	333.66
363.203	372.08
363.584	325.53
363.966	324.85
364.348	326.66
364.729	340.44
365.111	341.12
365.493	325.98
365.874	312.87
366.256	317.62
366.637	341.12
367.019	339.77
367.4	345.19
367.781	325.75
368.163	325.98
368.544	332.31
368.925	312.2
369.306	345.41
369.688	324.4
370.069	333.21
370.45	334.12
370.831	323.49
371.212	358.97
371.593	319.65
371.974	327.56
372.355	321.23
372.736	341.57
373.117	324.62
373.498	326.43
373.879	336.15
374.26	330.05
374.641	328.69
375.021	334.79
375.402	351.06
375.783	352.19
376.163	342.7
376.544	354.68
376.925	331.63
377.305	332.76
377.686	357.62
378.066	345.19
378.447	361.91
378.827	349.48
379.208	371.18
379.588	354.91
379.968	358.07
380.349	357.62
380.729	354.23
381.109	361.46
381.489	366.43
381.87	367.33
382.25	391.52
382.63	366.66
383.01	375.7
383.39	369.37
383.77	405.3
384.15	378.41
384.53	370.05
384.91	406.88
385.29	368.69
385.67	394.23
386.049	387.67
386.429	396.94
386.809	384.06
387.189	414.57
387.568	395.81
387.948	399.42
388.328	419.99
388.707	430.84
389.087	422.02
389.466	431.97
389.846	430.16
390.225	434.45
390.605	431.51
390.984	433.32
391.363	447.33
391.743	412.31
392.122	430.61
392.501	453.43
392.881	469.03
393.26	444.17
393.639	474
394.018	468.58
394.397	467.67
394.776	486.65
395.155	484.85
395.534	477.61
395.913	504.28
396.292	504.96
396.671	514.45
397.05	511.51
397.429	520.33
397.808	543.6
398.186	531.85
398.565	574.34
398.944	547.44
399.323	566.88
399.701	566.2
400.08	533.21
400.458	579.53
400.837	585.18
401.215	579.76
401.594	596.26
401.972	599.65
402.351	587.22
402.729	618.4
403.107	633.32
403.486	643.26
403.864	626.99
404.242	642.36
404.62	655.24
404.999	664.28
405.377	685.74
405.755	686.2
406.133	726.2
406.511	729.13
406.889	741.11
407.267	740.21
407.645	755.12
408.023	753.99
408.401	789.02
408.779	810.04
409.156	829.02
409.534	839.41
409.912	815.91
410.29	829.47
410.667	856.81
411.045	887.77
411.422	873.99
411.8	880.09
412.178	911.28
412.555	904.95
412.933	925.06
413.31	941.33
413.687	947.43
414.065	937.26
414.442	963.7
414.819	996.7
415.197	1004.15
415.574	1034.66
415.951	1040.31
416.328	1056.13
416.705	1051.38
417.082	1053.87
417.46	1054.1
417.837	1068.33
418.214	1102.46
418.591	1105.62
418.967	1095.45
419.344	1120.99
419.721	1126.64
420.098	1130.7
420.475	1175.68
420.852	1201.21
421.228	1167.77
421.605	1198.95
421.982	1208.67
422.358	1223.58
422.735	1247.76
423.111	1238.95
423.488	1276.46
423.864	1284.6
424.241	1299.29
424.617	1302.23
424.994	1331.6
425.37	1329.8
425.746	1351.26
426.123	1370.25
426.499	1386.07
426.875	1385.84
427.251	1426.97
427.627	1429.23
428.003	1454.76
428.379	1458.61
428.756	1471.26
429.132	1508.32
429.507	1534.54
429.883	1546.51
430.259	1571.37
430.635	1576.34
431.011	1596.91
431.387	1634.87
431.763	1652.5
432.138	1685.72
432.514	1708.77
432.89	1718.49
433.265	1748.32
433.641	1764.36
434.016	1778.37
434.392	1838.03
434.767	1830.35
435.143	1858.37
435.518	1857.92
435.894	1898.14
436.269	1931.14
436.644	1979.27
437.02	1975.2
437.395	1965.49
437.77	2015.43
438.145	2016.11
438.52	2044.13
438.895	2095.2
439.271	2068.99
439.646	2127.29
440.021	2133.62
440.395	2144.01
440.77	2148.08
441.145	2181.75
441.52	2251.13
441.895	2208.42
442.27	2256.1
442.645	2242.99
443.019	2267.17
443.394	2281.18
443.769	2344.01
444.143	2338.13
444.518	2375.64
444.892	2350.11
445.267	2367.73
445.641	2407.28
446.016	2431.24
446.39	2434.63
446.764	2429.43
447.139	2462.2
447.513	2512.59
447.887	2519.37
448.262	2539.71
448.636	2539.26
449.01	2562.31
449.384	2617.22
449.758	2625.58
450.132	2630.78
450.506	2666.94
450.88	2692.92
451.254	2699.25
451.628	2720.27
452.002	2767.27
452.376	2801.85
452.75	2805.46
453.123	2826.03
453.497	2877.1
453.871	2883.65
454.244	2950.32
454.618	2991.67
454.992	3005.68
455.365	3025.34
455.739	3091.33
456.112	3142.18
456.486	3153.7
456.859	3188.73
457.232	3264.21
457.606	3288.39
457.979	3288.61
458.352	3360.25
458.725	3404.32
459.099	3444.99
459.472	3480.93
459.845	3537.65
460.218	3571.77
460.591	3633.92
460.964	3620.58
461.337	3675.95
461.71	3767.02
462.083	3798.88
462.456	3840.92
462.829	3813.12
463.201	3902.38
463.574	3926.34
463.947	3978.54
464.32	4062.38
464.692	4098.99
465.065	4129.04
465.438	4192.09
465.81	4231.87
466.183	4297.85
466.555	4413.78
466.928	4397.51
467.3	4413.56
467.672	4528.36
468.045	4634.12
468.417	4580.56
468.789	4643.83
469.161	4680.89
469.534	4759.99
469.906	4901
470.278	4922.7
470.65	4959.08
471.022	5068.45
471.394	5141.22
471.766	5251.95
472.138	5260.99
472.51	5373.08
472.882	5416.02
473.253	5535.79
473.625	5576.92
473.997	5712.05
474.369	5754.31
474.74	5809.45
475.112	5935.1
475.484	5987.75
475.855	6081.08
476.227	6188.2
476.598	6331.47
476.97	6339.16
477.341	6535.31
477.713	6659.82
478.084	6686.49
478.455	6843.32
478.827	6972.36
479.198	7159.02
479.569	7165.8
479.94	7302.52
480.311	7432.23
480.682	7528.05
481.053	7767.59
481.424	7900.92
481.795	7989.51
482.166	8086.68
482.537	8165.1
482.908	8335.04
483.279	8498.65
483.65	8598.08
484.021	8683.73
484.391	8905.64
484.762	8943.83
485.133	9065.64
485.503	9145.18
485.874	9420.66
486.244	9459.07
486.615	9628.56
486.985	9737.94
487.356	9996.46
487.726	9996.91
488.097	10239.17
488.467	10247.3
488.837	10491.36
489.207	10583.79
489.578	10740.62
489.948	10846.83
490.318	11016.32
490.688	11066.26
491.058	11308.52
491.428	11388.51
491.798	11543.76
492.168	11782.63
492.538	11795.74
492.908	11952.34
493.278	12035.05
493.648	12087.48
494.017	12298.09
494.387	12434.36
494.757	12499.45
495.126	12675.94
495.496	12722.04
495.866	12876.16
496.235	12942.15
496.605	13155.93
496.974	13171.74
497.344	13381.68
497.713	13417.39
498.082	13486.09
498.452	13685.63
498.821	13715.68
499.19	13687.21
499.559	13960.2
499.928	14018.5
500.298	14157.03
500.667	14245.16
501.036	14292.62
501.405	14497.13
501.774	14506.62
502.143	14601.31
502.512	14722.66
502.88	14888.99
503.249	14905.94
503.618	14988.42
503.987	15091.47
504.356	15255.31
504.724	15393.15
505.093	15404.91
505.462	15458.01
505.83	15553.38
506.199	15716.08
506.567	15974.16
506.936	15952.69
507.304	16220.7
507.672	16297.76
508.041	16369.85
508.409	16521.49
508.777	16622.27
509.145	16789.5
509.514	16795.38
509.882	16916.5
510.25	16980.91
510.618	17214.12
510.986	17237.17
511.354	17483.5
511.722	17514.68
512.09	17704.51
512.458	17736.14
512.826	17898.17
513.193	18009.81
513.561	18172.06
513.929	18262.91
514.297	18568.89
514.664	18641.43
515.032	18687.76
515.4	18833.29
515.767	19032.83
516.135	19122.32
516.502	18997.81
516.869	19423.33
517.237	19418.59
517.604	19489.77
517.972	19697.67
518.339	19848.86
518.706	19978.12
519.073	20028.74
519.44	20194.38
519.808	20394.6
520.175	20517.54
520.542	20751.66
520.909	20760.92
521.276	20856.29
521.643	21160.46
522.009	21286.78
522.376	21482.03
522.743	21667.11
523.11	21790.27
523.477	21970.16
523.843	22151.39
524.21	22407.89
524.577	22496.7
524.943	22703.24
525.31	22820.53
525.676	23078.6
526.043	23255.55
526.409	23439.95
526.776	23614.18
527.142	23666.61
527.508	23901.18
527.874	24028.63
528.241	24198.12
528.607	24227.27
528.973	24545.23
529.339	24562.86
529.705	24846.24
530.071	25021.6
530.437	25183.41
530.803	25351.76
531.169	25472.44
531.535	25473.34
531.901	25564.41
532.267	25783.62
532.632	25940.67
532.998	25996.72
533.364	26178.86
533.73	26192.19
534.095	26494.78
534.461	26424.5
534.826	26638.06
535.192	26833.08
535.557	26992.62
535.923	27061.55
536.288	27157.82
536.653	27180.19
537.019	27243.69
537.384	27382.44
537.749	27556.68
538.114	27496.34
538.479	27607.97
538.845	27877.12
539.21	27766.39
539.575	27987.4
539.94	28137
540.305	28184.46
540.67	28356.43
541.034	28449.76
541.399	28517.56
541.764	28672.13
542.129	28767.72
542.494	28794.16
542.858	28913.93
543.223	29045.45
543.587	29282.05
543.952	29167.71
544.316	29351.88
544.681	29249.97
545.045	29490.86
545.41	29632.33
545.774	29751.65
546.138	29815.83
546.503	29917.07
546.867	29935.15
547.231	30196.61
547.595	30139.66
547.959	30254.23
548.324	30375.81
548.688	30354.8
549.052	30556.15
549.416	30523.15
549.779	30581.23
550.143	30794.56
550.507	31133.31
550.871	31118.84
551.235	31181.44
551.599	31397.48
551.962	31410.13
552.326	31517.48
552.689	31727.64
553.053	31706.85
553.417	31788.43
553.78	32143.9
554.143	32072.94
554.507	32063.45
554.87	32319.72
555.234	32558.58
555.597	32442.88
555.96	32650.55
556.323	32734.39
556.686	32784.79
557.05	33107.04
557.413	33126.93
557.776	33133.25
558.139	33491.89
558.502	33568.95
558.865	33664.99
559.228	33848.71
559.59	33901.37
559.953	33905.89
560.316	34454.12
560.679	34297.74
561.041	34545.42
561.404	34643.04
561.767	34914.9
562.129	35037.84
562.492	35186.31
562.854	35277.83
563.217	35139.3
563.579	35478.73
563.941	35694.54
564.304	35760.08
564.666	35980.86
565.028	36118.94
565.39	36087.53
565.753	36393.28
566.115	36528.19
566.477	36762.08
566.839	36842.31
567.201	37102.19
567.563	37010.89
567.925	37234.39
568.287	37246.82
568.648	37309.41
569.01	37605.45
569.372	37684.09
569.734	37665.79
570.095	37999.79
570.457	38186.68
570.819	38376.05
571.18	38282.27
571.542	38424.87
571.903	38395.04
572.265	38487.01
572.626	38720
572.987	38837.06
573.349	38908.24
573.71	39103.94
574.071	39236.82
574.432	39136.03
574.794	39564.5
575.155	39546.64
575.516	39358.4
575.877	39526.53
576.238	39631.16
576.599	39736.7
576.96	39716.13
577.32	39780.54
577.681	40019.63
578.042	40018.27
578.403	40036.57
578.763	40067.99
579.124	40039.74
579.485	40225.95
579.845	40318.15
580.206	40213.74
580.566	40256.23
580.927	40339.39
581.287	40599.27
581.648	40422.78
582.008	40637.91
582.368	40417.13
582.728	40565.37
583.089	40626.16
583.449	40451.03
583.809	40687.4
584.169	40790
584.529	40606.95
584.889	40834.52
585.249	40536.67
585.609	40462.33
585.969	40613.51
586.329	40561.53
586.688	40618.71
587.048	40484.7
587.408	40591.59
587.768	40631.59
588.127	40665.26
588.487	40549.56
588.846	40860.96
589.206	40463.68
589.565	40572.83
589.925	40703.45
590.284	40621.42
590.643	40727.86
591.003	40639.04
591.362	40767.4
591.721	40804.01
592.08	40725.6
592.44	40687.4
592.799	40828.19
593.158	40613.51
593.517	40844.24
593.876	40831.13
594.235	40788.19
594.593	40685.6
594.952	40825.71
595.311	40596.33
595.67	40870.68
596.029	41040.16
596.387	40997.91
596.746	41059.6
597.104	40825.71
597.463	40966.95
597.822	40970.11
598.18	40862.77
598.538	40845.59
598.897	41125.59
599.255	40717.69
599.613	41297.78
599.972	40988.19
600.33	41048.53
600.688	40922.2
601.046	40952.71
601.404	41301.63
601.762	41028.86
602.12	41255.75
602.478	41256.88
602.836	41326.03
603.194	41081.74
603.552	41190.67
603.91	40978.7
604.268	41140.5
604.625	41053.04
604.983	41226.37
605.341	40982.31
605.698	41345.47
606.056	41528.51
606.413	41352.02
606.771	41457.1
607.128	41517.67
607.485	41305.47
607.843	41381.62
608.2	41531.22
608.557	41664.1
608.914	41469.98
609.272	41805.12
609.629	41791.56
609.986	41929.63
610.343	41747.26
610.7	42058.89
611.057	42057.31
611.414	41856.41
611.771	42042.17
612.127	42058.67
612.484	41959.91
612.841	42301.83
613.198	42130.98
613.554	42037.88
613.911	42443.52
614.267	42388.6
614.624	42347.47
614.98	42367.81
615.337	42477.64
615.693	42574.81
616.05	42429.73
616.406	42709.72
616.762	42580.01
617.118	42471.76
617.475	42573.91
617.831	42673.79
618.187	42634.92
618.543	42832.66
618.899	43178.86
619.255	42867.46
619.611	42887.12
619.967	42928.7
620.323	42952.66
620.678	42739.55
621.034	42803.96
621.39	42811.42
621.746	42844.41
622.101	43255.92
622.457	43032.2
622.812	43093.9
623.168	43125.76
623.523	43104.97
623.879	43202.14
624.234	42909.49
624.589	43006.21
624.945	43067.91
625.3	43228.13
625.655	43046.89
626.01	43131.18
626.365	43112.43
626.72	43050.51
627.075	43062.26
627.43	43036.5
627.785	42965.99
628.14	43090.73
628.495	43166.21
628.85	42892.09
629.205	43016.16
629.559	43180.9
629.914	42902.94
630.269	42956.5
630.623	42806.67
630.978	42806.67
631.332	42869.04
631.687	42930.28
632.041	42753.57
632.396	42825.43
632.75	42681.93
633.104	42714.02
633.459	42462.73
633.813	42590.63
634.167	42540.01
634.521	42371.88
634.875	42586.79
635.229	42475.38
635.583	42224.99
635.937	42259.79
636.291	42177.54
636.645	42266.8
636.999	42168.95
637.352	42289.85
637.706	41955.17
638.06	42083.53
638.413	41988.16
638.767	41886.92
639.121	42018.67
639.474	41790.88
639.828	41794.49
640.181	41710.88
640.534	41689.19
640.888	41560.38
641.241	41273.38
641.594	41588.17
641.947	41556.99
642.301	41497.78
642.654	41503.43
643.007	41410.1
643.36	41350.44
643.713	41163.55
644.066	41451.23
644.419	41183.89
644.771	40894.86
645.124	40486.96
645.477	40537.58
645.83	40185.27
646.182	40143.92
646.535	40040.64
646.888	40065.73
647.24	39878.16
647.593	40067.99
647.945	40090.36
648.298	39549.36
648.65	39635.68
649.002	39585.96
649.355	39653.99
649.707	39477.27
650.059	39904.83
650.411	40107.31
650.763	40178.94
651.115	40652.6
651.467	40437.47
651.819	40375.55
652.171	40399.28
652.523	40253.29
652.875	40320.63
653.227	40050.13
653.578	40269.34
653.93	40211.03
654.282	40033.64
654.633	39978.95
654.985	40097.59
655.337	40005.16
655.688	39998.84
656.039	40105.5
656.391	39733.98
656.742	39834.55
657.094	39913.87
657.445	39942.79
657.796	39822.57
658.147	39792.51
658.498	39689.69
658.849	39815.34
659.2	39782.34
659.551	39515.91
659.902	39695.11
660.253	39532.41
660.604	39648.11
660.955	39243.6
661.306	39541.9
661.656	39248.57
662.007	39349.81
662.358	39306.88
662.708	39218.06
663.059	39111.85
663.409	38934.68
663.76	39165.86
664.11	39070.72
664.461	39141.46
664.811	38972.2
665.161	39036.37
665.511	38917.73
665.862	38770.39
666.212	38878.64
666.562	38767
666.912	38692.2
667.262	38623.96
667.612	38456.05
667.962	38449.72
668.312	38167.47
668.662	38389.16
669.011	38316.85
669.361	38115.72
669.711	38143.74
670.06	37873.02
670.41	37781.04
670.76	37759.8
671.109	37878.67
671.459	37644.55
671.808	37666.92
672.157	37635.06
672.507	37380.15
672.856	37327.95
673.205	37259.7
673.554	37259.02
673.904	37148.06
674.253	37350.32
674.602	37192.81
674.951	36619.04
675.3	36437.57
675.649	36972.02
675.998	36989.87
676.346	36910.78
676.695	37001.17
677.044	36771.8
677.393	36867.39
677.741	36803.67
678.09	36763.21
678.438	36558.02
678.787	36772.71
679.135	36714.63
679.484	36532.71
679.832	36598.47
680.181	36530.68
680.529	36630.56
680.877	36457.69
681.225	36433.51
681.573	36678.47
681.922	36374.52
682.27	36224.02
682.618	36503.79
682.966	36483
683.314	36567.51
683.661	36496.55
684.009	36252.27
684.357	36222.21
684.705	36409.78
685.053	36364.35
685.4	36329.55
685.748	36248.65
686.095	36360.06
686.443	36089.33
686.79	36020.18
687.138	36262.66
687.485	36284.13
687.832	36181.31
688.18	36318.48
688.527	36016.57
688.874	36163.23
689.221	35964.82
689.568	35967.53
689.915	36093.4
690.262	35924.82
690.609	35920.52
690.956	35797.14
691.303	35857.7
691.65	35714.65
691.997	35706.74
692.344	35604.6
692.69	35631.72
693.037	35746.74
693.383	35295.68
693.73	35592.62
694.077	35402.8
694.423	35487.77
694.769	35349.47
695.116	35367.77
695.462	35299.3
695.808	35165.06
696.155	35366.87
696.501	35064.5
696.847	35193.99
697.193	34861.8
697.539	34987.89
697.885	34705.42
698.231	34672.65
698.577	34563.5
698.923	34585.19
699.269	34377.29
699.614	34406.44
699.96	34306.1
700.306	34307.23
700.651	34068.14
700.997	34076.73
701.342	33943.85
701.688	34041.25
702.033	33893.46
702.379	33841.03
702.724	33795.61
703.069	33887.58
703.415	33455.96
703.76	33491.66
704.105	33445.79
704.45	33311.33
704.795	33159.69
705.14	33140.71
705.485	32954.27
705.83	32940.49
706.175	32945.24
706.52	32845.35
706.865	32828.85
707.209	32721.29
707.554	32637.67
707.899	32655.07
708.243	32432.93
708.588	32371.01
708.932	32365.36
709.277	32453.72
709.621	32319.94
709.966	32133.73
710.31	32235.42
710.654	31947.75
710.998	31986.16
711.342	31995.43
711.687	31759.5
712.031	31682.9
712.375	31533.52
712.719	31699.17
713.063	31493.97
713.407	31636.8
713.75	31575.1
714.094	31414.43
714.438	31312.74
714.782	31497.82
715.125	31129.46
715.469	31279.06
715.812	31135.57
716.156	30997.26
716.499	31022.57
716.843	31023.93
717.186	30716.14
717.53	30974.89
717.873	30866.65
718.216	30808.12
718.559	30682.92
718.902	30547.56
719.246	30537.84
719.589	30403.83
719.932	30284.06
720.275	30376.04
720.617	30341.91
720.96	30252.65
721.303	30356.15
721.646	30309.37
721.989	30097.85
722.331	30139.43
722.674	30056.05
723.016	30086.33
723.359	29861.7
723.701	29996.39
724.044	29746
724.386	29642.27
724.729	29662.61
725.071	29731.08
725.413	29537.87
725.755	29671.42
726.097	29541.48
726.439	29471.43
726.782	29423.97
727.124	29514.14
727.465	29289.29
727.807	29235.05
728.149	29215.16
728.491	29197.31
728.833	29135.17
729.175	28992.35
729.516	28997.99
729.858	28988.05
730.199	28995.28
730.541	28829.41
730.882	29019.24
731.224	28960.71
731.565	28683.65
731.906	28716.42
732.248	28748.51
732.589	28581.06
732.93	28427.39
733.271	28429.42
733.612	28573.6
733.953	28456.77
734.294	28321.4
734.635	28304.23
734.976	28274.62
735.317	28260.61
735.658	28189.43
735.999	28040.73
736.339	28059.49
736.68	28197.79
737.021	28032.82
737.361	27857.23
737.702	28098.13
738.042	28003.9
738.383	27906.72
738.723	27861.75
739.063	27862.66
739.404	27874.63
739.744	27790.79
740.084	27676.22
740.424	27770.91
740.764	27645.04
741.104	27718.03
741.444	27507.64
741.784	27555.09
742.124	27561.42
742.464	27447.98
742.804	27398.49
743.143	27410.47
743.483	27279.62
743.823	27189.45
744.162	27277.36
744.502	27255.22
744.841	27099.74
745.181	27210.47
745.52	27046.63
745.86	27014.77
746.199	27005.5
746.538	26835.34
746.877	26826.07
747.216	26944.49
747.556	26865.17
747.895	26759.86
748.234	26687.09
748.573	26716.47
748.911	26642.35
749.25	26708.56
749.589	26421.79
749.928	26494.78
750.267	26418.18
750.605	26456.37
750.944	26302.92
751.283	26346.76
751.621	26245.07
751.96	26156.26
752.298	26104.51
752.636	26079.88
752.975	26038.07
753.313	25934.8
753.651	26000.56
