Data from white_wall_FLMS001491_063.txt Node
Date: Tue Feb 07 11:05:23 GMT 2017
User: dcchb
Spectrometer: FLMS00149
Trigger mode: 0
Integration Time (sec): 2.000000E-2
Scans to average: 10
Electric dark correction enabled: true
Nonlinearity correction enabled: false
Boxcar width: 0
XAxis mode: Wavelengths
Number of Pixels in Spectrum: 2048
>>>>>Begin Spectral Data<<<<<
341.393	-10.06
341.776	-10.06
342.16	-10.06
342.543	-69.94
342.927	-90.73
343.31	-63.39
343.693	-56.38
344.077	-66.55
344.46	-80.34
344.843	-70.62
345.226	-59.77
345.61	-21.36
345.993	-15.48
346.376	1.02
346.759	13.9
347.142	24.29
347.525	54.8
347.908	62.26
348.291	81.01
348.674	90.73
349.057	105.87
349.44	117.85
349.823	150.84
350.206	167.79
350.588	188.13
350.971	238.75
351.354	245.08
351.737	271.29
352.119	264.29
352.502	281.24
352.884	301.12
353.267	309.26
353.65	299.54
354.032	322.36
354.414	353.78
354.797	334.12
355.179	322.59
355.562	352.87
355.944	336.15
356.326	344.74
356.709	351.74
357.091	371.18
357.473	347.22
357.855	355.81
358.238	363.27
358.62	368.69
359.002	358.07
359.384	354.91
359.766	353.32
360.148	345.64
360.53	362.59
360.912	345.19
361.294	345.64
361.676	378.86
362.057	377.96
362.439	360.1
362.821	352.19
363.203	353.55
363.584	361.69
363.966	356.94
364.348	343.61
364.729	343.83
365.111	331.86
365.493	356.26
365.874	330.5
366.256	333.89
366.637	335.92
367.019	325.98
367.4	342.93
367.781	350.39
368.163	340.67
368.544	362.59
368.925	337.51
369.306	348.8
369.688	328.92
370.069	348.35
370.45	344.51
370.831	361.46
371.212	336.15
371.593	326.66
371.974	338.64
372.355	343.15
372.736	353.32
373.117	332.31
373.498	358.97
373.879	347.9
374.26	347.22
374.641	332.76
375.021	337.96
375.402	353.78
375.783	349.26
376.163	335.7
376.544	352.65
376.925	349.48
377.305	360.78
377.686	368.24
378.066	369.82
378.447	363.27
378.827	347.67
379.208	389.48
379.588	370.5
379.968	384.28
380.349	375.7
380.729	383.83
381.109	384.06
381.489	399.42
381.87	394
382.25	382.7
382.63	391.74
383.01	381.8
383.39	396.71
383.77	368.46
384.15	385.19
384.53	397.16
384.91	417.28
385.29	414.57
385.67	414.11
386.049	416.37
386.429	416.6
386.809	422.25
387.189	417.73
387.568	414.57
387.948	420.21
388.328	432.87
388.707	427.22
389.087	414.57
389.466	446.65
389.846	440.33
390.225	461.57
390.605	458.18
390.984	468.58
391.363	469.93
391.743	473.55
392.122	477.39
392.501	489.14
392.881	502.92
393.26	483.94
393.639	497.5
394.018	517.16
394.397	516.94
394.776	540.66
395.155	535.01
395.534	540.89
395.913	563.71
396.292	540.66
396.671	561.45
397.05	577.95
397.429	590.38
397.808	580.89
398.186	597.84
398.565	603.26
398.944	624.28
399.323	619.31
399.701	621.11
400.08	644.84
400.458	645.52
400.837	657.72
401.215	663.82
401.594	681.68
401.972	696.59
402.351	699.76
402.729	737.04
403.107	743.6
403.486	753.54
403.864	772.75
404.242	777.72
404.62	791.5
404.999	800.54
405.377	829.47
405.755	828.79
406.133	873.54
406.511	845.51
406.889	895.91
407.267	882.12
407.645	932.52
408.023	936.59
408.401	966.42
408.779	977.94
409.156	1008.22
409.534	1011.84
409.912	999.63
410.29	1035.79
410.667	1062.23
411.045	1059.52
411.422	1090.03
411.8	1099.97
412.178	1119.86
412.555	1162.57
412.933	1145.62
413.31	1164.38
413.687	1194.21
414.065	1219.06
414.442	1227.2
414.819	1247.54
415.197	1279.63
415.574	1295.22
415.951	1292.73
416.328	1314.65
416.705	1335.67
417.082	1320.3
417.46	1368.21
417.837	1387.2
418.214	1396.01
418.591	1368.89
418.967	1430.13
419.344	1451.37
419.721	1450.24
420.098	1448.66
420.475	1472.16
420.852	1478.49
421.228	1519.85
421.605	1529.11
421.982	1531.15
422.358	1540.86
422.735	1573.63
423.111	1600.75
423.488	1621.99
423.864	1638.49
424.241	1651.82
424.617	1676
424.994	1671.48
425.37	1703.8
425.746	1717.13
426.123	1747.64
426.499	1735.21
426.875	1789.44
427.251	1816.79
427.627	1843.68
428.003	1840.29
428.379	1885.94
428.756	1904.92
429.132	1949.89
429.507	1959.38
429.883	1994.86
430.259	2041.19
430.635	2033.51
431.011	2024.47
431.387	2094.3
431.763	2141.98
432.138	2132.49
432.514	2186.95
432.89	2187.63
433.265	2242.54
433.641	2290.45
434.016	2337.45
434.392	2339.49
434.767	2418.58
435.143	2391.69
435.518	2437.34
435.894	2464.45
436.269	2442.99
436.644	2460.84
437.02	2517.56
437.395	2574.06
437.77	2576.32
438.145	2646.15
438.52	2649.31
438.895	2660.61
439.271	2711
439.646	2750.32
440.021	2770.44
440.395	2760.04
440.77	2732.92
441.145	2809.76
441.52	2857.89
441.895	2850.89
442.27	2939.7
442.645	2889.53
443.019	2962.29
443.394	2961.62
443.769	2994.38
444.143	2985.35
444.518	3065.34
444.892	3038
445.267	3083.42
445.641	3120.26
446.016	3145.79
446.39	3107.38
446.764	3175.62
447.139	3170.2
447.513	3214.94
447.887	3245.23
448.262	3289.29
448.636	3275.06
449.01	3335.62
449.384	3332.68
449.758	3340.14
450.132	3428.5
450.506	3428.72
450.88	3481.38
451.254	3470.76
451.628	3549.85
452.002	3568.61
452.376	3616.97
452.75	3678.66
453.123	3693.12
453.497	3710.98
453.871	3754.14
454.244	3868.03
454.618	3867.81
454.992	3948.94
455.365	3959.56
455.739	4055.37
456.112	4064.86
456.486	4128.82
456.859	4172.88
457.232	4250.62
457.606	4208.14
457.979	4286.33
458.352	4406.32
458.725	4433.89
459.099	4445.19
459.472	4564.51
459.845	4597.28
460.218	4674.57
460.591	4691.06
460.964	4749.14
461.337	4858.74
461.71	4951.17
462.083	5009.02
462.456	4950.27
462.829	5010.38
463.201	5119.3
463.574	5151.62
463.947	5230.03
464.32	5353.64
464.692	5359.52
465.065	5472.29
465.438	5469.57
465.81	5609.91
466.183	5658.5
466.555	5767.19
466.928	5826.85
467.3	5861.65
467.672	5907.08
468.045	6057.81
468.417	6110.23
468.789	6067.52
469.161	6297.12
469.534	6367.4
469.906	6450.56
470.278	6554.29
470.65	6658.02
471.022	6711.57
471.394	6869.76
471.766	6914.28
472.138	7044.67
472.51	7206.25
472.882	7296.87
473.253	7373.7
473.625	7489.18
473.997	7705.45
474.369	7705
474.74	7825.9
475.112	8033.12
475.484	8143.63
475.855	8249.84
476.227	8338.65
476.598	8548.81
476.97	8652.77
477.341	8883.95
477.713	9001.68
478.084	9089.14
478.455	9364.61
478.827	9396.25
479.198	9714.21
479.569	9631.72
479.94	10006.86
480.311	10113.52
480.682	10284.59
481.053	10515.09
481.424	10693.84
481.795	10850.22
482.166	10975.42
482.537	11142.19
482.908	11402.98
483.279	11472.58
483.65	11673.48
484.021	11954.83
484.391	12129.74
484.762	12174.71
485.133	12317.98
485.503	12547.58
485.874	12865.99
486.244	13083.61
486.615	13193.89
486.985	13431.85
487.356	13664.61
487.726	13781.67
488.097	14045.17
488.467	14070.25
488.837	14397.93
489.207	14640.18
489.578	14754.3
489.948	14958.36
490.318	15107.06
490.688	15178.7
491.058	15508.18
491.428	15681.73
491.798	15789.98
492.168	16222.74
492.538	16206.92
492.908	16442.39
493.278	16746.79
493.648	16671.31
494.017	17006.67
494.387	17136.16
494.757	17245.99
495.126	17453.44
495.496	17521.46
495.866	17757.84
496.235	17980.43
496.605	18060.66
496.974	18164.16
497.344	18434.88
497.713	18467.88
498.082	18630.36
498.452	18836.91
498.821	18897.47
499.19	19050.46
499.559	19322.99
499.928	19435.08
500.298	19499.04
500.667	19722.31
501.036	19754.62
501.405	19977.44
501.774	20050.66
502.143	20215.63
502.512	20328.62
502.88	20612.45
503.249	20622.4
503.618	20849.28
503.987	20861.49
504.356	21150.52
504.724	21178.09
505.093	21318.2
505.462	21513.22
505.83	21594.8
506.199	21743.72
506.567	22151.39
506.936	22114.33
507.304	22384.61
507.672	22570.37
508.041	22669.8
508.409	22804.49
508.777	23000.19
509.145	23166.74
509.514	23243.34
509.882	23512.26
510.25	23509.78
510.618	23772.82
510.986	23971.69
511.354	24196.76
511.722	24340.04
512.09	24573.25
512.458	24547.72
512.826	24844.66
513.193	24996.07
513.561	25187.7
513.929	25327.58
514.297	25542.94
514.664	25673.79
515.032	25815.48
515.4	26010.5
515.767	26159.65
516.135	26387.89
516.502	26330.95
516.869	26785.62
517.237	26894.32
517.604	26751.73
517.972	27210.47
518.339	27582.89
518.706	27504.02
519.073	27670.8
519.44	27848.19
519.808	28190.33
520.175	28312.81
520.542	28547.16
520.909	28842.29
521.276	28870.31
521.643	29164.32
522.009	29290.64
522.376	29546.68
522.743	29626.9
523.11	30015.14
523.477	30248.81
523.843	30431.63
524.21	30736.03
524.577	31057.6
524.943	31151.16
525.31	31291.95
525.676	31549.34
526.043	31873.85
526.409	31923.79
526.776	32300.73
527.142	32471.12
527.508	32573.49
527.874	32931.22
528.241	33099.81
528.607	33306.81
528.973	33609.62
529.339	33491.21
529.705	33827.47
530.071	34088.03
530.437	34302.04
530.803	34460.68
531.169	34724.85
531.535	34603.95
531.901	34786.09
532.267	35047.55
532.632	35304.5
532.998	35399.18
533.364	35644.15
533.73	35739.51
534.095	36027.41
534.461	36073.51
534.826	36395.54
535.192	36495.88
535.557	36631.47
535.923	36624.01
536.288	36831.91
536.653	37096.09
537.019	37065.13
537.384	37154.16
537.749	37418.11
538.114	37514.15
538.479	37636.41
538.845	37931.09
539.21	37642.29
539.575	37970.41
539.94	38157.08
540.305	38329.73
540.67	38474.36
541.034	38528.37
541.399	38840.45
541.764	38821.69
542.129	39108.46
542.494	39202.47
542.858	39306.2
543.223	39445.86
543.587	39727.43
543.952	39616.7
544.316	39779.41
544.681	39892.17
545.045	40193.18
545.41	40475.21
545.774	40361.99
546.138	40432.04
546.503	40721.08
546.867	40701.19
547.231	41147.05
547.595	41094.4
547.959	41336.65
548.324	41461.85
548.688	41611.9
549.052	41737.77
549.416	41757.89
549.779	42024.77
550.143	42193.35
550.507	42405.55
550.871	42499.56
551.235	42483.52
551.599	42791.76
551.962	43037.4
552.326	43117.85
552.689	43306.09
553.053	43151.97
553.417	43461.12
553.78	44125.05
554.143	43923.93
554.507	44158.73
554.87	44258.38
555.234	44753.51
555.597	44512.16
555.96	44764.81
556.323	44985.14
556.686	45088.87
557.05	45424.46
557.413	45416.55
557.776	45628.74
558.139	46003.65
558.502	46113.93
558.865	46181.5
559.228	46542.84
559.59	46583.75
559.953	46559.11
560.316	47070.51
560.679	47126.78
561.041	47323.61
561.404	47580.78
561.767	47855.8
562.129	47677.73
562.492	48152.97
562.854	48094.44
563.217	48324.27
563.579	48449.23
563.941	48691.26
564.304	48817.36
564.666	49023.23
565.028	49203.79
565.39	49277.01
565.753	49544.57
566.115	49567.62
566.477	49633.38
566.839	49740.95
567.201	49947.5
567.563	50046.25
567.925	50317.89
568.287	50349.98
568.648	50314.27
569.01	50691.21
569.372	50671.55
569.734	50700.02
570.095	51094.81
570.457	51062.95
570.819	51245.09
571.18	51245.77
571.542	51493
571.903	51453.22
572.265	51543.39
572.626	51689.38
572.987	51699.32
573.349	51828.58
573.71	51964.85
574.071	52085.3
574.432	52152.87
574.794	52393.76
575.155	52352.18
575.516	52203.03
575.877	52399.19
576.238	52516.7
576.599	52615.9
576.96	52559.86
577.32	52667.65
577.681	52712.4
578.042	52796.69
578.403	52818.84
578.763	52897.48
579.124	52892.96
579.485	53070.81
579.845	53158.04
580.206	53106.51
580.566	53077.14
580.927	53097.47
581.287	53189.45
581.648	53061.77
582.008	53196.23
582.368	53198.26
582.728	53274.42
583.089	53281.42
583.449	53226.06
583.809	53403.68
584.169	53339.95
584.529	53290.92
584.889	53485.26
585.249	53340.86
585.609	53235.32
585.969	53454.75
586.329	53442.78
586.688	53418.82
587.048	53462.89
587.408	53339.28
587.768	53366.85
588.127	53350.57
588.487	53394.19
588.846	53547.86
589.206	53346.05
589.565	53420.86
589.925	53500.63
590.284	53450.01
590.643	53479.38
591.003	53547.18
591.362	53713.95
591.721	53474.64
592.08	53544.02
592.44	53656.1
592.799	53585.6
593.158	53601.19
593.517	53557.8
593.876	53615.88
594.235	53592.38
594.593	53619.72
594.952	53688.42
595.311	53551.47
595.67	53681.64
596.029	53765.93
596.387	53839.15
596.746	53905.59
597.104	53758.47
597.463	53781.98
597.822	53802.09
598.18	53697.46
598.538	53765.03
598.897	53974.96
599.255	53609.78
599.613	54000.05
599.972	53869.21
600.33	53964.57
600.688	53821.52
601.046	53979.26
601.404	54036.21
601.762	53978.58
602.12	54080.5
602.478	54080.72
602.836	54206.15
603.194	54000.05
603.552	54152.59
603.91	53975.64
604.268	54178.58
604.625	54060.16
604.983	54175.41
605.341	54056.09
605.698	54203.66
606.056	54247.5
606.413	54278.01
606.771	54336.76
607.128	54414.28
607.485	54310.32
607.843	54318.46
608.2	54482.07
608.557	54507.38
608.914	54471
609.272	54649.98
609.629	54737.66
609.986	54782.18
610.343	54591.67
610.7	54840.25
611.057	54722.06
611.414	54713.93
611.771	54710.76
612.127	54874.38
612.484	54759.35
612.841	54861.27
613.198	54812.46
613.554	54856.52
613.911	55041.83
614.267	54979.23
614.624	54907.14
614.98	55007.71
615.337	55117.76
615.693	55089.29
616.05	55063.75
616.406	55150.53
616.762	55127.7
617.118	55093.81
617.475	55099.23
617.831	55234.82
618.187	55225.55
618.543	55300.58
618.899	55454.25
619.255	55423.74
619.611	55358.66
619.967	55434.36
620.323	55479.33
620.678	55346.68
621.034	55361.6
621.39	55348.49
621.746	55383.52
622.101	55633.68
622.457	55422.61
622.812	55469.84
623.168	55551.19
623.523	55583.06
623.879	55583.06
624.234	55385.78
624.589	55498.09
624.945	55462.16
625.3	55496.51
625.655	55485.43
626.01	55494.7
626.365	55579.67
626.72	55503.74
627.075	55522.27
627.43	55483.85
627.785	55480.91
628.14	55463.74
628.495	55530.4
628.85	55451.08
629.205	55316.62
629.559	55454.93
629.914	55445.66
630.269	55456.06
630.623	55317.75
630.978	55260.13
631.332	55377.87
631.687	55424.64
632.041	55296.06
632.396	55333.12
632.75	55221.26
633.104	55286.57
633.459	55129.74
633.813	55147.36
634.167	55088.16
634.521	55184.65
634.875	55069.63
635.229	55023.07
635.583	54955.96
635.937	54974.03
636.291	54975.62
636.645	54931.78
636.999	54829.86
637.352	54995.96
637.706	54889.29
638.06	55019.68
638.413	54764.77
638.767	54813.14
639.121	54768.62
639.474	54621.5
639.828	54674.38
640.181	54766.36
640.534	54779.92
640.888	54675.96
641.241	54465.8
641.594	54621.95
641.947	54627.15
642.301	54558.23
642.654	54538.57
643.007	54453.14
643.36	54561.62
643.713	54513.93
644.066	54525.91
644.419	54337.22
644.771	54030.56
645.124	53791.47
645.477	53770.22
645.83	53508.08
646.182	53413.85
646.535	53355.09
646.888	53543.11
647.24	53203.91
647.593	53360.29
647.945	53318.71
648.298	53190.13
648.65	53151.71
649.002	53051.6
649.355	53066.29
649.707	53156.46
650.059	53235.78
650.411	53556.67
650.763	53616.56
651.115	53888.41
651.467	53751.92
651.819	53802.31
652.171	53713.05
652.523	53638.93
652.875	53669.89
653.227	53572.49
653.578	53676.22
653.93	53592.38
654.282	53502.44
654.633	53412.49
654.985	53437.8
655.337	53433.74
655.688	53499.72
656.039	53476.67
656.391	53304.93
656.742	53359.39
657.094	53352.16
657.445	53462.21
657.796	53365.94
658.147	53230.13
658.498	53122.56
658.849	53303.8
659.2	53344.47
659.551	53215.21
659.902	53310.12
660.253	53277.13
660.604	53208.88
660.955	53092.28
661.306	53127.76
661.656	53059.06
662.007	52999.62
662.358	53020.64
662.708	53070.58
663.059	52998.72
663.409	52792.62
663.76	53031.71
664.11	53060.19
664.461	53022.9
664.811	52892.73
665.161	52997.36
665.511	52922.56
665.862	52964.37
666.212	52978.16
666.562	53008.44
666.912	52824.26
667.262	52856.35
667.612	52913.3
667.962	52823.36
668.312	52828.33
668.662	52939.51
669.011	52746.75
669.361	52779.74
669.711	52676.02
670.06	52629.01
670.41	52589.46
670.76	52574.78
671.109	52753.53
671.459	52657.49
671.808	52556.25
672.157	52594.44
672.507	52343.14
672.856	52484.38
673.205	52537.71
673.554	52606.64
673.904	52382.92
674.253	52485.74
674.602	52459.52
674.951	51981.57
675.3	51756.49
675.649	52346.53
675.998	52134.56
676.346	52313.09
676.695	52391.5
677.044	52024.96
677.393	52263.37
677.741	52286.65
678.09	52049.59
678.438	51966.43
678.787	52233.77
679.135	52147.44
679.484	51835.36
679.832	52046.88
680.181	51828.35
680.529	51968.69
680.877	51842.82
681.225	51721.92
681.573	51873.55
681.922	51743.16
682.27	51564.86
682.618	51553.33
682.966	51462.26
683.314	51511.75
683.661	51431.98
684.009	51255.26
684.357	51232.66
684.705	51074.48
685.053	51146.56
685.4	51050.75
685.748	50907.7
686.095	50893.01
686.443	50838.78
686.79	50698.44
687.138	50721.27
687.485	50754.03
687.832	50652.11
688.18	50556.3
688.527	50330.99
688.874	50342.74
689.221	50294.84
689.568	50125.35
689.915	49986.6
690.262	50028.63
690.609	49896.2
690.956	49811.23
691.303	49685.13
691.65	49566.04
691.997	49537.79
692.344	49413.73
692.69	49406.27
693.037	49449.21
693.383	49007.86
693.73	49131.25
694.077	48912.05
694.423	48954.53
694.769	48806.74
695.116	48865.72
695.462	48736.91
695.808	48498.05
696.155	48537.37
696.501	48370.37
696.847	48337.37
697.193	48127.44
697.539	48222.8
697.885	47902.81
698.231	47764.05
698.577	47828.23
698.923	47742.81
699.269	47473.22
699.614	47395.7
699.96	47387.34
700.306	47357.96
700.651	47157.97
700.997	47014.24
701.342	46976.96
701.688	46806.57
702.033	46771.54
702.379	46705.55
702.724	46553.47
703.069	46623.97
703.415	46137.43
703.76	46183.76
704.105	46101.27
704.45	46167.03
704.795	45888.85
705.14	45843.43
705.485	45886.82
705.83	45695.86
706.175	45754.62
706.52	45541.29
706.865	45366.15
707.209	45506.49
707.554	45201.18
707.899	45304.46
708.243	45020.17
708.588	44911.02
708.932	44777.01
709.277	44681.88
709.621	44697.92
709.966	44479.85
710.31	44603.01
710.654	44349.23
710.998	44293.86
711.342	44350.81
711.687	44193.75
712.031	44037.37
712.375	43906.76
712.719	43979.97
713.063	43934.1
713.407	44119.86
713.75	43713.31
714.094	43645.07
714.438	43553.77
714.782	43631.73
715.125	43452.53
715.469	43353.55
715.812	43040.56
716.156	43003.95
716.499	42928.93
716.843	42959.44
717.186	42652.55
717.53	42884.41
717.873	42858.2
718.216	42781.36
718.559	42662.04
718.902	42226.12
719.246	42433.12
719.589	42302.73
719.932	42124.66
720.275	42107.71
720.617	42133.69
720.96	41859.35
721.303	41957.65
721.646	41994.04
721.989	41722.41
722.331	41776.19
722.674	41715.85
723.016	41568.51
723.359	41638.57
723.701	41580.04
724.044	41327.39
724.386	41163.32
724.729	41483.32
725.071	41294.39
725.413	41300.95
725.755	41202.42
726.097	41114.74
726.439	40907.96
726.782	40808.53
727.124	40967.85
727.465	40771.47
727.807	40734.18
728.149	40704.35
728.491	40519.05
728.833	40641.53
729.175	40490.12
729.516	40389.79
729.858	40352.5
730.199	40409.45
730.541	40241.77
730.882	40245.38
731.224	40283.35
731.565	39989.57
731.906	39917.26
732.248	39952.28
732.589	39777.82
732.93	39518.62
733.271	39477.95
733.612	39709.35
733.953	39705.74
734.294	39354.56
734.635	39428
734.976	39416.7
735.317	39386.2
735.658	39383.71
735.999	39366.76
736.339	39243.6
736.68	39355.24
737.021	39135.13
737.361	38861.92
737.702	39231.62
738.042	39023.72
738.383	38854.46
738.723	38942.14
739.063	38787.57
739.404	38853.55
739.744	38684.29
740.084	38602.94
740.424	38642.49
740.764	38549.16
741.104	38615.59
741.444	38482.49
741.784	38271.88
742.124	38367.92
742.464	38279.33
742.804	38272.78
743.143	38063.52
743.483	38121.14
743.823	37960.7
744.162	38020.13
744.502	37883.41
744.841	37715.28
745.181	37824.66
745.52	37671.44
745.86	37807.48
746.199	37750.53
746.538	37558.9
746.877	37488.62
747.216	37560.26
747.556	37379.92
747.895	37397.32
748.234	37273.48
748.573	37200.26
748.911	36985.58
749.25	37139.02
749.589	36907.39
749.928	36974.96
750.267	37003.66
750.605	36752.14
750.944	36859.03
751.283	36641.86
751.621	36723.44
751.96	36470.34
752.298	36507.85
752.636	36552.37
