Data from white_wall_FLMS001491_044.txt Node
Date: Tue Feb 07 11:04:34 GMT 2017
User: dcchb
Spectrometer: FLMS00149
Trigger mode: 0
Integration Time (sec): 2.000000E-2
Scans to average: 10
Electric dark correction enabled: true
Nonlinearity correction enabled: false
Boxcar width: 0
XAxis mode: Wavelengths
Number of Pixels in Spectrum: 2048
>>>>>Begin Spectral Data<<<<<
341.393	-5.89
341.776	-5.89
342.16	-5.89
342.543	-45.21
342.927	-69.16
343.31	-79.56
343.693	-69.16
344.077	-70.97
344.46	-51.76
344.843	-46.79
345.226	-49.28
345.61	-43.85
345.993	-9.28
346.376	-12.44
346.759	25.97
347.142	21.91
347.525	37.27
347.908	67.1
348.291	91.51
348.674	89.7
349.057	99.64
349.44	115.24
349.823	158.63
350.206	167.21
350.588	190.72
350.971	225.06
351.354	237.49
351.737	269.58
352.119	243.6
352.502	272.52
352.884	279.98
353.267	317.94
353.65	304.61
354.032	299.86
354.414	333.08
354.797	329.69
355.179	309.81
355.562	336.25
355.944	320.88
356.326	338.51
356.709	348.45
357.091	345.74
357.473	349.36
357.855	344.16
358.238	360.43
358.62	361.33
359.002	337.6
359.384	348
359.766	330.6
360.148	357.72
360.53	348.45
360.912	355
361.294	346.19
361.676	343.25
362.057	345.29
362.439	337.6
362.821	319.75
363.203	352.29
363.584	346.64
363.966	342.58
364.348	337.83
364.729	336.02
365.111	351.16
365.493	337.15
365.874	338.06
366.256	319.3
366.637	330.15
367.019	316.14
367.4	326.08
367.781	336.93
368.163	326.3
368.544	336.02
368.925	322.69
369.306	330.82
369.688	322.92
370.069	339.19
370.45	326.53
370.831	332.63
371.212	308.68
371.593	334.21
371.974	343.48
372.355	339.64
372.736	335.8
373.117	331.05
373.498	322.69
373.879	325.63
374.26	330.6
374.641	329.69
375.021	332.41
375.402	333.76
375.783	351.16
376.163	383.7
376.544	348.23
376.925	343.93
377.305	345.97
377.686	343.48
378.066	350.71
378.447	345.06
378.827	345.97
379.208	324.27
379.588	350.49
379.968	359.75
380.349	369.69
380.729	355.91
381.109	371.28
381.489	355
381.87	376.7
382.25	365.85
382.63	357.94
383.01	350.94
383.39	377.38
383.77	385.96
384.15	377.15
384.53	364.04
384.91	398.17
385.29	403.14
385.67	380.31
386.049	386.19
386.429	399.07
386.809	379.18
387.189	402.01
387.568	405.17
387.948	404.04
388.328	420.09
388.707	412.86
389.087	419.86
389.466	413.31
389.846	429.58
390.225	439.75
390.605	432.52
390.984	435
391.363	429.35
391.743	453.99
392.122	456.47
392.501	448.79
392.881	446.3
393.26	442.46
393.639	449.92
394.018	472.29
394.397	492.85
394.776	499.41
395.155	500.09
395.534	496.7
395.913	487.43
396.292	502.12
396.671	509.8
397.05	512.97
397.429	525.62
397.808	526.98
398.186	565.39
398.565	560.88
398.944	546.19
399.323	572.17
399.701	604.72
400.08	567.88
400.458	603.13
400.837	589.35
401.215	619.63
401.594	654.88
401.972	623.47
402.351	630.7
402.729	670.02
403.107	667.31
403.486	672.28
403.864	692.62
404.242	679.52
404.62	682.23
404.999	708.67
405.377	746.41
405.755	754.77
406.133	745.73
406.511	766.52
406.889	812.62
407.267	801.55
407.645	800.42
408.023	830.25
408.401	837.93
408.779	841.77
409.156	877.7
409.534	865.73
409.912	886.06
410.29	898.72
410.667	947.98
411.045	952.05
411.422	946.4
411.8	976.23
412.178	962.67
412.555	992.95
412.933	1028.66
413.31	1041.99
413.687	1033.63
414.065	1081.31
414.442	1084.25
414.819	1093.06
415.197	1105.04
415.574	1131.48
415.951	1132.16
416.328	1124.93
416.705	1136
417.082	1145.49
417.46	1157.47
417.837	1193.85
418.214	1168.77
418.591	1212.84
418.967	1205.83
419.344	1228.43
419.721	1243.12
420.098	1245.83
420.475	1302.32
420.852	1284.47
421.228	1294.87
421.605	1314.98
421.982	1333.28
422.358	1355.66
422.735	1355.66
423.111	1358.37
423.488	1395.88
423.864	1418.48
424.241	1389.1
424.617	1443.56
424.994	1467.97
425.37	1465.94
425.746	1458.03
426.123	1477.01
426.499	1507.06
426.875	1517.46
427.251	1561.3
427.627	1572.37
428.003	1596.78
428.379	1582.54
428.756	1639.04
429.132	1639.94
429.507	1678.81
429.883	1693.5
430.259	1744.57
430.635	1715.42
431.011	1720.62
431.387	1814.85
431.763	1814.63
432.138	1785.25
432.514	1885.13
432.89	1864.57
433.265	1919.71
433.641	1953.38
434.016	1963.78
434.392	1969.2
434.767	2020.27
435.143	1994.74
435.518	2052.59
435.894	2044
436.269	2094.17
436.644	2118.8
437.02	2122.19
437.395	2130.78
437.77	2145.01
438.145	2196.31
438.52	2203.09
438.895	2258.91
439.271	2289.19
439.646	2302.98
440.021	2308.85
440.395	2345.69
440.77	2342.3
441.145	2357.21
441.52	2401.05
441.895	2443.31
442.27	2442.18
442.645	2443.54
443.019	2466.36
443.394	2457.55
443.769	2526.7
444.143	2539.81
444.518	2519.24
444.892	2538.45
445.267	2543.65
445.641	2587.94
446.016	2621.84
446.39	2651.67
446.764	2643.08
447.139	2658
447.513	2679.46
447.887	2705
448.262	2753.59
448.636	2744.77
449.01	2767.82
449.384	2816.18
449.758	2803.75
450.132	2873.36
450.506	2878.1
450.88	2905.22
451.254	2933.69
451.628	2909.29
452.002	2982.96
452.376	3020.25
452.75	3069.51
453.123	3086.91
453.497	3149.51
453.871	3174.59
454.244	3204.65
454.618	3225.21
454.992	3283.97
455.365	3221.6
455.739	3332.55
456.112	3391.99
456.486	3437.86
456.859	3444.19
457.232	3528.48
457.606	3560.34
457.979	3574.36
458.352	3665.2
458.725	3697.97
459.099	3717.63
459.472	3803.05
459.845	3840.79
460.218	3888.25
460.591	3917.85
460.964	3935.93
461.337	4034.23
461.71	4085.75
462.083	4115.81
462.456	4144.28
462.829	4165.53
463.201	4254.79
463.574	4273.09
463.947	4328.23
464.32	4435.12
464.692	4491.85
465.065	4513.77
465.438	4553.99
465.81	4634.44
466.183	4722.12
466.555	4816.81
466.928	4781.1
467.3	4833.31
467.672	4886.64
468.045	5050.7
468.417	5038.27
468.789	5103.13
469.161	5143.58
469.534	5264.03
469.906	5386.28
470.278	5392.39
470.65	5557.13
471.022	5579.73
471.394	5732.04
471.766	5741.3
472.138	5830.34
472.51	6007.06
472.882	6069.88
473.253	6126.6
473.625	6207.28
473.997	6304.23
474.369	6403.89
474.74	6411.34
475.112	6586.71
475.484	6720.71
475.855	6777.89
476.227	6884.1
476.598	7054.94
476.97	7138.33
477.341	7313.92
477.713	7335.61
478.084	7459.9
478.455	7718.43
478.827	7728.82
479.198	8018.31
479.569	7962.94
479.94	8236.38
480.311	8309.15
480.682	8559.53
481.053	8719.3
481.424	8786.42
481.795	8925.4
482.166	9059.41
482.537	9187.77
482.908	9385.28
483.279	9489
483.65	9628.21
484.021	9842.89
484.391	9991.14
484.762	10052.38
485.133	10198.81
485.503	10363.1
485.874	10548.41
486.244	10673.38
486.615	10912.69
486.985	11022.97
487.356	11270.88
487.726	11276.07
488.097	11523.3
488.467	11611.66
488.837	11845.55
489.207	11981.82
489.578	12252.32
489.948	12253
490.318	12440.56
490.688	12525.76
491.058	12762.36
491.428	12937.27
491.798	13001.45
492.168	13352.18
492.538	13335.68
492.908	13569.57
493.278	13722.34
493.648	13794.43
494.017	13947.42
494.387	14145.15
494.757	14218.82
495.126	14374.75
495.496	14531.13
495.866	14622.43
496.235	14733.61
496.605	14901.74
496.974	14982.64
497.344	15090.89
497.713	15197.1
498.082	15383.76
498.452	15590.99
498.821	15537.2
499.19	15675.05
499.559	15868.95
499.928	16020.58
500.298	16083.18
500.667	16266
501.036	16268.94
501.405	16541.02
501.774	16542.38
502.143	16643.62
502.512	16721.13
502.88	16972.19
503.249	17026.66
503.618	17131.29
503.987	17206.31
504.356	17308.01
504.724	17543.03
505.093	17495.57
505.462	17668
505.83	17898.5
506.199	17975.78
506.567	18197.25
506.936	18266.4
507.304	18496.45
507.672	18535.54
508.041	18618.93
508.409	18790.9
508.777	18936.66
509.145	19047.85
509.514	19056.21
509.882	19322.19
510.25	19434.5
510.618	19650.32
510.986	19690.77
511.354	19903.42
511.722	20146.12
512.09	20187.93
512.458	20194.03
512.826	20438.32
513.193	20563.06
513.561	20614.81
513.929	20862.49
514.297	20985.42
514.664	21273.1
515.032	21272.19
515.4	21407.33
515.767	21592.41
516.135	21729.13
516.502	21626.31
516.869	22178.61
517.237	22262
517.604	22170.25
517.972	22404.82
518.339	22630.58
518.706	22658.15
519.073	22791.48
519.44	23050.45
519.808	23241.86
520.175	23236.44
520.542	23650.44
520.909	23694.5
521.276	23710.1
521.643	24054.95
522.009	24136.07
522.376	24268.05
522.743	24514.37
523.11	24893.57
523.477	24981.7
523.843	25128.59
524.21	25427.57
524.577	25585.08
524.943	25632.31
525.31	25841.57
525.676	26045.18
526.043	26279.75
526.409	26360.65
526.776	26756.57
527.142	26638.61
527.508	26916.79
527.874	27104.58
528.241	27260.51
528.607	27315.2
528.973	27557
529.339	27724
529.705	28018.23
530.071	28145.23
530.437	28422.97
530.803	28405.34
531.169	28563.75
531.535	28549.29
531.901	28782.05
532.267	28902.5
532.632	29146.34
532.998	29227.01
533.364	29397.63
533.73	29365.99
534.095	29799.2
534.461	29709.71
534.826	29922.36
535.192	29970.27
535.557	30214.11
535.923	30259.53
536.288	30428.56
536.653	30647.99
537.019	30545.17
537.384	30801.21
537.749	30934.09
538.114	31068.77
538.479	31083.24
538.845	31353.51
539.21	31219.05
539.575	31409.1
539.94	31581.3
540.305	31708.76
540.67	31764.12
541.034	31971.35
541.399	32093.83
541.764	32151
542.129	32298.35
542.494	32382.19
542.858	32489.08
543.223	32614.5
543.587	32867.37
543.952	32778.79
544.316	32888.16
544.681	33009.29
545.045	33151.66
545.41	33367.92
545.774	33489.27
546.138	33314.14
546.503	33643.4
546.867	33690.85
547.231	33974.46
547.595	34034.35
547.959	34174.91
548.324	34320.21
548.688	34359.53
549.052	34582.13
549.416	34521.56
549.779	34703.71
550.143	34832.74
550.507	35010.14
550.871	35326.97
551.235	35183.02
551.599	35463.23
551.962	35633.4
552.326	35676.11
552.689	36133.73
553.053	35928.53
553.417	36041.3
553.78	36587.05
554.143	36585.92
554.507	36539.36
554.87	36869.07
555.234	37246.01
555.597	37066.13
555.96	37241.04
556.323	37510.41
556.686	37494.37
557.05	37795.6
557.413	37988.82
557.776	38026.33
558.139	38374.34
558.502	38541.8
558.865	38469.48
559.228	38843.26
559.59	38982.69
559.953	39191.72
560.316	39405.96
560.679	39493.41
561.041	39649.56
561.404	39839.84
561.767	40198.25
562.129	39979.73
562.492	40401.64
562.854	40473.05
563.217	40406.38
563.579	40689.31
563.941	40919.14
564.304	41036.2
564.666	41360.93
565.028	41318.67
565.39	41588.27
565.753	41800.02
566.115	42006.79
566.477	42160.91
566.839	42183.96
567.201	42512.99
567.563	42487.23
567.925	42805.19
568.287	42817.39
568.648	42891.97
569.01	43145.97
569.372	43417.6
569.734	43273.2
570.095	43599.52
570.457	43731.27
570.819	43916.12
571.18	43807.65
571.542	44178.03
571.903	44079.73
572.265	44406.28
572.626	44427.74
572.987	44543
573.349	44773.27
573.71	44894.4
574.071	44907.96
574.432	45092.13
574.794	45207.61
575.155	45257.1
575.516	45035.19
575.877	45316.53
576.238	45610.31
576.599	45542.52
576.96	45683.3
577.32	45779.12
577.681	45875.62
578.042	45999.91
578.403	45893.47
578.763	45969.17
579.124	46027.93
579.485	45971.43
579.845	46244.65
580.206	46123.29
580.566	46219.56
580.927	46172.33
581.287	46406
581.648	46290.52
582.008	46513.34
582.368	46373.23
582.728	46504.07
583.089	46500.23
583.449	46535.26
583.809	46567.35
584.169	46557.18
584.529	46571.19
584.889	46833.33
585.249	46597.4
585.609	46585.43
585.969	46709.04
586.329	46592.21
586.688	46692.09
587.048	46693.9
587.408	46659.78
587.768	46660.68
588.127	46660.91
588.487	46581.36
588.846	46996.72
589.206	46714.46
589.565	46695.71
589.925	47010.05
590.284	46740.68
590.643	46835.14
591.003	46784.74
591.362	46879.88
591.721	46985.87
592.08	46875.14
592.44	46951.75
592.799	46921.46
593.158	46909.49
593.517	46763.28
593.876	46975.47
594.235	46870.39
594.593	46991.74
594.952	46947.23
595.311	46935.02
595.67	47104.96
596.029	47270.61
596.387	47058.86
596.746	47361.68
597.104	47088.69
597.463	47091.63
597.822	47245.07
598.18	47054.57
598.538	47071.97
598.897	47252.75
599.255	47032.42
599.613	47573.2
599.972	47268.8
600.33	47426.99
600.688	47198.07
601.046	47514.22
601.404	47686.87
601.762	47462.01
602.12	47640.54
602.478	47513.54
602.836	47700.65
603.194	47409.36
603.552	47612.52
603.91	47400.1
604.268	47691.39
604.625	47663.37
604.983	47805.06
605.341	47585.4
605.698	47851.84
606.056	47959.63
606.413	47784.27
606.771	48026.29
607.128	48100.87
607.485	47980.65
607.843	47801.44
608.2	48185.84
608.557	48266.29
608.914	48111.26
609.272	48257.7
609.629	48403.68
609.986	48414.76
610.343	48178.83
610.7	48424.02
611.057	48456.79
611.414	48489.11
611.771	48469.22
612.127	48688.42
612.484	48611.82
612.841	48645.03
613.198	48575.21
613.554	48681.19
613.911	48854.75
614.267	48771.13
614.624	48805.03
614.98	48831.47
615.337	49077.34
615.693	49019.94
616.05	48967.74
616.406	49217.22
616.762	49061.07
617.118	49059.03
617.475	49035.08
617.831	49112.14
618.187	49137
618.543	49224.45
618.899	49379.03
619.255	49292.48
619.611	49310.33
619.967	49387.39
620.323	49489.53
620.678	49294.06
621.034	49164.12
621.39	49214.29
621.746	49262.87
622.101	49659.47
622.457	49377.22
622.812	49466.93
623.168	49579.93
623.523	49600.72
623.879	49559.13
624.234	49325.92
624.589	49563.88
624.945	49500.15
625.3	49596.87
625.655	49565.69
626.01	49458.35
626.365	49523.66
626.72	49538.34
627.075	49531.34
627.43	49591.45
627.785	49494.05
628.14	49447.27
628.495	49484.79
628.85	49542.64
629.205	49307.62
629.559	49579.7
629.914	49380.38
630.269	49480.04
630.623	49330.89
630.978	49319.37
631.332	49387.39
631.687	49429.65
632.041	49309.88
632.396	49298.35
632.75	49135.64
633.104	49288.86
633.459	49094.29
633.813	49163.66
634.167	49009.32
634.521	49065.14
634.875	49060.62
635.229	49046.83
635.583	48847.52
635.937	48773.39
636.291	48747.63
636.645	48819.27
636.999	48739.5
637.352	48840.28
637.706	48653.62
638.06	48772.71
638.413	48638.93
638.767	48528.43
639.121	48593.96
639.474	48321.2
639.828	48397.36
640.181	48568.65
640.534	48393.52
640.888	48229
641.241	48139.51
641.594	48291.6
641.947	48268.32
642.301	48129.12
642.654	48184.48
643.007	48221.09
643.36	48155.78
643.713	48108.33
644.066	48166.4
644.419	47958.72
644.771	47763.25
645.124	47343.83
645.477	47226.09
645.83	47010.05
646.182	46909.71
646.535	46732.77
646.888	46806.21
647.24	46586.33
647.593	46723.73
647.945	46656.84
648.298	46572.32
648.65	46324.87
649.002	46286.45
649.355	46413.91
649.707	46377.98
650.059	46516.73
650.411	46924.4
650.763	47112.19
651.115	47238.07
651.467	47189.93
651.819	47184.73
652.171	47048.24
652.523	47021.8
652.875	46997.17
653.227	46788.36
653.578	47057.96
653.93	46983.84
654.282	46766.89
654.633	46734.12
654.985	46777.74
655.337	46883.72
655.688	46721.24
656.039	46946.55
656.391	46446.45
656.742	46610.96
657.094	46605.54
657.445	46741.58
657.796	46534.58
658.147	46655.71
658.498	46534.58
658.849	46600.79
659.2	46410.74
659.551	46391.76
659.902	46523.51
660.253	46434.47
660.604	46441.7
660.955	46162.39
661.306	46227.02
661.656	46344.3
662.007	46348.82
662.358	46215.49
662.708	46152.44
663.059	46239.45
663.409	46043.75
663.76	46334.81
664.11	46276.51
664.461	46190.86
664.811	46268.37
665.161	46181.37
665.511	46129.39
665.862	46108.15
666.212	46206.23
666.562	46227.24
666.912	46080.13
667.262	46016.86
667.612	46048.49
667.962	46038.78
668.312	46049.62
668.662	46215.72
669.011	46013.24
669.361	45904.09
669.711	45846.24
670.06	45812.34
670.41	45643.76
670.76	45602.85
671.109	45844.66
671.459	45806.92
671.808	45642.63
672.157	45702.96
672.507	45434.72
672.856	45608.05
673.205	45678.33
673.554	45578.22
673.904	45482.63
674.253	45745.9
674.602	45474.04
674.951	44904.57
675.3	44758.81
675.649	45244.22
675.998	45327.38
676.346	45275.18
676.695	45326.03
677.044	45168.06
677.393	45193.15
677.741	45067.05
678.09	45024.79
678.438	45084.68
678.787	44887.17
679.135	45063.21
679.484	44796.1
679.832	44802.65
680.181	44662.99
680.529	44747.96
680.877	44641.75
681.225	44565.82
681.573	44950.44
681.922	44408.99
682.27	44360.63
682.618	44297.58
682.966	44224.81
683.314	44289.67
683.661	44289.22
684.009	43901.43
684.357	43942.33
684.705	43834.09
685.053	43892.84
685.4	43827.08
685.748	43452.85
686.095	43572.63
686.443	43394.1
686.79	43371.95
687.138	43434.1
687.485	43400.88
687.832	43175.12
688.18	43370.37
688.527	43176.25
688.874	43028.91
689.221	42873.89
689.568	42715.25
689.915	42767.22
690.262	42833.44
690.609	42572.65
690.956	42534.91
691.303	42535.59
691.65	42181.7
691.997	42217.41
692.344	42048.6
692.69	41847.47
693.037	41984.87
693.383	41579.23
693.73	41789.85
694.077	41551.89
694.423	41434.38
694.769	41211.33
695.116	41202.07
695.462	41084.33
695.808	41105.35
696.155	41071
696.501	40801.85
696.847	40832.58
697.193	40482.09
697.539	40646.15
697.885	40360.73
698.231	40258.14
698.577	40290
698.923	40182.43
699.269	40019.27
699.614	39899.73
699.96	39926.85
700.306	39790.8
700.651	39753.74
700.997	39549.91
701.342	39454.09
701.688	39330.48
702.033	39361.44
702.379	39291.16
702.724	39077.83
703.069	39143.14
703.415	38654.56
703.76	38822.92
704.105	38803.94
704.45	38655.47
704.795	38582.47
705.14	38503.61
705.485	38325.76
705.83	38372.54
706.175	38125.54
706.52	38119.89
706.865	38029.04
707.209	38000.57
707.554	37734.81
707.899	37933.68
708.243	37749.05
708.588	37754.47
708.932	37349.06
709.277	37494.82
709.621	37397.87
709.966	37245.79
710.31	37289.85
710.654	36966.25
710.998	37014.83
711.342	37021.39
711.687	36946.13
712.031	36715.4
712.375	36619.59
712.719	36585.01
713.063	36603.54
713.407	36660.04
713.75	36373.04
714.094	36354.51
714.438	36383.21
714.782	36294.4
715.125	36146.83
715.469	36153.61
715.812	35961.75
716.156	35757.01
716.499	35778.71
716.843	35748.42
717.186	35549.33
717.53	35827.97
717.873	35694.64
718.216	35555.21
718.559	35477.47
718.902	35217.14
719.246	35393.18
719.589	35071.38
719.932	35105.5
720.275	35067.09
720.617	35094.43
720.96	35127.88
721.303	34964.49
721.646	34955
721.989	34768.11
722.331	34863.7
722.674	34804.27
723.016	34751.61
723.359	34762.46
723.701	34719.3
724.044	34383.94
724.386	34336.26
724.729	34355.92
725.071	34381.91
725.413	34315.02
725.755	34247.22
726.097	34087.45
726.439	34045.87
726.782	34080.67
727.124	34110.05
727.465	33825.99
727.807	33926.1
728.149	33854.91
728.491	33816.72
728.833	33752.32
729.175	33625.99
729.516	33520.91
729.858	33506.45
730.199	33590.74
730.541	33492.66
730.882	33433.68
731.224	33510.07
731.565	33148.27
731.906	33231.2
732.248	33288.15
732.589	33167.7
732.93	33009.29
733.271	33075.5
733.612	33049.29
733.953	33019.46
734.294	32827.37
734.635	32765.68
734.976	32903.3
735.317	32639.58
735.658	32663.76
735.999	32568.85
736.339	32630.31
736.68	32690.43
737.021	32518.23
737.361	32478.68
737.702	32609.3
738.042	32464.44
738.383	32334.95
738.723	32384.9
739.063	32327.72
739.404	32315.07
739.744	32164.56
740.084	32104.45
740.424	32164.11
740.764	32091.12
741.104	32147.84
741.444	31906.72
741.784	31852.26
742.124	31890.45
742.464	31732.48
742.804	31639.15
743.143	31565.03
743.483	31567.97
743.823	31438.03
744.162	31499.72
744.502	31362.78
744.841	31316.9
745.181	31493.62
745.52	31304.02
745.86	31368.65
746.199	31264.02
746.538	31216.57
746.877	31167.98
747.216	31107.19
747.556	31141.77
747.895	31069
748.234	30895.22
748.573	30810.93
748.911	30942.68
749.25	30797.59
749.589	30713.08
749.928	30656.58
750.267	30674.66
750.605	30608.9
750.944	30491.39
751.283	30437.15
751.621	30452.74
751.96	30331.84
752.298	30246.87
752.636	30307.66
752.975	30162.81
753.313	29988.12
753.651	30080.55
753.989	29962.36
754.327	29903.83
