Data from whiteboard_FLMS001491_00058.txt Node
Date: Wed Feb 08 11:27:06 GMT 2017
User: dcchb
Spectrometer: FLMS00149
Trigger mode: 0
Integration Time (sec): 2.000000E-2
Scans to average: 10
Electric dark correction enabled: true
Nonlinearity correction enabled: false
Boxcar width: 0
XAxis mode: Wavelengths
Number of Pixels in Spectrum: 2048
>>>>>Begin Spectral Data<<<<<
341.393	-17.32
341.776	-17.32
342.16	-17.32
342.543	-45.79
342.927	-65.22
343.31	-85.79
343.693	-69.97
344.077	-56.86
344.46	-57.54
344.843	-52.12
345.226	-53.02
345.61	-39.46
345.993	-29.52
346.376	10.93
346.759	0.31
347.142	38.95
347.525	45.96
347.908	62.46
348.291	63.13
348.674	105.17
349.057	117.37
349.44	117.82
349.823	134.77
350.206	175
350.588	202.79
350.971	233.75
351.354	271.26
351.737	279.17
352.119	277.82
352.502	288.21
352.884	305.84
353.267	293.64
353.65	332.05
354.032	332.28
354.414	334.99
354.797	361.88
355.179	347.19
355.562	353.75
355.944	353.75
356.326	351.94
356.709	347.42
357.091	367.08
357.473	374.99
357.855	389.23
358.238	360.08
358.62	370.02
359.002	373.86
359.384	376.57
359.766	370.7
360.148	374.31
360.53	373.63
360.912	369.11
361.294	372.96
361.676	363.01
362.057	369.79
362.439	380.41
362.821	384.03
363.203	381.54
363.584	362.56
363.966	340.19
364.348	371.6
364.729	360.53
365.111	365.72
365.493	371.83
365.874	378.38
366.256	369.11
366.637	351.49
367.019	355.33
367.4	373.86
367.781	362.34
368.163	356.46
368.544	376.12
368.925	369.57
369.306	360.08
369.688	359.4
370.069	364.59
370.45	367.76
370.831	370.92
371.212	375.89
371.593	358.49
371.974	362.79
372.355	342.67
372.736	382.45
373.117	357.82
373.498	373.18
373.879	366.4
374.26	367.76
374.641	366.85
375.021	368.89
375.402	365.27
375.783	408.44
376.163	383.8
376.544	391.26
376.925	417.25
377.305	396.91
377.686	389.23
378.066	407.31
378.447	388.32
378.827	420.86
379.208	421.99
379.588	419.96
379.968	407.53
380.349	410.02
380.729	419.73
381.109	408.21
381.489	433.97
381.87	419.73
382.25	427.42
382.63	446.63
383.01	450.69
383.39	438.27
383.77	433.75
384.15	436.23
384.53	418.15
384.91	448.66
385.29	436.46
385.67	433.97
386.049	457.7
386.429	481.43
386.809	469.22
387.189	494.54
387.568	492.95
387.948	480.52
388.328	474.87
388.707	483.01
389.087	483.01
389.466	500.18
389.846	508.55
390.225	518.49
390.605	513.29
390.984	549.67
391.363	531.37
391.743	533.86
392.122	531.82
392.501	537.47
392.881	559.39
393.26	543.8
393.639	571.14
394.018	589.9
394.397	589.45
394.776	583.8
395.155	612.95
395.534	587.87
395.913	599.17
396.292	598.49
396.671	647.53
397.05	619.73
397.429	647.53
397.808	659.5
398.186	668.77
398.565	688.65
398.944	685.72
399.323	703.34
399.701	703.57
400.08	730.69
400.458	720.29
400.837	718.48
401.215	736.11
401.594	741.53
401.972	754.19
402.351	759.16
402.729	777.01
403.107	800.97
403.486	796.9
403.864	830.57
404.242	835.77
404.62	852.04
404.999	871.93
405.377	880.74
405.755	922.77
406.133	935.43
406.511	926.84
406.889	936.11
407.267	972.26
407.645	980.17
408.023	1037.35
408.401	1037.57
408.779	1080.96
409.156	1072.6
409.534	1092.49
409.912	1114.18
410.29	1167.06
410.667	1150.79
411.045	1173.61
411.422	1213.84
411.8	1210.22
412.178	1267.62
412.555	1247.06
412.933	1288.64
413.31	1294.74
413.687	1326.83
414.065	1357.56
414.442	1386.49
414.819	1407.96
415.197	1416.32
415.574	1415.41
415.951	1464.9
416.328	1469.42
416.705	1504.9
417.082	1505.58
417.46	1553.94
417.837	1564.56
418.214	1530.67
418.591	1618.57
418.967	1583.32
419.344	1657.67
419.721	1630.55
420.098	1643.21
420.475	1664.22
420.852	1686.59
421.228	1732.24
421.605	1752.81
421.982	1772.47
422.358	1800.04
422.735	1844.1
423.111	1830.32
423.488	1874.39
423.864	1893.37
424.241	1886.14
424.617	1928.85
424.994	1923.2
425.37	1968.85
425.746	1967.04
426.123	2033.03
426.499	2047.71
426.875	2070.09
427.251	2116.87
427.627	2154.15
428.003	2148.95
428.379	2210.87
428.756	2223.08
429.132	2256.3
429.507	2302.85
429.883	2306.46
430.259	2375.16
430.635	2371.55
431.011	2421.26
431.387	2468.72
431.763	2509.17
432.138	2513.46
432.514	2543.97
432.89	2588.27
433.265	2668.94
433.641	2690.64
434.016	2745.55
434.392	2751.2
434.767	2778.99
435.143	2832.1
435.518	2869.39
435.894	2900.12
436.269	2960.68
436.644	2946
437.02	2969.72
437.395	2996.84
437.77	3033.9
438.145	3125.2
438.52	3132.21
438.895	3181.92
439.271	3187.35
439.646	3247.01
440.021	3281.13
440.395	3266.44
440.77	3271.19
441.145	3305.76
441.52	3421.01
441.895	3395.02
442.27	3436.83
442.645	3437.28
443.019	3534.23
443.394	3501.24
443.769	3531.97
444.143	3532.2
444.518	3587.56
444.892	3582.14
445.267	3633.89
445.641	3680.44
446.016	3642.7
446.39	3735.13
446.764	3740.33
447.139	3741.68
447.513	3782.81
447.887	3816.03
448.262	3844.28
448.636	3858.51
449.01	3956.36
449.384	3950.04
449.758	3977.83
450.132	4037.04
450.506	4045.63
450.88	4082.69
451.254	4145.96
451.628	4134.89
452.002	4244.72
452.376	4311.61
452.75	4361.1
453.123	4359.74
453.497	4417.6
453.871	4471.15
454.244	4568.55
454.618	4535.11
454.992	4630.25
455.365	4668.44
455.739	4808.77
456.112	4815.55
456.486	4863.23
456.859	4907.75
457.232	4998.15
457.606	4998.37
457.979	5116.33
458.352	5166.28
458.725	5262.09
459.099	5285.37
459.472	5440.85
459.845	5480.84
460.218	5525.59
460.591	5615.98
460.964	5576.21
461.337	5735.3
461.71	5797.22
462.083	5919.7
462.456	5928.06
462.829	5963.32
463.201	6079.02
463.574	6086.25
463.947	6156.53
464.32	6321.73
464.692	6402.18
465.065	6408.05
465.438	6548.61
465.81	6591.1
466.183	6694.82
466.555	6859.11
466.928	6947.02
467.3	6930.98
467.672	7013.46
468.045	7169.61
468.417	7255.26
468.789	7325.77
469.161	7456.61
469.534	7493.22
469.906	7758.52
470.278	7742.71
470.65	7851.4
471.022	7966.65
471.394	8206.2
471.766	8225.86
472.138	8363.93
472.51	8507.88
472.882	8653.87
473.253	8710.59
473.625	8878.5
473.997	9118.04
474.369	9158.94
474.74	9239.62
475.112	9401.19
475.484	9593.28
475.855	9765.48
476.227	9807.96
476.598	10100.84
476.97	10133.6
477.341	10463.99
477.713	10568.62
478.084	10611.11
478.455	10957.08
478.827	11069.4
479.198	11356.85
479.569	11397.53
479.94	11694.47
480.311	11791.87
480.682	12110.73
481.053	12345.52
481.424	12583.26
481.795	12729.69
482.166	12913.64
482.537	13006.75
482.908	13284.71
483.279	13446.74
483.65	13714.07
484.021	13932.15
484.391	14157.45
484.762	14319.26
485.133	14403.55
485.503	14536.88
485.874	14905.91
486.244	15038.56
486.615	15361.04
486.985	15559.9
487.356	15861.36
487.726	15985.43
488.097	16341.8
488.467	16431.97
488.837	16733.66
489.207	16980.2
489.578	17232.17
489.948	17358.5
490.318	17706.74
490.688	17652.5
491.058	18034.41
491.428	18259.27
491.798	18450.22
492.168	18808.86
492.538	18870.78
492.908	19018.34
493.278	19405.68
493.648	19385.11
494.017	19647.48
494.387	19847.25
494.757	20073
495.126	20158.65
495.496	20282.72
495.866	20414.24
496.235	20753.89
496.605	20937.61
496.974	21067.33
497.344	21162.69
497.713	21399.52
498.082	21547.77
498.452	21735.33
498.821	21814.2
499.19	21886.29
499.559	22099.16
499.928	22341.64
500.298	22474.3
500.667	22577.57
501.036	22720.84
501.405	22900.95
501.774	22966.71
502.143	23144.79
502.512	23244.22
502.88	23403.76
503.249	23503.65
503.618	23712.23
503.987	23812.79
504.356	24008.04
504.724	24146.79
505.093	24198.32
505.462	24296.62
505.83	24636.73
506.199	24758.76
506.567	25113.55
506.936	25100.22
507.304	25392.41
507.672	25397.38
508.041	25569.13
508.409	25923.92
508.777	26048.44
509.145	26366.4
509.514	26283.24
509.882	26587.41
510.25	26726.16
510.618	26849.32
510.986	27046.61
511.354	27219.26
511.722	27620.38
512.09	27886.36
512.458	27753.03
512.826	28126.12
513.193	28346.46
513.561	28340.81
513.929	28620.35
514.297	28806.11
514.664	29090.17
515.032	29270.05
515.4	29343.04
515.767	29534.22
516.135	29808.79
516.502	29571.74
516.869	30286.07
517.237	30392.05
517.604	30343.69
517.972	30677.92
518.339	30770.8
518.706	31076.56
519.073	31070.45
519.44	31471.8
519.808	31869.98
520.175	31902.97
520.542	32253.25
520.909	32414.15
521.276	32338.67
521.643	32722.16
522.009	32955.83
522.376	33328.47
522.743	33462.71
523.11	33857.05
523.477	34005.97
523.843	34287.77
524.21	34707.42
524.577	34851.15
524.943	35063.34
525.31	35272.6
525.676	35539.04
526.043	35701.74
526.409	36036.65
526.776	36218.57
527.142	36465.34
527.508	36616.98
527.874	36868.95
528.241	37021.48
528.607	37280.91
528.973	37581.47
529.339	37628.02
529.705	37922.03
530.071	38251.51
530.437	38404.5
530.803	38535.34
531.169	38827.54
531.535	38810.36
531.901	38857.14
532.267	39058.27
532.632	39505.94
532.998	39549.78
533.364	39840.17
533.73	39756.33
534.095	40166.94
534.461	40234.73
534.826	40605.34
535.192	40660.03
535.557	40977.09
535.923	40802.63
536.288	41110.64
536.653	41313.8
537.019	41318.09
537.384	41580.91
537.749	41894.35
538.114	42047.57
538.479	42060
538.845	42255.7
539.21	42088.7
539.575	42471.28
539.94	42640.32
540.305	43030.59
540.67	42886.19
541.034	43153.07
541.399	43275.33
541.764	43460.18
542.129	43580.18
542.494	43742.66
542.858	43912.83
543.223	43986.72
543.587	44205.7
543.952	44338.58
544.316	44449.54
544.681	44505.13
545.045	44796.87
545.41	44974.5
545.774	45044.1
546.138	45232.34
546.503	45377.87
546.867	45316.18
547.231	45579.9
547.595	45855.6
547.959	45934.7
548.324	45805.89
548.688	46008.37
549.052	46259.43
549.416	46267.12
549.779	46376.72
550.143	46422.82
550.507	46745.97
550.871	46808.57
551.235	46752.08
551.599	46980.77
551.962	47019.87
552.326	47122.46
552.689	47411.04
553.053	47200.2
553.417	47248.79
553.78	47828.21
554.143	47615.78
554.507	47826.85
554.87	47968.09
555.234	48329.66
555.597	48118.59
555.96	48313.16
556.323	48474.29
556.686	48574.17
557.05	48851.91
557.413	48867.27
557.776	48962.87
558.139	49184.55
558.502	49223.42
558.865	49322.4
559.228	49602.17
559.59	49733.24
559.953	49754.48
560.316	50186.11
560.679	50206.67
561.041	50415.48
561.404	50580.22
561.767	50789.26
562.129	50714.91
562.492	51112.87
562.854	50970.27
563.217	51068.35
563.579	51283.93
563.941	51545.62
564.304	51724.83
564.666	51881.21
565.028	51839.63
565.39	51986.29
565.753	52250.46
566.115	52371.59
566.477	52435.32
566.839	52559.83
567.201	52808.64
567.563	52841.18
567.925	53038.24
568.287	53136.31
568.648	53237.33
569.01	53335.41
569.372	53553.93
569.734	53442.75
570.095	53664.89
570.457	53802.29
570.819	53796.86
571.18	53941.72
571.542	54031.43
571.903	54122.5
572.265	54272.33
572.626	54291.31
572.987	54376.73
573.349	54496.05
573.71	54591.64
574.071	54689.72
574.432	54731.53
574.794	54960.67
575.155	54895.36
575.516	54849.72
575.877	55029.82
576.238	55059.88
576.599	55169.93
576.96	55215.58
577.32	55271.4
577.681	55345.3
578.042	55314.79
578.403	55324.05
578.763	55356.14
579.124	55399.98
579.485	55452.19
579.845	55572.18
580.206	55522.92
580.566	55519.53
580.927	55555.01
581.287	55618.51
581.648	55535.12
582.008	55600.66
582.368	55651.5
582.728	55686.98
583.089	55642.46
583.449	55648.11
583.809	55688.11
584.169	55724.27
584.529	55627.32
584.889	55833.64
585.249	55713.42
585.609	55555.69
585.969	55710.48
586.329	55641.33
586.688	55658.28
587.048	55617.38
587.408	55528.34
587.768	55613.09
588.127	55505.52
588.487	55596.81
588.846	55732.86
589.206	55546.42
589.565	55696.47
589.925	55732.86
590.284	55585.97
590.643	55670.03
591.003	55710.48
591.362	55811.72
591.721	55716.81
592.08	55743.7
592.44	55689.92
592.799	55652.41
593.158	55728.34
593.517	55755.23
593.876	55807.66
594.235	55718.62
594.593	55736.02
594.952	55833.19
595.311	55731.05
595.67	55773.08
596.029	55917.48
596.387	55921.1
596.746	55989.12
597.104	55924.72
597.463	55959.97
597.822	56120.19
598.18	55970.82
598.538	56022.34
598.897	56177.36
599.255	56002
599.613	56433.63
599.972	56257.81
600.33	56244.71
600.688	56162.45
601.046	56394.99
601.404	56419.17
601.762	56312.95
602.12	56510.46
602.478	56522.21
602.836	56491.93
603.194	56366.74
603.552	56432.5
603.91	56451.26
604.268	56522.67
604.625	56484.48
604.983	56566.28
605.341	56504.81
605.698	56591.14
606.056	56606.96
606.413	56569.44
606.771	56771.25
607.128	56759.27
607.485	56620.97
607.843	56616.45
608.2	56738.93
608.557	56765.15
608.914	56735.09
609.272	56884.92
609.629	56883.56
609.986	56955.65
610.343	56895.76
610.7	57070.22
611.057	56988.87
611.414	56939.83
611.771	56932.37
612.127	57040.39
612.484	56950.45
612.841	57070.9
613.198	56963.78
613.554	56943.22
613.911	57154.29
614.267	57109.09
614.624	57083.1
614.98	57102.31
615.337	57178.24
615.693	57124.68
616.05	57044.01
616.406	57242.42
616.762	57111.58
617.118	57046.72
617.475	57075.19
617.831	57166.94
618.187	57207.17
618.543	57172.37
618.899	57328.52
619.255	57251.23
619.611	57211.24
619.967	57263.66
620.323	57288.75
620.678	57206.04
621.034	57117.45
621.39	57171.46
621.746	57171.24
622.101	57383.21
622.457	57123.33
622.812	57114.06
623.168	57172.82
623.523	57160.16
623.879	57293.49
624.234	57073.39
624.589	57123.55
624.945	57210.78
625.3	57173.72
625.655	57248.07
626.01	57197.22
626.365	57221.18
626.72	57183.89
627.075	57149.09
627.43	57098.24
627.785	57029.77
628.14	57109.54
628.495	57135.53
628.85	57070
629.205	57029.32
629.559	57180.5
629.914	56970.79
630.269	57037.91
630.623	57001.75
630.978	56942.54
631.332	57053.27
631.687	57097.79
632.041	56896.22
632.396	56992.03
632.75	56835.2
633.104	56907.97
633.459	56844.47
633.813	56864.13
634.167	56883.11
634.521	56826.16
634.875	56912.71
635.229	56891.24
635.583	56735.77
635.937	56843.56
636.291	56769.89
636.645	56741.19
636.999	56683.11
637.352	56793.39
637.706	56715.2
638.06	56806.27
638.413	56679.05
638.767	56562.89
639.121	56611.93
639.474	56468.88
639.828	56531.25
640.181	56556.11
640.534	56620.97
640.888	56493.97
641.241	56403.35
641.594	56361.99
641.947	56507.98
642.301	56445.83
642.654	56459.84
643.007	56466.85
643.36	56458.71
643.713	56362.44
644.066	56424.14
644.419	56225.95
644.771	56110.25
645.124	55879.75
645.477	55745.29
645.83	55604.72
646.182	55434.11
646.535	55261.91
646.888	55350.04
647.24	55180.1
647.593	55376.26
647.945	55285.18
648.298	55143.27
648.65	55083.61
649.002	54924.74
649.355	55116.83
649.707	54980.79
650.059	55097.85
650.411	55417.16
650.763	55421
651.115	55674.33
651.467	55492.64
651.819	55545.52
652.171	55483.82
652.523	55394.33
652.875	55364.73
653.227	55339.42
653.578	55493.54
653.93	55345.52
654.282	55164.96
654.633	55161.8
654.985	55102.36
655.337	55227.11
655.688	55087.68
656.039	55181.23
656.391	54943.5
656.742	54991.41
657.094	54999.99
657.445	55110.73
657.796	54970.39
658.147	54952.54
658.498	54844.74
658.849	54883.39
659.2	54898.08
659.551	54747.8
659.902	54807.46
660.253	54768.14
660.604	54773.33
660.955	54678.65
661.306	54778.98
661.656	54551.64
662.007	54659.44
662.358	54628.25
662.708	54661.25
663.059	54562.04
663.409	54443.85
663.76	54644.75
664.11	54529.95
664.461	54635.94
664.811	54539.22
665.161	54551.42
665.511	54414.7
665.862	54461.93
666.212	54445.43
666.562	54482.04
666.912	54434.59
667.262	54363.63
667.612	54363.85
667.962	54394.36
668.312	54348.26
668.662	54359.33
669.011	54326.34
669.361	54281.37
669.711	54321.59
670.06	54265.55
670.41	54195.5
670.76	54131.77
671.109	54205.67
671.459	54154.82
671.808	54063.75
672.157	54117.53
672.507	53946.91
672.856	53934.26
673.205	53960.02
673.554	54074.14
673.904	53915.28
674.253	54083.63
674.602	54004.77
674.951	53486.59
675.3	53412.69
675.649	53806.13
675.998	53735.62
676.346	53758.22
676.695	53855.17
677.044	53619.47
677.393	53767.94
677.741	53754.38
678.09	53692.68
678.438	53604.55
678.787	53637.77
679.135	53661.05
679.484	53491.33
679.832	53667.83
680.181	53432.8
680.529	53515.74
680.877	53434.39
681.225	53456.53
681.573	53587.83
681.922	53252.24
682.27	53235.07
682.618	53266.25
682.966	53182.64
683.314	53247.72
683.661	53135.86
684.009	53008.63
684.357	52935.42
684.705	52998.47
685.053	53070.1
685.4	53072.14
685.748	52786.95
686.095	52882.99
686.443	52812.71
686.79	52778.36
687.138	52787.62
687.485	52743.78
687.832	52622.43
688.18	52687.96
688.527	52440.06
688.874	52479.38
689.221	52335.66
689.568	52313.29
689.915	52256.79
690.262	52220.41
690.609	52212.05
690.956	52055.21
691.303	52008.89
691.65	51891.15
691.997	51789.46
692.344	51633.98
692.69	51634.43
693.037	51520.31
693.383	51193.77
693.73	51443.25
694.077	51151.73
694.423	51181.56
694.769	51110.15
695.116	50915.13
695.462	50829.48
695.808	50731.18
696.155	50736.38
696.501	50433.79
696.847	50462.71
697.193	50181.59
697.539	50386.78
697.885	50080.58
698.231	49853.24
698.577	49884.87
698.923	49697.76
699.269	49593.81
699.614	49333.48
699.96	49173.71
700.306	49122.41
700.651	48921.51
700.997	48900.95
701.342	48816.43
701.688	48589.32
702.033	48501.41
702.379	48449.88
702.724	48310
703.069	48411.02
703.415	47910.01
703.76	47943
704.105	47783.46
704.45	47699.62
704.795	47475.22
705.14	47462.34
705.485	47293.08
705.83	47208.56
706.175	47168.79
706.52	47090.37
706.865	46919.98
707.209	46865.29
707.554	46644.96
707.899	46736.03
708.243	46517.96
708.588	46379.2
708.932	46067.12
709.277	46146.22
709.621	46113.22
709.966	45917.07
710.31	45953.68
710.654	45552.79
710.998	45640.69
711.342	45567.7
711.687	45465.78
712.031	45376.29
712.375	45179.46
712.719	45312.57
713.063	45049.97
713.407	45288.39
713.75	44914.84
714.094	44947.38
714.438	44769.76
714.782	44836.65
715.125	44639.14
715.469	44699.02
715.812	44541.51
716.156	44417.45
716.499	44288.64
716.843	44444.79
717.186	44112.15
717.53	44267.85
717.873	44233.05
718.216	44249.77
718.559	43924.58
718.902	43739.5
719.246	43898.82
719.589	43634.64
719.932	43598.49
720.275	43577.24
720.617	43533.86
720.96	43528.43
721.303	43538.83
721.646	43506.74
721.989	43233.07
722.331	43442.56
722.674	43117.14
723.016	43247.08
723.359	43096.35
723.701	43153.07
724.044	42977.49
724.386	42762.35
724.729	42861.56
725.071	42823.37
725.413	42716.93
725.755	42607.55
726.097	42585.86
726.439	42612.3
726.782	42356.71
727.124	42641.9
727.465	42299.99
727.807	42239.65
728.149	42197.85
728.491	42032.88
728.833	42028.36
729.175	41969.15
729.516	41885.31
729.858	41775.26
730.199	41877.4
730.541	41782.49
730.882	41654.13
731.224	41875.37
731.565	41565.32
731.906	41686.67
732.248	41637.41
732.589	41465.66
732.93	41388.15
733.271	41321.94
733.612	41401.26
733.953	41295.5
734.294	41080.13
734.635	41095.5
734.976	41089.63
735.317	40965.34
735.658	40838.56
735.999	40832.46
736.339	40682.18
736.68	40804.44
737.021	40488.74
737.361	40390.89
737.702	40566.7
738.042	40609.86
738.383	40505.69
738.723	40465.24
739.063	40331
739.404	40243.55
739.744	40100.05
740.084	40004.68
740.424	40073.83
740.764	39916.32
741.104	40022.31
741.444	39692.15
741.784	39527.63
742.124	39788.19
742.464	39752.94
742.804	39500.52
743.143	39488.09
743.483	39559.27
743.823	39351.59
744.162	39302.33
744.502	39240.86
744.841	39100.3
745.181	39103.24
745.52	38893.07
745.86	39086.51
746.199	38983.69
746.538	38794.54
746.877	38876.8
747.216	38893.98
747.556	38594.78
747.895	38653.76
748.234	38430.49
748.573	38313.65
748.911	38282.69
749.25	38233.66
749.589	38088.12
749.928	38065.75
750.267	37965.19
750.605	37922.7
750.944	37699.21
751.283	37645.87
751.621	37642.03
751.96	37370.63
752.298	37198.65
