Data from white_wall_FLMS001491_009.txt Node
Date: Tue Feb 07 11:03:12 GMT 2017
User: dcchb
Spectrometer: FLMS00149
Trigger mode: 0
Integration Time (sec): 2.000000E-2
Scans to average: 10
Electric dark correction enabled: true
Nonlinearity correction enabled: false
Boxcar width: 0
XAxis mode: Wavelengths
Number of Pixels in Spectrum: 2048
>>>>>Begin Spectral Data<<<<<
341.393	-24.69
341.776	-24.69
342.16	-24.69
342.543	-57
342.927	-54.07
343.31	-79.83
343.693	-62.88
344.077	-53.61
344.46	-56.78
344.843	-54.74
345.226	-48.42
345.61	-49.55
345.993	-26.04
346.376	-10.68
346.759	-6.16
347.142	13.73
347.525	51.47
347.908	76.33
348.291	89.21
348.674	104.12
349.057	113.84
349.44	113.39
349.823	147.96
350.206	167.4
350.588	234.06
350.971	248.98
351.354	241.75
351.737	246.26
352.119	257.79
352.502	299.37
352.884	308.41
353.267	305.25
353.65	309.54
354.032	316.55
354.414	339.37
354.797	354.28
355.179	347.28
355.562	337.34
355.944	340.73
356.326	334.4
356.709	363.1
357.091	355.19
357.473	354.51
357.855	385.47
358.238	371.69
358.62	369.65
359.002	372.59
359.384	357
359.766	353.38
360.148	351.8
360.53	379.14
360.912	345.25
361.294	371.46
361.676	365.36
362.057	360.61
362.439	361.29
362.821	348.41
363.203	349.54
363.584	364
363.966	369.65
364.348	354.06
364.729	363.78
365.111	360.84
365.493	356.77
365.874	362.42
366.256	342.99
366.637	355.64
367.019	340.27
367.4	348.41
367.781	357
368.163	359.03
368.544	319.26
368.925	325.58
369.306	349.09
369.688	342.99
370.069	350.67
370.45	330.1
370.831	338.92
371.212	349.76
371.593	347.96
371.974	354.06
372.355	337.34
372.736	335.53
373.117	352.02
373.498	355.64
373.879	347.73
374.26	353.61
374.641	375.53
375.021	341.18
375.402	373.49
375.783	354.06
376.163	383.44
376.544	394.51
376.925	381.85
377.305	356.09
377.686	399.71
378.066	375.53
378.447	380.95
378.827	360.39
379.208	364.45
379.588	360.39
379.968	345.25
380.349	383.66
380.729	385.02
381.109	386.83
381.489	390.89
381.87	394.51
382.25	398.8
382.63	390.89
383.01	381.63
383.39	402.19
383.77	418.69
384.15	402.19
384.53	413.04
384.91	415.3
385.29	430.21
385.67	408.97
386.049	428.86
386.429	422.76
386.809	441.29
387.189	422.31
387.568	424.34
387.948	417.56
388.328	424.34
388.707	447.39
389.087	451.91
389.466	458.91
389.846	458.46
390.225	466.15
390.605	462.76
390.984	463.89
391.363	468.63
391.743	466.82
392.122	492.13
392.501	476.32
392.881	500.95
393.26	515.64
393.639	532.13
394.018	525.35
394.397	509.99
394.776	536.43
395.155	544.56
395.534	536.88
395.913	550.44
396.292	578.91
396.671	580.27
397.05	573.26
397.429	585.46
397.808	586.59
398.186	603.32
398.565	624.56
398.944	621.85
399.323	636.99
399.701	639.47
400.08	663.65
400.458	658.01
400.837	679.93
401.215	700.49
401.594	710.66
401.972	719.47
402.351	718.34
402.729	747.95
403.107	760.6
403.486	768.28
403.864	747.49
404.242	793.37
404.62	799.7
404.999	795.63
405.377	817.55
405.755	845.12
406.133	860.26
406.511	878.56
406.889	924.21
407.267	906.81
407.645	937.32
408.023	956.08
408.401	970.31
408.779	976.64
409.156	956.3
409.534	1001.05
409.912	1046.7
410.29	1026.36
410.667	1065.68
411.045	1075.17
411.422	1106.58
411.8	1100.48
412.178	1114.72
412.555	1165.56
412.933	1154.72
413.31	1201.27
413.687	1236.97
414.065	1222.96
414.442	1231.78
414.819	1240.81
415.197	1282.85
415.574	1305.45
415.951	1295.95
416.328	1332.34
416.705	1311.1
417.082	1363.3
417.46	1376.18
417.837	1393.13
418.214	1400.81
418.591	1424.31
418.967	1427.48
419.344	1449.62
419.721	1503.18
420.098	1469.06
420.475	1505.44
420.852	1532.11
421.228	1521.94
421.605	1561.03
421.982	1558.09
422.358	1589.28
422.735	1589.05
423.111	1603.52
423.488	1615.27
423.864	1604.65
424.241	1656.17
424.617	1683.97
424.994	1691.2
425.37	1720.35
425.746	1732.55
426.123	1740.01
426.499	1762.84
426.875	1787.92
427.251	1808.48
427.627	1885.77
428.003	1892.32
428.379	1900.23
428.756	1933
429.132	1974.81
429.507	1965.77
429.883	1987.46
430.259	2052.77
430.635	2038.99
431.011	2104.52
431.387	2113.33
431.763	2158.08
432.138	2158.98
432.514	2205.99
432.89	2205.31
433.265	2281.01
433.641	2295.7
434.016	2304.06
434.392	2368.02
434.767	2386.55
435.143	2408.47
435.518	2456.83
435.894	2458.41
436.269	2479.65
436.644	2516.71
437.02	2557.62
437.395	2543.61
437.77	2614.79
438.145	2632.64
438.52	2664.73
438.895	2706.99
439.271	2724.62
439.646	2773.43
440.021	2788.12
440.395	2818.85
440.77	2819.98
441.145	2859.53
441.52	2882.81
441.895	2889.36
442.27	2926.42
442.645	2921.9
443.019	2970.94
443.394	2976.81
443.769	3004.16
444.143	3034.67
444.518	3062.91
444.892	3043.48
445.267	3088.22
445.641	3147.88
446.016	3127.77
446.39	3173.42
446.764	3177.49
447.139	3159.86
447.513	3208.9
447.887	3263.13
448.262	3285.73
448.636	3293.42
449.01	3330.7
449.384	3373.19
449.758	3405.96
450.132	3416.8
450.506	3482.11
450.88	3481.89
451.254	3476.01
451.628	3572.28
452.002	3642.11
452.376	3648.89
452.75	3686.63
453.123	3719.39
453.497	3767.53
453.871	3761.88
454.244	3852.5
454.618	3923.91
454.992	3989.44
455.365	3962.55
455.739	4077.12
456.112	4106.95
456.486	4142.66
456.859	4194.41
457.232	4275.99
457.606	4240.74
457.979	4340.39
458.352	4418.81
458.725	4483.22
459.099	4500.39
459.472	4579.03
459.845	4680.5
460.218	4660.61
460.591	4726.15
460.964	4725.02
461.337	4850.66
461.71	4958.91
462.083	5044.33
462.456	5008.17
462.829	5042.3
463.201	5154.16
463.574	5216.53
463.947	5243.87
464.32	5384.43
464.692	5452.91
465.065	5460.14
465.438	5591.43
465.81	5668.27
466.183	5723.86
466.555	5871.2
466.928	5912.56
467.3	5844.99
467.672	5987.58
468.045	6128.14
468.417	6160.69
468.789	6176.96
469.161	6390.28
469.534	6363.17
469.906	6497.63
470.278	6637.96
470.65	6674.12
471.022	6814.23
471.394	6982.58
471.766	7057.16
472.138	7113.65
472.51	7267.55
472.882	7361.78
473.253	7398.17
473.625	7606.3
473.997	7748.89
474.369	7832.51
474.74	7935.33
475.112	8082.44
475.484	8201.08
475.855	8345.03
476.227	8460.06
476.598	8585.93
476.97	8752.03
477.341	8976.66
477.713	9067.95
478.084	9151.34
478.455	9433.59
478.827	9467.94
479.198	9736.64
479.569	9709.07
479.94	10046.68
480.311	10161.03
480.682	10396.96
481.053	10597.4
481.424	10730.96
481.795	10896.38
482.166	11085.75
482.537	11316.48
482.908	11488.23
483.279	11632.86
483.65	11944.49
484.021	12145.16
484.391	12257.7
484.762	12321.88
485.133	12462.89
485.503	12634.87
485.874	12962.77
486.244	13044.12
486.615	13326.82
486.985	13440.72
487.356	13742.63
487.726	13769.07
488.097	14102.17
488.467	14190.98
488.837	14499.22
489.207	14712.78
489.578	14844.52
489.948	15010.85
490.318	15390.27
490.688	15256.49
491.058	15572.42
491.428	15853.54
491.798	15954.78
492.168	16348.89
492.538	16278.84
492.908	16602.67
493.278	16781.65
493.648	16837.01
494.017	17183.45
494.387	17259.83
494.757	17480.39
495.126	17602.19
495.496	17710.66
495.866	17841.28
496.235	17987.72
496.605	18235.62
496.974	18294.6
497.344	18534.82
497.713	18692.11
498.082	18819.56
498.452	19009.39
498.821	19191.3
499.19	19233.34
499.559	19441.47
499.928	19606.89
500.298	19738.41
500.667	19948.12
501.036	19951.51
501.405	20142.24
501.774	20248.22
502.143	20447.99
502.512	20588.1
502.88	20606.86
503.249	20717.14
503.618	20987.41
503.987	21146.51
504.356	21182.44
504.724	21270.34
505.093	21433.73
505.462	21666.27
505.83	21897.45
506.199	21975.86
506.567	22354.38
506.936	22354.16
507.304	22618.56
507.672	22692.45
508.041	22796.18
508.409	23049.28
508.777	23200.01
509.145	23373.79
509.514	23484.07
509.882	23589.15
510.25	23756.16
510.618	24017.39
510.986	24072.53
511.354	24369.02
511.722	24479.75
512.09	24759.29
512.458	24792.96
512.826	24942.79
513.193	25211.48
513.561	25320.86
513.929	25556.79
514.297	25754.75
514.664	25958.58
515.032	26074.29
515.4	26455.97
515.767	26441.51
516.135	26570.32
516.502	26527.83
516.869	27083.3
517.237	27112.68
517.604	27066.12
517.972	27355.38
518.339	27692.55
518.706	27725.54
519.073	27914.24
519.44	28172.08
519.808	28485.3
520.175	28448.46
520.542	28931.84
520.909	28937.94
521.276	29024.72
521.643	29362.11
522.009	29584.25
522.376	29757.13
522.743	29970
523.11	30200.51
523.477	30505.81
523.843	30651.79
524.21	31154.83
524.577	31245.9
524.943	31349.4
525.31	31517.08
525.676	31920.23
526.043	32093.34
526.409	32286.33
526.776	32628.92
527.142	32609.26
527.508	32946.65
527.874	33152.74
528.241	33401.78
528.607	33472.74
528.973	33761.32
529.339	33774.2
529.705	34142.1
530.071	34255.99
530.437	34459.15
530.803	34712.48
531.169	34950.89
531.535	34891.23
531.901	35192.69
532.267	35495.96
532.632	35518.56
532.998	35594.04
533.364	35855.72
533.73	36118.99
534.095	36247.8
534.461	36390.63
534.826	36514.46
535.192	36736.6
535.557	37062.7
535.923	36935.24
536.288	37009.59
536.653	37285.06
537.019	37291.17
537.384	37511.95
537.749	37780.87
538.114	37933.86
538.479	37914.88
538.845	38157.81
539.21	38109.22
539.575	38313.74
539.94	38476.22
540.305	38715.99
540.67	38778.81
541.034	38816.32
541.399	39191.91
541.764	39108.52
542.129	39311
542.494	39522.97
542.858	39644.78
543.223	39586.7
543.587	40020.81
543.952	40051.09
544.316	40290.64
544.681	40026.69
545.045	40458.54
545.41	40511.87
545.774	40665.31
546.138	40844.75
546.503	41020.79
546.867	41077.51
547.231	41384.39
547.595	41368.35
547.959	41508.46
548.324	41758.85
548.688	41858.05
549.052	42141.21
549.416	42089.91
549.779	42170.13
550.143	42418.26
550.507	42691.25
550.871	42763.11
551.235	42794.07
551.599	43128.75
551.962	43425.47
552.326	43357
552.689	43638.34
553.053	43579.81
553.417	43711.79
553.78	44279.23
554.143	44081.95
554.507	44372.79
554.87	44452.33
555.234	44992.88
555.597	44655.27
555.96	45020.68
556.323	45176.16
556.686	45425.19
557.05	45694.34
557.413	45898.85
557.776	45878.96
558.139	46272.4
558.502	46369.35
558.865	46407.99
559.228	46698.38
559.59	46903.34
559.953	46995.77
560.316	47304.01
560.679	47276.44
561.041	47649.76
561.404	47743.09
561.767	48125.46
562.129	47961.85
562.492	48351.67
562.854	48376.3
563.217	48485
563.579	48564.77
563.941	48879.11
564.304	49107.8
564.666	49220.34
565.028	49392.09
565.39	49480
565.753	49743.04
566.115	49770.16
566.477	49936.94
566.839	50089.93
567.201	50293.31
567.563	50335.34
567.925	50576.69
568.287	50586.86
568.648	50621.44
569.01	50839.06
569.372	51124.93
569.734	51042.22
570.095	51190.46
570.457	51354.07
570.819	51439.72
571.18	51421.87
571.542	51605.37
571.903	51717.45
572.265	51839.71
572.626	51952.48
572.987	51980.72
573.349	52019.37
573.71	52211.45
574.071	52272.47
574.432	52348.62
574.794	52632.68
575.155	52646.69
575.516	52443.31
575.877	52699.8
576.238	52725.34
576.599	52857.54
576.96	52887.14
577.32	52916.97
577.681	53021.15
578.042	53096.85
578.403	53173.01
578.763	53133.46
579.124	53105.21
579.485	53224.98
579.845	53358.99
580.206	53290.29
580.566	53285.55
580.927	53292.1
581.287	53413.68
581.648	53376.85
582.008	53490.06
582.368	53562.38
582.728	53573
583.089	53463.17
583.449	53420.46
583.809	53546.56
584.169	53581.13
584.529	53486.9
584.889	53712.43
585.249	53454.58
585.609	53525.99
585.969	53735.71
586.329	53566.9
586.688	53632.43
587.048	53655.03
587.408	53567.57
587.768	53628.14
588.127	53693.45
588.487	53658.42
588.846	53786.78
589.206	53642.6
589.565	53664.3
589.925	53818.42
590.284	53703.62
590.643	53694.12
591.003	53824.06
591.362	53796.27
591.721	53803.73
592.08	53834.23
592.44	53844.63
592.799	53975.25
593.158	53726.67
593.517	53827.23
593.876	53925.31
594.235	53796.5
594.593	53889.15
594.952	53901.8
595.311	53775.7
595.67	53881.46
596.029	53987.9
596.387	54013.66
596.746	54048.47
597.104	53843.95
597.463	53909.71
597.822	54101.8
598.18	53935.02
598.538	53946.77
598.897	54134.57
599.255	53914.23
599.613	54368.68
599.972	54110.16
600.33	54166.88
600.688	54111.97
601.046	54228.35
601.404	54380.43
601.762	54219.08
602.12	54380.89
602.478	54326.42
602.836	54415.91
603.194	54226.99
603.552	54288.91
603.91	54208.24
604.268	54334.79
604.625	54279.65
604.983	54423.37
605.341	54209.82
605.698	54466.53
606.056	54479.41
606.413	54456.59
606.771	54542.69
607.128	54603.93
607.485	54492.52
607.843	54634.67
608.2	54739.07
608.557	54776.13
608.914	54684.61
609.272	54858.61
609.629	54897.26
609.986	55034.88
610.343	54874.88
610.7	55084.14
611.057	54977.48
611.414	54907.65
611.771	55014.54
612.127	55037.59
612.484	55103.13
612.841	55157.14
613.198	55050.25
613.554	55044.37
613.911	55231.26
614.267	55248.89
614.624	55283.91
614.98	55259.06
615.337	55424.02
615.693	55351.71
616.05	55285.04
616.406	55572.27
616.762	55447.07
617.118	55434.87
617.475	55443.23
617.831	55451.82
618.187	55579.73
618.543	55630.57
618.899	55779.04
619.255	55705.15
619.611	55594.19
619.967	55704.47
620.323	55753.96
620.678	55577.69
621.034	55555.32
621.39	55545.38
621.746	55611.81
622.101	55959.6
622.457	55706.73
622.812	55753.96
623.168	55743.11
623.523	55751.02
623.879	55889.1
624.234	55657.46
624.589	55778.14
624.945	55874.63
625.3	55816.33
625.655	55790.57
626.01	55836.22
626.365	55866.5
626.72	55819.27
627.075	55819.49
627.43	55754.41
627.785	55693.17
628.14	55760.06
628.495	55748.08
628.85	55745.6
629.205	55624.7
629.559	55803.22
629.914	55742.66
630.269	55726.61
630.623	55558.71
630.978	55497.47
631.332	55727.07
631.687	55762.77
632.041	55632.38
632.396	55637.58
632.75	55387.19
633.104	55567.75
633.459	55426.73
633.813	55525.04
634.167	55484.36
634.521	55377.47
634.875	55396.23
635.229	55398.49
635.583	55270.58
635.937	55356.68
636.291	55261.09
636.645	55289.11
636.999	55171.37
637.352	55307.19
637.706	55097.7
638.06	55212.96
638.413	55020.64
638.767	54997.82
639.121	55131.83
639.474	54889.8
639.828	54890.7
640.181	54904.49
640.534	54902.68
640.888	54864.26
641.241	54745.62
641.594	54810.48
641.947	54879.86
642.301	54772.06
642.654	54742.68
643.007	54717.83
643.36	54796.24
643.713	54676.47
644.066	54704.72
644.419	54574.55
644.771	54334.56
645.124	54053.44
645.477	53988.58
645.83	53888.47
646.182	53697.74
646.535	53654.8
646.888	53738.64
647.24	53573.68
647.593	53666.1
647.945	53608.25
648.298	53421.36
648.65	53433.11
649.002	53375.26
649.355	53435.15
649.707	53464.3
650.059	53548.37
650.411	53949.49
650.763	53864.74
651.115	54166.2
651.467	54050.5
651.819	54048.47
652.171	53989.94
652.523	53793.78
652.875	53899.32
653.227	53832.65
653.578	54019.99
653.93	53990.61
654.282	53879.66
654.633	53772.54
654.985	53801.92
655.337	53758.3
655.688	53713.79
656.039	53821.13
656.391	53588.14
656.742	53667.23
657.094	53671.3
657.445	53707.23
657.796	53571.19
658.147	53560.34
658.498	53603.28
658.849	53621.81
659.2	53535.71
659.551	53567.35
659.902	53644.41
660.253	53557.63
660.604	53558.08
660.955	53469.95
661.306	53559.21
661.656	53479.89
662.007	53502.49
662.358	53391.53
662.708	53435.83
663.059	53354.47
663.409	53255.27
663.76	53400.57
664.11	53313.34
664.461	53431.98
664.811	53390.63
665.161	53358.54
665.511	53201.26
665.862	53274.93
666.212	53336.62
666.562	53373.23
666.912	53271.31
667.262	53171.43
667.612	53160.35
667.962	53143.4
668.312	53180.92
668.662	53293.23
669.011	53238.77
669.361	53136.4
669.711	53073.12
670.06	52939.79
670.41	53006.91
670.76	52957.65
671.109	53099.11
671.459	53023.41
671.808	52960.58
672.157	53019.79
672.507	52812.79
672.856	52806.01
673.205	52883.07
673.554	52950.19
673.904	52712.23
674.253	52877.65
674.602	52697.54
674.951	52297.33
675.3	52098.23
675.649	52602.18
675.998	52577.32
676.346	52606.7
676.695	52667.26
677.044	52485.8
677.393	52547.94
677.741	52628.62
678.09	52473.59
678.438	52324.44
678.787	52375.52
679.135	52460.49
679.484	52121.06
679.832	52295.07
680.181	52139.36
680.529	52225.69
680.877	52157.22
681.225	52142.98
681.573	52282.41
681.922	51965.81
682.27	51910.22
682.618	51972.59
682.966	51882.87
683.314	51810.78
683.661	51712.48
684.009	51531.02
684.357	51523.33
684.705	51519.04
685.053	51434.75
685.4	51320.18
685.748	51220.07
686.095	51235.66
686.443	51097.13
686.79	51089.45
687.138	51173.51
687.485	51129.67
687.832	50928.32
688.18	51027.3
688.527	50835.89
688.874	50818.27
689.221	50742.11
689.568	50598.39
689.915	50427.32
690.262	50469.12
690.609	50382.8
690.956	50337.83
691.303	50313.65
691.65	50094.45
691.997	50060.32
692.344	49776.49
692.69	49776.49
693.037	49712.08
693.383	49444.52
693.73	49621.24
694.077	49266.44
694.423	49306.44
694.769	49201.36
695.116	49116.62
695.462	49105.54
695.808	48885.44
696.155	49018.54
696.501	48685.67
696.847	48764.54
697.193	48468.73
697.539	48649.29
697.885	48267.37
698.231	48154.38
698.577	48216.3
698.923	48117.32
699.269	47956.42
699.614	47755.3
699.96	47764.56
700.306	47721.17
700.651	47602.76
700.997	47553.5
701.342	47326.61
701.688	47325.48
702.033	47233.96
702.379	47169.1
702.724	47083
703.069	47106.5
703.415	46745.16
703.76	46597.81
704.105	46712.16
704.45	46586.74
704.795	46298.84
705.14	46291.16
705.485	46227.2
705.83	45936.81
706.175	46058.62
706.52	45913.54
706.865	45749.48
707.209	45701.57
707.554	45542.25
707.899	45826.08
708.243	45564.85
708.588	45419.54
708.932	45167.34
709.277	45225.87
709.621	45246.44
709.966	45065.88
710.31	45048.7
710.654	44613.23
710.998	44868.59
711.342	44771.2
711.687	44614.36
712.031	44392.45
712.375	44331.43
712.719	44456.18
713.063	44259.57
713.407	44445.1
713.75	44075.62
714.094	44122.85
714.438	43874.95
714.782	44031.1
715.125	43778.23
715.469	43868.17
715.812	43700.49
716.156	43469.99
716.499	43363.78
716.843	43435.86
717.186	43223.89
717.53	43357
717.873	43284.46
718.216	43307.96
718.559	43211.01
718.902	42738.93
719.246	43003.11
719.589	42732.83
719.932	42599.73
720.275	42754.3
720.617	42477.24
720.96	42594.08
721.303	42660.74
721.646	42503.23
721.989	42307.53
722.331	42357.25
722.674	42311.6
723.016	42296.01
723.359	42121.32
723.701	42173.98
724.044	41883.81
724.386	41701.9
724.729	41980.31
725.071	41743.25
725.413	41790.71
725.755	41723.82
726.097	41535.35
726.439	41387.1
726.782	41385.97
727.124	41518.17
727.465	41180.56
727.807	41308.69
728.149	41134.23
728.491	41081.8
728.833	41185.08
729.175	40961.13
729.516	40906.66
729.858	40965.65
730.199	41020.11
730.541	40687.69
730.882	40695.6
731.224	40781.24
731.565	40424.42
731.906	40493.12
732.248	40658.76
732.589	40330.86
732.93	40323.85
733.271	40256.96
733.612	40338.09
733.953	40302.84
734.294	40176.97
734.635	39923.64
734.976	40127.93
735.317	39960.7
735.658	39903.08
735.999	39958.21
736.339	39807.26
736.68	39814.72
737.021	39831.21
737.361	39533.82
737.702	39739.92
738.042	39606.13
738.383	39503.09
738.723	39620.6
739.063	39360.72
739.404	39285.46
739.744	39255.63
740.084	39090.67
740.424	39200.27
740.764	39174.28
741.104	39229.87
741.444	39014.06
741.784	38841.63
742.124	39016.54
742.464	38849.32
742.804	38706.72
743.143	38555.77
743.483	38678.25
743.823	38492.04
744.162	38507.41
744.502	38460.18
744.841	38283
745.181	38418.37
745.52	38227.86
745.86	38123.01
746.199	38206.17
746.538	38150.58
746.877	38299.05
747.216	38064.03
747.556	37954.65
747.895	37964.14
748.234	37793.07
748.573	37580.2
748.911	37525.96
749.25	37449.13
749.589	37350.6
749.928	37449.81
750.267	37417.26
750.605	37400.54
750.944	37222.47
751.283	37127.33
751.621	37173.43
751.96	36937.28
752.298	37018.18
752.636	36857.96
752.975	36777.06
