Data from whiteboard_FLMS001491_00067.txt Node
Date: Wed Feb 08 11:27:29 GMT 2017
User: dcchb
Spectrometer: FLMS00149
Trigger mode: 0
Integration Time (sec): 2.000000E-2
Scans to average: 10
Electric dark correction enabled: true
Nonlinearity correction enabled: false
Boxcar width: 0
XAxis mode: Wavelengths
Number of Pixels in Spectrum: 2048
>>>>>Begin Spectral Data<<<<<
341.393	-18.04
341.776	-18.04
342.16	-18.04
342.543	-59.62
342.927	-51.71
343.31	-83.12
343.693	-68.2
344.077	-64.14
344.46	-85.83
344.843	-59.84
345.226	-27.75
345.61	-33.4
345.993	-5.38
346.376	3.43
346.759	5.92
347.142	33.26
347.525	44.79
347.908	85.24
348.291	67.84
348.674	73.71
349.057	113.49
349.44	125.91
349.823	150.32
350.206	162.98
350.588	233.71
350.971	231.67
351.354	259.24
351.737	284.78
352.119	292.69
352.502	305.12
352.884	310.32
353.267	312.8
353.65	299.24
354.032	333.37
354.414	353.03
354.797	338.34
355.179	344.21
355.562	378.34
355.944	369.3
356.326	374.27
356.709	356.19
357.091	408.39
357.473	370.2
357.855	370.2
358.238	372.46
358.62	366.13
359.002	374.72
359.384	379.02
359.766	362.29
360.148	392.57
360.53	388.96
360.912	362.97
361.294	387.83
361.676	381.5
362.057	361.84
362.439	382.18
362.821	359.13
363.203	375.17
363.584	406.13
363.966	354.61
364.348	381.05
364.729	352.12
365.111	368.62
365.493	377.43
365.874	361.39
366.256	359.58
366.637	346.7
367.019	365.91
367.4	378.11
367.781	374.72
368.163	374.27
368.544	356.64
368.925	388.05
369.306	384.21
369.688	345.8
370.069	368.39
370.45	388.28
370.831	385.12
371.212	365.68
371.593	391.44
371.974	387.6
372.355	381.73
372.736	386.25
373.117	397.77
373.498	376.3
373.879	380.37
374.26	384.21
374.641	362.29
375.021	396.19
375.402	398.45
375.783	410.2
376.163	413.82
376.544	414.95
376.925	422.63
377.305	414.49
377.686	409.75
378.066	436.42
378.447	427.6
378.827	400.71
379.208	433.25
379.588	421.95
379.968	437.77
380.349	436.19
380.729	416.75
381.109	436.19
381.489	438.9
381.87	414.27
382.25	463.98
382.63	446.81
383.01	462.63
383.39	454.04
383.77	473.25
384.15	474.83
384.53	479.35
384.91	486.81
385.29	483.19
385.67	516.64
386.049	478.22
386.429	480.93
386.809	515.96
387.189	496.53
387.568	489.75
387.948	498.11
388.328	529.52
388.707	512.57
389.087	512.57
389.466	540.59
389.846	543.08
390.225	570.87
390.605	569.07
390.984	561.84
391.363	569.74
391.743	570.65
392.122	579.91
392.501	596.86
392.881	600.48
393.26	607.26
393.639	597.09
394.018	619.24
394.397	600.03
394.776	616.75
395.155	630.53
395.534	628.27
395.913	645
396.292	663.98
396.671	648.39
397.05	721.83
397.429	697.65
397.808	718.67
398.186	682.06
398.565	713.92
398.944	729.29
399.323	734.94
399.701	771.1
400.08	763.41
400.458	798.44
400.837	797.54
401.215	799.8
401.594	809.51
401.972	831.21
402.351	801.83
402.729	849.51
403.107	877.76
403.486	876.63
403.864	900.81
404.242	919.34
404.62	910.98
404.999	960.47
405.377	967.93
405.755	973.12
406.133	989.39
406.511	1000.92
406.889	998.21
407.267	1065.33
407.645	1060.58
408.023	1085.21
408.401	1122.72
408.779	1124.08
409.156	1165.66
409.534	1171.99
409.912	1180.58
410.29	1217.19
410.667	1226.22
411.045	1251.53
411.422	1269.39
411.8	1305.32
412.178	1330.18
412.555	1339.44
412.933	1367.01
413.31	1416.73
413.687	1440.91
414.065	1456.28
414.442	1468.7
414.819	1506.67
415.197	1512.32
415.574	1579.89
415.951	1554.13
416.328	1622.15
416.705	1615.14
417.082	1614.01
417.46	1696.49
417.837	1694.24
418.214	1700.56
418.591	1727.23
418.967	1738.53
419.344	1723.16
419.721	1803.84
420.098	1812.65
420.475	1854.23
420.852	1850.16
421.228	1878.86
421.605	1898.75
421.982	1924.51
422.358	1944.85
422.735	1971.74
423.111	1969.26
423.488	2017.39
423.864	2025.07
424.241	2069.37
424.617	2099.2
424.994	2114.56
425.37	2108.01
425.746	2159.53
426.123	2207.67
426.499	2193.88
426.875	2245.18
427.251	2285.41
427.627	2372.18
428.003	2349.81
428.379	2400.66
428.756	2421
429.132	2459.64
429.507	2495.34
429.883	2534.66
430.259	2583.93
430.635	2618.05
431.011	2604.72
431.387	2665.51
431.763	2757.03
432.138	2782.57
432.514	2784.15
432.89	2787.09
433.265	2893.75
433.641	2939.63
434.016	2930.13
434.392	3010.81
434.767	3067.31
435.143	3052.17
435.518	3076.35
435.894	3141.65
436.269	3222.56
436.644	3227.75
437.02	3260.75
437.395	3300.97
437.77	3343.68
438.145	3432.72
438.52	3459.16
438.895	3476.11
439.271	3469.56
439.646	3572.38
440.021	3637.46
440.395	3658.7
440.77	3623
441.145	3665.48
441.52	3753.84
441.895	3766.5
442.27	3776.21
442.645	3799.04
443.019	3870.68
443.394	3865.93
443.769	3971.69
444.143	3929.43
444.518	3997
444.892	3987.51
445.267	3969.2
445.641	4056.88
446.016	4029.31
446.39	4087.62
446.764	4088.3
447.139	4120.84
447.513	4194.28
447.887	4208.29
448.262	4251
448.636	4241.29
449.01	4340.04
449.384	4415.07
449.758	4402.19
450.132	4461.39
450.506	4502.75
450.88	4531.67
451.254	4544.1
451.628	4620.94
452.002	4691.22
452.376	4743.19
452.75	4801.95
453.123	4817.32
453.497	4911.33
453.871	4960.36
454.244	5071.55
454.618	5119.68
454.992	5184.54
455.365	5190.41
455.739	5310.86
456.112	5454.81
456.486	5417.53
456.859	5472.21
457.232	5639.22
457.606	5603.74
457.979	5650.29
458.352	5816.84
458.725	5836.5
459.099	5890.96
459.472	6005.53
459.845	6051.41
460.218	6147.45
460.591	6191.52
460.964	6239.88
461.337	6336.37
461.71	6504.05
462.083	6599.19
462.456	6614.11
462.829	6705.63
463.201	6751.73
463.574	6806.87
463.947	6907.66
464.32	7128.22
464.692	7144.71
465.065	7232.17
465.438	7323.47
465.81	7445.95
466.183	7544.02
466.555	7684.13
466.928	7731.14
467.3	7730.91
467.672	7944.24
468.045	8165.25
468.417	8091.13
468.789	8251.12
469.161	8330.44
469.534	8499.93
469.906	8665.58
470.278	8708.29
470.65	8893.37
471.022	9037.77
471.394	9171.33
471.766	9322.28
472.138	9330.19
472.51	9521.37
472.882	9635.5
473.253	9768.15
473.625	9990.51
473.997	10174.24
474.369	10204.29
474.74	10348.47
475.112	10582.59
475.484	10727.44
475.855	10902.81
476.227	11024.84
476.598	11284.94
476.97	11478.38
477.341	11711.37
477.713	11832.95
478.084	11954.76
478.455	12360.17
478.827	12406.04
479.198	12837.67
479.569	12914.51
479.94	13238.79
480.311	13429.07
480.682	13645.33
481.053	14005.78
481.424	14203.28
481.795	14373.68
482.166	14536.84
482.537	14846.43
482.908	15168.23
483.279	15260.66
483.65	15507.43
484.021	15884.37
484.391	16147.41
484.762	16240.07
485.133	16377.92
485.503	16692.26
485.874	16972.7
486.244	17159.59
486.615	17564.33
486.985	17681.61
487.356	17989.17
487.726	18141.03
488.097	18596.16
488.467	18583.51
488.837	19042.93
489.207	19235.47
489.578	19513.43
489.948	19647.44
490.318	19889.91
490.688	20009.69
491.058	20423.69
491.428	20608.31
491.798	20787.29
492.168	21311.12
492.538	21272.48
492.908	21580.27
493.278	21903.87
493.648	21933.93
494.017	22292.56
494.387	22499.79
494.757	22649.39
495.126	22843.74
495.496	22880.8
495.866	23224.52
496.235	23469.71
496.605	23600.55
496.974	23885.52
497.344	24102.46
497.713	24285.05
498.082	24337.48
498.452	24736.34
498.821	24768.88
499.19	24950.8
499.559	25094.52
499.928	25375.65
500.298	25494.51
500.667	25856.09
501.036	25761.17
501.405	26091.56
501.774	26095.18
502.143	26438.44
502.512	26533.58
502.88	26733.12
503.249	26782.16
503.618	26963.63
503.987	27247.69
504.356	27327.46
504.724	27577.17
505.093	27637.73
505.462	27801.57
505.83	28105.07
506.199	28230.94
506.567	28611.72
506.936	28563.36
507.304	28969.45
507.672	29120.18
508.041	29291.02
508.409	29572.82
508.777	29804.68
509.145	29943.44
509.514	30155.41
509.882	30262.07
510.25	30361.73
510.618	30598.79
510.986	30693.47
511.354	30977.31
511.722	31330.74
512.09	31691.41
512.458	31589.72
512.826	31819.32
513.193	32067.22
513.561	32185.64
513.929	32511.5
514.297	32727.77
514.664	32879.18
515.032	33080.98
515.4	33384.25
515.767	33523.91
516.135	33793.73
516.502	33556.45
516.869	34196.66
517.237	34349.42
517.604	34370.44
517.972	34878.9
518.339	35065.79
518.706	35216.97
519.073	35458.55
519.44	35698.76
519.808	36142.37
520.175	35984.86
520.542	36586.43
520.909	36763.14
521.276	36910.26
521.643	37279.06
522.009	37634.76
522.376	37850.8
522.743	38015.77
523.11	38459.82
523.477	38781.85
523.843	39025.46
524.21	39486.24
524.577	39761.03
524.943	39937.07
525.31	40153.56
525.676	40501.35
526.043	40691.4
526.409	40941.11
526.776	41283.25
527.142	41342.23
527.508	41583.58
527.874	41910.8
528.241	42157.58
528.607	42106.28
528.973	42509.66
529.339	42712.14
529.705	43017.67
530.071	43197.55
530.437	43477.09
530.803	43730.64
531.169	43988.94
531.535	43876.63
531.901	44041.6
532.267	44308.26
532.632	44520.91
532.998	44700.56
533.364	44850.84
533.73	45041.8
534.095	45397.49
534.461	45510.71
534.826	45900.08
535.192	45897.37
535.557	46162.9
535.923	46165.61
536.288	46402.21
536.653	46585.48
537.019	46495.32
537.384	46738.93
537.749	47052.82
538.114	47083.32
538.479	47182.08
538.845	47451.9
539.21	47452.58
539.575	47669.52
539.94	47837.65
540.305	48047.59
540.67	48110.42
541.034	48204.65
541.399	48503.63
541.764	48577.3
542.129	48639.89
542.494	48798.99
542.858	49067.9
543.223	49064.74
543.587	49422.25
543.952	49310.84
544.316	49503.6
544.681	49568.23
545.045	49629.92
545.41	49958.28
545.774	50023.81
546.138	50078.95
546.503	50245.05
546.867	50030.14
547.231	50502.9
547.595	50528.43
547.959	50777.01
548.324	50701.99
548.688	50885.94
549.052	50939.04
549.416	50925.03
549.779	50977.01
550.143	51073.28
550.507	51271.91
550.871	51415.19
551.235	51334.51
551.599	51602.08
551.962	51601.85
552.326	51786.48
552.689	51797.32
553.053	51739.47
553.417	51859.24
553.78	52261.95
554.143	52158.67
554.507	52331.77
554.87	52421.04
555.234	52755.04
555.597	52490.64
555.96	52676.62
556.323	52853.34
556.686	52831.87
557.05	53013.34
557.413	53164.29
557.776	53191.41
558.139	53441.12
558.502	53504.17
558.865	53637.5
559.228	53763.83
559.59	53870.72
559.953	53931.51
560.316	54273.64
560.679	54204.04
561.041	54481.32
561.404	54579.17
561.767	54787.08
562.129	54748.89
562.492	55017.8
562.854	55070.91
563.217	55060.74
563.579	55298.02
563.941	55440.39
564.304	55528.98
564.666	55730.78
565.028	55791.8
565.39	55929.19
565.753	56165.35
566.115	56210.09
566.477	56335.51
566.839	56318.79
567.201	56531.66
567.563	56559.69
567.925	56764.65
568.287	56750.41
568.648	56890.3
569.01	57002.84
569.372	57186.11
569.734	56995.38
570.095	57199.22
570.457	57252.77
570.819	57321.7
571.18	57303.62
571.542	57471.3
571.903	57531.19
572.265	57553.56
572.626	57622.48
572.987	57676.27
573.349	57739.09
573.71	57810.5
574.071	57805.53
574.432	57852.76
574.794	58089.36
575.155	58026.09
575.516	57945.41
575.877	58052.75
576.238	58075.13
576.599	58179.3
576.96	58144.73
577.32	58173.65
577.681	58318.51
578.042	58321.22
578.403	58332.52
578.763	58351.73
579.124	58302.01
579.485	58429.24
579.845	58510.59
580.206	58429.92
580.566	58462.69
580.927	58436.25
581.287	58564.83
581.648	58544.27
582.008	58623.81
582.368	58593.76
582.728	58688.44
583.089	58639.18
583.449	58697.48
583.809	58673.98
584.169	58803.47
584.529	58740.64
584.889	58987.87
585.249	58815.9
585.609	58785.62
585.969	59045.27
586.329	58931.83
586.688	59017.7
587.048	59042.11
587.408	59027.42
587.768	59047.53
588.127	59086.62
588.487	59043.69
588.846	59183.57
589.206	59073.29
589.565	59166.85
589.925	59312.61
590.284	59260.18
590.643	59285.04
591.003	59325.71
591.362	59419.5
591.721	59370.91
592.08	59398.25
592.44	59495.43
592.799	59409.1
593.158	59400.06
593.517	59370.23
593.876	59370.01
594.235	59346.28
594.593	59319.16
594.952	59396.22
595.311	59259.05
595.67	59336.56
596.029	59526.61
596.387	59426.95
596.746	59473.05
597.104	59229.22
597.463	59171.82
597.822	59297.01
598.18	59165.49
598.538	59151.93
598.897	59319.84
599.255	59064.7
599.613	59452.72
599.972	59181.31
600.33	59243.46
600.688	59103.57
601.046	59187.86
601.404	59309.9
601.762	59205.72
602.12	59252.95
602.478	59273.74
602.836	59287.3
603.194	59152.16
603.552	59246.39
603.91	59111.26
604.268	59219.28
604.625	59181.54
604.983	59280.07
605.341	59179.05
605.698	59283
606.056	59337.92
606.413	59322.55
606.771	59438.93
607.128	59433.73
607.485	59359.84
607.843	59429.89
608.2	59672.15
608.557	59749.43
608.914	59621.07
609.272	59777.23
609.629	59800.73
609.986	59902.87
610.343	59821.97
610.7	59988.07
611.057	59946.26
611.414	59995.75
611.771	60018.35
612.127	60145.81
612.484	60073.49
612.841	60209.53
613.198	60185.8
613.554	60259.25
613.911	60358.91
614.267	60391.67
614.624	60401.39
614.98	60494.5
615.337	60619.92
615.693	60531.11
616.05	60463.09
616.406	60654.49
616.762	60549.18
617.118	60530.88
617.475	60599.58
617.831	60625.79
618.187	60613.36
618.543	60638.9
618.899	60780.14
619.255	60694.49
619.611	60691.55
619.967	60723.87
620.323	60702.4
620.678	60618.79
621.034	60585.12
621.39	60612.91
621.746	60539.92
622.101	60758.22
622.457	60500.6
622.812	60559.13
623.168	60582.63
623.523	60535.17
623.879	60589.18
624.234	60354.61
624.589	60422.63
624.945	60378.79
625.3	60406.14
625.655	60378.12
626.01	60279.59
626.365	60316.42
626.72	60258.8
627.075	60243.43
627.43	60241.62
627.785	60151.23
628.14	60198.23
628.495	60161.4
628.85	60089.54
629.205	60046.15
629.559	60165.24
629.914	60082.3
630.269	60119.14
630.623	59965.92
630.978	59925.25
631.332	60068.52
631.687	60110.55
632.041	59996.2
632.396	60015.41
632.75	59891.35
633.104	59931.35
633.459	59856.55
633.813	59876.89
634.167	59851.58
634.521	59872.14
634.875	59889.32
635.229	59881.86
635.583	59758.25
635.937	59864.91
636.291	59839.37
636.645	59911.24
636.999	59828.07
637.352	59866.04
637.706	59779.04
638.06	59869.65
638.413	59875.76
638.767	59721.86
639.121	59814.29
639.474	59718.92
639.828	59756.44
640.181	59866.04
640.534	59779.94
640.888	59771.13
641.241	59732.71
641.594	59735.19
641.947	59782.88
642.301	59689.77
642.654	59779.71
643.007	59691.35
643.36	59717.12
643.713	59607.29
644.066	59680.51
644.419	59593.05
644.771	59492.26
645.124	59299.05
645.477	59219.73
645.83	59060.86
646.182	58904.26
646.535	58747.88
646.888	58846.86
647.24	58655.9
647.593	58807.99
647.945	58683.7
648.298	58527.99
648.65	58468.11
649.002	58372.07
649.355	58472.86
649.707	58483.7
650.059	58528.45
650.411	58739.74
650.763	58742.9
651.115	58910.13
651.467	58826.52
651.819	58791.49
652.171	58687.31
652.523	58668.78
652.875	58595.79
653.227	58463.36
653.578	58610.03
653.93	58478.5
654.282	58348.11
654.633	58323.48
654.985	58370.48
655.337	58335.91
655.688	58323.71
656.039	58407.77
656.391	58081.45
656.742	58102.47
657.094	58139.76
657.445	58227.21
657.796	58100.44
658.147	58092.07
658.498	58043.26
658.849	58116.93
659.2	58052.98
659.551	57981.79
659.902	58022.7
660.253	57964.39
660.604	58015.92
660.955	57889.14
661.306	58039.87
661.656	57977.73
662.007	58045.3
662.358	58026.31
662.708	57979.76
663.059	58018.63
663.409	57882.36
663.76	58102.92
664.11	57988.35
664.461	57981.79
664.811	58000.55
665.161	57938.41
665.511	57988.57
665.862	58043.71
666.212	58068.8
666.562	58070.83
666.912	58021.12
667.262	57958.97
667.612	58039.65
667.962	58105.86
668.312	58008.01
668.662	58217.27
669.011	58109.02
669.361	58058.18
669.711	58008.01
670.06	57982.47
670.41	57985.41
670.76	57895.7
671.109	57988.12
671.459	57945.64
671.808	57902.93
672.157	57912.42
672.507	57792.42
672.856	57692.99
673.205	57831.06
673.554	57805.98
673.904	57755.81
674.253	57980.66
674.602	57774.12
674.951	57407.12
675.3	57281.47
675.649	57624.29
675.998	57608.47
676.346	57614.57
676.695	57704.51
677.044	57448.25
677.393	57544.52
677.741	57594.69
678.09	57505.65
678.438	57399.66
678.787	57434.46
679.135	57388.14
679.484	57196.05
679.832	57198.99
680.181	57038.77
680.529	57095.94
680.877	57011.2
681.225	56937.53
681.573	57123.74
681.922	56903.63
682.27	56690.53
682.618	56801.71
682.966	56637.42
683.314	56651.21
683.661	56526.01
684.009	56380.25
684.357	56342.06
684.705	56367.37
685.053	56421.84
685.4	56260.48
685.748	56115.86
686.095	56098.45
686.443	56022.52
686.79	55974.39
687.138	55974.16
687.485	56019.59
687.832	55884.45
688.18	55971
688.527	55744.57
688.874	55816.65
689.221	55759.93
689.568	55648.97
689.915	55556.1
690.262	55587.28
690.609	55500.28
690.956	55458.7
691.303	55341.64
691.65	55207.86
691.997	55201.98
692.344	55122.89
692.69	55072.27
693.037	54963.12
693.383	54825.27
693.73	55039.5
694.077	54785.95
694.423	54837.7
694.769	54681.77
695.116	54655.33
695.462	54584.6
695.808	54556.12
696.155	54533.3
696.501	54394.32
696.847	54369.91
697.193	54159.52
697.539	54373.75
697.885	54159.3
698.231	54011.05
698.577	54075
698.923	54115.68
699.269	53883.6
699.614	53822.13
699.96	53657.61
700.306	53707.78
700.651	53594.57
700.997	53357.74
701.342	53420.11
701.688	53316.38
702.033	53296.27
702.379	53317.96
702.724	53178.53
703.069	53195.71
703.415	52927.69
703.76	52955.71
704.105	52834.13
704.45	52729.28
704.795	52537.19
705.14	52466.91
705.485	52388.5
705.83	52278.44
706.175	52374.48
706.52	52289.29
706.865	52071.67
707.209	52066.02
707.554	51943.08
707.899	52007.49
708.243	51805.69
708.588	51550.33
708.932	51390.78
709.277	51481.17
709.621	51321.86
709.966	51159.15
710.31	51210.22
710.654	50860.63
710.998	50914.41
711.342	50803.9
711.687	50658.37
712.031	50568.43
712.375	50378.6
712.719	50418.6
713.063	50270.13
713.407	50390.13
713.75	50157.82
714.094	50043.02
714.438	49917.37
714.782	49930.48
715.125	49854.32
715.469	49926.64
715.812	49767.1
716.156	49371.17
716.499	49506.54
716.843	49464.28
717.186	49205.98
717.53	49415.24
717.873	49348.8
718.216	49117.39
718.559	49114.68
718.902	48809.83
719.246	48854.8
719.589	48633.79
719.932	48639.89
720.275	48550.63
720.617	48515.15
720.96	48516.73
721.303	48417.98
721.646	48591.31
721.989	48300.47
722.331	48277.42
722.674	48238.32
723.016	48161.94
723.359	48175.5
723.701	48168.95
724.044	47965.79
724.386	47804.66
724.729	47912.91
725.071	47885.56
725.413	47770.54
725.755	47599.47
726.097	47702.97
726.439	47426.14
726.782	47632.01
727.124	47722.86
727.465	47382.98
727.807	47425.01
728.149	47183.89
728.491	47267.95
728.833	47260.72
729.175	47140.95
729.516	47084.45
729.858	47216.2
730.199	47193.6
730.541	47080.84
730.882	46922.65
731.224	47014.4
731.565	46916.55
731.906	46929.43
732.248	47008.07
732.589	46760.85
732.93	46701.19
733.271	46682.66
733.612	46681.53
733.953	46774.18
734.294	46580.74
734.635	46361.99
734.976	46592.26
735.317	46282.44
735.658	46331.93
735.999	46414.64
736.339	46061.2
736.68	46135.1
737.021	45993.64
737.361	45928.78
737.702	45933.75
738.042	45740.53
738.383	45642.68
738.723	45747.09
739.063	45520.65
739.404	45488.34
739.744	45297.16
740.084	45258.51
740.424	45111.85
740.764	45024.62
741.104	45199.31
741.444	44895.13
741.784	44695.36
742.124	44696.04
742.464	44521.36
742.804	44484.97
743.143	44304.41
743.483	44396.39
743.823	44162.05
744.162	44144.87
744.502	44095.15
744.841	43883.86
745.181	43921.15
745.52	43631.66
745.86	43613.13
746.199	43559.35
746.538	43480.48
746.877	43402.29
747.216	43307.83
747.556	43160.72
747.895	43037.78
748.234	42861.51
748.573	42821.29
748.911	42598.24
749.25	42694.06
749.589	42434.18
749.928	42436.67
750.267	42484.8
750.605	42210.01
750.944	42248.42
751.283	41988.09
751.621	42131.14
751.96	41715.56
752.298	41781.09
