Data from whiteboard_FLMS001491_00003.txt Node
Date: Wed Feb 08 11:24:55 GMT 2017
User: dcchb
Spectrometer: FLMS00149
Trigger mode: 0
Integration Time (sec): 2.000000E-2
Scans to average: 10
Electric dark correction enabled: true
Nonlinearity correction enabled: false
Boxcar width: 0
XAxis mode: Wavelengths
Number of Pixels in Spectrum: 2048
>>>>>Begin Spectral Data<<<<<
341.393	-25.04
341.776	-25.04
342.16	-25.04
342.543	-65.72
342.927	-75.21
343.31	-73.85
343.693	-72.72
344.077	-55.1
344.46	-55.78
344.843	-44.25
345.226	-42.44
345.61	-25.95
345.993	-17.81
346.376	-5.83
346.759	-3.12
347.142	31.45
347.525	46.37
347.908	40.27
348.291	85.46
348.674	79.36
349.057	113.94
349.44	152.81
349.823	145.8
350.206	168.63
350.588	237.78
350.971	253.37
351.354	270.77
351.737	277.1
352.119	274.84
352.502	299.24
352.884	310.77
353.267	315.29
353.65	337.43
354.032	336.53
354.414	339.92
354.797	355.97
355.179	353.48
355.562	372.24
355.944	384.21
356.326	365.91
356.709	366.59
357.091	365.46
357.473	383.99
357.855	386.7
358.238	372.24
358.62	373.14
359.002	385.79
359.384	392.57
359.766	387.6
360.148	382.18
360.53	391.44
360.912	373.14
361.294	393.7
361.676	391.9
362.057	391.44
362.439	377.21
362.821	370.65
363.203	406.59
363.584	393.7
363.966	394.61
364.348	359.35
364.729	386.47
365.111	373.82
365.493	372.91
365.874	381.73
366.256	368.39
366.637	374.95
367.019	371.78
367.4	392.57
367.781	365.46
368.163	393.93
368.544	391.22
368.925	376.08
369.306	357.32
369.688	379.24
370.069	379.02
370.45	362.07
370.831	393.7
371.212	377.66
371.593	376.98
371.974	397.32
372.355	379.92
372.736	402.74
373.117	383.99
373.498	375.85
373.879	368.17
374.26	383.31
374.641	382.63
375.021	378.34
375.402	407.04
375.783	417.66
376.163	420.14
376.544	445.45
376.925	426.92
377.305	436.64
377.686	411.56
378.066	433.03
378.447	400.03
378.827	445.23
379.208	435.51
379.588	444.1
379.968	439.58
380.349	440.93
380.729	449.52
381.109	479.35
381.489	442.97
381.87	446.81
382.25	462.86
382.63	481.84
383.01	474.38
383.39	471.44
383.77	468.73
384.15	468.28
384.53	471.89
384.91	483.42
385.29	493.59
385.67	492.23
386.049	540.82
386.429	495.85
386.809	509.18
387.189	506.24
387.568	510.31
387.948	517.99
388.328	529.75
388.707	530.42
389.087	525
389.466	525.9
389.846	551.44
390.225	568.84
390.605	566.36
390.984	569.74
391.363	582.85
391.743	584.66
392.122	607.71
392.501	607.03
392.881	590.08
393.26	616.07
393.639	609.97
394.018	626.24
394.397	658.33
394.776	632.57
395.155	633.25
395.534	651.78
395.913	672.34
396.292	692
396.671	673.7
397.05	707.37
397.429	692
397.808	710.98
398.186	722.28
398.565	757.31
398.944	715.5
399.323	732.68
399.701	748.27
400.08	763.41
400.458	778.55
400.837	786.91
401.215	781.26
401.594	792.34
401.972	832.11
402.351	821.49
402.729	848.38
403.107	852.22
403.486	865.56
403.864	878.66
404.242	889.74
404.62	903.75
404.999	923.41
405.377	944.65
405.755	939
406.133	970.86
406.511	1001.82
406.889	1012.9
407.267	1036.17
407.645	1035.72
408.023	1067.36
408.401	1080.47
408.779	1102.39
409.156	1143.06
409.534	1110.97
409.912	1162.05
410.29	1191.2
410.667	1212.44
411.045	1232.33
411.422	1242.04
411.8	1251.08
412.178	1282.04
412.555	1326.79
412.933	1329.72
413.31	1335.37
413.687	1401.14
414.065	1381.93
414.442	1423.06
414.819	1433.68
415.197	1450.4
415.574	1473.45
415.951	1499.89
416.328	1516.84
416.705	1557.29
417.082	1559.78
417.46	1557.06
417.837	1597.29
418.214	1631.86
418.591	1595.93
418.967	1631.19
419.344	1666.89
419.721	1694.91
420.098	1693.56
420.475	1754.35
420.852	1740.11
421.228	1757.96
421.605	1760.22
421.982	1833.21
422.358	1839.54
422.735	1881.35
423.111	1885.42
423.488	1903.27
423.864	1921.35
424.241	1926.32
424.617	1981.69
424.994	1950.73
425.37	1999.99
425.746	2002.48
426.123	2066.43
426.499	2077.28
426.875	2112.76
427.251	2164.28
427.627	2211.96
428.003	2206.76
428.379	2229.36
428.756	2308.23
429.132	2281.34
429.507	2338.06
429.883	2369.92
430.259	2437.27
430.635	2452.86
431.011	2459.86
431.387	2491.73
431.763	2567.88
432.138	2587.09
432.514	2609.69
432.89	2680.65
433.265	2707.09
433.641	2762.23
434.016	2781.66
434.392	2847.2
434.767	2898.72
435.143	2862.11
435.518	2910.25
435.894	2963.35
436.269	2989.12
436.644	3004.48
437.02	3085.84
437.395	3076.8
437.77	3146.17
438.145	3170.58
438.52	3258.49
438.895	3225.95
439.271	3264.82
439.646	3305.72
440.021	3363.12
440.395	3363.12
440.77	3366.51
441.145	3432.27
441.52	3498.26
441.895	3510.91
442.27	3540.74
442.645	3550.01
443.019	3607.41
443.394	3589.78
443.769	3619.38
444.143	3646.27
444.518	3772.37
444.892	3690.34
445.267	3712.71
445.641	3785.93
446.016	3780.73
446.39	3822.31
446.764	3832.03
447.139	3850.34
447.513	3951.12
447.887	3899.6
448.262	3971.92
448.636	4007.17
449.01	4057.79
449.384	4081.07
449.758	4124
450.132	4151.35
450.506	4205.36
450.88	4206.94
451.254	4247.61
451.628	4274.73
452.002	4370.1
452.376	4407.38
452.75	4404.67
453.123	4472.92
453.497	4526.25
453.871	4582.75
454.244	4732.35
454.618	4709.07
454.992	4798.79
455.365	4792.01
455.739	4936.64
456.112	4979.8
456.486	5046.01
456.859	5040.14
457.232	5184.76
457.606	5170.98
457.979	5280.36
458.352	5413.91
458.725	5464.08
459.099	5472.44
459.472	5567.13
459.845	5673.57
460.218	5751.98
460.591	5790.62
460.964	5820.45
461.337	5895.48
461.71	5998.75
462.083	6124.85
462.456	6179.99
462.829	6153.1
463.201	6295.7
463.574	6322.36
463.947	6444.62
464.32	6606.42
464.692	6668.57
465.065	6643.71
465.438	6737.49
465.81	6902.46
466.183	6929.58
466.555	7109.69
466.928	7113.53
467.3	7159.85
467.672	7243.02
468.045	7484.14
468.417	7573.63
468.789	7513.52
469.161	7717.58
469.534	7852.94
469.906	8012.49
470.278	8016.55
470.65	8172.93
471.022	8343.78
471.394	8452.93
471.766	8552.36
472.138	8688.85
472.51	8896.08
472.882	9005.68
473.253	9084.55
473.625	9227.14
473.997	9527.02
474.369	9592.11
474.74	9642.73
475.112	9786.68
475.484	9976.28
475.855	10137.4
476.227	10220.56
476.598	10624.4
476.97	10695.81
477.341	10895.58
477.713	11079.75
478.084	11160.2
478.455	11427.09
478.827	11556.12
479.198	11942.55
479.569	11922.44
479.94	12308.87
480.311	12388.42
480.682	12622.99
481.053	12967.16
481.424	13097.1
481.795	13276.98
482.166	13488.05
482.537	13657.31
482.908	13938.66
483.279	14076.06
483.65	14361.02
484.021	14595.36
484.391	14791.29
484.762	15062.92
485.133	15097.5
485.503	15281
485.874	15734.77
486.244	15834.2
486.615	16100.18
486.985	16244.36
487.356	16552.15
487.726	16734.74
488.097	17081.18
488.467	17191
488.837	17589.41
489.207	17829.18
489.578	17975.84
489.948	18281.82
490.318	18543.74
490.688	18625.99
491.058	18901.92
491.428	19157.28
491.798	19364.73
492.168	19727.66
492.538	19829.58
492.908	20130.36
493.278	20359.96
493.648	20442.89
494.017	20794.52
494.387	20951.58
494.757	21218.92
495.126	21344.11
495.496	21404.68
495.866	21667.5
496.235	22005.34
496.605	22093.02
496.974	22213.47
497.344	22443.07
497.713	22494.37
498.082	22699.78
498.452	22983.62
498.821	23102.26
499.19	23104.75
499.559	23411.86
499.928	23561
500.298	23644.39
500.667	23922.58
501.036	23865.86
501.405	24068.34
501.774	24168.67
502.143	24317.14
502.512	24544.26
502.88	24760.75
503.249	24713.74
503.618	24997.35
503.987	25076.45
504.356	25158.48
504.724	25417
505.093	25528.64
505.462	25664.45
505.83	25847.72
506.199	26040.26
506.567	26444.32
506.936	26449.74
507.304	26828.04
507.672	26891.09
508.041	27045.88
508.409	27333.79
508.777	27556.61
509.145	27776.94
509.514	27883.38
509.882	28066.65
510.25	28181
510.618	28559.07
510.986	28593.41
511.354	28848.1
511.722	29151.37
512.09	29503.45
512.458	29501.87
512.826	29745.25
513.193	29896.21
513.561	30059.82
513.929	30315.4
514.297	30587.03
514.664	30879.23
515.032	30815.73
515.4	31246.9
515.767	31290.52
516.135	31546.11
516.502	31435.37
516.869	32094.57
517.237	32190.83
517.604	32123.27
517.972	32626.08
518.339	32863.59
518.706	32828.33
519.073	32952.85
519.44	33236.91
519.808	33667.86
520.175	33596.45
520.542	33983.33
520.909	34147.17
521.276	34171.12
521.643	34581.73
522.009	34807.26
522.376	34955.06
522.743	35282.05
523.11	35559.11
523.477	35818.99
523.843	36006.55
524.21	36385.3
524.577	36789.36
524.943	36674.11
525.31	37108.67
525.676	37389.12
526.043	37556.79
526.409	37775.32
526.776	38222.99
527.142	38383.89
527.508	38472.48
527.874	38832.47
528.241	39032.91
528.607	39146.58
528.973	39566.01
529.339	39614.82
529.705	40175.48
530.071	40293.67
530.437	40555.36
530.803	40833.32
531.169	41100.43
531.535	41117.61
531.901	41299.97
532.267	41610.47
532.632	41750.13
532.998	41932.73
533.364	42331.58
533.73	42331.81
534.095	42781.06
534.461	42823.55
534.826	42902.19
535.192	43145.35
535.557	43515.73
535.923	43527.49
536.288	43824.2
536.653	43842.05
537.019	43833.24
537.384	44018.32
537.749	44270.97
538.114	44555.48
538.479	44668.92
538.845	44768.13
539.21	44803.16
539.575	44950.95
539.94	44911.86
540.305	45329.92
540.67	45365.18
541.034	45680.42
541.399	45699.63
541.764	45770.82
542.129	45814.66
542.494	45939.63
542.858	45960.64
543.223	46037.48
543.587	46343.23
543.952	46216.68
544.316	46440.63
544.681	46388.65
545.045	46607.18
545.41	46875.65
545.774	46892.14
546.138	46833.84
546.503	47016.66
546.867	46955.87
547.231	47413.26
547.595	47453.94
547.959	47503.2
548.324	47516.08
548.688	47637.21
549.052	47799.46
549.416	48033.36
549.779	47944.09
550.143	48093.02
550.507	48408.49
550.871	48532.78
551.235	48539.56
551.599	48831.07
551.962	48949.72
552.326	48994.23
552.689	49168.02
553.053	49203.95
553.417	49285.07
553.78	49875.12
554.143	49567.55
554.507	49868.34
554.87	49950.14
555.234	50351.49
555.597	50236.91
555.96	50350.58
556.323	50522.1
556.686	50513.52
557.05	50981.75
557.413	51054.07
557.776	51008.19
558.139	51373.15
558.502	51444.79
558.865	51553.49
559.228	51979.92
559.59	51938.34
559.953	52066.02
560.316	52411.55
560.679	52396.4
561.041	52679.34
561.404	52761.59
561.767	52979.44
562.129	52884.08
562.492	53184.63
562.854	53119.78
563.217	53123.62
563.579	53314.35
563.941	53477.73
564.304	53544.85
564.666	53724.05
565.028	53798.4
565.39	53829.81
565.753	53954.33
566.115	54004.27
566.477	54103.48
566.839	54190.71
567.201	54295.56
567.563	54358.61
567.925	54650.58
568.287	54528.1
568.648	54635.44
569.01	54758.15
569.372	54915.21
569.734	54753.63
570.095	54928.09
570.457	55092.61
570.819	55124.92
571.18	55122.43
571.542	55267.97
571.903	55267.52
572.265	55435.65
572.626	55505.02
572.987	55539.37
573.349	55615.3
573.71	55700.27
574.071	55825.92
574.432	55903.66
574.794	56088.74
575.155	55994.05
575.516	56027.95
575.877	56169.86
576.238	56154.5
576.599	56320.37
576.96	56324.21
577.32	56425.23
577.681	56453.25
578.042	56456.64
578.403	56605.56
578.763	56607.82
579.124	56722.84
579.485	56799.68
579.845	56821.6
580.206	56787.48
580.566	56870.41
580.927	56893.01
581.287	57037.19
581.648	56954.7
582.008	57080.35
582.368	57023.85
582.728	57128.94
583.089	57143.62
583.449	57140.91
583.809	57166.45
584.169	57220.91
584.529	57163.51
584.889	57447.12
585.249	57243.96
585.609	57191.53
585.969	57312.66
586.329	57252.1
586.688	57313.11
587.048	57209.16
587.408	57280.8
587.768	57256.62
588.127	57279.21
588.487	57201.7
588.846	57384.07
589.206	57238.31
589.565	57172.32
589.925	57283.96
590.284	57320.57
590.643	57274.47
591.003	57317.18
591.362	57349.72
591.721	57284.64
592.08	57295.94
592.44	57399.89
592.799	57375.48
593.158	57345.65
593.517	57312.66
593.876	57408.7
594.235	57281.02
594.593	57245.77
594.952	57356.5
595.311	57252.77
595.67	57253.45
596.029	57482.15
596.387	57460.45
596.746	57415.71
597.104	57318.31
597.463	57278.76
597.822	57477.4
598.18	57281.02
598.538	57347.91
598.897	57458.87
599.255	57331.42
599.613	57652.31
599.972	57413.45
600.33	57528.25
600.688	57431.53
601.046	57602.82
601.404	57665.64
601.762	57617.51
602.12	57722.59
602.478	57736.6
602.836	57723.72
603.194	57680.79
603.552	57645.76
603.91	57546.33
604.268	57715.59
604.625	57648.47
604.983	57778.86
605.341	57654.8
605.698	57781.57
606.056	57846.2
606.413	57854.11
606.771	57934.56
607.128	57883.27
607.485	57826.77
607.843	57869.71
608.2	57963.26
608.557	58093.43
608.914	58057.05
609.272	58127.1
609.629	58214.1
609.986	58248.23
610.343	58151.96
610.7	58349.02
611.057	58306.76
611.414	58241.45
611.771	58350.15
612.127	58395.12
612.484	58438.51
612.841	58469.01
613.198	58397.6
613.554	58413.42
613.911	58529.8
614.267	58538.84
614.624	58473.08
614.98	58471.95
615.337	58665.62
615.693	58596.47
616.05	58616.58
616.406	58774.32
616.762	58580.65
617.118	58630.82
617.475	58647.31
617.831	58726.41
618.187	58747.2
618.543	58724.83
618.899	58807.99
619.255	58799.17
619.611	58814.32
619.967	58875.78
620.323	58888.66
620.678	58753.53
621.034	58771.38
621.39	58750.59
621.746	58813.41
622.101	59031.71
622.457	58780.19
622.812	58762.11
623.168	58849.57
623.523	58873.3
623.879	58874.2
624.234	58728.89
624.589	58841.66
624.945	58892.05
625.3	58829.91
625.655	58833.75
626.01	58774.09
626.365	58811.6
626.72	58760.08
627.075	58711.94
627.43	58765.73
627.785	58690.7
628.14	58700.19
628.495	58708.56
628.85	58670.36
629.205	58599.63
629.559	58787.2
629.914	58632.4
630.269	58610.48
630.623	58591.5
630.978	58595.79
631.332	58625.62
631.687	58654.55
632.041	58468.34
632.396	58594.89
632.75	58414.33
633.104	58555.34
633.459	58376.36
633.813	58354.44
634.167	58308.11
634.521	58292.52
634.875	58319.41
635.229	58283.71
635.583	58150.38
635.937	58132.07
636.291	58155.35
636.645	58131.62
636.999	58031.06
637.352	58069.25
637.706	57894.79
638.06	58045.3
638.413	58028.12
638.767	57897.05
639.121	57957.39
639.474	57841.23
639.828	57870.39
640.181	57922.81
640.534	57874.23
640.888	57816.38
641.241	57695.25
641.594	57708.81
641.947	57761.91
642.301	57758.98
642.654	57650.05
643.007	57626.32
643.36	57650.5
643.713	57636.94
644.066	57631.3
644.419	57502.71
644.771	57385.2
645.124	57137.07
645.477	57176.62
645.83	57035.83
646.182	56967.36
646.535	56839
646.888	56896.63
647.24	56578.44
647.593	56749.06
647.945	56756.06
648.298	56657.76
648.65	56522.85
649.002	56489.86
649.355	56633.81
649.707	56653.02
650.059	56715.61
650.411	57051.88
650.763	57141.82
651.115	57284.64
651.467	57157.18
651.819	57187.92
652.171	57048.26
652.523	57086.68
652.875	57063.4
653.227	56944.08
653.578	57153.57
653.93	57013.23
654.282	56871.54
654.633	56832.22
654.985	56831.09
655.337	56857.98
655.688	56907.25
656.039	56927.81
656.391	56676.97
656.742	56761.71
657.094	56762.17
657.445	56836.29
657.796	56707.7
658.147	56708.38
658.498	56597.88
658.849	56652.79
659.2	56593.58
659.551	56469.74
659.902	56561.04
660.253	56521.72
660.604	56495.28
660.955	56394.04
661.306	56443.98
661.656	56401.05
662.007	56388.16
662.358	56335.06
662.708	56250.09
663.059	56288.05
663.409	56022.75
663.76	56250.09
664.11	56241.73
664.461	56227.04
664.811	56216.42
665.161	56202.86
665.511	56137.78
665.862	56101.39
666.212	56148.17
666.562	56086.7
666.912	56096.87
667.262	56066.82
667.612	56107.72
667.962	56134.39
668.312	56098.45
668.662	56140.94
669.011	56055.74
669.361	55977.33
669.711	55978.01
670.06	56013.71
670.41	55919.7
670.76	55910.89
671.109	55940.94
671.459	55932.81
671.808	55791.12
672.157	55959.93
672.507	55799.25
672.856	55745.7
673.205	55856.65
673.554	55887.39
673.904	55808.52
674.253	55919.25
674.602	55794.51
674.951	55458.7
675.3	55314.75
675.649	55738.92
675.998	55615.53
676.346	55677.67
676.695	55801.74
677.044	55573.95
677.393	55641.52
677.741	55692.82
678.09	55656.43
678.438	55615.76
678.787	55569.43
679.135	55604.68
679.484	55356.55
679.832	55477.23
680.181	55294.41
680.529	55414.18
680.877	55340.06
681.225	55285.14
681.573	55467.74
681.922	55250.12
682.27	55144.36
682.618	55137.8
682.966	55039.95
683.314	55132.83
683.661	54932.61
684.009	54798.83
684.357	54769.45
684.705	54768.09
685.053	54724.71
685.4	54607.19
685.748	54461.44
686.095	54538.5
686.443	54455.79
686.79	54398.61
687.138	54468.67
687.485	54346.41
687.832	54327.2
688.18	54225.06
688.527	54101.22
688.874	54048.34
689.221	53984.61
689.568	53889.92
689.915	53763.6
690.262	53782.81
690.609	53670.27
690.956	53575.13
691.303	53579.42
691.65	53364.06
691.997	53441.58
692.344	53142.37
692.69	53128.36
693.037	53158.64
693.383	52848.37
693.73	53077.29
694.077	52789.84
694.423	52820.57
694.769	52731.31
695.116	52641.14
695.462	52556.63
695.808	52469.85
696.155	52506.68
696.501	52243.41
696.847	52110.54
697.193	52054.27
697.539	52096.07
697.885	51998.68
698.231	51790.55
698.577	51867.38
698.923	51797.78
699.269	51613.15
699.614	51437.79
699.96	51401.4
700.306	51454.51
700.651	51147.85
700.997	51092.03
701.342	51094.97
701.688	50981.07
702.033	50862.43
702.379	50860.17
702.724	50824.69
703.069	50876.22
703.415	50488.66
703.76	50615.21
704.105	50459.05
704.45	50371.37
704.795	50221.77
705.14	50110.14
705.485	50112.62
705.83	49909.69
706.175	49895.91
706.52	49882.57
706.865	49680.09
707.209	49673.76
707.554	49582.69
707.899	49629.7
708.243	49518.74
708.588	49375.02
708.932	49241.69
709.277	49152.42
709.621	49126.66
709.966	48970.51
710.31	48929.6
710.654	48648.71
710.998	48698.2
711.342	48744.07
711.687	48592.44
712.031	48437.64
712.375	48263.18
712.719	48244.42
713.063	48227.02
713.407	48289.85
713.75	47954.26
714.094	47985
714.438	47829.07
714.782	47847.37
715.125	47659.35
715.469	47691.44
715.812	47538.91
716.156	47427.5
716.499	47450.55
716.843	47310.44
717.186	46953.38
717.53	47148.41
717.873	47145.24
718.216	46888.3
718.559	46850.79
718.902	46467.07
719.246	46697.12
719.589	46361.31
719.932	46146.4
720.275	46385.94
720.617	46138.72
720.96	46173.07
721.303	46119.28
721.646	46157.47
721.989	45953.18
722.331	46003.35
722.674	45934.65
723.016	45823.92
723.359	45763.36
723.701	45858.05
724.044	45510.48
724.386	45354.78
724.729	45566.08
725.071	45352.07
725.413	45268.91
725.755	45216.25
726.097	45057.84
726.439	45027.56
726.782	45002.93
727.124	45084.73
727.465	44763.16
727.807	44938.97
728.149	44840.45
728.491	44612.43
728.833	44703.73
729.175	44417.41
729.516	44456.27
729.858	44335.15
730.199	44312.78
730.541	44333.57
730.882	44245.88
731.224	44377.18
731.565	43950.98
731.906	44178.99
732.248	44101.71
732.589	43610.65
732.93	43537.2
733.271	43499.69
733.612	43525.9
733.953	43560.25
734.294	43418.34
734.635	43391.44
734.976	43434.61
735.317	43169.53
735.658	43219.24
735.999	43124.78
736.339	43009.08
736.68	43245.23
737.021	43062.41
737.361	43060.61
737.702	43027.61
738.042	42860.84
738.383	42703.1
738.723	42841.4
739.063	42625.81
739.404	42710.11
739.744	42504.69
740.084	42412.26
740.424	42364.35
740.764	42410.9
741.104	42487.51
741.444	42255.43
741.784	41871.26
742.124	42109.22
742.464	42069.67
742.804	41775.22
743.143	41954.87
743.483	41885.04
743.823	41574.32
744.162	41660.42
744.502	41642.56
744.841	41297.26
745.181	41621.55
745.52	41327.09
745.86	41182.91
746.199	41246.19
746.538	41195.12
746.877	41205.74
747.216	41267.43
747.556	40982.92
747.895	41022.47
748.234	40973.88
748.573	40788.57
748.911	40672.65
749.25	40688.01
749.589	40454.35
749.928	40508.13
750.267	40489.83
750.605	40451.86
750.944	40280.57
751.283	40207.8
751.621	40144.98
751.96	39874.25
752.298	39823.4
752.636	39778.66
