Data from white_steel_sheet_FLMS001491_054.txt Node
Date: Tue Feb 07 10:58:05 GMT 2017
User: dcchb
Spectrometer: FLMS00149
Trigger mode: 0
Integration Time (sec): 2.000000E-2
Scans to average: 10
Electric dark correction enabled: true
Nonlinearity correction enabled: false
Boxcar width: 0
XAxis mode: Wavelengths
Number of Pixels in Spectrum: 2048
>>>>>Begin Spectral Data<<<<<
341.393	-17.34
341.776	-17.34
342.16	-17.34
342.543	-66.83
342.927	-71.58
343.31	-75.42
343.693	-74.07
344.077	-60.73
344.46	-62.31
344.843	-56.67
345.226	-22.54
345.61	-30
345.993	-15.31
346.376	-0.17
346.759	2.99
347.142	17.46
347.525	48.87
347.908	52.71
348.291	77.12
348.674	99.94
349.057	98.13
349.44	115.08
349.823	142.88
350.206	134.06
350.588	200.05
350.971	207.73
351.354	213.16
351.737	244.34
352.119	267.17
352.502	282.53
352.884	279.82
353.267	282.31
353.65	311.23
354.032	302.65
354.414	316.66
354.797	337.45
355.179	323.66
355.562	317.11
355.944	328.41
356.326	319.14
356.709	342.19
357.091	378.35
357.473	343.32
357.855	346.71
358.238	365.7
358.62	336.09
359.002	339.93
359.384	331.12
359.766	319.6
360.148	353.04
360.53	357.34
360.912	333.83
361.294	344.68
361.676	351.91
362.057	349.65
362.439	359.6
362.821	325.47
363.203	353.04
363.584	355.08
363.966	339.48
364.348	350.78
364.729	322.31
365.111	304.91
365.493	336.09
365.874	337
366.256	349.43
366.637	324.57
367.019	340.39
367.4	331.35
367.781	333.38
368.163	335.64
368.544	327.28
368.925	334.51
369.306	345.58
369.688	344.68
370.069	337.67
370.45	352.59
370.831	309.65
371.212	318.92
371.593	325.7
371.974	336.32
372.355	332.25
372.736	329.54
373.117	346.49
373.498	335.64
373.879	342.42
374.26	319.82
374.641	326.6
375.021	322.53
375.402	340.61
375.783	357.56
376.163	387.62
376.544	365.92
376.925	327.73
377.305	343.78
377.686	345.36
378.066	359.14
378.447	343.1
378.827	354.62
379.208	338.35
379.588	348.75
379.968	373.15
380.349	359.37
380.729	356.88
381.109	368.18
381.489	360.05
381.87	362.76
382.25	374.96
382.63	366.15
383.01	380.16
383.39	392.81
383.77	369.76
384.15	414.28
384.53	394.62
384.91	380.61
385.29	400.05
385.67	399.14
386.049	388.07
386.429	409.31
386.809	405.24
387.189	401.18
387.568	403.66
387.948	411.57
388.328	414.96
388.707	438.24
389.087	428.52
389.466	401.4
389.846	416.54
390.225	436.2
390.605	431.23
390.984	432.36
391.363	423.32
391.743	451.8
392.122	442.98
392.501	453.6
392.881	470.1
393.26	475.52
393.639	473.49
394.018	473.26
394.397	473.94
394.776	471.23
395.155	496.54
395.534	494.96
395.913	506.94
396.292	494.51
396.671	509.2
397.05	527.73
397.429	515.52
397.808	525.24
398.186	533.83
398.565	529.76
398.944	549.19
399.323	563.66
399.701	547.16
400.08	565.69
400.458	565.69
400.837	598.46
401.215	617.67
401.594	601.62
401.972	611.57
402.351	633.71
402.729	612.24
403.107	650.89
403.486	645.24
403.864	654.73
404.242	641.85
404.62	645.69
404.999	654.73
405.377	686.59
405.755	683.65
406.133	702.64
406.511	703.09
406.889	726.14
407.267	753.93
407.645	746.25
408.023	743.31
408.401	769.98
408.779	780.37
409.156	790.32
409.534	808.17
409.912	810.2
410.29	854.72
410.667	835.97
411.045	864.89
411.422	901.28
411.8	893.82
412.178	903.54
412.555	903.99
412.933	928.39
413.31	958.22
413.687	956.87
414.065	939.69
414.442	962.29
414.819	985.57
415.197	1005.23
415.574	1005.45
415.951	1033.48
416.328	1043.64
416.705	1035.28
417.082	1036.19
417.46	1059.01
417.837	1072.34
418.214	1083.87
418.591	1075.96
418.967	1110.76
419.344	1117.77
419.721	1155.28
420.098	1149.4
420.475	1140.14
420.852	1153.47
421.228	1149.63
421.605	1205
421.982	1212.68
422.358	1230.31
422.735	1214.94
423.111	1240.93
423.488	1259.23
423.864	1271.66
424.241	1280.02
424.617	1285.9
424.994	1305.78
425.37	1318.89
425.746	1321.6
426.123	1353.69
426.499	1339.91
426.875	1375.16
427.251	1398.89
427.627	1444.99
428.003	1409.51
428.379	1459.68
428.756	1470.98
429.132	1468.49
429.507	1474.59
429.883	1514.37
430.259	1543.97
430.635	1546
431.011	1585.55
431.387	1610.18
431.763	1619.9
432.138	1600.69
432.514	1690.63
432.89	1676.85
433.265	1724.08
433.641	1722.5
434.016	1732.89
434.392	1790.29
434.767	1800.46
435.143	1820.35
435.518	1874.81
435.894	1873.23
436.269	1869.84
436.644	1898.54
437.02	1954.58
437.395	1955.03
437.77	1945.77
438.145	1987.35
438.52	2003.62
438.895	2007.69
439.271	2032.77
439.646	2068.02
440.021	2094.69
440.395	2124.97
440.77	2112.09
441.145	2150.51
441.52	2196.61
441.895	2229.83
442.27	2208.36
442.645	2243.39
443.019	2215.37
443.394	2261.92
443.769	2291.52
444.143	2273.44
444.518	2305.76
444.892	2313.44
445.267	2357.06
445.641	2350.5
446.016	2351.86
446.39	2341.92
446.764	2405.64
447.139	2402.71
447.513	2465.75
447.887	2431.4
448.262	2445.42
448.636	2503.49
449.01	2535.81
449.384	2550.27
449.758	2538.07
450.132	2552.53
450.506	2589.82
450.88	2617.61
451.254	2637.28
451.628	2661
452.002	2711.62
452.376	2737.84
452.75	2791.85
453.123	2768.12
453.497	2815.8
453.871	2840.66
454.244	2915.69
454.618	2968.34
454.992	2959.07
455.365	2996.36
455.739	3032.29
456.112	3079.3
456.486	3091.27
456.859	3141.89
457.232	3179.18
457.606	3180.09
457.979	3164.95
458.352	3328.78
458.725	3345.28
459.099	3374.88
459.472	3395
459.845	3438.84
460.218	3489.68
460.591	3523.35
460.964	3538.27
461.337	3600.87
461.71	3645.84
462.083	3679.06
462.456	3683.8
462.829	3743.91
463.201	3803.35
463.574	3823.91
463.947	3871.37
464.32	3953.4
464.692	3976
465.065	4012.38
465.438	4098.03
465.81	4125.82
466.183	4183.45
466.555	4271.13
466.928	4277.68
467.3	4267.29
467.672	4339.6
468.045	4481.75
468.417	4485.36
468.789	4469.09
469.161	4551.8
469.534	4638.58
469.906	4752.02
470.278	4801.06
470.65	4790.66
471.022	4939.14
471.394	4969.87
471.766	5084.22
472.138	5066.14
472.51	5226.59
472.882	5330.76
473.253	5319.69
473.625	5387.94
473.997	5567.14
474.369	5577.99
474.74	5665.44
475.112	5731.88
475.484	5839.22
475.855	5924.65
476.227	6014.14
476.598	6117.64
476.97	6222.94
477.341	6345.2
477.713	6459.55
478.084	6522.37
478.455	6643.72
478.827	6693.89
479.198	6881.68
479.569	6916.71
479.94	7019.76
480.311	7180.88
480.682	7346.3
481.053	7468.11
481.424	7668.56
481.795	7678.5
482.166	7778.84
482.537	7903.35
482.908	8065.83
483.279	8130.24
483.65	8284.58
484.021	8424.02
484.391	8614.29
484.762	8658.36
485.133	8779.94
485.503	8893.61
485.874	9045.47
486.244	9149.87
486.615	9311.22
486.985	9413.37
487.356	9636.87
487.726	9640.48
488.097	9856.07
488.467	9980.81
488.837	10151.43
489.207	10222.61
489.578	10399.78
489.948	10449.95
490.318	10579.89
490.688	10648.14
491.058	10824.63
491.428	10991.63
491.798	11102.82
492.168	11327.44
492.538	11328.12
492.908	11501.22
493.278	11672.74
493.648	11736.7
494.017	11876.13
494.387	11973.75
494.757	12099.63
495.126	12275.89
495.496	12307.76
495.866	12371.48
496.235	12552.72
496.605	12610.35
496.974	12711.81
497.344	12858.48
497.713	12979.15
498.082	12990.22
498.452	13077
498.821	13230.67
499.19	13305.02
499.559	13450.55
499.928	13493.49
500.298	13561.06
500.667	13729.64
501.036	13761.28
501.405	13982.97
501.774	13937.77
502.143	14088.05
502.512	14114.49
502.88	14294.37
503.249	14431.54
503.618	14498.66
503.987	14514.25
504.356	14618.66
504.724	14741.59
505.093	14795.6
505.462	14896.61
505.83	15003.05
506.199	15128.7
506.567	15389.26
506.936	15281.69
507.304	15557.84
507.672	15651.85
508.041	15615.24
508.409	15858.4
508.777	16043.25
509.145	16119.63
509.514	16136.81
509.882	16278.27
510.25	16369.8
510.618	16470.13
510.986	16604.37
511.354	16782.89
511.722	16827.18
512.09	17114.86
512.458	17139.49
512.826	17211.58
513.193	17354.85
513.561	17444.57
513.929	17576.32
514.297	17772.24
514.664	17816.54
515.032	17929.75
515.4	18144.44
515.767	18238.67
516.135	18307.37
516.502	18338.56
516.869	18696.97
517.237	18738.09
517.604	18649.96
517.972	18917.98
518.339	19004.98
518.706	19123.4
519.073	19275.26
519.44	19413.78
519.808	19603.61
520.175	19587.56
520.542	19970.6
520.909	20099.64
521.276	20004.05
521.643	20277.94
522.009	20434.32
522.376	20636.12
522.743	20763.35
523.11	20941.43
523.477	21207.86
523.843	21329.21
524.21	21485.82
524.577	21618.7
524.943	21859.37
525.31	21930.78
525.676	22112.92
526.043	22314.05
526.409	22339.13
526.776	22634.72
527.142	22700.7
527.508	22886.91
527.874	23109.73
528.241	23309.27
528.607	23271.31
528.973	23529.16
529.339	23604.18
529.705	23817.28
530.071	24023.61
530.437	24147.44
530.803	24260.21
531.169	24378.62
531.535	24346.08
531.901	24524.16
532.267	24677.6
532.632	24824.26
532.998	24952.62
533.364	25100.64
533.73	25255.66
534.095	25428.54
534.461	25520.52
534.826	25656.11
535.192	25706.73
535.557	25942.43
535.923	25880.05
536.288	26079.14
536.653	26160.05
537.019	26220.38
537.384	26340.38
537.749	26456.76
538.114	26548.96
538.479	26637.1
538.845	26741.95
539.21	26704.67
539.575	26913.02
539.94	26977.43
540.305	27313.46
540.67	27172.68
541.034	27177.65
541.399	27374.7
541.764	27535.38
542.129	27691.98
542.494	27647.24
542.858	27912.54
543.223	27750.51
543.587	27917.74
543.952	28007.23
544.316	28117.74
544.681	28172.2
545.045	28255.13
545.41	28346.88
545.774	28573.09
546.138	28612.19
546.503	28667.1
546.867	28641.11
547.231	28923.82
547.595	28915.68
547.959	29146.86
548.324	29221.89
548.688	29256.46
549.052	29327.19
549.416	29426.4
549.779	29481.99
550.143	29581.2
550.507	29825.71
550.871	29902.77
551.235	29887.86
551.599	30123.78
551.962	30042.43
552.326	30265.7
552.689	30449.88
553.053	30285.14
553.417	30611.23
553.78	30845.35
554.143	30750.43
554.507	30856.42
554.87	31011.44
555.234	31286.24
555.597	31122.85
555.96	31286.01
556.323	31587.7
556.686	31502.51
557.05	31871.31
557.413	31919.44
557.776	31957.63
558.139	32177.74
558.502	32199.66
558.865	32367.57
559.228	32595.13
559.59	32632.19
559.953	32679.88
560.316	33200.09
560.679	33075.57
561.041	33272.85
561.404	33439.86
561.767	33658.38
562.129	33588.55
562.492	33865.15
562.854	33842.1
563.217	33866.06
563.579	34112.38
563.941	34280.51
564.304	34472.37
564.666	34659.03
565.028	34767.5
565.39	34753.49
565.753	34950.1
566.115	35047.72
566.477	35230.32
566.839	35443.19
567.201	35559.57
567.563	35598.22
567.925	35815.16
568.287	35803.18
568.648	36033.91
569.01	36249.05
569.372	36436.84
569.734	36067.13
570.095	36470.28
570.457	36610.17
570.819	36675.93
571.18	36716.83
571.542	37124.05
571.903	37127.67
572.265	37185.75
572.626	37118.85
572.987	37311.84
573.349	37430.03
573.71	37465.74
574.071	37499.64
574.432	37858.5
574.794	38047.42
575.155	37826.63
575.516	37830.47
575.877	38070.02
576.238	38003.58
576.599	38314.53
576.96	38153.18
577.32	38259.84
577.681	38398.82
578.042	38533.05
578.403	38490.57
578.763	38414.41
579.124	38533.96
579.485	38812.6
579.845	38685.37
580.206	38723.78
580.566	38737.79
580.927	38809.66
581.287	38879.71
581.648	38851.69
582.008	38982.31
582.368	38897.11
582.728	39014.17
583.089	38957.45
583.449	38880.84
583.809	38906.6
584.169	38994.51
584.529	38953.16
584.889	39163.32
585.249	38933.27
585.609	39000.39
585.969	39146.82
586.329	39055.98
586.688	39136.43
587.048	38898.92
587.408	39038.8
587.768	38943.89
588.127	39078.35
588.487	38971.01
588.846	39234.73
589.206	39077
589.565	39071.57
589.925	39210.78
590.284	39036.54
590.643	39090.78
591.003	39102.31
591.362	39116.77
591.721	39033.61
592.08	39070.22
592.44	39184.56
592.799	39298.46
593.158	39143.66
593.517	39207.84
593.876	39207.84
594.235	39192.02
594.593	39335.07
594.952	39309.53
595.311	39247.39
595.67	39192.25
596.029	39517.21
596.387	39439.02
596.746	39394.5
597.104	39209.87
597.463	39294.62
597.822	39390.66
598.18	39253.04
598.538	39239.48
598.897	39533.93
599.255	39194.28
599.613	39760.59
599.972	39358.57
600.33	39454.84
600.688	39344.56
601.046	39493.03
601.404	39606.02
601.762	39541.84
602.12	39603.99
602.478	39600.15
602.836	39617.55
603.194	39412.58
603.552	39674.04
603.91	39539.58
604.268	39588.17
604.625	39511.11
604.983	39593.59
605.341	39587.94
605.698	39620.03
606.056	39746.58
606.413	39740.93
606.771	39888.73
607.128	39873.36
607.485	39779.8
607.843	39864.77
608.2	39916.07
608.557	39988.84
608.914	39957.2
609.272	40122.62
609.629	40216.63
609.986	40302.5
610.343	40022.06
610.7	40261.37
611.057	40336.4
611.414	40367.13
611.771	40315.15
612.127	40559.22
612.484	40481.03
612.841	40573.68
613.198	40434.47
613.554	40423.4
613.911	40718.31
614.267	40691.19
614.624	40642.38
614.98	40792.43
615.337	40953.56
615.693	40922.82
616.05	40901.81
616.406	41061.8
616.762	40865.2
617.118	40956.72
617.475	40924.63
617.831	41105.42
618.187	41067.23
618.543	41007.79
618.899	41437.61
619.255	41281.91
619.611	41263.15
619.967	41345.41
620.323	41451.62
620.678	41314.68
621.034	41134.34
621.39	41335.69
621.746	41131.63
622.101	41687.1
622.457	41385.41
622.812	41368.01
623.168	41483.03
623.523	41539.53
623.879	41529.36
624.234	41386.76
624.589	41537.27
624.945	41417.5
625.3	41524.16
625.655	41554.44
626.01	41405.3
626.365	41537.95
626.72	41486.42
627.075	41305.19
627.43	41380.21
627.785	41235.58
628.14	41359.65
628.495	41514.9
628.85	41366.2
629.205	41243.94
629.559	41408.69
629.914	41207.56
630.269	41279.42
630.623	41290.27
630.978	41068.13
631.332	41089.6
631.687	41229.71
632.041	41171.4
632.396	41084.17
632.75	41084.4
633.104	40989.71
633.459	40890.28
633.813	40807.12
634.167	40844.86
634.521	40841.24
634.875	40760.79
635.229	40798.98
635.583	40573
635.937	40669.04
636.291	40602.83
636.645	40618.2
636.999	40410.29
637.352	40503.4
637.706	40323.52
638.06	40471.08
638.413	40290.97
638.767	40312.89
639.121	40277.42
639.474	40050.08
639.828	40051.66
640.181	40085.33
640.534	40057.08
640.888	39905.9
641.241	39884.21
641.594	39951.32
641.947	39902.96
642.301	39721.72
642.654	39851.89
643.007	39716.75
643.36	39539.13
643.713	39557.43
644.066	39671.33
644.419	39481.96
644.771	39342.98
645.124	38814.86
645.477	38714.52
645.83	38294.87
646.182	38322.66
646.535	38353.17
646.888	38283.12
647.24	38146.4
647.593	38460.51
647.945	38212.84
648.298	38138.49
648.65	38014.65
649.002	38013.97
649.355	38074.08
649.707	37988.44
650.059	38141.65
650.411	38580.29
650.763	38713.61
651.115	39004.23
651.467	38826.83
651.819	38845.81
652.171	38664.12
652.523	38656.44
652.875	38607.4
653.227	38516.56
653.578	38742.54
653.93	38653.5
654.282	38317.47
654.633	38390.46
654.985	38575.77
655.337	38452.15
655.688	38354.08
656.039	38532.15
656.391	37997.93
656.742	38234.08
657.094	38296.68
657.445	38409.44
657.796	38250.12
658.147	38191.59
658.498	38116.34
658.849	38328.31
659.2	38118.6
659.551	38034.08
659.902	38180.07
660.253	38058.72
660.604	38056.68
660.955	37907.53
661.306	37971.26
661.656	37682.68
662.007	37737.14
662.358	37757.26
662.708	37753.19
663.059	37529.92
663.409	37568.11
663.76	37678.39
664.11	37597.71
664.461	37479.97
664.811	37549.8
665.161	37459.18
665.511	37251.73
665.862	37196.14
666.212	37206.54
666.562	37220.77
666.912	37010.38
667.262	37054.9
667.612	36916.6
667.962	36833.66
668.312	36695.14
668.662	36806.77
669.011	36672.76
669.361	36570.17
669.711	36443.39
670.06	36449.04
670.41	36161.37
670.76	36162.04
671.109	36286.33
671.459	36171.08
671.808	35986.45
672.157	35992.78
672.507	35750.75
672.856	35798.21
673.205	35880.69
673.554	35881.82
673.904	35608.16
674.253	35862.39
674.602	35840.47
674.951	35155.52
675.3	34914.39
675.649	35403.87
675.998	35426.02
676.346	35446.36
676.695	35380.82
677.044	35245.46
677.393	35361.84
677.741	35166.14
678.09	35207.04
678.438	35082.75
678.787	35055.41
679.135	35217.89
679.484	34918.69
679.832	35254.95
680.181	34937.89
680.529	34951.23
680.877	34929.31
681.225	34833.49
681.573	35185.35
681.922	34851.34
682.27	34868.52
682.618	34923.21
682.966	34982.87
683.314	35015.18
683.661	34789.88
684.009	34633.72
684.357	34679.37
684.705	34795.75
685.053	34810.44
685.4	34591.69
685.748	34686.6
686.095	34697.22
686.443	34640.5
686.79	34463.33
687.138	34807.28
687.485	34660.16
687.832	34633.95
688.18	34819.03
688.527	34458.13
688.874	34614.74
689.221	34582.65
689.568	34414.74
689.915	34365.03
690.262	34520.73
690.609	34339.94
690.956	34403.45
691.303	34426.72
691.65	34259.27
691.997	34302.88
692.344	34187.63
692.69	34211.59
693.037	34133.4
693.383	33979.05
693.73	34078.93
694.077	33840.52
694.423	34016.79
694.769	33900.86
695.116	33916.68
695.462	33877.36
695.808	33809.34
696.155	33748.32
696.501	33650.02
696.847	33667.87
697.193	33261.1
697.539	33539.29
697.885	33225.4
698.231	33198.51
698.577	33155.79
698.923	33229.47
699.269	33064.27
699.614	32911.51
699.96	32881
700.306	32936.37
700.651	32700.21
700.997	32630.38
701.342	32537.28
701.688	32537.51
702.033	32517.85
702.379	32445.76
702.724	32319.88
703.069	32392.65
703.415	31971.42
703.76	31985.88
704.105	32052.1
704.45	32029.04
704.795	31749.73
705.14	31764.65
705.485	31608.72
705.83	31642.84
706.175	31678.09
706.52	31502.05
706.865	31447.37
707.209	31380.7
707.554	31360.14
707.899	31335.73
708.243	31306.58
708.588	31105.91
708.932	30931.22
709.277	31025.68
709.621	31023.42
709.966	30683.32
710.31	30855.52
710.654	30427.73
710.998	30735.29
711.342	30646.48
711.687	30444.23
712.031	30303.67
712.375	30254.85
712.719	30309.77
713.063	30244.23
713.407	30381.4
713.75	30099.38
714.094	30093.28
714.438	30014.41
714.782	29984.8
715.125	29842.89
715.469	29885.82
715.812	29768.77
716.156	29712.95
716.499	29567.64
716.843	29723.79
717.186	29464.82
717.53	29513.18
717.873	29644.7
718.216	29514.76
718.559	29271.15
718.902	29088.33
719.246	29146.63
719.589	29105.28
719.932	28977.15
720.275	29115
720.617	28893.99
720.96	29023.02
721.303	28911.61
721.646	28943.02
721.989	28777.15
722.331	28803.14
722.674	28693.54
723.016	28673.43
723.359	28669.13
723.701	28662.58
724.044	28555.24
724.386	28301.01
724.729	28411.06
725.071	28278.41
725.413	28328.8
725.755	28356.6
726.097	28272.08
726.439	28152.08
726.782	28135.59
727.124	28235.7
727.465	28085.65
727.807	28045.42
728.149	28009.94
728.491	27924.52
728.833	28002.94
729.175	27806.56
729.516	27878.19
729.858	27767.46
730.199	27787.8
730.541	27682.27
730.882	27595.94
731.224	27632.1
731.565	27487.02
731.906	27519.11
732.248	27526.34
732.589	27367.25
732.93	27294.48
733.271	27340.13
733.612	27210.19
733.953	27190.75
734.294	27235.5
734.635	27099.23
734.976	27162.28
735.317	26983.08
735.658	27079.34
735.999	27009.29
736.339	26868.5
736.68	26966.13
737.021	26778.79
737.361	26683.2
737.702	26929.74
738.042	26786.92
738.383	26659.02
738.723	26766.13
739.063	26605.91
739.404	26581.05
739.744	26541.73
740.084	26470.32
740.424	26451.79
740.764	26486.59
741.104	26492.24
741.444	26458.8
741.784	26301.51
742.124	26327.73
742.464	26360.49
742.804	26212.93
743.143	26081.63
743.483	26175.87
743.823	26003.21
744.162	26002.31
744.502	26000.73
744.841	25918.47
745.181	25976.55
745.52	25724.58
745.86	25846.83
746.199	25786.5
746.538	25821.07
746.877	25842.31
747.216	25665.14
747.556	25635.99
747.895	25639.61
748.234	25527.97
748.573	25510.57
748.911	25413.4
749.25	25415.21
749.589	25210.69
749.928	25356
750.267	25364.81
750.605	25217.25
750.944	25194.65
751.283	25080.98
751.621	25152.62
751.96	24965.95
752.298	24952.39
752.636	24792.62
752.975	24840.08
753.313	24702.91
753.651	24831.72
