Data from white_poster_card_FLMS001491_00049.txt Node
Date: Wed Feb 08 11:51:35 GMT 2017
User: dcchb
Spectrometer: FLMS00149
Trigger mode: 0
Integration Time (sec): 2.000000E-2
Scans to average: 10
Electric dark correction enabled: true
Nonlinearity correction enabled: false
Boxcar width: 0
XAxis mode: Wavelengths
Number of Pixels in Spectrum: 2048
>>>>>Begin Spectral Data<<<<<
341.393	-9.73
341.776	-9.73
342.16	-9.73
342.543	-81.37
342.927	-81.14
343.31	-70.97
343.693	-63.06
344.077	-47.24
344.46	-62.84
344.843	-55.38
345.226	-58.77
345.61	-24.42
345.993	-28.71
346.376	-7.47
346.759	4.96
347.142	32.75
347.525	51.74
347.908	57.84
348.291	73.66
348.674	86.54
349.057	111.4
349.44	141.68
349.823	144.84
350.206	164.28
350.588	192.3
350.971	211.28
351.354	238.4
351.737	249.47
352.119	256.93
352.502	263.93
352.884	309.13
353.267	285.63
353.65	301.67
354.032	314.1
354.414	307.32
354.797	318.4
355.179	320.43
355.562	337.6
355.944	320.88
356.326	322.69
356.709	356.36
357.091	357.04
357.473	351.39
357.855	331.95
358.238	331.73
358.62	319.98
359.002	340.32
359.384	347.1
359.766	340.77
360.148	337.83
360.53	324.05
360.912	327.43
361.294	345.29
361.676	322.46
362.057	331.95
362.439	354.33
362.821	327.21
363.203	323.14
363.584	317.72
363.966	327.21
364.348	326.53
364.729	338.06
365.111	319.75
365.493	332.63
365.874	321.56
366.256	341.22
366.637	310.03
367.019	317.49
367.4	311.16
367.781	302.8
368.163	320.88
368.544	313.88
368.925	320.43
369.306	314.78
369.688	306.64
370.069	316.14
370.45	299.64
370.831	321.79
371.212	330.6
371.593	328.79
371.974	306.87
372.355	325.4
372.736	328.79
373.117	327.66
373.498	318.85
373.879	313.88
374.26	330.15
374.641	325.18
375.021	344.84
375.402	315.01
375.783	330.6
376.163	326.3
376.544	349.13
376.925	338.51
377.305	335.8
377.686	337.38
378.066	340.32
378.447	363.59
378.827	339.19
379.208	341.9
379.588	342.58
379.968	339.19
380.349	363.37
380.729	341.45
381.109	351.16
381.489	347.55
381.87	339.19
382.25	335.8
382.63	361.78
383.01	368.79
383.39	372.63
383.77	333.31
384.15	356.59
384.53	348
384.91	383.48
385.29	355.91
385.67	382.8
386.049	365.63
386.429	379.64
386.809	383.48
387.189	369.69
387.568	369.92
387.948	370.37
388.328	372.41
388.707	378.06
389.087	364.5
389.466	369.02
389.846	382.8
390.225	391.84
390.605	399.07
390.984	409.69
391.363	380.31
391.743	377.15
392.122	417.6
392.501	380.54
392.881	403.37
393.26	399.52
393.639	410.14
394.018	390.94
394.397	403.37
394.776	417.83
395.155	416.47
395.534	413.53
395.913	416.92
396.292	415.34
396.671	418.05
397.05	418.05
397.429	420.31
397.808	421.44
398.186	428.22
398.565	447.66
398.944	430.03
399.323	425.06
399.701	448.56
400.08	432.74
400.458	440.88
400.837	452.63
401.215	451.5
401.594	451.95
401.972	482.01
402.351	468.45
402.729	454.89
403.107	474.1
403.486	460.31
403.864	472.97
404.242	472.29
404.62	477.94
404.999	476.36
405.377	471.16
405.755	497.6
406.133	497.83
406.511	505.96
406.889	526.75
407.267	530.59
407.645	536.92
408.023	542.8
408.401	553.64
408.779	558.16
409.156	574.89
409.534	569.69
409.912	604.94
410.29	613.76
410.667	579.18
411.045	613.98
411.422	602.23
411.8	619.63
412.178	628.67
412.555	655.34
412.933	667.54
413.31	700.76
413.687	691.27
414.065	711.15
414.442	720.19
414.819	732.17
415.197	739.18
415.574	765.84
415.951	749.12
416.328	793.86
416.705	803.13
417.082	818.04
417.46	805.39
417.837	846.29
418.214	863.92
418.591	888.1
418.967	885.39
419.344	897.14
419.721	898.27
420.098	910.47
420.475	926.74
420.852	953.86
421.228	973.52
421.605	972.84
421.982	979.62
422.358	988.66
422.735	1029.11
423.111	1049.68
423.488	1043.12
423.864	1063.46
424.241	1082.67
424.617	1092.84
424.994	1123.8
425.37	1125.61
425.746	1137.81
426.123	1154.08
426.499	1155.89
426.875	1174.64
427.251	1218.71
427.627	1210.12
428.003	1216.45
428.379	1272.04
428.756	1261.2
429.132	1264.13
429.507	1296
429.883	1307.97
430.259	1340.97
430.635	1362.44
431.011	1360.18
431.387	1431.36
431.763	1418.93
432.138	1419.61
432.514	1460.74
432.89	1453.06
433.265	1494.86
433.641	1543.9
434.016	1542.32
434.392	1574.63
434.767	1590.45
435.143	1611.02
435.518	1594.07
435.894	1631.13
436.269	1681.07
436.644	1673.16
437.02	1692.6
437.395	1677
437.77	1710.22
438.145	1745.7
438.52	1778.47
438.895	1777.11
439.271	1759.26
439.646	1808.3
440.021	1825.47
440.395	1867.73
440.77	1843.55
441.145	1846.49
441.52	1871.8
441.895	1899.14
442.27	1887.62
442.645	1917
443.019	1948.41
443.394	1944.34
443.769	1952.48
444.143	1960.61
444.518	2011.68
444.892	1973.27
445.267	1987.28
445.641	2024.79
446.016	2029.76
446.39	2048.07
446.764	2068.41
447.139	2064.56
447.513	2085.35
447.887	2086.26
448.262	2101.17
448.636	2119.7
449.01	2134.62
449.384	2189.53
449.758	2189.76
450.132	2204.67
450.506	2233.15
450.88	2272.47
451.254	2207.39
451.628	2237.89
452.002	2286.71
452.376	2286.48
452.75	2343.88
453.123	2328.96
453.497	2388.17
453.871	2414.84
454.244	2436.53
454.618	2433.14
454.992	2495.51
455.365	2483.54
455.739	2533.48
456.112	2566.02
456.486	2571.67
456.859	2576.19
457.232	2637.2
457.606	2669.07
457.979	2659.8
458.352	2753.81
458.725	2746.35
459.099	2786.81
459.472	2861.38
459.845	2863.41
460.218	2865.67
460.591	2893.02
460.964	2918.55
461.337	2964.2
461.71	3040.36
462.083	3090.98
462.456	3080.58
462.829	3104.76
463.201	3146.34
463.574	3148.38
463.947	3217.08
464.32	3286.68
464.692	3278.54
465.065	3323.06
465.438	3362.84
465.81	3422.04
466.183	3430.86
466.555	3537.97
466.928	3542.04
467.3	3534.81
467.672	3554.24
468.045	3677.18
468.417	3660.23
468.789	3691.19
469.161	3741.81
469.534	3805.54
469.906	3869.71
470.278	3911.07
470.65	3944.97
471.022	3999.65
471.394	4039.88
471.766	4144.51
472.138	4134.79
472.51	4259.53
472.882	4332.98
473.253	4396.48
473.625	4424.95
473.997	4506.31
474.369	4531.17
474.74	4570.94
475.112	4663.14
475.484	4737.94
475.855	4806.19
476.227	4856.81
476.598	4939.74
476.97	4976.58
477.341	5118.04
477.713	5242.56
478.084	5205.27
478.455	5337.02
478.827	5399.84
479.198	5553.96
479.569	5593.96
479.94	5690.91
480.311	5767.97
480.682	5877.8
481.053	6013.84
481.424	6134.51
481.795	6197.34
482.166	6256.32
482.537	6318.01
482.908	6422.87
483.279	6523.2
483.65	6629.64
484.021	6776.98
484.391	6831.22
484.762	6946.47
485.133	6963.42
485.503	7043.42
485.874	7295.61
486.244	7251.32
486.615	7431.43
486.985	7492.67
487.356	7642.5
487.726	7634.36
488.097	7845.2
488.467	7876.61
488.837	8066.67
489.207	8177.62
489.578	8238.87
489.948	8302.59
490.318	8441.57
490.688	8454
491.058	8590.49
491.428	8781.45
491.798	8846.98
492.168	9028.68
492.538	8985.29
492.908	9132.4
493.278	9235.22
493.648	9294.88
494.017	9421.43
494.387	9536.01
494.757	9571.49
495.126	9652.61
495.496	9660.52
495.866	9861.87
496.235	9946.84
496.605	10010.57
496.974	10070
497.344	10270.22
497.713	10234.97
498.082	10302.54
498.452	10428.19
498.821	10441.29
499.19	10548.86
499.559	10633.38
499.928	10652.14
500.298	10747.95
500.667	10878.34
501.036	10886.25
501.405	11010.77
501.774	10971.9
502.143	11103.2
502.512	11184.1
502.88	11303.19
503.249	11291.67
503.618	11415.96
503.987	11453.47
504.356	11440.59
504.724	11674.48
505.093	11708.83
505.462	11761.71
505.83	11861.59
506.199	11998.99
506.567	12077.63
506.936	12096.16
507.304	12294.35
507.672	12389.26
508.041	12374.58
508.409	12439.66
508.777	12574.12
509.145	12678.07
509.514	12718.07
509.882	12878.29
510.25	12827.67
510.618	12969.36
510.986	13039.64
511.354	13170.26
511.722	13244.84
512.09	13399.63
512.458	13445.73
512.826	13535.9
513.193	13624.94
513.561	13698.38
513.929	13848.66
514.297	13957.58
514.664	13997.81
515.032	14085.49
515.4	14244.36
515.767	14294.07
516.135	14359.38
516.502	14376.33
516.869	14617
517.237	14630.34
517.604	14712.82
517.972	14865.13
518.339	14955.98
518.706	15058.57
519.073	15083.88
519.44	15260.15
519.808	15386.93
520.175	15348.06
520.542	15597.09
520.909	15641.61
521.276	15766.12
521.643	15894.71
522.009	16022.62
522.376	16148.71
522.743	16275.94
523.11	16445.2
523.477	16624.86
523.843	16710.73
524.21	16905.3
524.577	17021.91
524.943	17088.12
525.31	17221
525.676	17329.02
526.043	17436.82
526.409	17652.63
526.776	17710.25
527.142	17771.27
527.508	17861.21
527.874	18036.35
528.241	18183.69
528.607	18176.46
528.973	18406.06
529.339	18385.04
529.705	18671.81
530.071	18761.98
530.437	18871.13
530.803	19034.29
531.169	19095.08
531.535	19127.39
531.901	19177.79
532.267	19272.7
532.632	19502.98
532.998	19529.87
533.364	19681.05
533.73	19750.65
534.095	19945.45
534.461	19960.14
534.826	19961.27
535.192	20090.31
535.557	20215.73
535.923	20205.78
536.288	20426.34
536.653	20415.49
537.019	20444.65
537.384	20613.91
537.749	20682.83
538.114	20802.83
538.479	20755.82
538.845	20852.32
539.21	20916.95
539.575	21111.75
539.94	21022.03
540.305	21226.55
540.67	21255.47
541.034	21274.91
541.399	21495.69
541.764	21519.87
542.129	21514.67
542.494	21591.96
542.858	21682.13
543.223	21792.63
543.587	21943.59
543.952	21919.86
544.316	22063.36
544.681	22071.27
545.045	22075.11
545.41	22356.46
545.774	22393.3
546.138	22296.12
546.503	22559.84
546.867	22534.08
547.231	22671.25
547.595	22746.73
547.959	22729.56
548.324	22890.23
548.688	22883.45
549.052	23050
549.416	23035.54
549.779	23165.48
550.143	23164.8
550.507	23433.49
550.871	23453.38
551.235	23477.33
551.599	23683.43
551.962	23730.44
552.326	23826.25
552.689	23970.2
553.053	23821.96
553.417	23943.54
553.78	24319.12
554.143	24154.38
554.507	24363.19
554.87	24384.66
555.234	24607.25
555.597	24520.7
555.96	24672.11
556.323	24756.62
556.686	24782.39
557.05	24941.25
557.413	25117.29
557.776	25192.09
558.139	25306.44
558.502	25367.68
558.865	25450.62
559.228	25726.99
559.59	25785.52
559.953	25839.76
560.316	26086.98
560.679	26055.57
561.041	26358.39
561.404	26437.03
561.767	26507.31
562.129	26536.46
562.492	26808.09
562.854	26796.57
563.217	26811.48
563.579	27047.64
563.941	27086.28
564.304	27277.69
564.666	27511.58
565.028	27422.77
565.39	27546.38
565.753	27745.02
566.115	27843.77
566.477	27954.51
566.839	28020.49
567.201	28217.32
567.563	28303.65
567.925	28410.54
568.287	28388.62
568.648	28561.27
569.01	28732.11
569.372	28861.83
569.734	28852.79
570.095	29108.83
570.457	29130.97
570.819	29102.95
571.18	29232.44
571.542	29293.23
571.903	29367.35
572.265	29659.54
572.626	29567.8
572.987	29795.13
573.349	29720.11
573.71	29958.29
574.071	29918.07
574.432	30044.85
574.794	30214.11
575.155	30126.88
575.516	30159.87
575.877	30254.56
576.238	30370.71
576.599	30451.16
576.96	30482.12
577.32	30559.63
577.681	30705.62
578.042	30806.63
578.403	30712.62
578.763	30767.31
579.124	30886.18
579.485	30972.73
579.845	31089.34
580.206	30916.24
580.566	31022.22
580.927	30979.28
581.287	31191.03
581.648	31045.05
582.008	31228.09
582.368	31186.74
582.728	31308.54
583.089	31258.37
583.449	31215.66
583.809	31394.64
584.169	31352.61
584.529	31203.91
584.889	31443.45
585.249	31356
585.609	31257.02
585.969	31346.96
586.329	31380.63
586.688	31345.83
587.048	31369.56
587.408	31396.9
587.768	31229.22
588.127	31295.21
588.487	31393.74
588.846	31515.32
589.206	31321.2
589.565	31311.48
589.925	31437.13
590.284	31374.3
590.643	31559.83
591.003	31567.52
591.362	31437.35
591.721	31599.38
592.08	31654.07
592.44	31742.88
592.799	31617.69
593.158	31602.09
593.517	31538.82
593.876	31676.22
594.235	31593.96
594.593	31668.08
594.952	31754.63
595.311	31690
595.67	31635.76
596.029	31683.45
596.387	31807.51
596.746	31784.01
597.104	31714.18
597.463	31782.2
597.822	31811.58
598.18	31746.27
598.538	31832.14
598.897	31949.65
599.255	31641.87
599.613	32194.17
599.972	31745.82
600.33	31892.48
600.688	31680.73
601.046	31975.64
601.404	32090.22
601.762	32074.4
602.12	32103.1
602.478	32224.22
602.836	32298.57
603.194	32063.1
603.552	32241.17
603.91	32136.77
604.268	32234.62
604.625	31986.94
604.983	32202.98
605.341	32061.06
605.698	32421.73
606.056	32399.59
606.413	32337.44
606.771	32389.87
607.128	32428.96
607.485	32250.44
607.843	32309.19
608.2	32601.84
608.557	32613.37
608.914	32693.59
609.272	32594.16
609.629	32872.79
609.986	32806.35
610.343	32646.59
610.7	32914.37
611.057	32713.48
611.414	32835.05
611.771	32878.22
612.127	33072.34
612.484	33031.21
612.841	33108.49
613.198	32933.36
613.554	33076.63
613.911	33252.44
614.267	33158.21
614.624	33210.19
614.98	33230.75
615.337	33357.53
615.693	33221.49
616.05	33275.72
616.406	33331.54
616.762	33239.11
617.118	33363.18
617.475	33347.81
617.831	33476.85
618.187	33562.04
618.543	33463.06
618.899	33714.13
619.255	33646.56
619.611	33523.17
619.967	33673.68
620.323	33717.07
620.678	33596.16
621.034	33603.4
621.39	33680.68
621.746	33439.33
622.101	33864.63
622.457	33648.14
622.812	33771.75
623.168	33731.53
623.523	33842.26
623.879	33886.78
624.234	33580.8
624.589	33695.82
624.945	33798.19
625.3	33821.92
625.655	33744.18
626.01	33787.57
626.365	33711.19
626.72	33664.19
627.075	33664.64
627.43	33531.76
627.785	33536.05
628.14	33658.31
628.495	33669.84
628.85	33611.08
629.205	33477.75
629.559	33685.43
629.914	33467.58
630.269	33556.17
630.623	33529.73
630.978	33475.94
631.332	33449.73
631.687	33550.06
632.041	33414.02
632.396	33438.2
632.75	33270.07
633.104	33278.43
633.459	33306.23
633.813	33151.43
634.167	33097.42
634.521	33168.38
634.875	33176.06
635.229	33073.47
635.583	32964.32
635.937	32958.67
636.291	32905.56
636.645	32942.4
636.999	32859.46
637.352	33000.02
637.706	32827.37
638.06	32975.16
638.413	32768.62
638.767	32619.47
639.121	32715.28
639.474	32489.98
639.828	32380.15
640.181	32575.17
640.534	32509.64
640.888	32398.23
641.241	32173.6
641.594	32404.33
641.947	32325.69
642.301	32362.07
642.654	32269.65
643.007	32266.71
643.36	32186.94
643.713	32149.2
644.066	32322.98
644.419	32151.68
644.771	31874.18
645.124	31545.82
645.477	31429.44
645.83	31299.5
646.182	31200.07
646.535	31103.8
646.888	31164.36
647.24	30938.61
647.593	31010.02
647.945	31094.76
648.298	30896.12
648.65	30791.49
649.002	30694.55
649.355	30841.21
649.707	30780.42
650.059	30951.94
650.411	31202.33
650.763	31321.42
651.115	31555.54
651.467	31410.91
651.819	31482.77
652.171	31391.25
652.523	31321.42
652.875	31320.07
653.227	31279.62
653.578	31436.67
653.93	31251.14
654.282	31158.26
654.633	31067.64
654.985	31195.32
655.337	31094.08
655.688	31147.19
656.039	31241.65
656.391	30870.36
656.742	30989.68
657.094	30963.47
657.445	31148.77
657.796	30948.1
658.147	30996.68
658.498	30846.63
658.849	31012.73
659.2	30876.69
659.551	30807.76
659.902	30866.29
660.253	30755.79
660.604	30750.36
660.955	30702.91
661.306	30787.88
661.656	30679.63
662.007	30767.76
662.358	30760.53
662.708	30643.47
663.059	30807.76
663.409	30494.55
663.76	30586.07
664.11	30514.44
664.461	30638.5
664.811	30624.94
665.161	30535.23
665.511	30486.87
665.862	30480.31
666.212	30629.01
666.562	30557.37
666.912	30460.43
667.262	30448.9
667.612	30338.62
667.962	30422.01
668.312	30336.82
668.662	30565.74
669.011	30326.87
669.361	30320.77
669.711	30283.26
670.06	30220.43
670.41	30283.48
670.76	30120.1
671.109	30190.6
671.459	30265.86
671.808	30114
672.157	30201.45
672.507	30094.11
672.856	30153.77
673.205	30073.09
673.554	30206.2
673.904	30069.93
674.253	30202.13
674.602	30164.16
674.951	29556.5
675.3	29507.91
675.649	29976.6
675.998	30018.63
676.346	29943.38
676.695	30051.85
677.044	29797.39
677.393	29904.28
677.741	29882.82
678.09	29713.33
678.438	29646.66
678.787	29791.74
679.135	29686.44
679.484	29562.37
679.832	29743.84
680.181	29447.35
680.529	29633.56
680.877	29546.33
681.225	29455.93
681.573	29660
681.922	29362.15
682.27	29300.46
682.618	29219.1
682.966	29171.2
683.314	29227.69
683.661	29099.11
684.009	29020.92
684.357	28884.88
684.705	29009.17
685.053	28973.01
685.4	28872.45
685.748	28746.8
686.095	28726.46
686.443	28642.62
686.79	28582.96
687.138	28744.31
687.485	28654.6
687.832	28489.18
688.18	28647.14
688.527	28425
688.874	28326.02
689.221	28311.78
689.568	28205.12
689.915	28228.85
690.262	28184.33
690.609	28091.22
690.956	27925.13
691.303	27986.82
691.65	27895.07
691.997	27865.69
692.344	27653.04
692.69	27636.32
693.037	27653.27
693.383	27325.14
693.73	27457.12
694.077	27260.51
694.423	27284.92
694.769	27185.03
695.116	27125.83
695.462	27177.8
695.808	26951.14
696.155	27008.99
696.501	26820.98
696.847	26775.33
697.193	26679.28
697.539	26707.53
697.885	26651.94
698.231	26394.77
698.577	26487.43
698.923	26437.71
699.269	26123.14
699.614	26002.24
699.96	26228.67
700.306	26140.09
700.651	25931.06
700.997	25929.93
701.342	25863.03
701.688	25861.9
702.033	25648.13
702.379	25633.21
702.724	25665.3
703.069	25558.64
703.415	25448.13
703.76	25396.61
704.105	25455.36
704.45	25265.76
704.795	25303.5
705.14	25057.41
705.485	25116.16
705.83	24945.09
706.175	25018.09
706.52	24956.17
706.865	24878.43
707.209	24918.43
707.554	24756.17
707.899	24754.82
708.243	24695.61
708.588	24581.03
708.932	24309.86
709.277	24351.44
709.621	24409.06
709.966	24200.25
710.31	24252.91
710.654	23963.65
710.998	24292.91
711.342	24130.2
711.687	24068.28
712.031	23915.06
712.375	23809.08
712.719	23922.75
713.063	23844.78
713.407	23964.55
713.75	23566.82
714.094	23639.14
714.438	23592.81
714.782	23628.07
715.125	23553.49
715.469	23514.17
715.812	23368.86
716.156	23327.51
716.499	23243.44
716.843	23324.8
717.186	23148.08
717.53	23236.66
717.873	23189.43
718.216	23184.69
718.559	23057.91
718.902	22903.56
719.246	23047.74
719.589	22870.8
719.932	22891.81
720.275	22883.45
720.617	22831.25
720.96	22706.73
721.303	22717.35
721.646	22746.51
721.989	22519.39
722.331	22604.82
722.674	22603.91
723.016	22494.31
723.359	22455.21
723.701	22572.05
724.044	22353.3
724.386	22325.05
724.729	22356.91
725.071	22342
725.413	22292.96
725.755	22258.38
726.097	22075.56
726.439	22104.04
726.782	22079.86
727.124	22017.49
727.465	21898.17
727.807	21954.89
728.149	21898.39
728.491	21789.47
728.833	21803.48
729.175	21778.62
729.516	21653.88
729.858	21614.33
730.199	21724.84
730.541	21528.69
730.882	21602.13
731.224	21640.77
731.565	21510.38
731.906	21474.68
732.248	21463.38
732.589	21369.37
732.93	21341.35
733.271	21333.21
733.612	21292.31
733.953	21287.11
734.294	21158.75
734.635	21182.03
734.976	21287.79
735.317	21173.44
735.658	21193.33
735.999	21135.48
736.339	21036.72
736.68	21094.57
737.021	21076.49
737.361	20900.91
737.702	20969.38
738.042	20867.69
738.383	20866.33
738.723	20809.38
739.063	20800.12
739.404	20858.65
739.744	20783.85
740.084	20694.58
740.424	20698.65
740.764	20602.83
741.104	20657.3
741.444	20619.56
741.784	20551.31
742.124	20465.44
742.464	20503.18
742.804	20495.04
743.143	20492.55
743.483	20397.19
743.823	20274.48
744.162	20275.38
744.502	20331.88
744.841	20192.68
745.181	20350.64
745.52	20174.37
745.86	20215.73
746.199	20162.62
746.538	20138.89
746.877	20232.67
747.216	20061.15
747.556	20023.64
747.895	20003.08
748.234	19806.7
748.573	19861.84
748.911	19853.02
749.25	19825.91
749.589	19705.46
749.928	19773.25
750.267	19780.48
750.605	19647.83
750.944	19697.32
751.283	19520.83
751.621	19580.26
751.96	19458.23
752.298	19550.21
752.636	19407.61
752.975	19366.03
753.313	19344.11
753.651	19425.01
753.989	19361.96
754.327	19206.03
