Data from white_poster_card_FLMS001491_00066.txt Node
Date: Wed Feb 08 11:51:51 GMT 2017
User: dcchb
Spectrometer: FLMS00149
Trigger mode: 0
Integration Time (sec): 2.000000E-2
Scans to average: 10
Electric dark correction enabled: true
Nonlinearity correction enabled: false
Boxcar width: 0
XAxis mode: Wavelengths
Number of Pixels in Spectrum: 2048
>>>>>Begin Spectral Data<<<<<
341.393	10.52
341.776	10.52
342.16	10.52
342.543	-79.19
342.927	-79.64
343.31	-66.09
343.693	-48.46
344.077	-78.74
344.46	-77.84
344.843	-53.66
345.226	-61.57
345.61	-9.82
345.993	-12.3
346.376	15.04
346.759	4.65
347.142	28.83
347.525	44.87
347.908	60.46
348.291	63.18
348.674	86
349.057	105.44
349.44	140.46
349.823	172.33
350.206	175.94
350.588	205.55
350.971	221.36
351.354	227.01
351.737	248.93
352.119	242.38
352.502	254.58
352.884	282.15
353.267	286
353.65	294.81
354.032	309.95
354.414	286
354.797	322.15
355.179	332.77
355.562	340.46
355.944	336.84
356.326	337.52
356.709	356.73
357.091	338.65
357.473	326.67
357.855	358.99
358.238	352.66
358.62	344.07
359.002	364.41
359.384	340.68
359.766	353.11
360.148	334.58
360.53	359.67
360.912	354.92
361.294	341.59
361.676	341.14
362.057	343.17
362.439	327.58
362.821	347.24
363.203	314.47
363.584	328.48
363.966	338.42
364.348	328.93
364.729	321.7
365.111	310.63
365.493	321.47
365.874	347.69
366.256	330.97
366.637	321.47
367.019	343.39
367.4	334.58
367.781	319.89
368.163	305.66
368.544	330.06
368.925	314.24
369.306	334.58
369.688	333
370.069	335.94
370.45	315.15
370.831	316.95
371.212	316.73
371.593	324.41
371.974	322.38
372.355	319.44
372.736	321.02
373.117	312.44
373.498	309.05
373.879	340.68
374.26	311.76
374.641	312.89
375.021	317.41
375.402	335.71
375.783	324.64
376.163	339.78
376.544	322.6
376.925	332.32
377.305	329.84
377.686	328.71
378.066	345.65
378.447	340.01
378.827	332.77
379.208	326.67
379.588	347.01
379.968	333.9
380.349	344.52
380.729	351.3
381.109	331.64
381.489	346.78
381.87	336.39
382.25	340.68
382.63	353.79
383.01	348.37
383.39	356.95
383.77	366.22
384.15	354.47
384.53	383.17
384.91	391.53
385.29	368.03
385.67	359.44
386.049	370.51
386.429	387.69
386.809	366.9
387.189	368.03
387.568	380.23
387.948	380.46
388.328	359.21
388.707	376.39
389.087	379.1
389.466	369.38
389.846	389.27
390.225	406.9
390.605	387.91
390.984	403.05
391.363	397.63
391.743	405.99
392.122	377.29
392.501	402.6
392.881	393.34
393.26	402.38
393.639	401.92
394.018	395.82
394.397	423.39
394.776	399.89
395.155	419.33
395.534	434.24
395.913	425.65
396.292	434.92
396.671	434.69
397.05	432.88
397.429	443.51
397.808	426.1
398.186	455.03
398.565	444.18
398.944	453
399.323	441.02
399.701	447.8
400.08	475.59
400.458	460.68
400.837	442.6
401.215	485.09
401.594	474.92
401.972	458.65
402.351	464.52
402.729	488.48
403.107	474.46
403.486	476.05
403.864	485.99
404.242	505.88
404.62	500.23
404.999	504.52
405.377	512.2
405.755	517.18
406.133	505.88
406.511	495.93
406.889	547.68
407.267	544.52
407.645	539.32
408.023	553.78
408.401	561.47
408.779	556.27
409.156	589.72
409.534	580
409.912	569.38
410.29	614.57
410.667	602.37
411.045	624.29
411.422	630.17
411.8	643.95
412.178	682.82
412.555	671.52
412.933	672.88
413.31	711.97
413.687	729.6
414.065	736.15
414.442	724.63
414.819	766.66
415.197	770.05
415.574	778.64
415.951	799.2
416.328	791.74
416.705	845.08
417.082	843.72
417.46	868.13
417.837	872.42
418.214	871.52
418.591	901.35
418.967	906.09
419.344	927.33
419.721	931.85
420.098	928.92
420.475	964.85
420.852	983.83
421.228	989.93
421.605	1002.36
421.982	1047.11
422.358	1017.5
422.735	1038.29
423.111	1064.51
423.488	1065.41
423.864	1083.26
424.241	1122.81
424.617	1123.26
424.994	1157.61
425.37	1166.88
425.746	1137.72
426.123	1187.67
426.499	1191.28
426.875	1180.89
427.251	1206.2
427.627	1245.07
428.003	1273.54
428.379	1296.14
428.756	1308.57
429.132	1287.32
429.507	1332.07
429.883	1339.3
430.259	1417.94
430.635	1404.84
431.011	1438.51
431.387	1452.07
431.763	1464.5
432.138	1487.77
432.514	1487.09
432.89	1528.22
433.265	1541.1
433.641	1595.34
434.016	1576.13
434.392	1604.38
434.767	1626.75
435.143	1629.69
435.518	1670.59
435.894	1654.77
436.269	1703.13
436.644	1739.74
437.02	1756.69
437.395	1749.01
437.77	1787.88
438.145	1811.6
438.52	1820.64
438.895	1815.22
439.271	1848.89
439.646	1896.35
440.021	1898.38
440.395	1897.93
440.77	1921.21
441.145	1923.69
441.52	1939.96
441.895	1949.23
442.27	1954.88
442.645	1960.75
443.019	2029.23
443.394	1968.66
443.769	2020.19
444.143	2008.21
444.518	2048.66
444.892	2054.76
445.267	2087.98
445.641	2099.28
446.016	2084.82
446.39	2130.92
446.764	2170.69
447.139	2112.84
447.513	2161.2
447.887	2158.04
448.262	2144.7
448.636	2200.07
449.01	2233.29
449.384	2209.33
449.758	2270.35
450.132	2293.85
450.506	2302.89
450.88	2293.4
451.254	2315.55
451.628	2314.87
452.002	2356
452.376	2366.39
452.75	2383.34
453.123	2440.51
453.497	2462.66
453.871	2488.2
454.244	2539.04
454.618	2548.76
454.992	2600.74
455.365	2588.08
455.739	2619.27
456.112	2639.15
456.486	2687.74
456.859	2700.17
457.232	2753.73
457.606	2763.9
457.979	2761.41
458.352	2835.76
458.725	2850.22
459.099	2866.04
459.472	2962.31
459.845	2917.34
460.218	2976.55
460.591	2998.69
460.964	2995.53
461.337	3116.88
461.71	3142.64
462.083	3177.44
462.456	3194.17
462.829	3204.34
463.201	3248.86
463.574	3273.04
463.947	3340.15
464.32	3387.16
464.692	3416.76
465.065	3421.05
465.438	3506.25
465.81	3526.59
466.183	3582.18
466.555	3607.04
466.928	3631.67
467.3	3676.64
467.672	3703.98
468.045	3843.87
468.417	3836.18
468.789	3839.35
469.161	3899.23
469.534	3993.47
469.906	4059
470.278	4072.56
470.65	4101.71
471.022	4167.93
471.394	4252.22
471.766	4317.08
472.138	4296.74
472.51	4445.66
472.882	4487.24
473.253	4546
473.625	4608.59
473.997	4686.11
474.369	4744.18
474.74	4831.64
475.112	4856.27
475.484	4937.4
475.855	5023.95
476.227	5088.58
476.598	5141.69
476.97	5245.41
477.341	5349.82
477.713	5427.78
478.084	5429.59
478.455	5557.27
478.827	5609.25
479.198	5819.64
479.569	5752.52
479.94	5922.01
480.311	5999.07
480.682	6122.9
481.053	6243.8
481.424	6387.53
481.795	6430.01
482.166	6503.01
482.537	6602.67
482.908	6726.05
483.279	6799.72
483.65	6912.26
484.021	7000.85
484.391	7126.27
484.762	7254.17
485.133	7275.42
485.503	7376.2
485.874	7565.58
486.244	7647.16
486.615	7716.99
486.985	7854.16
487.356	7985.45
487.726	8102.51
488.097	8184.77
488.467	8262.06
488.837	8394.71
489.207	8508.83
489.578	8626.57
489.948	8752.67
490.318	8861.14
490.688	8901.14
491.058	9021.81
491.428	9160.34
491.798	9281.69
492.168	9446.66
492.538	9513.78
492.908	9524.17
493.278	9683.71
493.648	9698.86
494.017	9843.94
494.387	9884.84
494.757	10073.53
495.126	10089.13
495.496	10222.91
495.866	10211.84
496.235	10417.25
496.605	10530.92
496.974	10516.69
497.344	10594.65
497.713	10709.22
498.082	10806.17
498.452	10894.53
498.821	10947.86
499.19	10918.48
499.559	11056.56
499.928	11169.1
500.298	11250.45
500.667	11347.63
501.036	11399.38
501.405	11523.67
501.774	11567.96
502.143	11637.11
502.512	11669.88
502.88	11809.53
503.249	11812.02
503.618	11946.03
503.987	11998.91
504.356	12110.54
504.724	12245.45
505.093	12200.26
505.462	12283.87
505.83	12442.96
506.199	12537.42
506.567	12777.42
506.936	12616.74
507.304	12795.95
507.672	12850.18
508.041	12976.28
508.409	13053.12
508.777	13135.6
509.145	13285.88
509.514	13324.75
509.882	13481.13
510.25	13411.75
510.618	13659.2
510.986	13618.53
511.354	13783.72
511.722	13882.7
512.09	14079.76
512.458	14062.36
512.826	14187.55
513.193	14253.54
513.561	14305.06
513.929	14495.11
514.297	14622.57
514.664	14681.32
515.032	14766.97
515.4	14850.81
515.767	14882
516.135	15018.26
516.502	15037.02
516.869	15217.13
517.237	15356.56
517.604	15418.48
517.972	15553.84
518.339	15677.23
518.706	15617.8
519.073	15747.96
519.44	15873.16
519.808	16087.16
520.175	16137.78
520.542	16352.01
520.909	16515.63
521.276	16407.15
521.643	16644.66
522.009	16733.92
522.376	16876.75
522.743	16983.86
523.11	17151.54
523.477	17392.66
523.843	17482.61
524.21	17622.26
524.577	17836.49
524.943	17823.61
525.31	18053.66
525.676	18217.05
526.043	18335.92
526.409	18373.66
526.776	18528.45
527.142	18544.5
527.508	18784.49
527.874	18925.05
528.241	18999.18
528.607	19055.67
528.973	19244.82
529.339	19286.85
529.705	19459.28
530.071	19741.53
530.437	19724.81
530.803	19763
531.169	19902.43
531.535	20027.85
531.901	20014.74
532.267	20168.86
532.632	20271.23
532.998	20424.67
533.364	20574.28
533.73	20642.75
534.095	20745.57
534.461	20790.99
534.826	21003.42
535.192	21055.62
535.557	21242.96
535.923	21159.57
536.288	21350.53
536.653	21469.39
537.019	21254.03
537.384	21585.32
537.749	21572.44
538.114	21781.7
538.479	21793.45
538.845	21901.92
539.21	21877.52
539.575	22016.05
539.94	22232.76
540.305	22218.07
540.67	22197.74
541.034	22297.39
541.399	22385.08
541.764	22522.47
542.129	22585.3
542.494	22620.78
542.858	22786.42
543.223	22885.4
543.587	23007.43
543.952	23020.31
544.316	23174.88
544.681	23098.28
545.045	23187.31
545.41	23291.49
545.774	23453.52
546.138	23389.57
546.503	23528.77
546.867	23610.35
547.231	23714.31
547.595	23802.67
547.959	23830.01
548.324	23867.3
548.688	23950.68
549.052	24157.68
549.416	24153.39
549.779	24304.35
550.143	24341.63
550.507	24544.79
550.871	24562.19
551.235	24507.96
551.599	24799.7
551.962	24801.51
552.326	24848.51
552.689	25021.84
553.053	24967.38
553.417	25044.44
553.78	25455.28
554.143	25236.3
554.507	25422.74
554.87	25416.86
555.234	25706.34
555.597	25597.65
555.96	25849.84
556.323	25831.54
556.686	25911.08
557.05	26172.09
557.413	26213.68
557.776	26368.93
558.139	26487.11
558.502	26614.12
558.865	26556.94
559.228	26853.21
559.59	27012.3
559.953	27046.42
560.316	27278.28
560.679	27311.73
561.041	27513.08
561.404	27525.05
561.767	27843.46
562.129	27687.99
562.492	27961.88
562.854	27987.64
563.217	28006.17
563.579	28184.7
563.941	28355.54
564.304	28432.83
564.666	28581.75
565.028	28705.81
565.39	28791.91
565.753	28911.91
566.115	29077.33
566.477	29074.16
566.839	29299.24
567.201	29436.64
567.563	29390.09
567.925	29736.29
568.287	29630.76
568.648	29722.51
569.01	29874.82
569.372	30087.92
569.734	29968.83
570.095	30315.26
570.457	30335.37
570.819	30437.29
571.18	30624.86
571.542	30748.25
571.903	30635.25
572.265	30867.56
572.626	30981.23
572.987	31017.16
573.349	31125.86
573.71	31251.51
574.071	31369.25
574.432	31335.12
574.794	31686.53
575.155	31649.01
575.516	31486.76
575.877	31595.68
576.238	31736.47
576.599	31944.82
576.96	31946.18
577.32	31953.86
577.681	32023.24
578.042	32152.73
578.403	32160.41
578.763	32065.05
579.124	32270.92
579.485	32474.08
579.845	32422.33
580.206	32432.72
580.566	32333.97
580.927	32452.61
581.287	32570.34
581.648	32397.92
582.008	32570.57
582.368	32575.54
582.728	32580.74
583.089	32710.68
583.449	32639.04
583.809	32650.57
584.169	32710.91
584.529	32700.06
584.889	32921.97
585.249	32791.13
585.609	32623.22
585.969	32886.04
586.329	32819.6
586.688	32880.39
587.048	32771.02
587.408	32694.86
587.768	32707.29
588.127	32816.44
588.487	32726.95
588.846	32991.8
589.206	32845.59
589.565	32768.31
589.925	33047.39
590.284	32853.73
590.643	32894.4
591.003	33065.47
591.362	32975.76
591.721	32860.05
592.08	32924.23
592.44	32979.15
592.799	33043.55
593.158	33040.84
593.517	33112.93
593.876	33101.4
594.235	33040.61
594.593	33009.88
594.952	33216.2
595.311	33149.99
595.67	33091.23
596.029	33364.9
596.387	33211.01
596.746	33417.78
597.104	33113.61
597.463	33080.61
597.822	33240.38
598.18	33261.63
598.538	33124.23
598.897	33310.44
599.255	33090.33
599.613	33600.15
599.972	33404.67
600.33	33367.16
600.688	33357.89
601.046	33436.08
601.404	33495.29
601.762	33597.44
602.12	33758.56
602.478	33733.48
602.836	33650.77
603.194	33540.04
603.552	33723.53
603.91	33546.36
604.268	33693.7
604.625	33599.02
604.983	33872.68
605.341	33594.5
605.698	33711.11
606.056	33898.22
606.413	33844.43
606.771	33890.31
607.128	34030.87
607.485	33824.77
607.843	33902.74
608.2	33936.18
608.557	34100.93
608.914	34072.23
609.272	34215.05
609.629	34247.36
609.986	34366
610.343	34228.38
610.7	34522.61
611.057	34508.82
611.414	34356.29
611.771	34391.99
612.127	34499.56
612.484	34499.33
612.841	34589.95
613.198	34504.3
613.554	34453.91
613.911	34745.65
614.267	34669.95
614.624	34623.17
614.98	34719.89
615.337	34858.65
615.693	34705.88
616.05	34766.9
616.406	34875.14
616.762	34802.83
617.118	34755.37
617.475	34794.69
617.831	34923.05
618.187	34980.22
618.543	34990.85
618.899	35292.76
619.255	35163.95
619.611	34997.17
619.967	35197.17
620.323	35290.27
620.678	35187.45
621.034	35072.88
621.39	34985.65
621.746	35081.92
622.101	35391.51
622.457	35093.22
622.812	35206.43
623.168	35328.69
623.523	35344.28
623.879	35362.81
624.234	35004.63
624.589	35072.43
624.945	35263.61
625.3	35260.67
625.655	35168.47
626.01	35283.95
626.365	35224.96
626.72	35349.71
627.075	35246.88
627.43	35197.39
627.785	35060.22
628.14	35193.55
628.495	35163.5
628.85	35069.49
629.205	35196.94
629.559	35319.65
629.914	35093.89
630.269	35158.98
630.623	34940
630.978	34843.96
631.332	35048.02
631.687	34956.04
632.041	34935.25
632.396	34911.07
632.75	34681.02
633.104	34779.55
633.459	34632.66
633.813	34615.26
634.167	34559.67
634.521	34583.62
634.875	34702.49
635.229	34574.13
635.583	34467.24
635.937	34531.2
636.291	34359
636.645	34339.79
636.999	34380.47
637.352	34427.92
637.706	34269.96
638.06	34409.17
638.413	34277.19
638.767	34215.27
639.121	34160.36
639.474	33959.23
639.828	33861.38
640.181	34051.66
640.534	33972.34
640.888	33809.63
641.241	33791.78
641.594	33735.51
641.947	33867.03
642.301	33698.45
642.654	33747.04
643.007	33794.49
643.36	33747.71
643.713	33677.43
644.066	33733.48
644.419	33464.56
644.771	33246.48
645.124	33023.21
645.477	32987.96
645.83	32820.28
646.182	32641.3
646.535	32516.79
646.888	32587.52
647.24	32407.64
647.593	32550.68
647.945	32423.91
648.298	32214.87
648.65	32197.47
649.002	32128.55
649.355	32166.96
649.707	32263.69
650.059	32349.33
650.411	32668.87
650.763	32711.36
651.115	33028.86
651.467	32940.28
651.819	32852.14
652.171	32808.98
652.523	32717.68
652.875	32644.01
653.227	32670.68
653.578	32750.45
653.93	32661.87
654.282	32667.06
654.633	32498.71
654.985	32440.86
655.337	32422.33
655.688	32556.56
656.039	32631.81
656.391	32279.28
656.742	32475.43
657.094	32351.82
657.445	32400.86
657.796	32426.62
658.147	32097.59
658.498	32352.5
658.849	32429.33
659.2	32227.3
659.551	32243.12
659.902	32314.53
660.253	32137.81
660.604	32195.66
660.955	32031.38
661.306	32238.6
661.656	32090.36
662.007	32163.35
662.358	32158.38
662.708	32181.43
663.059	32075.89
663.409	31724.04
663.76	32037.93
664.11	31948.89
664.461	32115.21
664.811	32126.06
665.161	31923.81
665.511	31930.59
665.862	31947.54
666.212	31911.6
666.562	32067.08
666.912	31862.34
667.262	31755.68
667.612	31833.87
667.962	31833.87
668.312	31782.79
668.662	31947.99
669.011	31800.87
669.361	31721.78
669.711	31768.78
670.06	31745.06
670.41	31646.53
670.76	31598.62
671.109	31681.55
671.459	31609.47
671.808	31555
672.157	31572.4
672.507	31424.39
672.856	31402.47
673.205	31435.46
673.554	31542.8
673.904	31468.68
674.253	31495.8
674.602	31370.83
674.951	30981.01
675.3	30821.01
675.649	31194.79
675.998	31341.68
676.346	31276.37
676.695	31414.89
677.044	31150.04
677.393	31272.3
677.741	31249.7
678.09	31080.21
678.438	31056.26
678.787	31012.42
679.135	31110.72
679.484	31057.62
679.832	31109.14
680.181	30885.87
680.529	30983.95
680.877	30776.72
681.225	30764.97
681.573	30873.21
681.922	30699.21
682.27	30672.09
682.618	30557.06
682.966	30492.88
683.314	30610.62
683.661	30524.07
684.009	30394.58
684.357	30332.44
684.705	30369.5
685.053	30328.37
685.4	30324.08
685.748	30088.15
686.095	30059.9
686.443	29987.14
686.79	29915.05
687.138	29942.84
687.485	29989.85
687.832	29839.12
688.18	29774.26
688.527	29554.38
688.874	29665.56
689.221	29597.54
689.568	29459.01
689.915	29397.55
690.262	29351.9
690.609	29206.82
690.956	29139.25
691.303	29068.74
691.65	29090.21
691.997	29031.91
692.344	28869.88
692.69	28876.43
693.037	28780.61
693.383	28617
693.73	28694.97
694.077	28559.15
694.423	28471.24
694.769	28564.8
695.116	28391.25
695.462	28298.14
695.808	28238.03
696.155	28243.68
696.501	27999.39
696.847	27996.23
697.193	27905.38
697.539	27974.08
697.885	27864.03
698.231	27712.84
698.577	27516.01
698.923	27699.06
699.269	27525.73
699.614	27393.08
699.96	27273.53
700.306	27295.68
700.651	27213.87
700.997	27103.37
701.342	27005.74
701.688	27068.79
702.033	26915.8
702.379	26919.19
702.724	26803.26
703.069	26798.97
703.415	26598.3
703.76	26631.97
704.105	26541.8
704.45	26431.07
704.795	26331.86
705.14	26206.9
705.485	26213.45
705.83	26063.17
706.175	26136.16
706.52	26057.75
706.865	25929.84
707.209	25870.63
707.554	25776.85
707.899	25860.69
708.243	25560.36
708.588	25728.49
708.932	25476.29
709.277	25502.28
709.621	25556.97
709.966	25346.58
710.31	25364.66
710.654	25092.57
710.998	25224.77
711.342	25157.43
711.687	25196.3
712.031	25017.32
712.375	24970.32
712.719	25007.83
713.063	24901.39
713.407	25110.2
713.75	24867.04
714.094	24771.23
714.438	24720.83
714.782	24685.81
715.125	24619.37
715.469	24719.93
715.812	24478.81
716.156	24362.88
716.499	24399.26
716.843	24390.22
717.186	24144.35
717.53	24340.28
717.873	24369.43
718.216	24252.82
718.559	24213.5
718.902	23883.11
719.246	24000.17
719.589	23900.06
719.932	23787.52
720.275	23896.9
720.617	23823.91
720.96	23856
721.303	23719.5
721.646	23822.78
721.989	23596.12
722.331	23709.79
722.674	23663.69
723.016	23714.76
723.359	23566.06
723.701	23563.58
724.044	23430.25
724.386	23188.22
724.729	23442
725.071	23322.68
725.413	23293.53
725.755	23262.79
726.097	23152.29
726.439	23035.45
726.782	22973.99
727.124	23124.72
727.465	23042.46
727.807	23034.78
728.149	22886.08
728.491	22836.36
728.833	22855.8
729.175	22751.85
729.516	22802.24
729.858	22675.46
730.199	22738.96
730.541	22799.3
730.882	22661.23
731.224	22673.66
731.565	22571.51
731.906	22562.7
732.248	22596.14
732.589	22476.82
732.93	22396.37
733.271	22408.8
733.612	22379.2
733.953	22371.06
734.294	22293.78
734.635	22236.83
734.976	22290.84
735.317	22265.98
735.658	22206.1
735.999	22138.3
736.339	21998.64
736.68	22127
737.021	22036.38
737.361	21979.66
737.702	22047.68
738.042	21960.45
738.383	21968.59
738.723	21861.93
739.063	21864.41
739.404	21955.71
739.744	21792.32
740.084	21766.11
740.424	21728.82
740.764	21644.98
741.104	21715.71
741.444	21577.86
741.784	21447.92
742.124	21480.24
742.464	21594.81
742.804	21506.68
743.143	21395.72
743.483	21409.51
743.823	21276.63
744.162	21270.08
744.502	21209.74
744.841	21105.56
745.181	21266.23
745.52	21167.48
745.86	21076.41
746.199	21120.93
746.538	21105.79
746.877	21107.59
747.216	21031.89
747.556	21044.32
747.895	20970.42
748.234	20869.63
748.573	20795.29
748.911	20818.11
749.25	20897.66
749.589	20666.7
749.928	20840.03
750.267	20728.62
750.605	20615.18
750.944	20532.92
751.283	20386.03
751.621	20590.32
751.96	20455.18
752.298	20474.39
752.636	20445.92
752.975	20388.97
753.313	20285.47
753.651	20312.59
753.989	20106.94
754.327	20178.13
