Data from white_steel_sheet_FLMS001491_035.txt Node
Date: Tue Feb 07 10:57:46 GMT 2017
User: dcchb
Spectrometer: FLMS00149
Trigger mode: 0
Integration Time (sec): 2.000000E-2
Scans to average: 10
Electric dark correction enabled: true
Nonlinearity correction enabled: false
Boxcar width: 0
XAxis mode: Wavelengths
Number of Pixels in Spectrum: 2048
>>>>>Begin Spectral Data<<<<<
341.393	-11.2
341.776	-11.2
342.16	-11.2
342.543	-43.29
342.927	-55.27
343.31	-63.85
343.693	-65.66
344.077	-69.5
344.46	-61.37
344.843	-54.81
345.226	-29.5
345.61	-32.67
345.993	-19.56
346.376	0.78
346.759	9.82
347.142	31.74
347.525	38.97
347.908	73.77
348.291	61.34
348.674	69.93
349.057	110.6
349.44	124.39
349.823	141.34
350.206	175.46
350.588	209.13
350.971	212.75
351.354	221.34
351.737	255.46
352.119	248.23
352.502	284.39
352.884	292.97
353.267	272.41
353.65	273.09
354.032	288
354.414	295.91
354.797	319.41
355.179	315.34
355.562	325.51
355.944	329.58
356.326	333.2
356.709	358.06
357.091	349.02
357.473	356.25
357.855	363.48
358.238	351.05
358.62	347.66
359.002	337.27
359.384	336.59
359.766	347.66
360.148	356.7
360.53	343.14
360.912	337.72
361.294	337.94
361.676	342.24
362.057	346.98
362.439	348.34
362.821	341.56
363.203	341.78
363.584	341.33
363.966	328.68
364.348	339.07
364.729	339.98
365.111	326.64
365.493	327.1
365.874	322.12
366.256	298.17
366.637	304.72
367.019	315.8
367.4	326.64
367.781	342.01
368.163	331.16
368.544	336.14
368.925	335.01
369.306	321.67
369.688	330.49
370.069	345.17
370.45	333.65
370.831	337.04
371.212	331.84
371.593	349.47
371.974	326.87
372.355	326.42
372.736	306.76
373.117	325.74
373.498	346.76
373.879	331.84
374.26	315.12
374.641	329.36
375.021	318.73
375.402	345.63
375.783	336.59
376.163	357.15
376.544	346.53
376.925	353.76
377.305	345.4
377.686	351.95
378.066	345.4
378.447	320.54
378.827	351.28
379.208	350.37
379.588	344.04
379.968	324.84
380.349	366.64
380.729	356.02
381.109	340.88
381.489	375.23
381.87	391.73
382.25	338.62
382.63	366.64
383.01	366.64
383.39	376.81
383.77	385.63
384.15	378.62
384.53	381.78
384.91	380.88
385.29	403.48
385.67	379.52
386.049	391.73
386.429	371.16
386.809	360.09
387.189	384.27
387.568	414.78
387.948	396.7
388.328	417.72
388.707	401.67
389.087	391.5
389.466	420.88
389.846	412.07
390.225	409.35
390.605	421.56
390.984	412.52
391.363	431.27
391.743	436.25
392.122	459.97
392.501	420.88
392.881	426.08
393.26	451.61
393.639	463.14
394.018	447.77
394.397	453.19
394.776	480.54
395.155	480.31
395.534	448
395.913	499.97
396.292	470.82
396.671	513.76
397.05	496.13
397.429	488.67
397.808	524.6
398.186	505.17
398.565	515.79
398.944	509.46
399.323	530.93
399.701	529.35
400.08	529.35
400.458	543.59
400.837	559.86
401.215	551.5
401.594	575.45
401.972	581.78
402.351	589.69
402.729	592.63
403.107	611.16
403.486	596.02
403.864	601.66
404.242	640.31
404.62	638.95
404.999	624.72
405.377	640.53
405.755	655.9
406.133	656.13
406.511	676.01
406.889	690.93
407.267	702.91
407.645	713.98
408.023	704.04
408.401	725.73
408.779	724.37
409.156	735.9
409.534	752.4
409.912	778.84
410.29	788.78
410.667	778.84
411.045	809.34
411.422	812.05
411.8	827.42
412.178	830.13
412.555	871.04
412.933	857.25
413.31	880.75
413.687	873.3
414.065	876.46
414.442	894.54
414.819	923.46
415.197	934.76
415.574	953.75
415.951	957.59
416.328	977.93
416.705	961.88
417.082	981.54
417.46	984.03
417.837	1000.52
418.214	1011.6
418.591	1014.99
418.967	1009.79
419.344	1033.74
419.721	1059.05
420.098	1069.9
420.475	1071.03
420.852	1062.22
421.228	1093.63
421.605	1092.73
421.982	1132.05
422.358	1144.48
422.735	1171.59
423.111	1148.32
423.488	1165.94
423.864	1163.23
424.241	1160.29
424.617	1198.71
424.994	1210.69
425.37	1226.51
425.746	1232.61
426.123	1262.44
426.499	1259.73
426.875	1253.4
427.251	1294.98
427.627	1324.58
428.003	1334.3
428.379	1328.2
428.756	1346.05
429.132	1390.12
429.507	1389.44
429.883	1412.27
430.259	1431.47
430.635	1468.53
431.011	1453.17
431.387	1485.48
431.763	1537.23
432.138	1501.08
432.514	1535.43
432.89	1530
433.265	1564.58
433.641	1621.3
434.016	1602.99
434.392	1648.87
434.767	1695.87
435.143	1660.85
435.518	1717.79
435.894	1693.16
436.269	1744.91
436.644	1775.87
437.02	1755.98
437.395	1812.48
437.77	1815.64
438.145	1835.98
438.52	1864.91
438.895	1886.83
439.271	1895.19
439.646	1930.44
440.021	1936.55
440.395	1953.72
440.77	1940.84
441.145	1964.12
441.52	2006.37
441.895	1985.81
442.27	2031.68
442.645	2034.85
443.019	2062.19
443.394	2031.01
443.769	2087.73
444.143	2067.16
444.518	2131.79
444.892	2122.98
445.267	2148.97
445.641	2188.97
446.016	2151.68
446.39	2226.71
446.764	2212.7
447.139	2224.22
447.513	2246.59
447.887	2253.37
448.262	2281.85
448.636	2284.78
449.01	2340.15
449.384	2340.15
449.758	2372.01
450.132	2351.68
450.506	2395.97
450.88	2401.62
451.254	2423.76
451.628	2453.82
452.002	2478.9
452.376	2525.91
452.75	2562.97
453.123	2536.3
453.497	2555.74
453.871	2629.18
454.244	2663.08
454.618	2653.81
454.992	2709.18
455.365	2709.63
455.739	2765.45
456.112	2794.38
456.486	2817.65
456.859	2848.39
457.232	2914.15
457.606	2906.46
457.979	2952.11
458.352	2986.69
458.725	3066.23
459.099	3032.34
459.472	3178.77
459.845	3172.67
460.218	3177.64
460.591	3184.87
460.964	3209.05
461.337	3317.75
461.71	3359.78
462.083	3392.1
462.456	3385.77
462.829	3446.56
463.201	3502.61
463.574	3503.06
463.947	3515.26
464.32	3618.99
464.692	3621.47
465.065	3695.37
465.438	3712.77
465.81	3774.01
466.183	3810.17
466.555	3874.35
466.928	3915.93
467.3	3885.65
467.672	3956.38
468.045	4071.4
468.417	4132.87
468.789	4128.8
469.161	4188.01
469.534	4239.76
469.906	4286.31
470.278	4343.26
470.65	4433.43
471.022	4513.65
471.394	4568.57
471.766	4597.94
472.138	4670.94
472.51	4794.1
472.882	4801.1
473.253	4849.24
473.625	4963.58
473.997	5072.51
474.369	5098.95
474.74	5147.99
475.112	5214.2
475.484	5368.77
475.855	5409.22
476.227	5406.28
476.598	5580.74
476.97	5700.29
477.341	5810.34
477.713	5877.46
478.084	5920.4
478.455	6080.84
478.827	6123.33
479.198	6341.85
479.569	6334.4
479.94	6499.14
480.311	6507.72
480.682	6707.49
481.053	6795.85
481.424	6937.77
481.795	7040.14
482.166	7083.3
482.537	7227.03
482.908	7371.43
483.279	7421.82
483.65	7592.89
484.021	7733.91
484.391	7839.67
484.762	7873.56
485.133	7984.3
485.503	8054.8
485.874	8220
486.244	8242.37
486.615	8497.5
486.985	8622.92
487.356	8724.39
487.726	8730.49
488.097	8989.69
488.467	9043.7
488.837	9218.84
489.207	9371.15
489.578	9469.68
489.948	9506.97
490.318	9711.26
490.688	9715.78
491.058	9865.38
491.428	9945.37
491.798	10074.41
492.168	10299.26
492.538	10363.67
492.908	10487.28
493.278	10651.34
493.648	10626.49
494.017	10813.83
494.387	10920.26
494.757	11001.39
495.126	11049.75
495.496	11122.97
495.866	11260.37
496.235	11408.61
496.605	11506.69
496.974	11470.53
497.344	11621.26
497.713	11694.71
498.082	11860.58
498.452	12023.74
498.821	12031.42
499.19	12105.32
499.559	12252.66
499.928	12246.56
500.298	12385.99
500.667	12618.07
501.036	12482.03
501.405	12743.49
501.774	12619.43
502.143	12815.13
502.512	12886.31
502.88	13001.79
503.249	13060.77
503.618	13136.48
503.987	13234.78
504.356	13313.87
504.724	13464.83
505.093	13446.3
505.462	13589.8
505.83	13623.02
506.199	13802.45
506.567	14030.46
506.936	13999.05
507.304	14126.73
507.672	14174.64
508.041	14221.42
508.409	14349.33
508.777	14547.96
509.145	14655.76
509.514	14653.05
509.882	14809.43
510.25	14780.05
510.618	15119.48
510.986	15111.79
511.354	15242.18
511.722	15375.06
512.09	15547.71
512.458	15505.45
512.826	15557.66
513.193	15733.7
513.561	15863.64
513.929	15931.66
514.297	16157.64
514.664	16312.21
515.032	16304.98
515.4	16455.26
515.767	16550.4
516.135	16709.94
516.502	16615.26
516.869	16996.94
517.237	17029.03
517.604	16946.32
517.972	17262.02
518.339	17367.55
518.706	17350.38
519.073	17576.36
519.44	17614.55
519.808	17949.01
520.175	17883.92
520.542	18170.02
520.909	18223.12
521.276	18350.35
521.643	18475.55
522.009	18636.9
522.376	18760.51
522.743	18932.93
523.11	19078.69
523.477	19265.13
523.843	19371.11
524.21	19620.6
524.577	19723.2
524.943	19903.53
525.31	19860.59
525.676	20239.57
526.043	20279.34
526.409	20425.1
526.776	20648.82
527.142	20624.19
527.508	20903.05
527.874	21050.84
528.241	21011.98
528.607	21190.28
528.973	21492.42
529.339	21378.75
529.705	21623.26
530.071	21828.23
530.437	21901.44
530.803	22071.16
531.169	22221.44
531.535	22235.9
531.901	22321.32
532.267	22462.11
532.632	22614.19
532.998	22657.36
533.364	22846.73
533.73	22864.58
534.095	23079.27
534.461	23195.65
534.826	23273.61
535.192	23424.34
535.557	23612.59
535.923	23610.78
536.288	23679.7
536.653	23819.59
537.019	23866.82
537.384	23950.66
537.749	24101.39
538.114	24175.51
538.479	24175.73
538.845	24421.38
539.21	24302.96
539.575	24417.31
539.94	24515.61
540.305	24727.58
540.67	24713.35
541.034	24904.3
541.399	24966.9
541.764	25050.51
542.129	25108.59
542.494	25228.14
542.858	25328.47
543.223	25454.34
543.587	25552.87
543.952	25465.87
544.316	25676.94
544.681	25583.83
545.045	25860.66
545.41	25918.97
545.774	26079.87
546.138	26100.43
546.503	26127.55
546.867	26231.95
547.231	26396.92
547.595	26405.73
547.959	26526.86
548.324	26568.89
548.688	26746.74
549.052	26790.58
549.416	26742.45
549.779	26827.64
550.143	26960.07
550.507	27094.75
550.871	27165.71
551.235	27088.88
551.599	27454.74
551.962	27550.79
552.326	27568.64
552.689	27693.83
553.053	27676.21
553.417	27873.72
553.78	27994.39
554.143	28074.39
554.507	28170.21
554.87	28292.69
555.234	28541.5
555.597	28388.05
555.96	28474.38
556.323	28745.56
556.686	28744.65
557.05	28956.63
557.413	29113.23
557.776	29080.69
558.139	29288.14
558.502	29387.8
558.865	29332.43
559.228	29646.1
559.59	29760.22
559.953	29742.37
560.316	30153.88
560.679	30213.32
561.041	30512.29
561.404	30456.02
561.767	30647.2
562.129	30561.78
562.492	30886.74
562.854	30853.75
563.217	30959.28
563.579	31055.33
563.941	31197.24
564.304	31378.71
564.666	31659.61
565.028	31653.28
565.39	31769.21
565.753	31910.67
566.115	32081.06
566.477	32203.09
566.839	32244
567.201	32341.17
567.563	32463.65
567.925	32683.31
568.287	32661.39
568.648	32773.47
569.01	32861.61
569.372	33202.39
569.734	33047.59
570.095	33311.31
570.457	33435.38
570.819	33466.56
571.18	33450.07
571.542	33757.18
571.903	33759.89
572.265	33841.69
572.626	33946.1
572.987	34068.58
573.349	34193.78
573.71	34371.17
574.071	34356.26
574.432	34383.6
574.794	34697.94
575.155	34586.76
575.516	34421.79
575.877	34626.31
576.238	34768
576.599	34844.83
576.96	34814.1
577.32	34950.37
577.681	34965.06
578.042	35026.3
578.403	34986.3
578.763	35010.48
579.124	35265.39
579.485	35258.15
579.845	35320.98
580.206	35226.74
580.566	35269
580.927	35320.53
581.287	35460.64
581.648	35348.32
582.008	35528.66
582.368	35541.54
582.728	35486.85
583.089	35574.98
583.449	35514.65
583.809	35624.47
584.169	35589.9
584.529	35480.07
584.889	35815.2
585.249	35498.37
585.609	35425.38
585.969	35675.55
586.329	35478.49
586.688	35660.18
587.048	35686.17
587.408	35523.68
587.768	35652.27
588.127	35613.17
588.487	35577.24
588.846	35816.33
589.206	35599.61
589.565	35543.57
589.925	35838.25
590.284	35731.36
590.643	35667.41
591.003	35678.71
591.362	35837.8
591.721	35704.47
592.08	35604.36
592.44	35727.97
592.799	35699.27
593.158	35728.88
593.517	35713.28
593.876	35732.72
594.235	35743.57
594.593	35673.29
594.952	35905.6
595.311	35548.32
595.67	35722.55
596.029	35877.57
596.387	35924.13
596.746	35900.85
597.104	35790.12
597.463	35739.27
597.822	35883
598.18	35709.44
598.538	35805.03
598.897	36020.17
599.255	35741.53
599.613	36253.38
599.972	35943.56
600.33	35982.66
600.688	35992.37
601.046	36219.26
601.404	36122.09
601.762	35986.27
602.12	36188.53
602.478	36171.8
602.836	36254.96
603.194	35813.17
603.552	36117.79
603.91	35970.45
604.268	36166.38
604.625	36049.32
604.983	36264.91
605.341	35925.71
605.698	36255.42
606.056	36288.41
606.413	36331.35
606.771	36373.38
607.128	36366.83
607.485	36286.38
607.843	36276.66
608.2	36445.24
608.557	36565.92
608.914	36384.9
609.272	36660.83
609.629	36684.33
609.986	36567.05
610.343	36510.55
610.7	36947.38
611.057	36781.5
611.414	36876.87
611.771	36790.09
612.127	36947.38
612.484	36933.37
612.841	36930.65
613.198	36857.89
613.554	36905.57
613.911	37154.15
614.267	37071.21
614.624	36989.18
614.98	37053.59
615.337	37333.81
615.693	37373.81
616.05	37160.25
616.406	37433.69
616.762	37235.28
617.118	37254.49
617.475	37257.2
617.831	37501.71
618.187	37377.65
618.543	37533.35
618.899	37752.33
619.255	37480.24
619.611	37729.95
619.967	37567.25
620.323	37708.71
620.678	37482.73
621.034	37480.47
621.39	37479.79
621.746	37607.7
622.101	38141.24
622.457	37630.07
622.812	37709.39
623.168	37872.32
623.523	37848.82
623.879	37967.24
624.234	37540.58
624.589	37708.94
624.945	37754.59
625.3	37844.53
625.655	37731.54
626.01	37905.99
626.365	37793.68
626.72	37733.34
627.075	37827.13
627.43	37808.14
627.785	37619.9
628.14	37718.88
628.495	37786.45
628.85	37680.69
629.205	37688.15
629.559	37829.16
629.914	37531.99
630.269	37743.29
630.623	37535.16
630.978	37555.5
631.332	37696.96
631.687	37708.03
632.041	37569.51
632.396	37521.37
632.75	37449.96
633.104	37465.33
633.459	37299.23
633.813	37324.09
634.167	37384.43
634.521	37192.57
634.875	37277.31
635.229	37183.98
635.583	37075.96
635.937	37020.14
636.291	37040.25
636.645	37079.8
636.999	36897.89
637.352	37002.97
637.706	36805.68
638.06	36933.14
638.413	36803.2
638.767	36613.15
639.121	36678.46
639.474	36410.44
639.828	36385.81
640.181	36580.38
640.534	36534.51
640.888	36313.27
641.241	36350.78
641.594	36395.53
641.947	36449.54
642.301	36257
642.654	36244.12
643.007	36251.8
643.36	36189.2
643.713	36152.59
644.066	36115.53
644.419	36061.07
644.771	35769.1
645.124	35388.55
645.477	35303.13
645.83	35006.41
646.182	34940.88
646.535	34855.91
646.888	34946.52
647.24	34721.67
647.593	35003.25
647.945	34859.97
648.298	34770.71
648.65	34737.72
649.002	34578.4
649.355	34825.85
649.707	34648.68
650.059	34776.59
650.411	35090.48
650.763	35165.73
651.115	35539.28
651.467	35367.3
651.819	35320.75
652.171	35358.72
652.523	35179.29
652.875	35231.26
653.227	35105.84
653.578	35394.42
653.93	35163.02
654.282	35104.71
654.633	35013.87
654.985	35123.02
655.337	34999.18
655.688	35013.42
656.039	35065.39
656.391	34788.79
656.742	34834.66
657.094	34819.75
657.445	34951.72
657.796	34922.12
658.147	34725.97
658.498	34895.23
658.849	34828.56
659.2	34646.42
659.551	34525.52
659.902	34674.44
660.253	34566.65
660.604	34575.69
660.955	34364.39
661.306	34460.44
661.656	34337.05
662.007	34350.83
662.358	34271.51
662.708	34228.35
663.059	34236.49
663.409	34033.33
663.76	34207.11
664.11	34210.72
664.461	34013.67
664.811	34032.2
665.161	34076.49
665.511	33883.05
665.862	33937.74
666.212	33835.82
666.562	33909.04
666.912	33720.12
667.262	33714.24
667.612	33506.79
667.962	33553.11
668.312	33332.78
668.662	33428.15
669.011	33281.71
669.361	33189.51
669.711	33117.19
670.06	33133.92
670.41	32953.36
670.76	32934.15
671.109	33034.03
671.459	32978.44
671.808	32645.34
672.157	32703.87
672.507	32513.37
672.856	32471.34
673.205	32449.64
673.554	32514.72
673.904	32448.51
674.253	32550.2
674.602	32417.33
674.951	31930.78
675.3	31830
675.649	32157.45
675.998	32074.96
676.346	32238.12
676.695	32250.1
677.044	31995.87
677.393	32013.95
677.741	32025.7
678.09	31957.22
678.438	31831.8
678.787	32030.22
679.135	31920.16
679.484	31817.79
679.832	31874.06
680.181	31763.56
680.529	31735.08
680.877	31725.82
681.225	31709.77
681.573	32069.76
681.922	31816.66
682.27	31773.27
682.618	31762.43
682.966	31707.29
683.314	31805.14
683.661	31773.05
684.009	31682.66
684.357	31586.84
684.705	31546.16
685.053	31631.58
685.4	31596.1
685.748	31467.75
686.095	31597.69
686.443	31537.57
686.79	31478.37
687.138	31636.56
687.485	31608.31
687.832	31417.58
688.18	31526.28
688.527	31505.94
688.874	31432.72
689.221	31460.06
689.568	31361.31
689.915	31386.39
690.262	31442.21
690.609	31358.14
690.956	31277.92
691.303	31293.29
691.65	31163.12
691.997	31269.56
692.344	31080.19
692.69	31128.09
693.037	31093.07
693.383	30740.99
693.73	31053.52
694.077	30905.5
694.423	30899.17
694.769	30890.81
695.116	30832.28
695.462	30741.89
695.808	30699.18
696.155	30878.38
696.501	30540.31
696.847	30669.12
697.193	30333.99
697.539	30534.44
697.885	30284.5
698.231	30254.44
698.577	30154.11
698.923	30146.2
699.269	30145.29
699.614	30031.4
699.96	29940.55
700.306	29961.8
700.651	29733.1
700.997	29687.45
701.342	29780.33
701.688	29657.4
702.033	29587.8
702.379	29600.9
702.724	29445.43
703.069	29452.21
703.415	29152.55
703.76	29201.36
704.105	29061.71
704.45	29161.37
704.795	28993.23
705.14	28945.1
705.485	28915.27
705.83	28845.67
706.175	28747.82
706.52	28694.26
706.865	28593.25
707.209	28599.12
707.554	28659.91
707.899	28562.29
708.243	28378.34
708.588	28339.92
708.932	28212.69
709.277	28140.38
709.621	28181.05
709.966	28052.47
710.31	27981.51
710.654	27817.9
710.998	27908.29
711.342	27962.53
711.687	27862.64
712.031	27681.18
712.375	27537.45
712.719	27685.92
713.063	27610.67
713.407	27640.95
713.75	27425.82
714.094	27465.82
714.438	27252.72
714.782	27385.37
715.125	27185.6
715.469	27269.89
715.812	27147.41
716.156	27014.3
716.499	27004.13
716.843	27067.41
717.186	26908.32
717.53	26900.18
717.873	26902.89
718.216	26904.7
718.559	26754.88
718.902	26551.49
719.246	26561.43
719.589	26633.52
719.932	26589.23
720.275	26480.08
720.617	26412.74
720.96	26360.31
721.303	26346.52
721.646	26289.58
721.989	26285.74
722.331	26319.41
722.674	26146.98
723.016	26214.32
723.359	26115.57
723.701	26054.78
724.044	25952.18
724.386	25831.51
724.729	25941.56
725.071	25815.24
725.413	25786.77
725.755	25752.87
726.097	25783.38
726.439	25555.13
726.782	25580.9
727.124	25747.22
727.465	25564.17
727.807	25530.5
728.149	25466.55
728.491	25392.43
728.833	25447.57
729.175	25349.94
729.516	25351.52
729.858	25245.31
730.199	25204.41
730.541	25129.16
730.882	25139.55
731.224	25282.37
731.565	24986.79
731.906	24968.48
732.248	24961.7
732.589	24899.56
732.93	24790.18
733.271	24716.29
733.612	24858.2
733.953	24868.6
734.294	24705.89
734.635	24723.74
734.976	24848.03
735.317	24565.78
735.658	24592.67
735.999	24558.78
736.339	24498.89
736.68	24552.45
737.021	24401.72
737.361	24346.13
737.702	24438.1
738.042	24282.62
738.383	24230.2
738.723	24373.7
739.063	24167.37
739.404	24288.73
739.744	24243.98
740.084	24159.69
740.424	24137.77
740.764	24119.01
741.104	24114.72
741.444	23948.85
741.784	23930.54
742.124	23949.75
742.464	23797.44
742.804	23988.85
743.143	23790.89
743.483	23800.83
743.823	23657.1
744.162	23787.27
744.502	23644.67
744.841	23596.09
745.181	23691.91
745.52	23464.79
745.86	23541.63
746.199	23517.67
746.538	23425.7
746.877	23450.78
747.216	23379.6
747.556	23387.28
747.895	23453.72
748.234	23238.81
748.573	23216.21
748.911	23305.47
749.25	23252.59
749.589	22988.65
749.928	23087.18
750.267	23126.5
750.605	23024.58
750.944	23000.62
751.283	22797.47
751.621	22970.12
751.96	22799.5
752.298	22824.58
752.636	22744.13
752.975	22647.41
753.313	22589.34
753.651	22624.59
753.989	22509.79
