Data from White_reflection_standard_FLMS001491_079.txt Node
Date: Tue Feb 07 10:32:11 GMT 2017
User: dcchb
Spectrometer: FLMS00149
Trigger mode: 0
Integration Time (sec): 2.000000E-2
Scans to average: 10
Electric dark correction enabled: true
Nonlinearity correction enabled: false
Boxcar width: 0
XAxis mode: Wavelengths
Number of Pixels in Spectrum: 2048
>>>>>Begin Spectral Data<<<<<
341.393	-9.25
341.776	-9.25
342.16	-9.25
342.543	-47.89
342.927	-53.09
343.31	-50.61
343.693	-79.31
344.077	-68.46
344.46	-62.81
344.843	-50.61
345.226	-68.91
345.61	-19.65
345.993	-28.01
346.376	-6.99
346.759	13.12
347.142	27.36
347.525	61.48
347.908	59.45
348.291	72.1
348.674	88.15
349.057	113.68
349.44	123.85
349.823	132.89
350.206	164.08
350.588	239.1
350.971	248.14
351.354	244.53
351.737	282.49
352.119	301.93
352.502	300.8
352.884	309.38
353.267	339.89
353.65	347.35
354.032	328.59
354.414	368.59
354.797	364.98
355.179	371.53
355.562	354.81
355.944	369.27
356.326	390.51
356.709	404.3
357.091	393.45
357.473	411.08
357.855	414.92
358.238	396.61
358.62	397.74
359.002	402.04
359.384	380.8
359.766	396.61
360.148	408.36
360.53	393.45
360.912	410.4
361.294	413.56
361.676	406.56
362.057	410.62
362.439	387.35
362.821	409.95
363.203	418.31
363.584	393.9
363.966	414.92
364.348	416.27
364.729	406.11
365.111	420.34
365.493	396.39
365.874	407.24
366.256	419.89
366.637	429.61
367.019	401.81
367.4	413.56
367.781	419.21
368.163	400.46
368.544	431.42
368.925	415.14
369.306	438.87
369.688	420.34
370.069	423.73
370.45	441.58
370.831	428.7
371.212	442.49
371.593	443.17
371.974	428.48
372.355	440.45
372.736	440.68
373.117	455.37
373.498	424.64
373.879	465.76
374.26	451.98
374.641	425.54
375.021	433.9
375.402	463.05
375.783	469.83
376.163	510.06
376.544	510.51
376.925	496.72
377.305	478.87
377.686	463.5
378.066	464.63
378.447	525.42
378.827	504.18
379.208	506.22
379.588	509.38
379.968	514.8
380.349	516.61
380.729	541.47
381.109	515.71
381.489	521.13
381.87	548.47
382.25	542.82
382.63	572.2
383.01	554.8
383.39	564.07
383.77	560.45
384.15	576.5
384.53	578.98
384.91	579.21
385.29	628.25
385.67	600.45
386.049	595.93
386.429	610.39
386.809	612.2
387.189	632.99
387.568	609.94
387.948	651.3
388.328	644.97
388.707	661.01
389.087	667.79
389.466	683.16
389.846	692.2
390.225	679.32
390.605	684.97
390.984	683.61
391.363	700.33
391.743	710.28
392.122	730.16
392.501	741.01
392.881	713.44
393.26	745.31
393.639	748.47
394.018	775.59
394.397	761.35
394.776	767.45
395.155	797.06
395.534	778.98
395.913	808.81
396.292	808.13
396.671	820.78
397.05	844.06
397.429	816.26
397.808	832.53
398.186	874.79
398.565	871.4
398.944	868.01
399.323	873.89
399.701	868.69
400.08	883.83
400.458	910.05
400.837	906.43
401.215	910.05
401.594	923.38
401.972	934.23
402.351	952.76
402.729	965.41
403.107	984.62
403.486	996.6
403.864	996.82
404.242	995.69
404.62	1005.19
404.999	1015.13
405.377	1023.94
405.755	1076.37
406.133	1058.74
406.511	1084.96
406.889	1098.52
407.267	1100.1
407.645	1112.98
408.023	1137.84
408.401	1141.45
408.779	1156.82
409.156	1183.26
409.534	1197.95
409.912	1226.65
410.29	1219.87
410.667	1251.51
411.045	1286.53
411.422	1282.69
411.8	1314.1
412.178	1309.81
412.555	1357.27
412.933	1374.67
413.31	1397.04
413.687	1409.69
414.065	1375.35
414.442	1428.68
414.819	1442.91
415.197	1445.17
415.574	1482.91
415.951	1474.55
416.328	1507.55
416.705	1534.44
417.082	1521.1
417.46	1558.39
417.837	1574.89
418.214	1574.21
418.591	1597.03
418.967	1606.75
419.344	1640.2
419.721	1658.05
420.098	1655.11
420.475	1685.39
420.852	1686.98
421.228	1753.87
421.605	1705.51
421.982	1766.07
422.358	1782.11
422.735	1799.97
423.111	1802.45
423.488	1848.1
423.864	1894.43
424.241	1892.17
424.617	1896.69
424.994	1909.79
425.37	1916.57
425.746	1958.83
426.123	2000.87
426.499	2023.92
426.875	2033.41
427.251	2070.02
427.627	2118.6
428.003	2124.48
428.379	2161.99
428.756	2177.36
429.132	2200.41
429.507	2228.2
429.883	2270.24
430.259	2306.17
430.635	2309.56
431.011	2349.1
431.387	2390.01
431.763	2423.68
432.138	2505.48
432.514	2480.4
432.89	2515.2
433.265	2536.67
433.641	2613.05
434.016	2639.49
434.392	2669.77
434.767	2687.4
435.143	2728.3
435.518	2740.51
435.894	2787.74
436.269	2804.91
436.644	2857.79
437.02	2892.37
437.395	2918.13
437.77	2964.46
438.145	3021.4
438.52	2988.18
438.895	3081.29
439.271	3078.35
439.646	3184.11
440.021	3173.26
440.395	3156.77
440.77	3143.66
441.145	3190.44
441.52	3291.45
441.895	3304.33
442.27	3307.27
442.645	3356.31
443.019	3368.51
443.394	3349.53
443.769	3438.57
444.143	3411.22
444.518	3446.25
444.892	3458.91
445.267	3492.35
445.641	3528.51
446.016	3573.93
446.39	3591.33
446.764	3611.44
447.139	3610.31
447.513	3680.14
447.887	3655.06
448.262	3716.53
448.636	3720.14
449.01	3791.55
449.384	3842.85
449.758	3855.96
450.132	3871.1
450.506	3907.26
450.88	3938.89
451.254	3979.8
451.628	4012.56
452.002	4094.14
452.376	4119.23
452.75	4177.31
453.123	4170.98
453.497	4194.25
453.871	4283.52
454.244	4384.98
454.618	4421.37
454.992	4471.31
455.365	4429.73
455.739	4573
456.112	4642.15
456.486	4662.26
456.859	4699.1
457.232	4827.68
457.606	4810.74
457.979	4873.11
458.352	4967.34
458.725	5043.05
459.099	5077.85
459.472	5172.76
459.845	5262.47
460.218	5251.4
460.591	5325.98
460.964	5365.3
461.337	5489.81
461.71	5526.42
462.083	5617.72
462.456	5725.97
462.829	5677.6
463.201	5828.11
463.574	5814.32
463.947	5907.2
464.32	6056.13
464.692	6061.78
465.065	6104.94
465.438	6251.15
465.81	6296.8
466.183	6429
466.555	6504.02
466.928	6560.97
467.3	6558.26
467.672	6646.62
468.045	6865.82
468.417	6871.47
468.789	6928.42
469.161	7052.48
469.534	7155.08
469.906	7360.27
470.278	7437.11
470.65	7436.2
471.022	7597.55
471.394	7812.24
471.766	7866.47
472.138	7937.21
472.51	8109.18
472.882	8262.85
473.253	8318.44
473.625	8405.22
473.997	8600.69
474.369	8626
474.74	8819.67
475.112	8963.85
475.484	9049.04
475.855	9288.81
476.227	9410.84
476.598	9642.92
476.97	9616.03
477.341	9915.46
477.713	10061.22
478.084	10142.57
478.455	10371.49
478.827	10512.96
479.198	10789.11
479.569	10793.63
479.94	11125.82
480.311	11223.22
480.682	11467.96
481.053	11699.82
481.424	11936.42
481.795	11927.16
482.166	12219.35
482.537	12450.76
482.908	12699.12
483.279	12808.26
483.65	13082.83
484.021	13301.13
484.391	13412.32
484.762	13537.51
485.133	13674
485.503	13894.34
485.874	14194.9
486.244	14416.58
486.615	14607.31
486.985	14736.35
487.356	15134.98
487.726	15190.35
488.097	15470.57
488.467	15508.31
488.837	15988.52
489.207	16100.16
489.578	16338.34
489.948	16399.81
490.318	16770.19
490.688	16763.64
491.058	17095.84
491.428	17269.84
491.798	17364.98
492.168	17730.85
492.538	17911.41
492.908	18054.45
493.278	18316.14
493.648	18369.7
494.017	18660.31
494.387	18770.82
494.757	18875
495.126	19122
495.496	19163.8
495.866	19392.72
496.235	19636.56
496.605	19691.47
496.974	19876.33
497.344	20089.2
497.713	20175.75
498.082	20345.92
498.452	20590.66
498.821	20725.12
499.19	20674.95
499.559	21057.54
499.928	21104.54
500.298	21216.86
500.667	21509.96
501.036	21552.89
501.405	21726.22
501.774	21935.03
502.143	21971.41
502.512	22046.67
502.88	22403.27
503.249	22318.07
503.618	22511.06
503.987	22674.22
504.356	22847.32
504.724	22926.42
505.093	23079.41
505.462	23178.16
505.83	23310.14
506.199	23616.34
506.567	23914.41
506.936	23959.16
507.304	24254.97
507.672	24338.13
508.041	24414.29
508.409	24619.71
508.777	24805.01
509.145	25042.29
509.514	25096.53
509.882	25305.56
510.25	25331.55
510.618	25534.03
510.986	25553.47
511.354	25998.65
511.722	26133.56
512.09	26350.96
512.458	26385.08
512.826	26659.88
513.193	26936.26
513.561	26975.35
513.929	27120.88
514.297	27472.06
514.664	27622.56
515.032	27745.95
515.4	27929
515.767	28110.46
516.135	28366.95
516.502	28178.93
516.869	28776.88
517.237	28811.01
517.604	28813.95
517.972	29144.56
518.339	29388.85
518.706	29448.51
519.073	29718.55
519.44	29856.63
519.808	30327.8
520.175	30210.75
520.542	30723.05
520.909	30869.26
521.276	30885.76
521.643	31203.49
522.009	31520.77
522.376	31684.15
522.743	31932.06
523.11	32233.97
523.477	32586.05
523.843	32758.02
524.21	33038.02
524.577	33153.72
524.943	33427.84
525.31	33576.98
525.676	33898.11
526.043	34282.5
526.409	34229.62
526.776	34862.6
527.142	34742.83
527.508	35071.41
527.874	35268.24
528.241	35425.75
528.607	35602.02
528.973	35964.04
529.339	36013.53
529.705	36295.33
530.071	36663.91
530.437	36841.08
530.803	36975.54
531.169	37222.76
531.535	37289.88
531.901	37469.31
532.267	37615.52
532.632	37836.99
532.998	38063.87
533.364	38221.38
533.73	38301.15
534.095	38669.05
534.461	38832.67
534.826	38975.03
535.192	38991.53
535.557	39213.9
535.923	39276.72
536.288	39573.89
536.653	39601.91
537.019	39618.86
537.384	39902.24
537.749	40169.58
538.114	40262.01
538.479	40379.74
538.845	40497.71
539.21	40463.58
539.575	40770.69
539.94	40742.9
540.305	41040.52
540.67	41193.96
541.034	41328.19
541.399	41477.34
541.764	41450.45
542.129	41683.66
542.494	41840.27
542.858	41932.24
543.223	42074.39
543.587	42336.08
543.952	42203.2
544.316	42502.4
544.681	42521.83
545.045	42833.46
545.41	42896.51
545.774	42981.71
546.138	43115.49
546.503	43305.54
546.867	43193.68
547.231	43677.28
547.595	43712.09
547.959	43860.56
548.324	43898.52
548.688	43939.2
549.052	44227.33
549.416	44249.7
549.779	44490.6
550.143	44590.03
550.507	44827.99
550.871	44989.34
551.235	44867.53
551.599	45241.99
551.962	45431.14
552.326	45533.96
552.689	45763.1
553.053	45676.1
553.417	45792.48
553.78	46209.42
554.143	46091.23
554.507	46323.54
554.87	46514.72
555.234	46761.5
555.597	46542.52
555.96	46914.94
556.323	47187.93
556.686	47216.4
557.05	47588.37
557.413	47566.45
557.776	47599.89
558.139	47986.55
558.502	48041.69
558.865	48176.37
559.228	48408.01
559.59	48549.47
559.953	48605.29
560.316	48975.9
560.679	49079.63
561.041	49329.11
561.404	49403.23
561.767	49671.48
562.129	49571.59
562.492	49975.42
562.854	49906.05
563.217	50032.37
563.579	50151.92
563.941	50486.37
564.304	50574.96
564.666	50850.43
565.028	50810.2
565.39	50989.86
565.753	51085.68
566.115	51234.6
566.477	51321.6
566.839	51443.63
567.201	51738.31
567.563	51707.58
567.925	52016.95
568.287	51994.13
568.648	52016.95
569.01	52239.09
569.372	52377.85
569.734	52304.63
570.095	52630.04
570.457	52713.43
570.819	52841.79
571.18	52833.43
571.542	52887.21
571.903	53017.15
572.265	53085.62
572.626	53218.5
572.987	53311.61
573.349	53385.05
573.71	53499.17
574.071	53547.76
574.432	53581.2
574.794	53851.03
575.155	53844.93
575.516	53735.32
575.877	53900.97
576.238	53906.62
576.599	54121.53
576.96	54085.82
577.32	54067.52
577.681	54312.26
578.042	54334.18
578.403	54305.03
578.763	54333.05
579.124	54359.04
579.485	54469.09
579.845	54611.23
580.206	54443.1
580.566	54523.55
580.927	54615.98
581.287	54689.65
581.648	54563.78
582.008	54707.28
582.368	54702.53
582.728	54717.22
583.089	54654.4
583.449	54663.21
583.809	54751.57
584.169	54778.23
584.529	54814.39
584.889	54963.77
585.249	54768.97
585.609	54705.24
585.969	54931.9
586.329	54659.82
586.688	54831.34
587.048	54826.82
587.408	54754.05
587.768	54846.48
588.127	54837.67
588.487	54699.59
588.846	54945.91
589.206	54714.96
589.565	54815.97
589.925	54920.38
590.284	54826.14
590.643	54831.11
591.003	54975.07
591.362	54976.87
591.721	54875.18
592.08	54961.05
592.44	54989.75
592.799	54993.82
593.158	54886.25
593.517	54940.04
593.876	54949.53
594.235	54947.72
594.593	55017.55
594.952	55105.91
595.311	54902.07
595.67	55059.36
596.029	55211.44
596.387	55210.77
596.746	55262.97
597.104	55063.43
597.463	55087.83
597.822	55215.74
598.18	55107.49
598.538	55042.18
598.897	55342.97
599.255	55034.05
599.613	55425.9
599.972	55290.09
600.33	55349.97
600.688	55289.41
601.046	55386.58
601.404	55378.67
601.762	55305.9
602.12	55501.61
602.478	55476.07
602.836	55538.21
603.194	55345.68
603.552	55407.82
603.91	55343.64
604.268	55553.13
604.625	55467.03
604.983	55624.77
605.341	55446.01
605.698	55563.3
606.056	55711.54
606.413	55616.86
606.771	55671.32
607.128	55786.12
607.485	55621.38
607.843	55679.68
608.2	55778.66
608.557	55875.38
608.914	55795.16
609.272	55967.81
609.629	55870.64
609.986	56013.46
610.343	55947.02
610.7	56125.77
611.057	56096.84
611.414	56084.19
611.771	56067.69
612.127	56148.37
612.484	56186.33
612.841	56181.81
613.198	56147.01
613.554	56139.78
613.911	56351.3
614.267	56260.46
614.624	56231.08
614.98	56296.61
615.337	56417.29
615.693	56373.22
616.05	56318.08
616.406	56490.51
616.762	56391.75
617.118	56389.04
617.475	56290.06
617.831	56449.38
618.187	56517.17
618.543	56551.3
618.899	56643.5
619.255	56587.9
619.611	56488.02
619.967	56587.68
620.323	56598.98
620.678	56496.16
621.034	56536.15
621.39	56544.29
621.746	56497.29
622.101	56821.34
622.457	56521.24
622.812	56574.12
623.168	56624.29
623.523	56636.27
623.879	56684.63
624.234	56487.34
624.589	56628.36
624.945	56631.52
625.3	56687.79
625.655	56657.06
626.01	56675.59
626.365	56666.32
626.72	56630.84
627.075	56563.05
627.43	56621.58
627.785	56557.62
628.14	56577.06
628.495	56598.53
628.85	56443.5
629.205	56479.21
629.559	56604.63
629.914	56472.43
630.269	56529.83
630.623	56450.28
630.978	56387.01
631.332	56474.91
631.687	56502.03
632.041	56335.48
632.396	56364.63
632.75	56329.38
633.104	56276.05
633.459	56191.53
633.813	56136.84
634.167	56143.17
634.521	56178.2
634.875	56213
635.229	56128.03
635.583	56025.89
635.937	55895.27
636.291	55980.69
636.645	55992.21
636.999	55886
637.352	55974.14
637.706	55850.97
638.06	55908.37
638.413	55827.7
638.767	55752.45
639.121	55809.17
639.474	55606.69
639.828	55657.99
640.181	55661.15
640.534	55675.61
640.888	55524.43
641.241	55434.26
641.594	55516.52
641.947	55538.21
642.301	55482.85
642.654	55497.31
643.007	55388.84
643.36	55295.51
643.713	55283.31
644.066	55432.91
644.419	55235.17
644.771	54986.59
645.124	54674.73
645.477	54728.97
645.83	54464.12
646.182	54411.01
646.535	54288.98
646.888	54348.87
647.24	54119.04
647.593	54366.27
647.945	54311.35
648.298	54159.49
648.65	54029.33
649.002	54063.9
649.355	54131.7
649.707	54030.68
650.059	54164.92
650.411	54497.11
650.763	54467.28
651.115	54819.36
651.467	54652.59
651.819	54663.44
652.171	54558.58
652.523	54548.18
652.875	54477.68
653.227	54351.81
653.578	54547.51
653.93	54473.16
654.282	54278.81
654.633	54224.35
654.985	54344.12
655.337	54289.89
655.688	54315.2
656.039	54280.17
656.391	54056.9
656.742	54069.1
657.094	54108.87
657.445	54297.57
657.796	54073.17
658.147	54049.21
658.498	54116.33
658.849	54083.79
659.2	54047.18
659.551	54040.4
659.902	54095.09
660.253	54043.11
660.604	54050.34
660.955	53880.18
661.306	53936.22
661.656	53854.64
662.007	53863
662.358	53855.1
662.708	53888.77
663.059	53884.7
663.409	53622.78
663.76	53872.95
664.11	53800.63
664.461	53756.34
664.811	53798.15
665.161	53787.07
665.511	53694.2
665.862	53696.46
666.212	53789.11
666.562	53748.21
666.912	53650.58
667.262	53603.35
667.612	53514.31
667.962	53674.76
668.312	53507.53
668.662	53733.74
669.011	53613.52
669.361	53525.16
669.711	53547.76
670.06	53446.74
670.41	53400.64
670.76	53316.35
671.109	53483.13
671.459	53433.41
671.808	53304.15
672.157	53397.03
672.507	53256.01
672.856	53213.76
673.205	53252.4
673.554	53301.89
673.904	53183.25
674.253	53324.71
674.602	53251.04
674.951	52724.73
675.3	52610.61
675.649	53053.53
675.998	52989.13
676.346	53140.31
676.695	53087.88
677.044	52832.3
677.393	53030.48
677.741	53087.66
678.09	52902.13
678.438	52863.93
678.787	52853.31
679.135	52894.89
679.484	52648.35
679.832	52750.27
680.181	52555.92
680.529	52608.57
680.877	52672.75
681.225	52565.41
681.573	52716.37
681.922	52439.54
682.27	52342.59
682.618	52344.85
682.966	52328.81
683.314	52275.02
683.661	52216.72
684.009	52104.18
684.357	52059.89
684.705	51965.43
685.053	51940.57
685.4	51910.06
685.748	51804.75
686.095	51749.16
686.443	51617.64
686.79	51599.34
687.138	51585.32
687.485	51494.48
687.832	51429.85
688.18	51444.31
688.527	51305.78
688.874	51240.93
689.221	51251.55
689.568	51122.96
689.915	50898.34
690.262	50941.27
690.609	50857.66
690.956	50794.61
691.303	50733.14
691.65	50454.05
691.997	50526.82
692.344	50226.26
692.69	50284.12
693.037	50224.68
693.383	50019.04
693.73	50144.68
694.077	49969.1
694.423	49943.11
694.769	49811.59
695.116	49703.57
695.462	49545.6
695.808	49428.09
696.155	49469
696.501	49108.55
696.847	49305.38
697.193	48925.73
697.539	49125.28
697.885	48895.9
698.231	48723.48
698.577	48703.82
698.923	48626.08
699.269	48450.04
699.614	48296.15
699.96	48118.07
700.306	48389.93
700.651	48023.61
700.997	47998.3
701.342	47858.19
701.688	47798.08
702.033	47661.81
702.379	47596.73
702.724	47322.16
703.069	47610.97
703.415	47042.84
703.76	47076.97
704.105	47181.37
704.45	46928.05
704.795	46820.25
705.14	46592.01
705.485	46658.9
705.83	46648.73
706.175	46542.07
706.52	46380.04
706.865	46214.62
707.209	46149.99
707.554	46037.9
707.899	46129.2
708.243	45939.82
708.588	45856.66
708.932	45523.34
709.277	45585.93
709.621	45710.9
709.966	45219.62
710.31	45434.07
710.654	45005.38
710.998	45006.74
711.342	45095.33
711.687	44875.67
712.031	44755.22
712.375	44544.15
712.719	44644.49
713.063	44532.18
713.407	44578.28
713.75	44211.28
714.094	44271.17
714.438	44159.76
714.782	44297.61
715.125	43934.9
715.469	44084.05
715.812	43981.46
716.156	43588.7
716.499	43658.53
716.843	43609.49
717.186	43284.75
717.53	43688.58
717.873	43569.26
718.216	43413.79
718.559	43323.39
718.902	43097.64
719.246	43170.18
719.589	42918.66
719.932	42802.05
720.275	42879.34
720.617	42735.16
720.96	42698.55
721.303	42704.88
721.646	42618.55
721.989	42317.77
722.331	42502.63
722.674	42434.83
723.016	42211.33
723.359	42191.9
723.701	42118
724.044	41918.91
724.386	41825.13
724.729	41903.55
725.071	41879.59
725.413	41818.35
725.755	41819.03
726.097	41609.09
726.439	41490.9
726.782	41470.79
727.124	41516.66
727.465	41316.22
727.807	41205.71
728.149	41352.83
728.491	41089.33
728.833	41180.63
729.175	41023.79
729.516	40929.11
729.858	40940.86
730.199	40761.43
730.541	40779.51
730.882	40548.1
731.224	40737.25
731.565	40564.6
731.906	40543.58
732.248	40506.07
732.589	40278.5
732.93	40077.83
733.271	40208.9
733.612	40259.29
733.953	40235.34
734.294	40134.1
734.635	39974.1
734.976	40023.82
735.317	39738.18
735.658	39896.82
735.999	39691.4
736.339	39789.7
736.68	39697.28
737.021	39485.98
737.361	39447.11
737.702	39550.16
738.042	39293.22
738.383	39249.38
738.723	39282.15
739.063	39120.79
739.404	39203.73
739.744	39093.68
740.084	39019.78
740.424	39078.31
740.764	38880.8
741.104	38924.19
741.444	38769.16
741.784	38585.21
742.124	38737.3
742.464	38656.85
742.804	38580.47
743.143	38453.47
743.483	38420.25
743.823	38184.55
744.162	38158.11
744.502	38327.14
744.841	38088.28
745.181	38149.07
745.52	38022.07
745.86	37984.55
746.199	37925.12
746.538	37878.34
746.877	37971.67
747.216	37913.37
747.556	37723.32
747.895	37735.97
748.234	37560.38
748.573	37396.54
748.911	37521.97
749.25	37393.61
749.589	37204.91
749.928	37329.2
750.267	37317
750.605	36925.37
750.944	37016.44
751.283	36827.29
751.621	36973.05
751.96	36678.15
752.298	36651.48
752.636	36629.79
