Data from White_paper_FLMS001491_055.txt Node
Date: Tue Feb 07 10:35:16 GMT 2017
User: dcchb
Spectrometer: FLMS00149
Trigger mode: 0
Integration Time (sec): 2.000000E-2
Scans to average: 10
Electric dark correction enabled: true
Nonlinearity correction enabled: false
Boxcar width: 0
XAxis mode: Wavelengths
Number of Pixels in Spectrum: 2048
>>>>>Begin Spectral Data<<<<<
341.393	-0.55
341.776	-0.55
342.16	-0.55
342.543	-45.52
342.927	-75.58
343.31	-52.3
343.693	-67.89
344.077	-77.84
344.46	-46.88
344.843	-52.98
345.226	-48.23
345.61	-52.07
345.993	-18.86
346.376	-8.01
346.759	5.55
347.142	29.5
347.525	44.42
347.908	71.54
348.291	99.11
348.674	62.95
349.057	111.99
349.44	118.09
349.823	140.01
350.206	198.77
350.588	231.99
350.971	240.57
351.354	257.75
351.737	281.02
352.119	272.66
352.502	320.8
352.884	298.65
353.267	307.69
353.65	327.35
354.032	334.13
354.414	333.23
354.797	360.12
355.179	354.02
355.562	350.63
355.944	344.75
356.326	380.91
356.709	374.58
357.091	383.17
357.473	373
357.855	394.02
358.238	370.29
358.62	388.14
359.002	388.14
359.384	389.27
359.766	354.92
360.148	393.34
360.53	367.35
360.912	371.64
361.294	376.84
361.676	365.77
362.057	355.82
362.439	378.42
362.821	381.13
363.203	383.85
363.584	377.74
363.966	369.38
364.348	350.17
364.729	358.54
365.111	374.58
365.493	369.61
365.874	376.16
366.256	389.04
366.637	374.81
367.019	364.86
367.4	386.78
367.781	362.83
368.163	377.07
368.544	347.69
368.925	349.95
369.306	384.07
369.688	377.52
370.069	368.03
370.45	379.1
370.831	369.83
371.212	362.83
371.593	367.8
371.974	389.72
372.355	355.15
372.736	382.04
373.117	363.51
373.498	363.51
373.879	360.57
374.26	370.96
374.641	376.84
375.021	379.78
375.402	375.48
375.783	405.31
376.163	393.79
376.544	381.81
376.925	395.6
377.305	404.64
377.686	414.58
378.066	391.76
378.447	427.91
378.827	398.08
379.208	415.26
379.588	420.46
379.968	399.89
380.349	402.6
380.729	424.3
381.109	413.68
381.489	438.31
381.87	421.36
382.25	438.08
382.63	433.11
383.01	424.07
383.39	441.25
383.77	441.02
384.15	460.91
384.53	451.87
384.91	461.81
385.29	459.32
385.67	468.59
386.049	457.97
386.429	451.19
386.809	470.17
387.189	483.28
387.568	487.12
387.948	475.14
388.328	491.64
388.707	491.19
389.087	483.28
389.466	497.29
389.846	488.48
390.225	513.11
390.605	501.13
390.984	503.16
391.363	526.44
391.743	545.42
392.122	528.47
392.501	528.02
392.881	556.04
393.26	538.64
393.639	528.47
394.018	546.78
394.397	578.64
394.776	559.43
395.155	555.14
395.534	587
395.913	558.3
396.292	587
396.671	580.45
397.05	611.41
397.429	607.34
397.808	606.21
398.186	601.47
398.565	615.93
398.944	625.65
399.323	621.58
399.701	633.33
400.08	649.83
400.458	676.95
400.837	658.64
401.215	673.1
401.594	680.79
401.972	673.33
402.351	675.36
402.729	718.3
403.107	744.51
403.486	723.72
403.864	730.05
404.242	726.44
404.62	774.34
404.999	773.89
405.377	816.38
405.755	784.06
406.133	822.48
406.511	837.85
406.889	839.65
407.267	879.88
407.645	864.29
408.023	896.37
408.401	923.04
408.779	951.51
409.156	965.75
409.534	989.03
409.912	1005.3
410.29	1054.56
410.667	1028.12
411.045	1094.11
411.422	1083.49
411.8	1127.56
412.178	1158.29
412.555	1212.98
412.933	1195.8
413.31	1242.81
413.687	1296.59
414.065	1307.66
414.442	1363.26
414.819	1359.19
415.197	1381.11
415.574	1401.45
415.951	1448.22
416.328	1483.48
416.705	1497.94
417.082	1511.73
417.46	1592.85
417.837	1608.9
418.214	1626.53
418.591	1638.95
418.967	1643.47
419.344	1711.27
419.721	1708.78
420.098	1723.25
420.475	1796.46
420.852	1806.63
421.228	1801.89
421.605	1855.22
421.982	1861.55
422.358	1905.16
422.735	1970.24
423.111	1957.59
423.488	2007.76
423.864	1975.22
424.241	2007.08
424.617	2083.69
424.994	2049.79
425.37	2125.27
425.746	2115.55
426.123	2123.46
426.499	2174.76
426.875	2191.48
427.251	2284.81
427.627	2311.93
428.003	2325.04
428.379	2338.14
428.756	2422.21
429.132	2419.5
429.507	2467.18
429.883	2517.8
430.259	2555.99
430.635	2522.55
431.011	2604.8
431.387	2663.11
431.763	2699.49
432.138	2692.26
432.514	2770.22
432.89	2756.44
433.265	2830.11
433.641	2906.72
434.016	2926.6
434.392	2969.31
434.767	3017.9
435.143	3026.71
435.518	3100.84
435.894	3108.75
436.269	3168.41
436.644	3224.68
437.02	3235.07
437.395	3256.31
437.77	3307.61
438.145	3340.6
438.52	3400.49
438.895	3427.83
439.271	3417.44
439.646	3516.64
440.021	3554.84
440.395	3572.46
440.77	3523.42
441.145	3612.91
441.52	3666.25
441.895	3626.92
442.27	3704.89
442.645	3672.12
443.019	3754.38
443.394	3750.54
443.769	3778.78
444.143	3799.12
444.518	3883.87
444.892	3832.57
445.267	3858.1
445.641	3924.54
446.016	3968.38
446.39	3980.59
446.764	3961.38
447.139	3988.95
447.513	4071.66
447.887	4052.22
448.262	4064.43
448.636	4065.78
449.01	4133.13
449.384	4152.79
449.758	4200.24
450.132	4230.75
450.506	4284.31
450.88	4309.39
451.254	4338.77
451.628	4380.8
452.002	4424.19
452.376	4467.58
452.75	4501.48
453.123	4492.44
453.497	4611.53
453.871	4658.31
454.244	4701.92
454.618	4739.21
454.992	4802.71
455.365	4821.24
455.739	4937.4
456.112	4999.54
456.486	5055.14
456.859	5080.9
457.232	5208.8
457.606	5181.01
457.979	5283.15
458.352	5366.54
458.725	5412.64
459.099	5429.59
459.472	5556.37
459.845	5590.94
460.218	5673.42
460.591	5734.89
460.964	5741.22
461.337	5872.74
461.71	5936.24
462.083	6068.44
462.456	6063.24
462.829	6064.6
463.201	6224.14
463.574	6207.2
463.947	6343.46
464.32	6488.54
464.692	6521.99
465.065	6500.3
465.438	6628.43
465.81	6743.45
466.183	6794.52
466.555	6966.05
466.928	6998.36
467.3	7023.45
467.672	7190.22
468.045	7349.99
468.417	7354.06
468.789	7374.62
469.161	7500.04
469.534	7678.8
469.906	7775.29
470.278	7832.01
470.65	8005.34
471.022	8126.24
471.394	8280.14
471.766	8303.64
472.138	8389.29
472.51	8566
472.882	8714.93
473.253	8787.92
473.625	8971.19
473.997	9111.53
474.369	9135.03
474.74	9330.28
475.112	9516.49
475.484	9591.74
475.855	9789.47
476.227	9901.56
476.598	10158.96
476.97	10258.16
477.341	10447.08
477.713	10605.05
478.084	10669.68
478.455	10977.01
478.827	11049.78
479.198	11375.65
479.569	11362.54
479.94	11633.04
480.311	11789.42
480.682	12002.07
481.053	12313.7
481.424	12497.65
481.795	12632.56
482.166	12811.54
482.537	13060.8
482.908	13229.16
483.279	13311.19
483.65	13621.46
484.021	13891.51
484.391	14017.16
484.762	14121.56
485.133	14315
485.503	14472.29
485.874	14798.16
486.244	14877.02
486.615	15236.79
486.985	15402.43
487.356	15602.65
487.726	15729.66
488.097	16090.55
488.467	16111.34
488.837	16472.69
489.207	16660.25
489.578	16893.47
489.948	16963.52
490.318	17274.25
490.688	17295.27
491.058	17707.46
491.428	17874.01
491.798	18054.79
492.168	18273.09
492.538	18390.83
492.908	18579.53
493.278	18807.99
493.648	18814.77
494.017	19130.7
494.387	19194.65
494.757	19418.37
495.126	19692.49
495.496	19714.86
495.866	19968.42
496.235	20016.78
496.605	20262.19
496.974	20406.14
497.344	20515.29
497.713	20633.71
498.082	20788.96
498.452	21056.3
498.821	21032.57
499.19	21213.35
499.559	21421.26
499.928	21621.71
500.298	21641.59
500.667	21870.29
501.036	21922.94
501.405	22197.06
501.774	22046.78
502.143	22436.15
502.512	22462.81
502.88	22673.88
503.249	22679.98
503.618	22855.8
503.987	22948
504.356	23086.53
504.724	23216.01
505.093	23395.22
505.462	23432.96
505.83	23722.67
506.199	23875.88
506.567	24162.43
506.936	24137.35
507.304	24468.41
507.672	24495.75
508.041	24558.58
508.409	24850.1
508.777	25056.19
509.145	25146.13
509.514	25194.27
509.882	25452.57
510.25	25381.15
510.618	25736.63
510.986	25730.07
511.354	25947.02
511.722	26150.4
512.09	26507.45
512.458	26389.04
512.826	26712.87
513.193	26756.49
513.561	26964.39
513.929	27100.66
514.297	27443.47
514.664	27545.84
515.032	27686.18
515.4	27768.66
515.767	28100.63
516.135	28106.28
516.502	28102.89
516.869	28593.95
517.237	28600.73
517.604	28599.15
517.972	28933.83
518.339	29119.59
518.706	29154.84
519.073	29377.21
519.44	29702.62
519.808	29909.85
520.175	29895.16
520.542	30268.94
520.909	30383.06
521.276	30469.16
521.643	30785.53
522.009	30990.27
522.376	31342.81
522.743	31434.33
523.11	31623.25
523.477	32047.65
523.843	32133.52
524.21	32352.72
524.577	32634.75
524.943	32643.34
525.31	32874.52
525.676	33257.78
526.043	33485.57
526.409	33534.84
526.776	33902.51
527.142	33915.85
527.508	34207.82
527.874	34524.87
528.241	34655.71
528.607	34756.5
528.973	35018.64
529.339	35142.48
529.705	35480.1
530.071	35749.7
530.437	35906.75
530.803	36137.03
531.169	36281.66
531.535	36306.52
531.901	36582.44
532.267	36704.47
532.632	36924.58
532.998	36986.5
533.364	37290.45
533.73	37291.8
534.095	37518.69
534.461	37680.27
534.826	37903.31
535.192	38064.44
535.557	38359.57
535.923	38242.51
536.288	38601.82
536.653	38557.98
537.019	38640.92
537.384	38918.2
537.749	39102.6
538.114	38996.16
538.479	39152.77
538.845	39410.16
539.21	39430.28
539.575	39622.14
539.94	39721.57
540.305	40009.47
540.67	39986.87
541.034	40129.02
541.399	40233.19
541.764	40390.48
542.129	40569.46
542.494	40691.94
542.858	40958.82
543.223	40783.24
543.587	41128.76
543.952	41216.22
544.316	41347.51
544.681	41399.94
545.045	41603.55
545.41	41644.46
545.774	41864.56
546.138	42027.27
546.503	42133.93
546.867	42137.78
547.231	42401.27
547.595	42647.59
547.959	42697.08
548.324	42931.43
548.688	42679.91
549.052	43099.56
549.416	43152.21
549.779	43229.95
550.143	43306.56
550.507	43579.77
550.871	43811.4
551.235	43649.37
551.599	43993.55
551.962	44163.94
552.326	44242.58
552.689	44524.83
553.053	44198.06
553.417	44455.23
553.78	44900.87
554.143	44833.3
554.507	45038.72
554.87	45137.47
555.234	45556.9
555.597	45286.62
555.96	45516.67
556.323	45775.42
556.686	45927.06
557.05	46132.25
557.413	46162.08
557.776	46267.16
558.139	46598
558.502	46550.99
558.865	46578.34
559.228	46915.96
559.59	46977.42
559.953	47217.19
560.316	47567.69
560.679	47529.27
561.041	47767.01
561.404	47894.91
561.767	48297.39
562.129	48064.4
562.492	48389.14
562.854	48514.56
563.217	48449.25
563.579	48649.7
563.941	48979.86
564.304	49042.45
564.666	49215.33
565.028	49385.72
565.39	49400.41
565.753	49651.25
566.115	49786.39
566.477	49883.11
566.839	49978.02
567.201	50298.47
567.563	50340.95
567.925	50556.99
568.287	50620.04
568.648	50656.2
569.01	50887.83
569.372	51045.34
569.734	50986.36
570.095	51193.58
570.457	51423.86
570.819	51445.55
571.18	51467.25
571.542	51689.62
571.903	51724.42
572.265	51956.28
572.626	51945.43
572.987	52117.85
573.349	52161.24
573.71	52234.23
574.071	52311.52
574.432	52523.27
574.794	52710.83
575.155	52603.72
575.516	52548.12
575.877	52774.11
576.238	52764.39
576.599	52994.89
576.96	52906.98
577.32	53039.41
577.681	53116.02
578.042	53233.08
578.403	53258.39
578.763	53275.34
579.124	53428.33
579.485	53412.28
579.845	53596.23
580.206	53547.42
580.566	53479.62
580.927	53631.26
581.287	53826.51
581.648	53651.37
582.008	53791.71
582.368	53817.7
582.728	53865.83
583.089	53850.01
583.449	53795.55
583.809	53925.26
584.169	53916
584.529	53961.19
584.889	54185.14
585.249	54052.04
585.609	53931.14
585.969	54123.45
586.329	53954.87
586.688	54047.07
587.048	54087.07
587.408	54067.41
587.768	54196.44
588.127	54159.61
588.487	54113.28
588.846	54355.31
589.206	54177.69
589.565	54078.03
589.925	54276.44
590.284	54229.21
590.643	54214.29
591.003	54366.38
591.362	54426.94
591.721	54356.66
592.08	54367.74
592.44	54412.26
592.799	54517.34
593.158	54443.67
593.517	54511.69
593.876	54523.44
594.235	54478.47
594.593	54434.4
594.952	54591.69
595.311	54532.7
595.67	54572.7
596.029	54764.79
596.387	54697.45
596.746	54775.64
597.104	54722.53
597.463	54723.43
597.822	54862.87
598.18	54718.91
598.538	54698.35
598.897	54849.08
599.255	54618.8
599.613	55024.44
599.972	54876.65
600.33	54999.36
600.688	54865.13
601.046	55009.08
601.404	55095.4
601.762	54983.99
602.12	55103.99
602.478	55073.26
602.836	55089.07
603.194	54961.17
603.552	55081.84
603.91	55035.29
604.268	55123.2
604.625	55034.39
604.983	55232.12
605.341	55121.39
605.698	55237.32
606.056	55262.18
606.413	55260.14
606.771	55330.2
607.128	55346.47
607.485	55276.87
607.843	55223.76
608.2	55411.78
608.557	55518.22
608.914	55376.98
609.272	55544.88
609.629	55603.86
609.986	55638.66
610.343	55543.75
610.7	55737.87
611.057	55689.28
611.414	55639.12
611.771	55684.31
612.127	55745.1
612.484	55667.14
612.841	55772.67
613.198	55738.1
613.554	55769.73
613.911	55923.63
614.267	55874.59
614.624	55804.31
614.98	55980.12
615.337	56046.79
615.693	55892.89
616.05	55970.18
616.406	56082.95
616.762	55945.55
617.118	56010.41
617.475	55991.88
617.831	56060.35
618.187	56081.82
618.543	56072.78
618.899	56209.5
619.255	56237.52
619.611	56149.16
619.967	56333.56
620.323	56314.8
620.678	56277.97
621.034	56168.14
621.39	56204.98
621.746	56154.36
622.101	56430.96
622.457	56165.43
622.812	56241.59
623.168	56355.93
623.523	56365.88
623.879	56402.49
624.234	56188.25
624.589	56328.14
624.945	56259.66
625.3	56399.55
625.655	56354.13
626.01	56373.56
626.365	56362.26
626.72	56344.63
627.075	56318.65
627.43	56333.34
627.785	56183.51
628.14	56286.78
628.495	56339.66
628.85	56354.13
629.205	56202.72
629.559	56445.65
629.914	56302.83
630.269	56313.22
630.623	56198.65
630.978	56192.77
631.332	56271.64
631.687	56377.18
632.041	56241.59
632.396	56297.4
632.75	56190.97
633.104	56211.53
633.459	56110.74
633.813	56092.44
634.167	56089.95
634.521	56142.61
634.875	56193.9
635.229	56166.11
635.583	55912.78
635.937	55989.16
636.291	55984.42
636.645	56022.61
636.999	55922.5
637.352	56026.68
637.706	55836.85
638.06	56024.42
638.413	55877.98
638.767	55862.61
639.121	55884.08
639.474	55797.3
639.828	55858.77
640.181	55830.75
640.534	55817.64
640.888	55797.53
641.241	55718.21
641.594	55729.06
641.947	55854.25
642.301	55737.87
642.654	55774.03
643.007	55708.04
643.36	55724.31
643.713	55647.7
644.066	55743.52
644.419	55562.73
644.771	55325.68
645.124	55055.85
645.477	55055.18
645.83	54920.26
646.182	54869.42
646.535	54822.41
646.888	54918.91
647.24	54723.66
647.593	54864.67
647.945	54834.62
648.298	54635.3
648.65	54652.25
649.002	54598.24
649.355	54657.45
649.707	54618.35
650.059	54835.75
650.411	55149.86
650.763	55144.89
651.115	55415.39
651.467	55363.19
651.819	55294.04
652.171	55268.73
652.523	55264.66
652.875	55265.11
653.227	55141.5
653.578	55342.63
653.93	55261.5
654.282	55114.84
654.633	55081.84
654.985	55184.21
655.337	55153.48
655.688	55146.7
656.039	55227.6
656.391	54978.79
656.742	55010.43
657.094	55009.53
657.445	55119.81
657.796	54969.98
658.147	55044.56
658.498	55020.38
658.849	55068.51
659.2	54986.48
659.551	54946.7
659.902	54993.03
660.253	54944.45
660.604	54962.52
660.955	54819.48
661.306	55016.53
661.656	54863.09
662.007	54910.1
662.358	54905.58
662.708	54883.43
663.059	54854.28
663.409	54772.92
663.76	54977.44
664.11	54940.15
664.461	54913.03
664.811	54894.05
665.161	54849.08
665.511	54723.21
665.862	54828.52
666.212	54840.95
666.562	54878.91
666.912	54729.08
667.262	54670.55
667.612	54836.88
667.962	54733.83
668.312	54714.85
668.662	54815.18
669.011	54701.97
669.361	54585.13
669.711	54612.02
670.06	54613.38
670.41	54501.07
670.76	54532.93
671.109	54611.57
671.459	54558.92
671.808	54412.93
672.157	54504.23
672.507	54352.6
672.856	54334.07
673.205	54449.54
673.554	54434.18
673.904	54313.5
674.253	54531.12
674.602	54387.62
674.951	53894.53
675.3	53824.02
675.649	54260.4
675.998	54160.74
676.346	54267.4
676.695	54235.99
677.044	54105.15
677.393	54180.4
677.741	54158.48
678.09	54059.95
678.438	54026.96
678.787	54135.43
679.135	53946.96
679.484	53832.84
679.832	53932.27
680.181	53805.72
680.529	53852.72
680.877	53591.26
681.225	53655.67
681.573	53784.93
681.922	53575.67
682.27	53584.03
682.618	53570.02
682.966	53497.03
683.314	53502.9
683.661	53322.79
684.009	53239.18
684.357	53204.38
684.705	53169.12
685.053	53183.81
685.4	53121.89
685.748	53046.19
686.095	52942.01
686.443	52853.65
686.79	52774.56
687.138	52737.72
687.485	52678.06
687.832	52602.13
688.18	52601.46
688.527	52462.48
688.874	52521.01
689.221	52388.13
689.568	52163.73
689.915	52249.6
690.262	52151.52
690.609	52019.78
690.956	51917.86
691.303	51970.96
691.65	51839.22
691.997	51785.88
692.344	51556.51
692.69	51530.98
693.037	51544.99
693.383	51248.27
693.73	51512.22
694.077	51228.61
694.423	51194.04
694.769	51127.6
695.116	51063.19
695.462	50900.94
695.808	50782.97
696.155	50829.75
696.501	50549.31
696.847	50714.05
697.193	50389.54
697.539	50443.55
697.885	50262.31
698.231	50055.31
698.577	50142.76
698.923	50032.71
699.269	49840.17
699.614	49753.17
699.96	49598.15
700.306	49708.88
700.651	49433.18
700.997	49416
701.342	49301.88
701.688	49269.57
702.033	49257.36
702.379	49132.62
702.724	49093.3
703.069	49003.58
703.415	48702.12
703.76	48700.32
704.105	48634.55
704.45	48631.62
704.795	48290.61
705.14	48175.36
705.485	48251.51
705.83	48030.5
706.175	47957.74
706.52	48114.34
706.865	47926.78
707.209	47862.15
707.554	47680.68
707.899	47701.92
708.243	47410.18
708.588	47413.8
708.932	47382.84
709.277	47229.85
709.621	47261.03
709.966	47028.04
710.31	47139.9
710.654	46762.29
710.998	46722.97
711.342	46820.59
711.687	46665.57
712.031	46572.69
712.375	46421.51
712.719	46465.57
713.063	46362.07
713.407	46449.53
713.75	46201.85
714.094	46271.9
714.438	46059.03
714.782	45969.54
715.125	45895.87
715.469	45889.54
715.812	45757.34
716.156	45457.91
716.499	45578.36
716.843	45664.24
717.186	45422.44
717.53	45561.64
717.873	45552.15
718.216	45375.21
718.559	45192.39
718.902	44876.24
719.246	44983.13
719.589	44862.22
719.932	44814.99
720.275	44704.49
720.617	44647.77
720.96	44604.38
721.303	44681.89
721.646	44479.86
721.989	44346.76
722.331	44508.56
722.674	44404.16
723.016	44370.71
723.359	44185.63
723.701	44296.14
724.044	43984.96
724.386	43802.59
724.729	44007.11
725.071	43839.65
725.413	43723.95
725.755	43704.74
726.097	43641.24
726.439	43442.6
726.782	43483.73
727.124	43657.74
727.465	43344.52
727.807	43314.24
728.149	43328.71
728.491	43174.36
728.833	43168.94
729.175	43068.83
729.516	42928.49
729.858	42859.11
730.199	42830.64
730.541	42891.43
730.882	42762.84
731.224	42772.11
731.565	42601.04
731.906	42585.22
732.248	42802.17
732.589	42519.69
732.93	42241.05
733.271	42432.68
733.612	42476.52
733.953	42520.59
734.294	42234.27
734.635	42193.37
734.976	42233.82
735.317	42196.76
735.658	42122.18
735.999	41989.08
736.339	41907.73
736.68	41871.79
737.021	41886.71
737.361	41716.54
737.702	41843.32
738.042	41596.55
738.383	41609.2
738.723	41656.88
739.063	41472.03
739.404	41652.59
739.744	41502.76
740.084	41337.12
740.424	41210.79
740.764	41299.83
741.104	41367.18
741.444	41042.21
741.784	40920.41
742.124	41204.02
742.464	40961.31
742.804	40933.06
743.143	40824.82
743.483	40848.32
743.823	40666.18
744.162	40622.56
744.502	40734.88
744.841	40505.05
745.181	40652.84
745.52	40520.87
745.86	40564.03
746.199	40463.24
746.538	40299.63
746.877	40377.14
747.216	40298.95
747.556	40214.21
747.895	40257.15
748.234	40077.49
748.573	39997.72
748.911	40019.64
749.25	40053.31
749.589	39704.62
749.928	39771.96
750.267	39876.82
750.605	39809.93
750.944	39625.07
751.283	39449.49
751.621	39453.55
751.96	39353.44
752.298	39294.46
752.636	39203.84
