Data from white_wall_FLMS001491_084.txt Node
Date: Tue Feb 07 11:06:02 GMT 2017
User: dcchb
Spectrometer: FLMS00149
Trigger mode: 0
Integration Time (sec): 2.000000E-2
Scans to average: 10
Electric dark correction enabled: true
Nonlinearity correction enabled: false
Boxcar width: 0
XAxis mode: Wavelengths
Number of Pixels in Spectrum: 2048
>>>>>Begin Spectral Data<<<<<
341.393	9.69
341.776	9.69
342.16	9.69
342.543	-53.36
342.927	-67.6
343.31	-74.83
343.693	-63.08
344.077	-84.09
344.46	-79.57
344.843	-59.91
345.226	-26.24
345.61	-26.02
345.993	-6.58
346.376	-3.19
346.759	14.43
347.142	35.45
347.525	56.02
347.908	56.02
348.291	74.09
348.674	90.59
349.057	96.92
349.44	155.45
349.823	147.31
350.206	168.1
350.588	228.44
350.971	253.07
351.354	273.86
351.737	256.01
352.119	297.37
352.502	309.57
352.884	293.3
353.267	312.96
353.65	315.22
354.032	325.84
354.414	327.87
354.797	349.57
355.179	340.3
355.562	346.4
355.944	387.53
356.326	368.1
356.709	357.48
357.091	357.48
357.473	364.26
357.855	383.46
358.238	375.56
358.62	372.39
359.002	388.21
359.384	378.94
359.766	355.44
360.148	356.35
360.53	351.37
360.912	359.96
361.294	360.19
361.676	358.38
362.057	352.05
362.439	378.04
362.821	380.75
363.203	340.53
363.584	360.87
363.966	330.58
364.348	363.13
364.729	358.83
365.111	347.99
365.493	372.39
365.874	333.07
366.256	353.41
366.637	364.93
367.019	359.96
367.4	343.01
367.781	352.05
368.163	369.23
368.544	340.3
368.925	356.8
369.306	348.66
369.688	339.4
370.069	357.02
370.45	352.05
370.831	348.44
371.212	341.66
371.593	346.18
371.974	357.7
372.355	356.8
372.736	361.77
373.117	389.57
373.498	360.64
373.879	347.99
374.26	361.32
374.641	349.12
375.021	362
375.402	343.47
375.783	356.8
376.163	373.75
376.544	375.1
376.925	366.74
377.305	372.84
377.686	370.13
378.066	367.65
378.447	385.95
378.827	381.43
379.208	369.91
379.588	378.94
379.968	394.76
380.349	394.09
380.729	397.25
381.109	385.05
381.489	376.91
381.87	403.58
382.25	394.99
382.63	387.76
383.01	401.77
383.39	414.2
383.77	408.1
384.15	414.65
384.53	410.13
384.91	416.01
385.29	411.49
385.67	418.72
386.049	428.66
386.429	427.31
386.809	441.77
387.189	448.55
387.568	439.06
387.948	442.9
388.328	460.07
388.707	453.29
389.087	437.02
389.466	468.21
389.846	471.15
390.225	497.81
390.605	505.95
390.984	477.93
391.363	466.17
391.743	489.45
392.122	492.39
392.501	512.95
392.881	538.94
393.26	512.05
393.639	530.35
394.018	527.19
394.397	548.88
394.776	539.39
395.155	559.73
395.534	575.1
395.913	564.25
396.292	592.5
396.671	583.01
397.05	621.42
397.429	600.86
397.808	612.16
398.186	615.55
398.565	634.98
398.944	623.68
399.323	646.96
399.701	652.38
400.08	678.37
400.458	698.03
400.837	689.22
401.215	735.77
401.594	739.84
401.972	728.09
402.351	762.21
402.729	759.73
403.107	780.74
403.486	788.88
403.864	797.92
404.242	818.71
404.62	822.1
404.999	855.09
405.377	865.03
405.755	870.01
406.133	904.35
406.511	891.93
406.889	927.4
407.267	935.09
407.645	949.55
408.023	980.74
408.401	1016.22
408.779	1007.18
409.156	1028.65
409.534	1071.81
409.912	1040.4
410.29	1080.4
410.667	1084.24
411.045	1126.95
411.422	1138.02
411.8	1161.3
412.178	1149.77
412.555	1204.69
412.933	1211.24
413.31	1218.47
413.687	1274.06
414.065	1268.86
414.442	1303.67
414.819	1325.13
415.197	1340.73
415.574	1344.8
415.951	1382.99
416.328	1347.96
416.705	1394.29
417.082	1402.87
417.46	1423.89
417.837	1445.58
418.214	1450.33
418.591	1474.28
418.967	1470.22
419.344	1519.48
419.721	1526.26
420.098	1502.76
420.475	1552.02
420.852	1550.67
421.228	1602.64
421.605	1621.4
421.982	1632.02
422.358	1627.05
422.735	1655.07
423.111	1668.85
423.488	1689.64
423.864	1707.72
424.241	1734.84
424.617	1763.32
424.994	1747.72
425.37	1787.72
425.746	1784.56
426.123	1847.61
426.499	1835.18
426.875	1849.41
427.251	1894.61
427.627	1921.5
428.003	1970.32
428.379	1976.19
428.756	1974.38
429.132	2020.94
429.507	2043.53
429.883	2108.84
430.259	2116.3
430.635	2121.27
431.011	2126.92
431.387	2208.73
431.763	2231.33
432.138	2242.17
432.514	2300.25
432.89	2300.25
433.265	2386.35
433.641	2400.13
434.016	2443.52
434.392	2446.69
434.767	2514.03
435.143	2517.87
435.518	2545.67
435.894	2602.62
436.269	2589.28
436.644	2629.96
437.02	2711.99
437.395	2674.03
437.77	2739.56
438.145	2769.62
438.52	2793.34
438.895	2824.08
439.271	2832.21
439.646	2918.77
440.021	2915.6
440.395	2901.82
440.77	2907.01
441.145	2996.05
441.52	3003.06
441.895	3056.84
442.27	3088.48
442.645	3071.08
443.019	3112.43
443.394	3089.61
443.769	3155.82
444.143	3113.34
444.518	3216.84
444.892	3182.26
445.267	3205.09
445.641	3278.53
446.016	3306.1
446.39	3315.59
446.764	3345.65
447.139	3300.45
447.513	3390.17
447.887	3428.58
448.262	3428.58
448.636	3448.69
449.01	3493.89
449.384	3554.91
449.758	3585.64
450.132	3579.54
450.506	3645.53
450.88	3668.12
451.254	3693.66
451.628	3730.95
452.002	3791.96
452.376	3807.1
452.75	3874.22
453.123	3898.17
453.497	3919.64
453.871	3993.99
454.244	4076.93
454.618	4111.5
454.992	4122.35
455.365	4137.26
455.739	4295.68
456.112	4278.28
456.486	4373.64
456.859	4363.7
457.232	4500.19
457.606	4478.05
457.979	4544.71
458.352	4685.95
458.725	4685.05
459.099	4688.21
459.472	4870.35
459.845	4865.61
460.218	4948.32
460.591	4979.5
460.964	5008.43
461.337	5152.6
461.71	5159.84
462.083	5242.55
462.456	5306.95
462.829	5344.46
463.201	5428.76
463.574	5443.44
463.947	5539.71
464.32	5654.74
464.692	5699.03
465.065	5744.45
465.438	5823.32
465.81	5849.99
466.183	6052.24
466.555	6125.23
466.928	6187.15
467.3	6189.19
467.672	6275.29
468.045	6475.73
468.417	6497.88
468.789	6550.31
469.161	6628.72
469.534	6766.57
469.906	6873.69
470.278	6937.87
470.65	7020.8
471.022	7212.89
471.394	7324.3
471.766	7378.99
472.138	7520
472.51	7627.12
472.882	7706.44
473.253	7892.87
473.625	8004.51
473.997	8175.35
474.369	8253.54
474.74	8368.34
475.112	8561.78
475.484	8639.07
475.855	8798.61
476.227	8915.44
476.598	9124.93
476.97	9160.86
477.341	9372.83
477.713	9597.46
478.084	9606.5
478.455	9905.93
478.827	10007.84
479.198	10321.06
479.569	10369.19
479.94	10619.81
480.311	10712.91
480.682	11001.49
481.053	11209.17
481.424	11409.62
481.795	11496.84
482.166	11716.27
482.537	11872.43
482.908	12164.4
483.279	12281.46
483.65	12504.73
484.021	12738.85
484.391	12896.81
484.762	12972.06
485.133	13194.65
485.503	13419.51
485.874	13685.94
486.244	13754.86
486.615	14001.86
486.985	14254.74
487.356	14534.5
487.726	14662.86
488.097	14882.52
488.467	14973.82
488.837	15302.85
489.207	15434.37
489.578	15767.69
489.948	15882.72
490.318	16129.04
490.688	16188.25
491.058	16584.62
491.428	16781.45
491.798	16894.67
492.168	17301.89
492.538	17367.2
492.908	17595.22
493.278	17829.11
493.648	17767.64
494.017	18046.5
494.387	18295.99
494.757	18384.12
495.126	18635.41
495.496	18688.52
495.866	18919.25
496.235	19145.01
496.605	19395.39
496.974	19381.84
497.344	19645.33
497.713	19772.56
498.082	19888.49
498.452	20059.33
498.821	20119.22
499.19	20238.76
499.559	20613.22
499.928	20759.88
500.298	20770.73
500.667	21055.01
501.036	21027.44
501.405	21412.74
501.774	21346.53
502.143	21559.63
502.512	21684.15
502.88	21967.53
503.249	22033.52
503.618	22192.83
503.987	22245.49
504.356	22542.2
504.724	22579.04
505.093	22687.28
505.462	22838.47
505.83	23068.74
506.199	23322.52
506.567	23527.26
506.936	23570.65
507.304	23851.77
507.672	23947.82
508.041	24071.2
508.409	24326.34
508.777	24483.85
509.145	24768.36
509.514	24710.73
509.882	25046.32
510.25	25009.48
510.618	25419.42
510.986	25435.01
511.354	25704.15
511.722	25942.79
512.09	26219.62
512.458	26231.15
512.826	26372.61
513.193	26656.45
513.561	26739.16
513.929	26972.37
514.297	27335.75
514.664	27467.05
515.032	27506.14
515.4	27861.61
515.767	27933.25
516.135	28152.9
516.502	27914.04
516.869	28474.93
517.237	28617.07
517.604	28546.57
517.972	29096.61
518.339	29134.12
518.706	29193.55
519.073	29435.81
519.44	29728.68
519.808	30066.75
520.175	29953.31
520.542	30402.11
520.909	30540.86
521.276	30651.82
521.643	30981.98
522.009	31212.48
522.376	31421.29
522.743	31602.76
523.11	31922.07
523.477	32258.56
523.843	32395.96
524.21	32779.9
524.577	32976.96
524.943	33065.77
525.31	33219.21
525.676	33570.61
526.043	33885.63
526.409	34098.74
526.776	34441.55
527.142	34425.28
527.508	34741.21
527.874	35037.92
528.241	35181.65
528.607	35299.16
528.973	35601.07
529.339	35552.03
529.705	35988.4
530.071	36337.32
530.437	36429.75
530.803	36822.05
531.169	36824.09
531.535	36900.7
531.901	37031.09
532.267	37262.49
532.632	37552.88
532.998	37723.5
533.364	37893.44
533.73	37963.27
534.095	38199.87
534.461	38386.53
534.826	38570.48
535.192	38748.56
535.557	39077.36
535.923	38911.49
536.288	39082.79
536.653	39348.54
537.019	39365.04
537.384	39525.71
537.749	39782.65
538.114	39763.67
538.479	39857.23
538.845	40147.62
539.21	40166.83
539.575	40434.39
539.94	40421.06
540.305	40834.38
540.67	40885.45
541.034	41066.69
541.399	41181.94
541.764	41229.4
542.129	41569.27
542.494	41637.97
542.858	41903.05
543.223	41795.71
543.587	42107.34
543.952	42130.84
544.316	42386.2
544.681	42417.16
545.045	42554.33
545.41	42730.37
545.774	42953.42
546.138	42945.96
546.503	43215.11
546.867	43211.04
547.231	43665.04
547.595	43670.01
547.959	43859.84
548.324	43914.07
548.688	44106.16
549.052	44433.61
549.416	44309.09
549.779	44482.19
550.143	44621.4
550.507	44846.02
550.871	44996.3
551.235	45001.95
551.599	45340.25
551.962	45594.93
552.326	45683.74
552.689	45936.84
553.053	45660.01
553.417	45959.89
553.78	46568.69
554.143	46383.38
554.507	46617.96
554.87	46732.08
555.234	47171.39
555.597	47077.6
555.96	47341.55
556.323	47546.07
556.686	47595.78
557.05	47943.57
557.413	48009.33
557.776	48076.67
558.139	48372.94
558.502	48399.38
558.865	48561.41
559.228	48749.65
559.59	49023.32
559.953	49027.84
560.316	49450.42
560.679	49551.44
561.041	49640.47
561.404	49967.7
561.767	50096.51
562.129	50021.71
562.492	50306.22
562.854	50507.57
563.217	50403.17
563.579	50663.72
563.941	50897.16
564.304	50904.17
564.666	51213.09
565.028	51215.12
565.39	51395.91
565.753	51527.88
566.115	51658.95
566.477	51874.09
566.839	51937.59
567.201	52183.46
567.563	52208.32
567.925	52411.93
568.287	52463.23
568.648	52479.95
569.01	52704.57
569.372	52881.29
569.734	52904.12
570.095	53127.61
570.457	53196.99
570.819	53199.02
571.18	53208.29
571.542	53325.8
571.903	53449.19
572.265	53524.89
572.626	53600.37
572.987	53671.33
573.349	53836.97
573.71	53923.07
574.071	53957.65
574.432	54091.88
574.794	54296.4
575.155	54275.61
575.516	54168.49
575.877	54369.16
576.238	54383.4
576.599	54473.34
576.96	54394.93
577.32	54496.39
577.681	54674.69
578.042	54598.54
578.403	54695.48
578.763	54654.35
579.124	54780.45
579.485	54877.85
579.845	54885.76
580.206	54789.49
580.566	54833.33
580.927	54941.8
581.287	55044.85
581.648	55009.82
582.008	55102.25
582.368	54951.07
582.728	55134.12
583.089	55004.63
583.449	55106.77
583.809	55074.91
584.169	55201.68
584.529	55058.86
584.889	55284.62
585.249	55144.96
585.609	54996.04
585.969	55209.82
586.329	55147
586.688	55240.78
587.048	55173.66
587.408	55108.13
587.768	55177.5
588.127	55240.33
588.487	55174.57
588.846	55365.52
589.206	55177.05
589.565	55218.41
589.925	55308.57
590.284	55264.96
590.643	55286.43
591.003	55344.28
591.362	55456.14
591.721	55429.25
592.08	55356.03
592.44	55377.27
592.799	55443.71
593.158	55329.14
593.517	55318.52
593.876	55460.21
594.235	55334.56
594.593	55424.96
594.952	55505.18
595.311	55351.51
595.67	55429.7
596.029	55562.35
596.387	55576.14
596.746	55650.71
597.104	55477.61
597.463	55506.53
597.822	55598.28
598.18	55462.02
598.538	55601.22
598.897	55672.41
599.255	55394.9
599.613	55884.38
599.972	55666.08
600.33	55721.9
600.688	55656.59
601.046	55749.47
601.404	55913.76
601.762	55809.58
602.12	55866.3
602.478	55870.59
602.836	55914.43
603.194	55744.49
603.552	55857.94
603.91	55844.83
604.268	55902.91
604.625	55844.61
604.983	56027.43
605.341	55823.36
605.698	56030.36
606.056	56145.39
606.413	56064.94
606.771	56137.03
607.128	56073.53
607.485	56086.63
607.843	56169.57
608.2	56250.7
608.557	56312.84
608.914	56203.24
609.272	56460.41
609.629	56422.44
609.986	56511.48
610.343	56400.75
610.7	56604.36
611.057	56548.09
611.414	56532.5
611.771	56520.29
612.127	56618.14
612.484	56640.74
612.841	56681.65
613.198	56614.3
613.554	56593.96
613.911	56766.16
614.267	56699.5
614.624	56777.01
614.98	56767.07
615.337	56878.7
615.693	56822.66
616.05	56735.88
616.406	56921.86
616.762	56900.17
617.118	56879.15
617.475	56869.89
617.831	56920.28
618.187	56989.43
618.543	57021.75
618.899	57159.82
619.255	57117.11
619.611	57084.8
619.967	57149.88
620.323	57190.78
620.678	57062.2
621.034	57039.83
621.39	57053.39
621.746	57066.27
622.101	57314.17
622.457	57103.78
622.812	57249.31
623.168	57223.78
623.523	57205.93
623.879	57342.42
624.234	57126.15
624.589	57263.55
624.945	57263.78
625.3	57293.61
625.655	57232.82
626.01	57249.77
626.365	57219.94
626.72	57158.02
627.075	57217
627.43	57214.74
627.785	57142.2
628.14	57198.69
628.495	57199.6
628.85	57187.62
629.205	57100.17
629.559	57261.52
629.914	57053.61
630.269	57095.87
630.623	57050
630.978	57004.8
631.332	57144.01
631.687	57154.85
632.041	57038.7
632.396	57108.07
632.75	56982.2
633.104	57057.91
633.459	56903.56
633.813	56869.21
634.167	56928.87
634.521	56848.19
634.875	56892.04
635.229	56832.83
635.583	56729.1
635.937	56750.57
636.291	56753.28
636.645	56704.47
636.999	56662.66
637.352	56726.84
637.706	56593.74
638.06	56666.5
638.413	56591.25
638.767	56552.38
639.121	56575.21
639.474	56430.35
639.828	56459.28
640.181	56440.97
640.534	56449.33
640.888	56353.74
641.241	56205.05
641.594	56403.69
641.947	56380.86
642.301	56294.99
642.654	56270.58
643.007	56274.2
643.36	56276.91
643.713	56195.78
644.066	56281.66
644.419	56065.84
644.771	55868.33
645.124	55650.94
645.477	55604.16
645.83	55430.83
646.182	55377.27
646.535	55309.7
646.888	55359.65
647.24	55201.01
647.593	55252.08
647.945	55130.5
648.298	55091.18
648.65	55081.01
649.002	54906.78
649.355	55154.91
649.707	55080.33
650.059	55180.22
650.411	55526.65
650.763	55473.54
651.115	55722.12
651.467	55674.89
651.819	55648.68
652.171	55474.9
652.523	55509.92
652.875	55472.86
653.227	55410.49
653.578	55527.78
653.93	55457.5
654.282	55352.64
654.633	55270.38
654.985	55324.39
655.337	55332.3
655.688	55349.7
656.039	55404.84
656.391	55103.61
656.742	55190.61
657.094	55225.86
657.445	55303.38
657.796	55219.08
658.147	55216.15
658.498	55172.53
658.849	55266.99
659.2	55111.97
659.551	55044.85
659.902	55117.84
660.253	55139.99
660.604	55148.58
660.955	55020.45
661.306	55108.58
661.656	55048.69
662.007	55006.66
662.358	54992.42
662.708	54954.91
663.059	54983.16
663.409	54790.85
663.76	55016.6
664.11	54919.43
664.461	54916.27
664.811	54926.21
665.161	54862.94
665.511	54787.91
665.862	54873.11
666.212	54870.85
666.562	54855.7
666.912	54802.15
667.262	54835.59
667.612	54825.42
667.962	54818.64
668.312	54735.71
668.662	54850.51
669.011	54683.28
669.361	54653.68
669.711	54671.53
670.06	54712.43
670.41	54626.78
670.76	54631.08
671.109	54708.82
671.459	54587.01
671.808	54563.28
672.157	54562.6
672.507	54392.89
672.856	54392.44
673.205	54391.08
673.554	54442.83
673.904	54254.36
674.253	54511.31
674.602	54326.45
674.951	53937.31
675.3	53867.71
675.649	54242.16
675.998	54267.7
676.346	54215.04
676.695	54295.49
677.044	54081.71
677.393	54151.09
677.741	54184.76
678.09	54060.92
678.438	53991.32
678.787	54065.22
679.135	54015.5
679.484	53890.31
679.832	53983.19
680.181	53832.23
680.529	53898.89
680.877	53866.13
681.225	53812.34
681.573	53958.33
681.922	53653.02
682.27	53644.66
682.618	53696.19
682.966	53533.25
683.314	53574.16
683.661	53454.16
684.009	53265.46
684.357	53204.67
684.705	53263.66
685.053	53292.13
685.4	53195.18
685.748	52990.44
686.095	53052.59
686.443	52869.09
686.79	52857.34
687.138	52894.85
687.485	52906.15
687.832	52684.69
688.18	52731.01
688.527	52608.08
688.874	52590.91
689.221	52496.22
689.568	52279.73
689.915	52325.15
690.262	52388.42
690.609	52171.48
690.956	52036.34
691.303	51994.54
691.65	51844.03
691.997	51849
692.344	51715.67
692.69	51655.34
693.037	51680.19
693.383	51357.27
693.73	51523.36
694.077	51280.43
694.423	51255.57
694.769	51220.09
695.116	51117.5
695.462	51039.76
695.808	50888.58
696.155	51006.99
696.501	50774.68
696.847	50673.89
697.193	50490.4
697.539	50636.15
697.885	50309.16
698.231	50226
698.577	50240.68
698.923	50204.75
699.269	49889.28
699.614	49760.92
699.96	49827.59
700.306	49716.18
700.651	49564.32
700.997	49426.69
701.342	49341.73
701.688	49393.93
702.033	49246.36
702.379	49291.11
702.724	49106.93
703.069	49112.8
703.415	48775.64
703.76	48800.04
704.105	48764.34
704.45	48507.85
704.795	48376.33
705.14	48235.09
705.485	48286.39
705.83	48195.54
706.175	48279.15
706.52	47995.32
706.865	48028.77
707.209	47890.69
707.554	47698.15
707.899	47818.15
708.243	47563.24
708.588	47577.25
708.932	47290.48
709.277	47306.98
709.621	47311.5
709.966	47077.38
710.31	47179.52
710.654	46760.32
710.998	46807.78
711.342	46911.96
711.687	46807.1
712.031	46584.06
712.375	46426.32
712.719	46551.29
713.063	46427.9
713.407	46593.32
713.75	46283.05
714.094	46380.9
714.438	46085.31
714.782	46211.64
715.125	45963.51
715.469	46063.17
715.812	45624.99
716.156	45555.38
716.499	45690.07
716.843	45568.72
717.186	45337.76
717.53	45408.95
717.873	45464.31
718.216	45382.28
718.559	45098.9
718.902	44935.51
719.246	44970.09
719.589	44791.34
719.932	44631.57
720.275	44694.62
720.617	44769.42
720.96	44647.39
721.303	44684.45
721.646	44540.04
721.989	44237.68
722.331	44434.28
722.674	44279.49
723.016	44232.26
723.359	44197.45
723.701	44264.8
724.044	44070.23
724.386	43954.07
724.729	44095.08
725.071	43830.91
725.413	43851.7
725.755	43777.35
726.097	43596.79
726.439	43372.16
726.782	43424.59
727.124	43651.25
727.465	43301.88
727.807	43291.04
728.149	43218.72
728.491	43240.64
728.833	43241.77
729.175	43092.17
729.516	42892.4
729.858	42963.36
730.199	42853.53
730.541	42748.45
730.882	42693.31
731.224	42851.73
731.565	42549.81
731.906	42540.77
732.248	42560.66
732.589	42231.63
732.93	42294
733.271	42187.56
733.612	42235.92
733.953	42183.95
734.294	42226.21
734.635	41919.77
734.976	42026.44
735.317	41735.37
735.658	41904.18
735.999	41756.16
736.339	41634.36
736.68	41792.55
737.021	41623.74
737.361	41391.65
737.702	41547.58
738.042	41452.44
738.383	41255.84
738.723	41373.12
739.063	41274.37
739.404	41345.78
739.744	41248.83
740.084	41006.58
740.424	41039.57
740.764	40988.27
741.104	41090.42
741.444	40904.21
741.784	40775.85
742.124	40777.66
742.464	40689.07
742.804	40541.05
743.143	40498.34
743.483	40528.4
743.823	40174.73
744.162	40300.16
744.502	40335.86
744.841	40197.56
745.181	40356.2
745.52	40061.07
745.86	40194.62
746.199	39962.08
746.538	39972.93
746.877	40131.12
747.216	40012.7
747.556	39747.63
747.895	39759.38
748.234	39593.51
748.573	39477.35
748.911	39603.9
749.25	39591.93
749.589	39318.03
749.928	39390.8
750.267	39366.62
750.605	39230.8
750.944	39150.13
751.283	39064.26
751.621	39115.78
751.96	38824.04
752.298	38851.83
752.636	38842.11
752.975	38688.45
