Data from White_reflection_standard_FLMS001491_081.txt Node
Date: Tue Feb 07 10:32:11 GMT 2017
User: dcchb
Spectrometer: FLMS00149
Trigger mode: 0
Integration Time (sec): 2.000000E-2
Scans to average: 10
Electric dark correction enabled: true
Nonlinearity correction enabled: false
Boxcar width: 0
XAxis mode: Wavelengths
Number of Pixels in Spectrum: 2048
>>>>>Begin Spectral Data<<<<<
341.393	-14.45
341.776	-14.45
342.16	-14.45
342.543	-63.71
342.927	-71.62
343.31	-68.01
343.693	-72.98
344.077	-64.84
344.46	-58.52
344.843	-52.19
345.226	-49.48
345.61	-55.8
345.993	-14.9
346.376	4.99
346.759	9.28
347.142	33.69
347.525	35.27
347.908	60.8
348.291	83.63
348.674	99.67
349.057	109.39
349.44	94.7
349.823	140.8
350.206	163.4
350.588	237.52
350.971	277.97
351.354	276.39
351.737	279.55
352.119	310.74
352.502	280.68
352.884	330.4
353.267	341.7
353.65	325.43
354.032	338.08
354.414	352.77
354.797	361.36
355.179	377.86
355.562	363.17
355.944	355.71
356.326	389.16
356.709	373.56
357.091	404.75
357.473	395.26
357.855	394.81
358.238	400.46
358.62	399.33
359.002	400
359.384	414.69
359.766	399.55
360.148	420.34
360.53	402.94
360.912	399.78
361.294	411.98
361.676	394.81
362.057	405.43
362.439	397.74
362.821	393.45
363.203	391.19
363.584	406.78
363.966	405.88
364.348	399.78
364.729	399.55
365.111	409.95
365.493	405.2
365.874	411.53
366.256	404.07
366.637	430.51
367.019	397.74
367.4	435.03
367.781	412.88
368.163	419.66
368.544	406.33
368.925	421.7
369.306	443.17
369.688	449.49
370.069	435.71
370.45	411.08
370.831	433.22
371.212	426.67
371.593	438.19
371.974	448.36
372.355	430.51
372.736	437.52
373.117	443.84
373.498	434.8
373.879	466.89
374.26	444.07
374.641	451.98
375.021	439.32
375.402	450.85
375.783	466.67
376.163	506.22
376.544	496.05
376.925	482.49
377.305	481.58
377.686	495.37
378.066	501.02
378.447	497.63
378.827	502.15
379.208	523.39
379.588	493.11
379.968	525.2
380.349	520.45
380.729	533.11
381.109	526.33
381.489	544.18
381.87	544.86
382.25	539.66
382.63	546.67
383.01	559.55
383.39	560.9
383.77	554.12
384.15	571.52
384.53	560.45
384.91	596.16
385.29	584.41
385.67	600.9
386.049	593.22
386.429	620.56
386.809	608.59
387.189	637.29
387.568	624.4
387.948	640.9
388.328	643.16
388.707	640.22
389.087	652.43
389.466	685.42
389.846	661.01
390.225	677.96
390.605	692.2
390.984	677.74
391.363	712.99
391.743	719.54
392.122	716.15
392.501	729.26
392.881	722.26
393.26	752.08
393.639	754.12
394.018	757.28
394.397	766.32
394.776	788.24
395.155	785.08
395.534	798.41
395.913	824.17
396.292	838.18
396.671	827.11
397.05	812.65
397.429	835.92
397.808	827.34
398.186	876.83
398.565	861.23
398.944	847.9
399.323	888.13
399.701	859.43
400.08	907.33
400.458	894.91
400.837	905.75
401.215	906.66
401.594	937.16
401.972	923.83
402.351	982.36
402.729	988.69
403.107	959.31
403.486	985.98
403.864	998.41
404.242	994.11
404.62	1002.25
404.999	1035.24
405.377	1024.39
405.755	1035.47
406.133	1078.63
406.511	1066.2
406.889	1121.79
407.267	1153.2
407.645	1139.87
408.023	1129.93
408.401	1149.14
408.779	1173.77
409.156	1178.51
409.534	1202.47
409.912	1234.56
410.29	1234.78
410.667	1282.01
411.045	1264.61
411.422	1300.54
411.8	1301.67
412.178	1306.42
412.555	1308.45
412.933	1335.57
413.31	1360.66
413.687	1383.93
414.065	1397.27
414.442	1450.82
414.819	1454.67
415.197	1473.42
415.574	1496.92
415.951	1496.47
416.328	1526.3
416.705	1537.15
417.082	1512.74
417.46	1547.77
417.837	1562.91
418.214	1596.58
418.591	1611.5
418.967	1614.43
419.344	1634.1
419.721	1665.73
420.098	1649.46
420.475	1716.81
420.852	1682.91
421.228	1741.44
421.605	1755.9
421.982	1772.17
422.358	1765.62
422.735	1831.6
423.111	1809.91
423.488	1837.03
423.864	1864.37
424.241	1875.45
424.617	1896.46
424.994	1941.66
425.37	1945.27
425.746	1968.1
426.123	1960.19
426.499	2005.16
426.875	2042.45
427.251	2082.22
427.627	2081.32
428.003	2112.05
428.379	2146.17
428.756	2192.5
429.132	2201.54
429.507	2243.34
429.883	2299.84
430.259	2286.28
430.635	2307.98
431.011	2359.5
431.387	2378.93
431.763	2467.29
432.138	2454.86
432.514	2508.87
432.89	2543
433.265	2589.32
433.641	2606.27
434.016	2660.06
434.392	2649.89
434.767	2707.51
435.143	2712.94
435.518	2761.07
435.894	2781.18
436.269	2833.84
436.644	2837.68
437.02	2870
437.395	2882.2
437.77	2963.55
438.145	2995.42
438.52	3016.66
438.895	3011.91
439.271	3051.69
439.646	3131.23
440.021	3144.56
440.395	3182.3
440.77	3187.5
441.145	3214.62
441.52	3253.04
441.895	3257.56
442.27	3274.96
442.645	3319.7
443.019	3348.63
443.394	3358.12
443.769	3406.93
444.143	3373.48
444.518	3453.71
444.892	3449.64
445.267	3472.24
445.641	3529.41
446.016	3570.32
446.39	3554.5
446.764	3570.77
447.139	3639.69
447.513	3704.55
447.887	3705.91
448.262	3718.11
448.636	3696.19
449.01	3761.95
449.384	3796.52
449.758	3838.78
450.132	3873.36
450.506	3915.17
450.88	3935.05
451.254	3944.09
451.628	4049.17
452.002	4057.31
452.376	4109.74
452.75	4179.11
453.123	4182.73
453.497	4224.76
453.871	4293.01
454.244	4349.73
454.618	4414.36
454.992	4451.65
455.365	4433.57
455.739	4555.83
456.112	4654.36
456.486	4668.59
456.859	4718.76
457.232	4794.46
457.606	4792.88
457.979	4862.49
458.352	4999.88
458.725	5053.21
459.099	5063.84
459.472	5187.45
459.845	5194.68
460.218	5240.78
460.591	5334.79
460.964	5347.44
461.337	5466.31
461.71	5561.68
462.083	5626.08
462.456	5672.86
462.829	5669.24
463.201	5772.52
463.574	5778.17
463.947	5917.6
464.32	6060.65
464.692	6069.46
465.065	6175.44
465.438	6210.02
465.81	6305.84
466.183	6371.82
466.555	6587.19
466.928	6583.8
467.3	6569.56
467.672	6687.75
468.045	6886.61
468.417	6858.36
468.789	6917.8
469.161	7000.51
469.534	7142.88
469.906	7343.55
470.278	7351.01
470.65	7447.95
471.022	7663.99
471.394	7726.82
471.766	7800.04
472.138	7892.46
472.51	8110.31
472.882	8247.71
473.253	8351.21
473.625	8402.28
473.997	8622.61
474.369	8656.74
474.74	8754.36
475.112	8896.05
475.484	9101.02
475.855	9217.62
476.227	9365.64
476.598	9597.5
476.97	9668.91
477.341	9911.62
477.713	10050.15
478.084	10079.75
478.455	10394.54
478.827	10461.21
479.198	10795.66
479.569	10855.55
479.94	11151.81
480.311	11228.87
480.682	11514.06
481.053	11730.55
481.424	11977.1
481.795	12059.36
482.166	12218.68
482.537	12445.79
482.908	12699.34
483.279	12778.44
483.65	13076.73
484.021	13319.44
484.391	13408.93
484.762	13482.82
485.133	13714.68
485.503	13899.76
485.874	14257.49
486.244	14394.66
486.615	14660.19
486.985	14789.46
487.356	15014.76
487.726	15205.49
488.097	15515.99
488.467	15585.82
488.837	15854.06
489.207	16141.74
489.578	16346.03
489.948	16454.5
490.318	16802.28
490.688	16757.54
491.058	17018.32
491.428	17284.76
491.798	17384.42
492.168	17803.84
492.538	17791.18
492.908	18085.64
493.278	18326.99
493.648	18291.06
494.017	18522.46
494.387	18698.96
494.757	18960.19
495.126	19207.19
495.496	19164.26
495.866	19296.91
496.235	19599.72
496.605	19821.19
496.974	19873.84
497.344	20081.52
497.713	20299.14
498.082	20285.36
498.452	20552.02
498.821	20620.26
499.19	20864.32
499.559	20977.32
499.928	21142.06
500.298	21240.13
500.667	21531.88
501.036	21427.47
501.405	21709.05
501.774	21677.64
502.143	21921.02
502.512	22067.23
502.88	22352.65
503.249	22315.36
503.618	22537.95
503.987	22581.57
504.356	22807.32
504.724	22983.59
505.093	23074.89
505.462	23217.03
505.83	23385.39
506.199	23615.44
506.567	23870.12
506.936	23850.91
507.304	24151.24
507.672	24212.26
508.041	24400.5
508.409	24695.18
508.777	24766.82
509.145	24972.69
509.514	25066.7
509.882	25200.93
510.25	25331.33
510.618	25488.38
510.986	25611.32
511.354	25868.03
511.722	26204.3
512.09	26413.1
512.458	26466.89
512.826	26686.32
513.193	26837.5
513.561	26903.94
513.929	27124.27
514.297	27335.79
514.664	27592.06
515.032	27733.52
515.4	27952.95
515.767	28078.82
516.135	28304.81
516.502	28150.01
516.869	28782.08
517.237	28824.57
517.604	28809.2
517.972	29209.87
518.339	29378
518.706	29434.27
519.073	29664.32
519.44	29893.69
519.808	30178.66
520.175	30348.14
520.542	30660.45
520.909	30765.98
521.276	30813.22
521.643	31402.13
522.009	31396.25
522.376	31731.38
522.743	31884.15
523.11	32240.97
523.477	32602.77
523.843	32627.4
524.21	32962.76
524.577	33302.64
524.943	33383.54
525.31	33709.86
525.676	33904.89
526.043	34189.17
526.409	34308.04
526.776	34700.12
527.142	34802.94
527.508	34964.97
527.874	35309.82
528.241	35368.58
528.607	35630.94
528.973	35997.03
529.339	35882.46
529.705	36433.86
530.071	36595.44
530.437	36712.04
530.803	37021.64
531.169	37364
531.535	37182.31
531.901	37468.18
532.267	37444
532.632	37861.39
532.998	37943.42
533.364	38218.67
533.73	38255.96
534.095	38626.57
534.461	38742.72
534.826	39020.68
535.192	39046.22
535.557	39314.91
535.923	39330.51
536.288	39664.73
536.653	39775.01
537.019	39802.13
537.384	39991.28
537.749	40121.22
538.114	40128.22
538.479	40272.63
538.845	40557.37
539.21	40643.69
539.575	40809.56
539.94	40886.17
540.305	41122.1
540.67	41124.13
541.034	41360.96
541.399	41490
541.764	41515.31
542.129	41786.71
542.494	41820.16
542.858	41960.94
543.223	42052.92
543.587	42343.31
543.952	42129.3
544.316	42471.89
544.681	42488.84
545.045	42735.39
545.41	43009.73
545.774	42979.67
546.138	43203.17
546.503	43335.15
546.867	43312.32
547.231	43725.64
547.595	43777.39
547.959	43937.62
548.324	44001.34
548.688	44009.25
549.052	44246.76
549.416	44382.58
549.779	44470.94
550.143	44554.32
550.507	44815.33
550.871	44964.26
551.235	44950.7
551.599	45242.44
551.962	45366.73
552.326	45631.81
552.689	45787.28
553.053	45676.1
553.417	45747.06
553.78	46264.56
554.143	46258.23
554.507	46456.65
554.87	46556.98
555.234	46905.9
555.597	46652.12
555.96	46799.91
556.323	47125.1
556.686	47247.59
557.05	47437.86
557.413	47525.77
557.776	47578.2
558.139	48012.09
558.502	47939.32
558.865	48086.66
559.228	48426.31
559.59	48601.22
559.953	48516.48
560.316	49008.44
560.679	49033.98
561.041	49189.91
561.404	49409.34
561.767	49601.87
562.129	49525.49
562.492	49902.43
562.854	49982.43
563.217	49978.36
563.579	50148.98
563.941	50442.3
564.304	50484.56
564.666	50821.5
565.028	50744.67
565.39	50972.91
565.753	51054.72
566.115	51244.99
566.477	51383.07
566.839	51403.86
567.201	51638.66
567.563	51737.18
567.925	52000
568.287	51951.64
568.648	52049.04
569.01	52198.87
569.372	52509.82
569.734	52404.74
570.095	52654.67
570.457	52758.85
570.819	52715.01
571.18	52928.79
571.542	52990.49
571.903	53056.47
572.265	53140.31
572.626	53224.83
572.987	53318.39
573.349	53402.68
573.71	53573.29
574.071	53557.48
574.432	53639.96
574.794	53831.59
575.155	53843.12
575.516	53804.93
575.877	53927.64
576.238	53950.91
576.599	54072.72
576.96	54148.65
577.32	54175.76
577.681	54258.02
578.042	54278.13
578.403	54365.14
578.763	54372.14
579.124	54420.5
579.485	54492.37
579.845	54625.7
580.206	54479.03
580.566	54438.58
580.927	54597.22
581.287	54636.09
581.648	54566.26
582.008	54813.49
582.368	54627.73
582.728	54722.42
583.089	54712.7
583.449	54695.98
583.809	54747.28
584.169	54799.7
584.529	54725.13
584.889	54970.77
585.249	54751.79
585.609	54675.64
585.969	54891.45
586.329	54720.38
586.688	54808.29
587.048	54772.36
587.408	54734.17
587.768	54878.12
588.127	54811
588.487	54729.87
588.846	54930.55
589.206	54817.33
589.565	54783.43
589.925	54930.32
590.284	54786.14
590.643	54879.7
591.003	54974.84
591.362	54988.85
591.721	54955.86
592.08	54926.71
592.44	55011.22
592.799	55009.87
593.158	54959.02
593.517	54952.02
593.876	55002.18
594.235	54914.5
594.593	54911.34
594.952	54963.31
595.311	54957.44
595.67	55002.64
596.029	55212.8
596.387	55055.52
596.746	55195.4
597.104	55136.19
597.463	55109.3
597.822	55220.94
598.18	55153.37
598.538	55124.89
598.897	55298.22
599.255	55019.36
599.613	55414.83
599.972	55248.96
600.33	55290.99
600.688	55262.52
601.046	55350.2
601.404	55493.7
601.762	55357.2
602.12	55519.23
602.478	55413.7
602.836	55530.76
603.194	55377.09
603.552	55439.01
603.91	55392
604.268	55522.62
604.625	55462.74
604.983	55598.33
605.341	55409.63
605.698	55572.11
606.056	55653.24
606.413	55581.6
606.771	55699.34
607.128	55735.72
607.485	55640.36
607.843	55636.52
608.2	55801.94
608.557	55833.57
608.914	55792.9
609.272	55902.05
609.629	55944.98
609.986	56019.33
610.343	55909.96
610.7	56075.38
611.057	55999.22
611.414	56038.77
611.771	55996.73
612.127	56129.61
612.484	56051.65
612.841	56249.16
613.198	56162.61
613.554	56224.52
613.911	56291.19
614.267	56271.75
614.624	56229.27
614.98	56347.23
615.337	56444.63
615.693	56337.97
616.05	56325.09
616.406	56444.41
616.762	56442.37
617.118	56355.37
617.475	56402.37
617.831	56575.7
618.187	56478.76
618.543	56544.74
618.899	56633.33
619.255	56570.28
619.611	56539.54
619.967	56650.05
620.323	56611.18
620.678	56587.68
621.034	56544.52
621.39	56538.41
621.746	56533.22
622.101	56772.08
622.457	56475.59
622.812	56633.1
623.168	56634.68
623.523	56695.25
623.879	56655.25
624.234	56555.59
624.589	56541.8
624.945	56665.19
625.3	56616.83
625.655	56645.76
626.01	56631.29
626.365	56632.2
626.72	56589.49
627.075	56628.36
627.43	56660.45
627.785	56502.48
628.14	56581.8
628.495	56573.22
628.85	56538.41
629.205	56441.02
629.559	56598.07
629.914	56479.21
630.269	56531.41
630.623	56408.93
630.978	56372.77
631.332	56433.33
631.687	56488.02
632.041	56315.82
632.396	56366.67
632.75	56237.63
633.104	56349.94
633.459	56166.22
633.813	56217.74
634.167	56200.12
634.521	56154.24
634.875	56194.92
635.229	56128.03
635.583	55975.27
635.937	55956.96
636.291	55961.03
636.645	55932.78
636.999	55864.99
637.352	55979.56
637.706	55741.37
638.06	55862.05
638.413	55808.49
638.767	55767.36
639.121	55730.07
639.474	55678.1
639.828	55662.28
640.181	55615.5
640.534	55668.15
640.888	55503.41
641.241	55494.83
641.594	55463.87
641.947	55524.66
642.301	55434.71
642.654	55417.09
643.007	55324.89
643.36	55358.56
643.713	55345.68
644.066	55333.93
644.419	55189.98
644.771	55027.49
645.124	54704.11
645.477	54675.41
645.83	54539.37
646.182	54343.67
646.535	54398.36
646.888	54377.79
647.24	54180.96
647.593	54368.53
647.945	54245.14
648.298	54118.82
648.65	54123.11
649.002	53971.48
649.355	54078.59
649.707	54041.53
650.059	54205.14
650.411	54360.84
650.763	54452.37
651.115	54768.52
651.467	54609.65
651.819	54635.87
652.171	54535.08
652.523	54508.41
652.875	54514.51
653.227	54405.14
653.578	54592.93
653.93	54411.01
654.282	54298.25
654.633	54202.2
654.985	54298.25
655.337	54430.67
655.688	54279.94
656.039	54335.08
656.391	54022.1
656.742	54170.12
657.094	54181.19
657.445	54222.54
657.796	54100.74
658.147	54069.78
658.498	54060.97
658.849	54141.19
659.2	54041.76
659.551	53942.55
659.902	54044.47
660.253	54001.31
660.604	54026.39
660.955	53881.31
661.306	53958.82
661.656	53864.81
662.007	53940.97
662.358	53861.87
662.708	53910.24
663.059	53879.28
663.409	53580.07
663.76	53874.08
664.11	53866.62
664.461	53865.26
664.811	53762.89
665.161	53666.17
665.511	53569.45
665.862	53649.45
666.212	53807.19
666.562	53871.82
666.912	53693.97
667.262	53625.27
667.612	53635.67
667.962	53576.23
668.312	53658.04
668.662	53680.86
669.011	53615.33
669.361	53507.99
669.711	53507.31
670.06	53465.5
670.41	53469.57
670.76	53367.88
671.109	53490.36
671.459	53333.3
671.808	53373.53
672.157	53325.17
672.507	53157.03
672.856	53187.99
673.205	53203.36
673.554	53310.25
673.904	53135.79
674.253	53285.84
674.602	53179.41
674.951	52697.61
675.3	52637.05
675.649	53103.02
675.998	52969.24
676.346	53038.62
676.695	53117.04
677.044	52931.05
677.393	53006.53
677.741	52910.94
678.09	52868.68
678.438	52855.8
678.787	52865.06
679.135	52902.8
679.484	52615.81
679.832	52774.45
680.181	52531.06
680.529	52706.2
680.877	52581
681.225	52512.08
681.573	52750.04
681.922	52504.17
682.27	52320.22
682.618	52398.41
682.966	52283.16
683.314	52367.9
683.661	52219.21
684.009	52137.17
684.357	52051.98
684.705	51914.36
685.053	51980.57
685.4	51920
685.748	51661.93
686.095	51792.32
686.443	51659.45
686.79	51637.3
687.138	51581.03
687.485	51630.07
687.832	51449.28
688.18	51375.84
688.527	51249.74
688.874	51292.68
689.221	51197.76
689.568	51011.55
689.915	50911.44
690.262	50906.25
690.609	50795.97
690.956	50713.03
691.303	50695.86
691.65	50438.91
691.997	50541.06
692.344	50346.03
692.69	50267.84
693.037	50271.23
693.383	49901.75
693.73	50135.87
694.077	50008.87
694.423	49887.29
694.769	49794.19
695.116	49658.82
695.462	49664.24
695.808	49393.97
696.155	49591.7
696.501	49192.17
696.847	49259.28
697.193	48930.7
697.539	49052.51
697.885	48803.25
698.231	48686.64
698.577	48765.74
698.923	48610.94
699.269	48512.18
699.614	48274.68
699.96	48229.71
700.306	48269.25
700.651	48004.63
700.997	47918.75
701.342	47855.48
701.688	47895.03
702.033	47667.91
702.379	47622.72
702.724	47547.46
703.069	47487.81
703.415	47095.5
703.76	47166.46
704.105	47098.21
704.45	47008.5
704.795	46774.15
705.14	46655.51
705.485	46647.83
705.83	46506.81
706.175	46520.6
706.52	46447.38
706.865	46184.11
707.209	46295.52
707.554	45997.22
707.899	45994.51
708.243	45802.43
708.588	45820.73
708.932	45538.03
709.277	45455.32
709.621	45365.15
709.966	45262.1
710.31	45409.44
710.654	44997.02
710.998	45165.61
711.342	45004.03
711.687	44973.29
712.031	44725.84
712.375	44745.5
712.719	44791.83
713.063	44517.26
713.407	44611.95
713.75	44376.93
714.094	44263.48
714.438	44142.13
714.782	44205.86
715.125	43934.23
715.469	44151.4
715.812	43819.88
716.156	43775.81
716.499	43725.42
716.843	43630.96
717.186	43488.14
717.53	43557.51
717.873	43569.72
718.216	43421.47
718.559	43125.89
718.902	43074.14
719.246	43209.95
719.589	42933.57
719.932	42825.1
720.275	42825.78
720.617	42776.06
720.96	42729.06
721.303	42638.44
721.646	42726.35
721.989	42379.24
722.331	42475.96
722.674	42378.79
723.016	42334.04
723.359	42189.19
723.701	42317.77
724.044	41972.47
724.386	41883.66
724.729	42074.61
725.071	41766.83
725.413	41836.43
725.755	41803.43
726.097	41502.2
726.439	41357.34
726.782	41471.01
727.124	41535.42
727.465	41288.42
727.807	41201.19
728.149	41290.45
728.491	41031.03
728.833	41120.51
729.175	41127.52
729.516	40840.52
729.858	40825.83
730.199	40853.63
730.541	40715.78
730.882	40791.48
731.224	40810.69
731.565	40571.15
731.906	40520.98
732.248	40496.58
732.589	40346.07
732.93	40163.7
733.271	40285.51
733.612	40317.82
733.953	40219.52
734.294	40061.11
734.635	40057.94
734.976	40128.45
735.317	39866.99
735.658	39723.26
735.999	39773.21
736.339	39614.57
736.68	39670.16
737.021	39551.29
737.361	39443.5
737.702	39534.34
738.042	39372.99
738.383	39355.36
738.723	39270.85
739.063	39265.42
739.404	39196.5
739.744	39083.28
740.084	38979.78
740.424	39035.6
740.764	38869.05
741.104	39095.71
741.444	38677.19
741.784	38619.34
742.124	38734.36
742.464	38669.05
742.804	38552.45
743.143	38303.41
743.483	38423.41
743.823	38212.12
744.162	38255.51
744.502	38171.67
744.841	38110.88
745.181	38117.2
745.52	38012.8
745.86	38149.97
746.199	37918.11
746.538	37816.42
746.877	37905.68
747.216	37891.45
747.556	37777.1
747.895	37755.86
748.234	37495.98
748.573	37554.96
748.911	37493.72
749.25	37422.08
749.589	37215.53
749.928	37279.03
750.267	37375.75
750.605	37244.01
750.944	37151.81
751.283	36872.26
751.621	36987.06
751.96	36594.76
752.298	36758.82
752.636	36695.55
