Data from white_poster_card_FLMS001491_00082.txt Node
Date: Wed Feb 08 11:52:07 GMT 2017
User: dcchb
Spectrometer: FLMS00149
Trigger mode: 0
Integration Time (sec): 2.000000E-2
Scans to average: 10
Electric dark correction enabled: true
Nonlinearity correction enabled: false
Boxcar width: 0
XAxis mode: Wavelengths
Number of Pixels in Spectrum: 2048
>>>>>Begin Spectral Data<<<<<
341.393	-16.09
341.776	-16.09
342.16	-16.09
342.543	-58.35
342.927	-67.61
343.31	-71.45
343.693	-66.03
344.077	-53.37
344.46	-45.24
344.843	-73.71
345.226	-52.7
345.61	-23.54
345.993	-26.71
346.376	6.51
346.759	5.38
347.142	25.27
347.525	45.61
347.908	57.13
348.291	78.15
348.674	106.17
349.057	88.54
349.44	135.1
349.823	153.17
350.206	162.89
350.588	212.16
350.971	216.68
351.354	229.33
351.737	230.91
352.119	246.28
352.502	271.81
352.884	272.49
353.267	268.88
353.65	301.19
354.032	304.58
354.414	321.76
354.797	321.76
355.179	308.2
355.562	332.6
355.944	326.95
356.326	334.19
356.709	338.48
357.091	330.34
357.473	349.55
357.855	339.38
358.238	345.71
358.62	344.58
359.002	340.97
359.384	340.51
359.766	337.58
360.148	362.21
360.53	368.54
360.912	333.96
361.294	304.58
361.676	309.1
362.057	333.51
362.439	318.14
362.821	333.51
363.203	328.31
363.584	341.64
363.966	335.32
364.348	324.69
364.729	335.09
365.111	329.89
365.493	328.76
365.874	302.32
366.256	332.6
366.637	320.85
367.019	307.75
367.4	333.73
367.781	298.48
368.163	311.14
368.544	337.12
368.925	300.97
369.306	318.14
369.688	305.26
370.069	320.63
370.45	305.03
370.831	315.88
371.212	318.59
371.593	314.75
371.974	324.47
372.355	316.79
372.736	313.62
373.117	323.79
373.498	333.51
373.879	301.42
374.26	318.37
374.641	334.41
375.021	329.21
375.402	325.37
375.783	318.37
376.163	344.58
376.544	336.45
376.925	346.84
377.305	335.09
377.686	331.93
378.066	303.9
378.447	323.79
378.827	343.45
379.208	331.93
379.588	348.65
379.968	328.76
380.349	338.93
380.729	345.71
381.109	337.8
381.489	340.51
381.87	348.88
382.25	346.16
382.63	366.5
383.01	368.76
383.39	329.67
383.77	364.02
384.15	358.59
384.53	338.93
384.91	338.25
385.29	370.12
385.67	353.39
386.049	373.28
386.429	371.02
386.809	370.57
387.189	356.78
387.568	364.69
387.948	370.12
388.328	377.12
388.707	378.48
389.087	388.42
389.466	374.19
389.846	380.29
390.225	385.94
390.605	378.03
390.984	370.34
391.363	376.9
391.743	401.53
392.122	406.05
392.501	419.16
392.881	416.9
393.26	412.15
393.639	383.9
394.018	380.51
394.397	413.73
394.776	410.79
395.155	394.98
395.534	390.68
395.913	428.87
396.292	398.14
396.671	437.91
397.05	425.48
397.429	421.87
397.808	422.77
398.186	430.23
398.565	407.4
398.944	429.55
399.323	432.94
399.701	437.91
400.08	446.05
400.458	444.24
400.837	428.65
401.215	440.62
401.594	470.23
401.972	455.99
402.351	452.15
402.729	472.49
403.107	452.15
403.486	459.61
403.864	475.88
404.242	495.31
404.62	481.3
404.999	470.23
405.377	467.06
405.755	495.54
406.133	500.06
406.511	516.78
406.889	500.74
407.267	520.62
407.645	540.96
408.023	532.15
408.401	518.59
408.779	551.81
409.156	548.42
409.534	554.52
409.912	556.1
410.29	578.7
410.667	589.55
411.045	604.69
411.422	601.75
411.8	628.87
412.178	629.32
412.555	653.27
412.933	651.69
413.31	680.39
413.687	663.22
414.065	684.46
414.442	677.91
414.819	734.4
415.197	726.49
415.574	759.03
415.951	773.95
416.328	785.25
416.705	777.11
417.082	779.15
417.46	813.04
417.837	843.1
418.214	850.78
418.591	847.39
418.967	863.89
419.344	872.48
419.721	888.97
420.098	918.35
420.475	917.67
420.852	943.21
421.228	957.9
421.605	949.54
421.982	975.3
422.358	989.54
422.735	994.06
423.111	1027.05
423.488	1033.6
423.864	1064.11
424.241	1052.81
424.617	1062.08
424.994	1072.47
425.37	1102.08
425.746	1098.01
426.123	1132.58
426.499	1145.46
426.875	1143.88
427.251	1179.14
427.627	1200.83
428.003	1224.33
428.379	1217.33
428.756	1231.56
429.132	1247.83
429.507	1282.86
429.883	1292.35
430.259	1278.57
430.635	1317.89
431.011	1336.19
431.387	1352.46
431.763	1392.24
432.138	1377.55
432.514	1435.85
432.89	1454.38
433.265	1464.1
433.641	1495.96
434.016	1528.73
434.392	1535.28
434.767	1566.47
435.143	1583.42
435.518	1592.68
435.894	1597.88
436.269	1652.8
436.644	1654.83
437.02	1660.48
437.395	1675.85
437.77	1664.55
438.145	1704.09
438.52	1707.94
438.895	1792.23
439.271	1748.61
439.646	1772.79
440.021	1811.21
440.395	1827.03
440.77	1803.98
441.145	1807.59
441.52	1869.96
441.895	1857.54
442.27	1901.6
442.645	1868.16
443.019	1869.29
443.394	1891.43
443.769	1945.22
444.143	1937.31
444.518	1957.19
444.892	1928.72
445.267	1959.45
445.641	1995.39
446.016	1973.92
446.39	2009.62
446.764	2022.05
447.139	2024.99
447.513	2018.21
447.887	2070.64
448.262	2060.92
448.636	2053.01
449.01	2089.85
449.384	2140.47
449.758	2123.74
450.132	2183.18
450.506	2173.91
450.88	2182.5
451.254	2177.98
451.628	2202.16
452.002	2231.54
452.376	2243.74
452.75	2293
453.123	2269.95
453.497	2304.53
453.871	2350.4
454.244	2369.16
454.618	2379.56
454.992	2418.88
455.365	2451.42
455.739	2483.06
456.112	2542.49
456.486	2520.8
456.859	2551.75
457.232	2614.35
457.606	2592.43
457.979	2641.47
458.352	2657.29
458.725	2690.06
459.099	2719.43
459.472	2767.57
459.845	2823.61
460.218	2836.27
460.591	2853.44
460.964	2843.27
461.337	2933.21
461.71	2968.24
462.083	3018.64
462.456	2951.52
462.829	3055.24
463.201	3060.44
463.574	3068.35
463.947	3109.03
464.32	3217.27
464.692	3226.77
465.065	3230.16
465.438	3266.76
465.81	3358.29
466.183	3371.39
466.555	3387.89
466.928	3454.78
467.3	3477.15
467.672	3472.41
468.045	3600.09
468.417	3580.2
468.789	3640.99
469.161	3652.06
469.534	3738.39
469.906	3800.08
470.278	3824.49
470.65	3845.51
471.022	3906.97
471.394	3997.37
471.766	3993.3
472.138	4092.96
472.51	4158.49
472.882	4193.07
473.253	4209.56
473.625	4303.35
473.997	4398.94
474.369	4419.5
474.74	4478.48
475.112	4546.05
475.484	4626.73
475.855	4664.24
476.227	4762.09
476.598	4839.15
476.97	4884.35
477.341	4962.09
477.713	5041.63
478.084	5098.13
478.455	5198.24
478.827	5256.32
479.198	5423.32
479.569	5443.66
479.94	5572.24
480.311	5601.84
480.682	5705.8
481.053	5844.32
481.424	5952.34
481.795	5981.5
482.166	6071.44
482.537	6153.69
482.908	6304.2
483.279	6333.58
483.65	6441.6
484.021	6623.06
484.391	6614.92
484.762	6720.23
485.133	6789.84
485.503	6912.09
485.874	7012.2
486.244	7092.65
486.615	7222.59
486.985	7309.14
487.356	7424.17
487.726	7453.77
488.097	7602.47
488.467	7652.19
488.837	7855.57
489.207	7955.91
489.578	8117.94
489.948	8105.96
490.318	8237.26
490.688	8266.63
491.058	8421.88
491.428	8528.09
491.798	8599.05
492.168	8790.01
492.538	8785.49
492.908	8919.27
493.278	9036.56
493.648	9043.11
494.017	9211.92
494.387	9288.75
494.757	9361.07
495.126	9418.47
495.496	9420.5
495.866	9630.66
496.235	9720.83
496.605	9796.08
496.974	9839.7
497.344	9941.39
497.713	9956.08
498.082	10011.9
498.452	10196.53
498.821	10211.67
499.19	10293.47
499.559	10335.28
499.928	10472.22
500.298	10598.77
500.667	10606.01
501.036	10587.02
501.405	10700.92
501.774	10783.85
502.143	10859.11
502.512	10916.73
502.88	11015.49
503.249	11050.06
503.618	11147.46
503.987	11242.37
504.356	11258.42
504.724	11329.38
505.093	11418.64
505.462	11462.26
505.83	11506.1
506.199	11588.81
506.567	11772.98
506.936	11818.18
507.304	11968.91
507.672	12066.98
508.041	12041
508.409	12186.98
508.777	12213.87
509.145	12278.96
509.514	12480.53
509.882	12537.71
510.25	12517.14
510.618	12672.84
510.986	12708.55
511.354	12873.52
511.722	12948.54
512.09	13060.86
512.458	13046.39
512.826	13284.35
513.193	13261.08
513.561	13319.83
513.929	13398.48
514.297	13629.66
514.664	13721.86
515.032	13712.82
515.4	13850.89
515.767	13863.32
516.135	14018.12
516.502	13953.72
516.869	14185.35
517.237	14222.18
517.604	14312.58
517.972	14521.84
518.339	14587.6
518.706	14658.78
519.073	14730.87
519.44	14848.15
519.808	14955.95
520.175	14950.75
520.542	15188.48
520.909	15316.62
521.276	15327.01
521.643	15482.49
522.009	15544.18
522.376	15716.83
522.743	15850.61
523.11	15996.6
523.477	16103.71
523.843	16306.87
524.21	16386.19
524.577	16561.56
524.943	16499.18
525.31	16699.41
525.676	16905.28
526.043	17042
526.409	17071.83
526.776	17275.44
527.142	17271.14
527.508	17489.89
527.874	17579.83
528.241	17613.28
528.607	17720.17
528.973	17952.93
529.339	17965.36
529.705	18138.01
530.071	18276.77
530.437	18402.86
530.803	18476.99
531.169	18614.16
531.535	18561.28
531.901	18760.82
532.267	18807.15
532.632	18888.95
532.998	19023.41
533.364	19115.39
533.73	19159
534.095	19344.99
534.461	19332.78
534.826	19506.79
535.192	19579.56
535.557	19779.32
535.923	19694.58
536.288	19895.93
536.653	20023.61
537.019	19923.73
537.384	20040.56
537.749	20195.36
538.114	20200.33
538.479	20219.99
538.845	20370.04
539.21	20368.01
539.575	20339.08
539.94	20619.98
540.305	20689.13
540.67	20642.58
541.034	20813.42
541.399	20947.2
541.764	20935.68
542.129	21065.84
542.494	21161.89
542.858	21130.48
543.223	21176.8
543.587	21268.1
543.952	21319.85
544.316	21492.27
544.681	21487.53
545.045	21590.8
545.41	21747.18
545.774	21783.79
546.138	21781.98
546.503	21956.44
546.867	21954.41
547.231	22025.14
547.595	22128.87
547.959	22174.74
548.324	22240.5
548.688	22275.76
549.052	22490.21
549.416	22465.81
549.779	22501.29
550.143	22594.39
550.507	22786.25
550.871	22807.95
551.235	22825.8
551.599	22990.09
551.962	23050.2
552.326	23158.22
552.689	23322.06
553.053	23118.67
553.417	23296.52
553.78	23657.87
554.143	23524.31
554.507	23611.54
554.87	23719.33
555.234	23999.33
555.597	23857.18
555.96	24002.26
556.323	24162.26
556.686	24217.17
557.05	24331.52
557.413	24406.77
557.776	24581.91
558.139	24715.92
558.502	24657.84
558.865	24657.61
559.228	24896.93
559.59	25036.59
559.953	25080.43
560.316	25361.78
560.679	25431.83
561.041	25470.25
561.404	25667.08
561.767	25783.69
562.129	25736
562.492	26059.39
562.854	26039.95
563.217	26190.91
563.579	26224.13
563.941	26368.53
564.304	26452.82
564.666	26649.88
565.028	26708.18
565.39	26809.2
565.753	27062.3
566.115	27068.4
566.477	27169.19
566.839	27254.61
567.201	27453.93
567.563	27495.73
567.925	27621.15
568.287	27582.28
568.648	27771.2
569.01	27853.46
569.372	28033.8
569.734	28015.72
570.095	28218.88
570.457	28309.72
570.819	28400.11
571.18	28454.58
571.542	28510.62
571.903	28606.66
572.265	28677.4
572.626	28856.15
572.987	28850.5
573.349	29061.11
573.71	29044.39
574.071	29274.22
574.432	29314.67
574.794	29377.94
575.155	29373.65
575.516	29342.69
575.877	29530.93
576.238	29520.54
576.599	29634.66
576.96	29654.77
577.32	29783.13
577.681	29873.07
578.042	29860.64
578.403	29917.59
578.763	30027.87
579.124	30069
579.485	30196.45
579.845	30228.77
580.206	30012.73
580.566	30147.64
580.927	30172.5
581.287	30309.67
581.648	30235.32
582.008	30365.94
582.368	30421.3
582.728	30411.81
583.089	30425.37
583.449	30430.34
583.809	30378.14
584.169	30431.25
584.529	30360.74
584.889	30583.11
585.249	30364.36
585.609	30368.2
585.969	30637.12
586.329	30540.4
586.688	30565.71
587.048	30472.83
587.408	30433.51
587.768	30495.2
588.127	30508.76
588.487	30532.04
588.846	30657.46
589.206	30435.77
589.565	30480.51
589.925	30606.61
590.284	30420.85
590.643	30499.72
591.003	30652.03
591.362	30764.35
591.721	30615.42
592.08	30587.63
592.44	30781.52
592.799	30674.63
593.158	30585.37
593.517	30832.37
593.876	30767.28
594.235	30657.91
594.593	30883.21
594.952	30762.31
595.311	30729.77
595.67	30872.82
596.029	30993.27
596.387	30888.64
596.746	30969.99
597.104	30973.38
597.463	30863.78
597.822	31016.77
598.18	30841.63
598.538	30956.66
598.897	31026.71
599.255	30845.25
599.613	31260.6
599.972	31096.32
600.33	31172.47
600.688	31015.19
601.046	31034.17
601.404	31195.3
601.762	31127.73
602.12	31294.28
602.478	31350.77
602.836	31308.06
603.194	31197.78
603.552	31279.59
603.91	31256.54
604.268	31305.58
604.625	31255.63
604.983	31343.77
605.341	31247.05
605.698	31385.12
606.056	31667.15
606.413	31413.14
606.771	31658.79
607.128	31639.35
607.485	31530.2
607.843	31529.07
608.2	31747.82
608.557	31878.44
608.914	31672.12
609.272	31885.45
609.629	31922.73
609.986	31968.61
610.343	31800.7
610.7	32077.76
611.057	32076.18
611.414	32042.28
611.771	31958.89
612.127	32134.03
612.484	32152.78
612.841	32207.02
613.198	32057.65
613.554	32175.61
613.911	32330.18
614.267	32251.54
614.624	32290.41
614.98	32232.56
615.337	32477.3
615.693	32458.31
616.05	32449.73
616.406	32581.47
616.762	32295.38
617.118	32335.15
617.475	32423.96
617.831	32697.85
618.187	32500.12
618.543	32466.9
618.899	32617.86
619.255	32613.11
619.611	32698.31
619.967	32769.72
620.323	32736.95
620.678	32616.5
621.034	32668.93
621.39	32557.07
621.746	32613.56
622.101	32974.01
622.457	32658.53
622.812	32701.92
623.168	32913.22
623.523	32837.29
623.879	32816.04
624.234	32681.81
624.589	32789.38
624.945	32752.32
625.3	32877.51
625.655	32779.89
626.01	32855.14
626.365	32702.83
626.72	32818.08
627.075	32751.19
627.43	32612.43
627.785	32595.71
628.14	32679.78
628.495	32693.34
628.85	32618.76
629.205	32686.56
629.559	32868.02
629.914	32587.58
630.269	32622.6
630.623	32513.68
630.978	32447.69
631.332	32574.24
631.687	32600.46
632.041	32507.58
632.396	32555.49
632.75	32320.92
633.104	32355.72
633.459	32261.71
633.813	32330.63
634.167	32122.28
634.521	32173.35
634.875	32274.36
635.229	32079.57
635.583	32014.94
635.937	32033.92
636.291	31984.65
636.645	32023.52
636.999	31877.09
637.352	31967.25
637.706	31801.61
638.06	31925.22
638.413	31872.11
638.767	31886.35
639.121	31709.86
639.474	31690.88
639.828	31600.26
640.181	31633.25
640.534	31679.35
640.888	31470.77
641.241	31357.78
641.594	31434.39
641.947	31473.71
642.301	31422.63
642.654	31436.19
643.007	31378.79
643.36	31411.34
643.713	31281.4
644.066	31411.56
644.419	31235.75
644.771	30993.49
645.124	30709.43
645.477	30659.94
645.83	30338.82
646.182	30263.34
646.535	30099.73
646.888	30230.8
647.24	30059.73
647.593	30043.91
647.945	30139.96
648.298	29889.57
648.65	29894.09
649.002	29736.35
649.355	29969.34
649.707	29975.89
650.059	30036.91
650.411	30374.75
650.763	30503.56
651.115	30756.21
651.467	30522.77
651.819	30531.81
652.171	30481.64
652.523	30339.5
652.875	30365.49
653.227	30314.19
653.578	30538.59
653.93	30413.62
654.282	30264.7
654.633	30226.06
654.985	30214.98
655.337	30153.52
655.688	30221.08
656.039	30332.95
656.391	29998.04
656.742	30023.12
657.094	30054.99
657.445	30217.47
657.796	29987.87
658.147	30015.89
658.498	29998.94
658.849	29987.19
659.2	29916.23
659.551	29877.36
659.902	29845.73
660.253	29890.92
660.604	29942.22
660.955	29817.25
661.306	29893.18
661.656	29879.17
662.007	29764.37
662.358	29766.18
662.708	29786.52
663.059	29646.18
663.409	29550.37
663.76	29677.37
664.11	29657.03
664.461	29612.74
664.811	29744.71
665.161	29597.15
665.511	29557.6
665.862	29586.75
666.212	29705.62
666.562	29657.26
666.912	29619.74
667.262	29516.92
667.612	29470.37
667.962	29501.55
668.312	29497.26
668.662	29566.64
669.011	29499.75
669.361	29428.56
669.711	29509.69
670.06	29384.95
670.41	29415.23
670.76	29263.14
671.109	29428.56
671.459	29318.73
671.808	29299.07
672.157	29297.72
672.507	29099.31
672.856	29126.2
673.205	29286.42
673.554	29355.8
673.904	29195.12
674.253	29269.92
674.602	29291.84
674.951	28755.13
675.3	28597.4
675.649	29116.71
675.998	29053.43
676.346	29034.67
676.695	29108.34
677.044	28857.5
677.393	28889.59
677.741	29062.7
678.09	28897.5
678.438	28874.45
678.787	28839.2
679.135	28826.09
679.484	28667.9
679.832	28728.47
680.181	28703.16
680.529	28641.69
680.877	28670.39
681.225	28513.33
681.573	28625.42
681.922	28483.5
682.27	28448.7
682.618	28342.49
682.966	28352.21
683.314	28391.3
683.661	28305.2
684.009	28145.43
684.357	28142.72
684.705	28033.8
685.053	28024.53
685.4	28072.44
685.748	27965.55
686.095	27959.67
686.443	27726.91
686.79	27735.73
687.138	27847.81
687.485	27837.42
687.832	27645.78
688.18	27770.53
688.527	27566.92
688.874	27528.73
689.221	27429.74
689.568	27396.53
689.915	27339.35
690.262	27289.64
690.609	27114.95
690.956	27087.61
691.303	27136.19
691.65	27034.5
691.997	26988.63
692.344	26732.14
692.69	26806.26
693.037	26827.5
693.383	26551.58
693.73	26636.77
694.077	26470.45
694.423	26441.07
694.769	26352.94
695.116	26375.99
695.462	26294.41
695.808	26195.88
696.155	26332.15
696.501	25953.63
696.847	25983.91
697.193	25816.23
697.539	25856
697.885	25729.45
698.231	25595.67
698.577	25651.26
698.923	25557.03
699.269	25492.62
699.614	25409.01
699.96	25219.18
700.306	25338.95
700.651	25309.35
700.997	25216.24
701.342	25036.14
701.688	25030.26
702.033	24898.96
702.379	24869.81
702.724	24775.35
703.069	24804.5
703.415	24618.29
703.76	24516.83
704.105	24660.55
704.45	24543.04
704.795	24379.66
705.14	24441.8
705.485	24405.64
705.83	24260.11
706.175	24341.01
706.52	24167.23
706.865	24110.96
707.209	23985.77
707.554	23962.94
707.899	24062.15
708.243	23811.53
708.588	23807.47
708.932	23644.53
709.277	23678.66
709.621	23672.1
709.966	23504.88
710.31	23587.59
710.654	23328.61
710.998	23363.19
711.342	23352.11
711.687	23318.89
712.031	23102.85
712.375	23190.99
712.719	22970.65
713.063	22994.16
713.407	23163.87
713.75	23031.22
714.094	22984.89
714.438	22924.1
714.782	22951.22
715.125	22795.74
715.469	22823.31
715.812	22848.4
716.156	22660.6
716.499	22623.09
716.843	22626.26
717.186	22419.03
717.53	22521.85
717.873	22468.75
718.216	22366.83
718.559	22390.1
718.902	22240.28
719.246	22356.66
719.589	22198.7
719.932	22007.29
720.275	22010.9
720.617	22127.96
720.96	22175.19
721.303	22025.59
721.646	22026.72
721.989	21934.97
722.331	22026.5
722.674	21833.73
723.016	21905.82
723.359	21772.72
723.701	21879.61
724.044	21648.65
724.386	21431.94
724.729	21569.33
725.071	21703.79
725.413	21513.29
725.755	21572.5
726.097	21505.61
726.439	21269.23
726.782	21286.86
727.124	21406.17
727.465	21326.63
727.807	21317.82
728.149	21232.62
728.491	21285.5
728.833	21185.62
729.175	21098.61
729.516	21123.24
729.858	21023.59
730.199	21074.21
730.541	20982.23
730.882	20936.58
731.224	21005.28
731.565	20800.77
731.906	20834.21
732.248	20873.31
732.589	20790.37
732.93	20772.29
733.271	20825.62
733.612	20733.65
733.953	20680.09
734.294	20543.15
734.635	20581.11
734.976	20702.24
735.317	20379.31
735.658	20509.7
735.999	20505.63
736.339	20313.77
736.68	20481.9
737.021	20369.14
737.361	20267.22
737.702	20325.3
738.042	20271.06
738.383	20282.14
738.723	20251.4
739.063	20313.32
739.404	20198.07
739.744	20122.82
740.084	20003.5
740.424	19985.87
740.764	20027.23
741.104	19995.59
741.444	19934.8
741.784	19784.75
742.124	19865.42
742.464	19848.48
742.804	19744.3
743.143	19737.74
743.483	19872.88
743.823	19740.46
744.162	19641.25
744.502	19673.11
744.841	19603.96
745.181	19608.26
745.52	19632.44
745.86	19660.91
746.199	19522.38
746.538	19561.25
746.877	19523.06
747.216	19514.7
747.556	19380.46
747.895	19379.56
748.234	19286.46
748.573	19310.86
748.911	19304.76
749.25	19290.98
749.589	19049.85
749.928	19120.36
750.267	19116.07
750.605	19130.98
750.944	19061.15
751.283	18947.48
751.621	18911.32
751.96	18824.77
752.298	18865.9
752.636	18869.97
752.975	18715.85
753.313	18613.71
753.651	18733.93
753.989	18646.47
754.327	18562.63
