Data from white_steel_sheet_FLMS001491_055.txt Node
Date: Tue Feb 07 10:58:05 GMT 2017
User: dcchb
Spectrometer: FLMS00149
Trigger mode: 0
Integration Time (sec): 2.000000E-2
Scans to average: 10
Electric dark correction enabled: true
Nonlinearity correction enabled: false
Boxcar width: 0
XAxis mode: Wavelengths
Number of Pixels in Spectrum: 2048
>>>>>Begin Spectral Data<<<<<
341.393	-6.38
341.776	-6.38
342.16	-6.38
342.543	-59.72
342.927	-49.77
343.31	-52.03
343.693	-62.65
344.077	-71.02
344.46	-47.74
344.843	-51.58
345.226	-45.48
345.61	-22.65
345.993	-11.58
346.376	-13.16
346.759	13.05
347.142	27.97
347.525	26.61
347.908	40.85
348.291	76.1
348.674	81.75
349.057	111.58
349.44	140.28
349.823	138.47
350.206	146.61
350.588	213.05
350.971	222.31
351.354	256.66
351.737	252.37
352.119	271.35
352.502	283.78
352.884	297.56
353.267	302.53
353.65	299.37
354.032	281.29
354.414	344.12
354.797	340.95
355.179	324
355.562	317.45
355.944	355.19
356.326	353.61
356.709	350.89
357.091	344.34
357.473	359.48
357.855	337.11
358.238	354.96
358.62	345.92
359.002	348.86
359.384	345.92
359.766	345.02
360.148	344.79
360.53	379.82
360.912	345.25
361.294	338.01
361.676	350.67
362.057	349.99
362.439	340.73
362.821	352.48
363.203	347.96
363.584	370.33
363.966	356.54
364.348	339.14
364.729	356.32
365.111	342.53
365.493	331.69
365.874	349.31
366.256	336.88
366.637	330.56
367.019	338.01
367.4	347.96
367.781	324
368.163	316.32
368.544	316.32
368.925	333.95
369.306	338.69
369.688	323.55
370.069	338.69
370.45	329.65
370.831	341.18
371.212	345.7
371.593	352.25
371.974	322.42
372.355	345.25
372.736	368.52
373.117	340.73
373.498	351.12
373.879	334.17
374.26	351.8
374.641	332.82
375.021	325.58
375.402	349.31
375.783	352.7
376.163	345.02
376.544	361.52
376.925	347.05
377.305	370.56
377.686	364.91
378.066	358.8
378.447	369.43
378.827	376.43
379.208	367.84
379.588	345.47
379.968	347.05
380.349	354.06
380.729	357.45
381.109	365.13
381.489	377.11
381.87	382.31
382.25	382.31
382.63	371.69
383.01	382.53
383.39	393.61
383.77	381.18
384.15	384.57
384.53	399.93
384.91	376.43
385.29	392.48
385.67	399.71
386.049	406.49
386.429	393.15
386.809	409.2
387.189	406.49
387.568	407.62
387.948	399.93
388.328	428.41
388.707	418.24
389.087	424.11
389.466	416.66
389.846	440.16
390.225	435.19
390.605	435.64
390.984	437.9
391.363	447.16
391.743	428.41
392.122	448.75
392.501	451.23
392.881	478.57
393.26	463.43
393.639	495.98
394.018	481.96
394.397	480.16
394.776	491.46
395.155	498.91
395.534	509.31
395.913	490.78
396.292	498.69
396.671	513.6
397.05	527.16
397.429	523.55
397.808	531.91
398.186	562.41
398.565	531.23
398.944	540.49
399.323	543.21
399.701	587.72
400.08	560.38
400.458	568.52
400.837	591.11
401.215	566.71
401.594	574.17
401.972	608.29
402.351	631.11
402.729	617.78
403.107	626.37
403.486	642.86
403.864	650.1
404.242	654.16
404.62	679.93
404.999	666.37
405.377	670.43
405.755	686.03
406.133	698.46
406.511	704.56
406.889	719.92
407.267	759.25
407.645	744.56
408.023	766.03
408.401	767.38
408.779	788.62
409.156	795.63
409.534	816.65
409.912	806.48
410.29	833.37
410.667	852.12
411.045	867.04
411.422	884.89
411.8	884.44
412.178	930.31
412.555	907.72
412.933	884.89
413.31	941.84
413.687	932.8
414.065	944.33
414.442	997.88
414.819	1011.22
415.197	998.79
415.574	990.43
415.951	1052.35
416.328	1020.48
416.705	1052.57
417.082	1073.14
417.46	1079.46
417.837	1081.95
418.214	1081.72
418.591	1077.66
418.967	1106.58
419.344	1118.11
419.721	1138.9
420.098	1160.36
420.475	1183.19
420.852	1170.31
421.228	1187.71
421.605	1200.14
421.982	1203.3
422.358	1201.49
422.735	1212.12
423.111	1252.57
423.488	1257.99
423.864	1267.48
424.241	1262.74
424.617	1293.92
424.994	1307.25
425.37	1354.94
425.746	1327.59
426.123	1381.6
426.499	1359.91
426.875	1387.03
427.251	1385.44
427.627	1416.63
428.003	1474.48
428.379	1464.76
428.756	1495.95
429.132	1499.79
429.507	1491.66
429.883	1523.29
430.259	1538.89
430.635	1561.26
431.011	1568.94
431.387	1614.36
431.763	1640.13
432.138	1649.39
432.514	1669.28
432.89	1680.58
433.265	1691.65
433.641	1789.27
434.016	1772.33
434.392	1787.69
434.767	1793.34
435.143	1799.9
435.518	1877.18
435.894	1860.01
436.269	1907.92
436.644	1916.05
437.02	1959.44
437.395	1952.89
437.77	1978.87
438.145	2006.44
438.52	2011.42
438.895	2046.9
439.271	2064.07
439.646	2102.49
440.021	2102.71
440.395	2142.71
440.77	2100.91
441.145	2146.1
441.52	2200.79
441.895	2174.12
442.27	2197.85
442.645	2240.56
443.019	2229.04
443.394	2256.16
443.769	2304.52
444.143	2278.53
444.518	2290.96
444.892	2338.41
445.267	2335.25
445.641	2403.27
446.016	2378.19
446.39	2398.52
446.764	2415.47
447.139	2403.72
447.513	2454.79
447.887	2434.46
448.262	2488.69
448.636	2478.07
449.01	2523.04
449.384	2544.96
449.758	2566.43
450.132	2602.36
450.506	2610.72
450.88	2633.55
451.254	2658.63
451.628	2742.92
452.002	2732.3
452.376	2734.56
452.75	2752.41
453.123	2781.79
453.497	2826.76
453.871	2847.55
454.244	2904.27
454.618	2932.75
454.992	2979.75
455.365	2980.43
455.739	3043.71
456.112	3086.87
456.486	3085.06
456.859	3143.59
457.232	3217.49
457.606	3190.14
457.979	3206.86
458.352	3295
458.725	3329.35
459.099	3303.13
459.472	3423.81
459.845	3429.68
460.218	3464.49
460.591	3499.51
460.964	3543.35
461.337	3587.42
461.71	3676.68
462.083	3747.87
462.456	3693.86
462.829	3750.58
463.201	3810.24
463.574	3852.72
463.947	3927.75
464.32	3945.15
464.692	4024.02
465.065	4016.11
465.438	4077.12
465.81	4124.81
466.183	4200.06
466.555	4253.62
466.928	4323.9
467.3	4315.76
467.672	4382.2
468.045	4466.27
468.417	4495.19
468.789	4519.37
469.161	4573.16
469.534	4668.3
469.906	4787.16
470.278	4780.16
470.65	4831.68
471.022	4958.23
471.394	5038.46
471.766	5078.91
472.138	5157.32
472.51	5235.29
472.882	5291.1
473.253	5379.01
473.625	5406.81
473.997	5572.68
474.369	5614.71
474.74	5612.23
475.112	5800.69
475.484	5865.1
475.855	5962.95
476.227	6037.75
476.598	6161.14
476.97	6226.45
477.341	6402.26
477.713	6499.66
478.084	6499.89
478.455	6689.94
478.827	6756.6
479.198	6912.08
479.569	6931.06
479.94	7184.39
480.311	7205.86
480.682	7339.64
481.053	7499.63
481.424	7570.14
481.795	7693.07
482.166	7888.1
482.537	7948.44
482.908	8104.36
483.279	8209.67
483.65	8353.17
484.021	8473.84
484.391	8613.73
484.762	8670.45
485.133	8769.88
485.503	8926.94
485.874	9116.09
486.244	9194.73
486.615	9310.66
486.985	9473.37
487.356	9677.88
487.726	9721.04
488.097	9943.41
488.467	9961.26
488.837	10130.75
489.207	10264.31
489.578	10393.79
489.948	10474.24
490.318	10653.45
490.688	10721.02
491.058	10932.99
491.428	11070.61
491.798	11123.94
492.168	11317.39
492.538	11500.66
492.908	11527.32
493.278	11730.71
493.648	11767.77
494.017	11925.51
494.387	12014.09
494.757	12059.74
495.126	12269.23
495.496	12289.79
495.866	12453.85
496.235	12533.4
496.605	12663.11
496.974	12768.2
497.344	12909.89
497.713	13044.12
498.082	13115.98
498.452	13183.78
498.821	13232.59
499.19	13387.61
499.559	13510.55
499.928	13610.66
500.298	13677.1
500.667	13774.27
501.036	13835.29
501.405	13935.62
501.774	14063.75
502.143	14198.44
502.512	14259.46
502.88	14421.71
503.249	14373.58
503.618	14499
503.987	14601.14
504.356	14640.69
504.724	14797.29
505.093	14841.36
505.462	14884.52
505.83	15115.48
506.199	15253.1
506.567	15381.69
506.936	15372.19
507.304	15606.76
507.672	15637.95
508.041	15881.33
508.409	15945.96
508.777	16111.84
509.145	16253.98
509.514	16270.25
509.882	16325.16
510.25	16349.12
510.618	16514.99
510.986	16617.36
511.354	16847.64
511.722	17070.68
512.09	17095.09
512.458	17134.86
512.826	17317
513.193	17450.56
513.561	17580.72
513.929	17631.12
514.297	17839.02
514.664	17923.99
515.032	18061.39
515.4	18151.56
515.767	18318.56
516.135	18431.78
516.502	18392
516.869	18825.89
517.237	18762.61
517.604	18726
517.972	19075.6
518.339	19131.87
518.706	19261.58
519.073	19394.91
519.44	19434.46
519.808	19725.3
520.175	19683.04
520.542	19925.07
520.909	20133.2
521.276	20161.9
521.643	20398.73
522.009	20500.2
522.376	20686.18
522.743	20852.5
523.11	21053.85
523.477	21250.68
523.843	21420.85
524.21	21642.99
524.577	21758.02
524.943	21840.05
525.31	22006.6
525.676	22208.63
526.043	22309.19
526.409	22440.94
526.776	22760.93
527.142	22775.62
527.508	22995.72
527.874	23165.44
528.241	23251.99
528.607	23330.18
528.973	23640.68
529.339	23568.82
529.705	23960.9
530.071	24079.31
530.437	24079.31
530.803	24348.23
531.169	24375.8
531.535	24385.29
531.901	24647.66
532.267	24836.13
532.632	24977.14
532.998	25160.64
533.364	25190.92
533.73	25293.74
534.095	25501.65
534.461	25480.86
534.826	25698.7
535.192	25732.15
535.557	26072.25
535.923	26019.6
536.288	26157
536.653	26304.34
537.019	26318.12
537.384	26411.45
537.749	26485.8
538.114	26718.11
538.479	26680.6
538.845	26697.09
539.21	26818.67
539.575	27014.37
539.94	27117.65
540.305	27258.66
540.67	27189.06
541.034	27301.37
541.399	27629.05
541.764	27562.83
542.129	27789.72
542.494	27670.85
542.858	27865.43
543.223	27932.77
543.587	28131.86
543.952	28196.26
544.316	28303.83
544.681	28251.18
545.045	28458.63
545.41	28458.4
545.774	28631.73
546.138	28683.48
546.503	28838.73
546.867	28758.28
547.231	29026.75
547.595	29136.58
547.959	29264.94
548.324	29320.53
548.688	29287.08
549.052	29521.65
549.416	29579.96
549.779	29556.23
550.143	29654.53
550.507	29845.71
550.871	29972.71
551.235	29938.37
551.599	30217
551.962	30242.76
552.326	30341.74
552.689	30540.61
553.053	30517.79
553.417	30607.05
553.78	30990.32
554.143	30904.67
554.507	31064.66
554.87	31144.89
555.234	31381.94
555.597	31351.44
555.96	31532.67
556.323	31647.92
556.686	31617.64
557.05	31850.86
557.413	32069.16
557.776	31960.46
558.139	32364.74
558.502	32329.94
558.865	32358.64
559.228	32654.9
559.59	32819.65
559.953	32809.25
560.316	33093.99
560.679	33148
561.041	33265.74
561.404	33525.39
561.767	33772.61
562.129	33683.58
562.492	34038.6
562.854	33972.38
563.217	34110.69
563.579	34130.8
563.941	34404.91
564.304	34564.68
564.666	34699.14
565.028	34924.22
565.39	34878.57
565.753	35131.45
566.115	35160.15
566.477	35416.87
566.839	35575.05
567.201	35734.6
567.563	35737.53
567.925	35918.1
568.287	35995.16
568.648	35986.57
569.01	36306.33
569.372	36504.52
569.734	36368.25
570.095	36616.61
570.457	36819.54
570.819	36837.84
571.18	36910.61
571.542	37257.27
571.903	37178.63
572.265	37243.48
572.626	37411.16
572.987	37583.14
573.349	37527.32
573.71	37628.56
574.071	37772.51
574.432	37879.63
574.794	37994.2
575.155	38078.94
575.516	37924.14
575.877	38114.2
576.238	38227.41
576.599	38352.83
576.96	38310.35
577.32	38448.2
577.681	38501.3
578.042	38715.54
578.403	38533.17
578.763	38591.02
579.124	38659.49
579.485	38918.92
579.845	38995.53
580.206	38975.42
580.566	38818.58
580.927	38930.9
581.287	39035.3
581.648	38993.72
582.008	39139.25
582.368	39000.73
582.728	39029.88
583.089	39021.29
583.449	39073.94
583.809	39143.55
584.169	39186.48
584.529	39123.21
584.889	39474.16
585.249	39125.02
585.609	38993.49
585.969	39242.98
586.329	39051.12
586.688	39344.67
587.048	39144.22
587.408	39153.49
587.768	39105.81
588.127	39179.48
588.487	39042.53
588.846	39347.16
589.206	39084.34
589.565	39113.72
589.925	39399.13
590.284	39207.73
590.643	39188.97
591.003	39243.21
591.362	39324.11
591.721	39308.51
592.08	39262.87
592.44	39390.55
592.799	39343.32
593.158	39223.77
593.517	39309.19
593.876	39213.6
594.235	39318.46
594.593	39328.17
594.952	39377.67
595.311	39359.59
595.67	39478.45
596.029	39559.58
596.387	39558.9
596.746	39555.51
597.104	39473.48
597.463	39423.77
597.822	39713.7
598.18	39395.97
598.538	39342.86
598.897	39608.85
599.255	39332.02
599.613	39851.33
599.972	39528.62
600.33	39510.77
600.688	39383.31
601.046	39682.74
601.404	39734.49
601.762	39768.39
602.12	39846.35
602.478	39838.44
602.836	39739.01
603.194	39621.95
603.552	39709.41
603.91	39645.23
604.268	39888.16
604.625	39635.74
604.983	39746.92
605.341	39654.04
605.698	39790.99
606.056	39842.74
606.413	39717.32
606.771	39995.28
607.128	40002.73
607.485	39836.18
607.843	39990.98
608.2	40152.33
608.557	40160.92
608.914	40034.15
609.272	40208.6
609.629	40252.44
609.986	40345.55
610.343	40191.88
610.7	40594.58
611.057	40542.83
611.414	40484.98
611.771	40536.05
612.127	40625.32
612.484	40635.26
612.841	40722.49
613.198	40734.69
613.554	40634.58
613.911	40812.43
614.267	40949.38
614.624	40775.37
614.98	40846.33
615.337	41127.9
615.693	41026.89
616.05	41015.36
616.406	41267.78
616.762	40995.25
617.118	41116.38
617.475	40987.11
617.831	41257.62
618.187	41176.71
618.543	41269.37
618.899	41444.05
619.255	41396.6
619.611	41440.44
619.967	41483.37
620.323	41496.93
620.678	41405.18
621.034	41271.17
621.39	41312.98
621.746	41330.83
622.101	41843.82
622.457	41502.36
622.812	41427.55
623.168	41507.1
623.523	41601.34
623.879	41653.09
624.234	41486.08
624.589	41411.28
624.945	41469.81
625.3	41760.65
625.655	41702.58
626.01	41654.67
626.365	41655.57
626.72	41548.91
627.075	41562.92
627.43	41613.09
627.785	41448.35
628.14	41619.19
628.495	41534.67
628.85	41519.08
629.205	41387.78
629.559	41620.32
629.914	41371.06
630.269	41305.07
630.623	41213.32
630.978	41234.11
631.332	41431.17
631.687	41349.36
632.041	41157.51
632.396	41369.48
632.75	41155.25
633.104	41051.29
633.459	41014.68
633.813	41090.84
634.167	40971.75
634.521	40951.18
634.875	40918.64
635.229	40892.43
635.583	40700.12
635.937	40761.13
636.291	40667.12
636.645	40690.17
636.999	40534.47
637.352	40723.62
637.706	40423.97
638.06	40554.81
638.413	40517.07
638.767	40298.54
639.121	40378.09
639.474	40139.45
639.828	40240.47
640.181	40046.57
640.534	40108.49
640.888	40015.16
641.241	39906.24
641.594	39923.19
641.947	40070.3
642.301	39947.14
642.654	39953.24
643.007	39889.29
643.36	39832.79
643.713	39717.09
644.066	39840.93
644.419	39560.03
644.771	39278.68
645.124	38879.37
645.477	38943.55
645.83	38661.98
646.182	38488.87
646.535	38504.92
646.888	38487.97
647.24	38255.89
647.593	38593.51
647.945	38384.7
648.298	38121.2
648.65	38167.75
649.002	38085.04
649.355	38283.23
649.707	38100.64
650.059	38273.51
650.411	38599.38
650.763	38713.73
651.115	39146.03
651.467	38894.51
651.819	38831.92
652.171	38795.53
652.523	38782.2
652.875	38857.9
653.227	38608.19
653.578	38762.99
653.93	38605.93
654.282	38425.83
654.633	38460.85
654.985	38560.51
655.337	38580.17
655.688	38430.35
656.039	38631.24
656.391	38338.82
656.742	38445.94
657.094	38315.09
657.445	38490.46
657.796	38383.57
658.147	38261.31
658.498	38234.64
658.849	38276.23
659.2	38340.63
659.551	38181.76
659.902	38155.1
660.253	38164.14
660.604	38267.64
660.955	37863.13
661.306	38027.19
661.656	37798.5
662.007	37856.8
662.358	37789.01
662.708	37916.01
663.059	37705.39
663.409	37418.39
663.76	37750.14
664.11	37655.9
664.461	37629.91
664.811	37647.99
665.161	37487.55
665.511	37353.54
665.862	37361.22
666.212	37424.95
666.562	37372.29
666.912	37254.78
667.262	37097.27
667.612	37156.93
667.962	36922.14
668.312	36801.69
668.662	36935.02
669.011	36854.12
669.361	36595.14
669.711	36465.43
670.06	36402.15
670.41	36363.28
670.76	36377.29
671.109	36425.2
671.459	36304.53
671.808	36153.34
672.157	36199.22
672.507	35994.93
672.856	35864.09
673.205	35994.25
673.554	35890.3
673.904	35645.79
674.253	35793.13
674.602	35723.98
674.951	35170.54
675.3	34956.54
675.649	35532.57
675.998	35509.52
676.346	35518.11
676.695	35629.52
677.044	35391.56
677.393	35418.22
677.741	35420.48
678.09	35244.21
678.438	35245.12
678.787	35365.34
679.135	35341.39
679.484	35020.72
679.832	35269.52
680.181	34949.98
680.529	35245.57
680.877	34991.79
681.225	35085.35
681.573	35355.85
681.922	35021.4
682.27	34955.41
682.618	35055.97
682.966	35043.54
683.314	35072.24
683.661	34991.11
684.009	34863.89
684.357	34753.15
684.705	34931
685.053	34835.19
685.4	35034.73
685.748	34719.03
686.095	34712.25
686.443	34672.93
686.79	34645.81
687.138	34784.79
687.485	34836.99
687.832	34693.27
688.18	34917.67
688.527	34660.05
688.874	34856.65
689.221	34762.87
689.568	34717.9
689.915	34657.34
690.262	34561.97
690.609	34525.14
690.956	34430.45
691.303	34465.25
691.65	34317.46
691.997	34345.71
692.344	34149.1
692.69	34288.08
693.037	34336.22
693.383	34053.29
693.73	34147.29
694.077	33991.14
694.423	34004.02
694.769	33898.94
695.116	33957.02
695.462	33979.62
695.808	33872.05
696.155	33946.4
696.501	33715.89
696.847	33698.27
697.193	33436.8
697.539	33649.68
697.885	33442.45
698.231	33326.75
698.577	33300.76
698.923	33237.94
699.269	33137.83
699.614	33019.87
699.96	32925.86
700.306	32996.14
700.651	32688.35
700.997	32726.77
701.342	32575.13
701.688	32680.89
702.033	32499.88
702.379	32427.79
702.724	32461.69
703.069	32499.88
703.415	32240.23
703.76	32195.48
704.105	32218.53
704.45	32019.67
704.795	31839.33
705.14	31833
705.485	31776.28
705.83	31671.2
706.175	31698.55
706.52	31595.72
706.865	31660.13
707.209	31506.69
707.554	31445.67
707.899	31465.1
708.243	31243.19
708.588	31196.64
708.932	31036.64
709.277	31054.27
709.621	31100.14
709.966	30860.6
710.31	30908.96
710.654	30692.92
710.998	30779.25
711.342	30767.5
711.687	30621.29
712.031	30525.69
712.375	30450.22
712.719	30470.55
713.063	30371.8
713.407	30450.22
713.75	30223.56
714.094	30177
714.438	30064.01
714.782	30109.21
715.125	30057.91
715.469	30042.32
715.812	29926.84
716.156	29836.9
716.499	29652.5
716.843	29714.42
717.186	29575.44
717.53	29716.9
717.873	29610.69
718.216	29591.93
718.559	29398.94
718.902	29261.55
719.246	29266.29
719.589	29129.12
719.932	29180.65
720.275	29230.14
720.617	29108.1
720.96	29105.17
721.303	29145.17
721.646	28998.5
721.989	28820.65
722.331	29009.35
722.674	28735.23
723.016	28699.3
723.359	28712.63
723.701	28631.06
724.044	28576.59
724.386	28381.12
724.729	28521
725.071	28440.1
725.413	28522.36
725.755	28461.34
726.097	28310.84
726.439	28276.49
726.782	28300.44
727.124	28404.62
727.465	28156.04
727.807	28159.66
728.149	27982.71
728.491	28037.62
728.833	27962.6
729.175	27893.22
729.516	28011.64
729.858	27754.92
730.199	27867.46
730.541	27789.27
730.882	27815.48
731.224	27736.84
731.565	27561.03
731.906	27570.52
732.248	27566.9
732.589	27517.41
732.93	27236.06
733.271	27335.72
733.612	27413.46
733.953	27390.86
734.294	27286.91
734.635	27149.29
734.976	27247.36
735.317	27089.63
735.658	27030.87
735.999	27026.58
736.339	27029.74
736.68	27013.47
737.021	26902.06
737.361	26876.3
737.702	26946.13
738.042	26757.21
738.383	26790.2
738.723	26854.83
739.063	26681.73
739.404	26848.5
739.744	26679.92
740.084	26569.41
740.424	26557.44
740.764	26523.31
741.104	26492.81
741.444	26366.03
741.784	26366.26
742.124	26453.26
742.464	26392.7
742.804	26308.18
743.143	26196.32
743.483	26115.19
743.823	26130.56
744.162	26120.61
744.502	26187.5
744.841	25945.25
745.181	26078.81
745.52	25948.41
745.86	26064.57
746.199	25939.6
746.538	25926.49
746.877	25797.23
747.216	25712.71
747.556	25771.7
747.895	25694.64
748.234	25576.9
748.573	25723.79
748.911	25606.73
749.25	25516.79
749.589	25443.57
749.928	25453.29
750.267	25373.06
750.605	25351.82
750.944	25366.96
751.283	25122.45
751.621	25255.55
751.96	24966.07
752.298	25068.66
752.636	25044.48
752.975	24949.34
753.313	24738.73
753.651	24935.33
