Data from white_poster_card_FLMS001491_00006.txt Node
Date: Wed Feb 08 11:50:57 GMT 2017
User: dcchb
Spectrometer: FLMS00149
Trigger mode: 0
Integration Time (sec): 2.000000E-2
Scans to average: 10
Electric dark correction enabled: true
Nonlinearity correction enabled: false
Boxcar width: 0
XAxis mode: Wavelengths
Number of Pixels in Spectrum: 2048
>>>>>Begin Spectral Data<<<<<
341.393	-0.03
341.776	-0.03
342.16	-0.03
342.543	-62.63
342.927	-65.34
343.31	-64.21
343.693	-70.76
344.077	-71.66
344.46	-71.21
344.843	-55.62
345.226	-29.41
345.61	-36.19
345.993	-22.63
346.376	12.85
346.759	27.54
347.142	27.54
347.525	47.43
347.908	45.39
348.291	72.51
348.674	84.72
349.057	103.7
349.44	129.23
349.823	118.61
350.206	164.26
350.588	213.98
350.971	205.62
351.354	212.4
351.737	239.97
352.119	267.76
352.502	285.84
352.884	258.95
353.267	280.64
353.65	295.56
354.032	302.79
354.414	317.93
354.797	319.06
355.179	333.75
355.562	312.96
355.944	314.54
356.326	330.81
356.709	357.48
357.091	328.1
357.473	345.05
357.855	361.54
358.238	345.05
358.62	331.04
359.002	349.79
359.384	372.84
359.766	335.33
360.148	345.27
360.53	327.65
360.912	355.67
361.294	333.75
361.676	348.89
362.057	325.84
362.439	328.78
362.821	337.59
363.203	332.84
363.584	334.88
363.966	339.62
364.348	331.94
364.729	324.93
365.111	325.84
365.493	335.56
365.874	310.02
366.256	331.49
366.637	313.18
367.019	326.97
367.4	310.7
367.781	318.61
368.163	337.59
368.544	308.89
368.925	318.38
369.306	302.56
369.688	319.51
370.069	311.15
370.45	297.14
370.831	309.79
371.212	323.81
371.593	332.62
371.974	341.21
372.355	335.78
372.736	331.49
373.117	311.15
373.498	332.62
373.879	318.83
374.26	330.58
374.641	327.65
375.021	316.8
375.402	338.49
375.783	351.83
376.163	334.2
376.544	358.38
376.925	331.49
377.305	340.3
377.686	313.64
378.066	352.05
378.447	334.2
378.827	351.37
379.208	341.21
379.588	339.17
379.968	333.07
380.349	347.99
380.729	350.25
381.109	358.83
381.489	345.73
381.87	337.82
382.25	373.97
382.63	357.7
383.01	375.78
383.39	362.45
383.77	351.6
384.15	362.9
384.53	354.76
384.91	359.51
385.29	376.23
385.67	362
386.049	357.7
386.429	377.81
386.809	374.65
387.189	382.79
387.568	397.48
387.948	383.01
388.328	394.99
388.707	367.19
389.087	422.56
389.466	390.7
389.846	378.49
390.225	388.21
390.605	404.48
390.984	396.35
391.363	429.11
391.743	412.16
392.122	400.41
392.501	401.77
392.881	416.46
393.26	411.71
393.639	415.33
394.018	430.02
394.397	439.96
394.776	431.6
395.155	423.69
395.534	436.12
395.913	448.77
396.292	415.33
396.671	438.15
397.05	435.44
397.429	432.95
397.808	465.5
398.186	440.86
398.565	483.35
398.944	454.65
399.323	454.65
399.701	473.18
400.08	464.37
400.458	461.65
400.837	477.25
401.215	451.94
401.594	465.72
401.972	483.8
402.351	503.24
402.729	478.6
403.107	498.72
403.486	480.64
403.864	488.55
404.242	499.62
404.62	491.26
404.999	525.16
405.377	523.8
405.755	524.93
406.133	523.8
406.511	552.5
406.889	552.27
407.267	589.11
407.645	559.05
408.023	577.13
408.401	583.46
408.779	604.7
409.156	626.62
409.534	617.81
409.912	660.52
410.29	623.23
410.667	644.93
411.045	665.26
411.422	661.42
411.8	673.17
412.178	703
412.555	717.92
412.933	728.99
413.31	727.41
413.687	762.44
414.065	761.99
414.442	778.03
414.819	794.98
415.197	831.14
415.574	842.44
415.951	852.83
416.328	851.7
416.705	882.66
417.082	904.58
417.46	906.16
417.837	925.37
418.214	928.31
418.591	985.71
418.967	984.13
419.344	996.56
419.721	1016.44
420.098	1053.05
420.475	1045.82
420.852	1063.22
421.228	1070.23
421.605	1093.5
421.982	1114.52
422.358	1094.41
422.735	1162.65
423.111	1138.7
423.488	1177.12
423.864	1196.78
424.241	1208.75
424.617	1235.65
424.994	1252.59
425.37	1243.33
425.746	1300.73
426.123	1285.36
426.499	1277.68
426.875	1308.19
427.251	1350.67
427.627	1384.12
428.003	1410.33
428.379	1400.16
428.756	1425.7
429.132	1432.25
429.507	1466.37
429.883	1501.85
430.259	1527.62
430.635	1526.26
431.011	1535.52
431.387	1592.25
431.763	1625.92
432.138	1625.69
432.514	1648.52
432.89	1673.15
433.265	1699.81
433.641	1732.36
434.016	1717.67
434.392	1765.35
434.767	1805.35
435.143	1768.96
435.518	1832.69
435.894	1831.79
436.269	1888.51
436.644	1885.57
437.02	1937.32
437.395	1926.7
437.77	1954.72
438.145	1981.39
438.52	2006.92
438.895	2051.44
439.271	2003.08
439.646	2072.46
440.021	2097.09
440.395	2095.74
440.77	2073.59
441.145	2100.71
441.52	2141.61
441.895	2134.6
442.27	2174.83
442.645	2179.12
443.019	2207.82
443.394	2195.17
443.769	2248.27
444.143	2196.52
444.518	2227.71
444.892	2258.67
445.267	2235.85
445.641	2306.8
446.016	2310.65
446.39	2354.71
446.764	2347.48
447.139	2334.6
447.513	2371.21
447.887	2359.91
448.262	2392.45
448.636	2369.85
449.01	2421.6
449.384	2471.09
449.758	2445.56
450.132	2492.79
450.506	2523.07
450.88	2513.13
451.254	2491.88
451.628	2565.55
452.002	2602.62
452.376	2629.73
452.75	2646.91
453.123	2670.41
453.497	2705.21
453.871	2758.54
454.244	2765.32
454.618	2783.85
454.992	2841.25
455.365	2809.16
455.739	2888.48
456.112	2907.47
456.486	2944.3
456.859	2956.05
457.232	3027.24
457.606	3030.17
457.979	3081.02
458.352	3123.96
458.725	3141.81
459.099	3175.93
459.472	3210.06
459.845	3236.72
460.218	3279.21
460.591	3318.53
460.964	3348.36
461.337	3417.51
461.71	3467.23
462.083	3521.91
462.456	3500.22
462.829	3539.54
463.201	3629.48
463.574	3629.48
463.947	3675.81
464.32	3752.64
464.692	3794.45
465.065	3810.04
465.438	3836.48
465.81	3910.15
466.183	3939.3
466.555	4033.99
466.928	4042.13
467.3	4032.18
467.672	4118.73
468.045	4210.71
468.417	4203.25
468.789	4243.25
469.161	4306.07
469.534	4355.34
469.906	4500.87
470.278	4516.24
470.65	4556.91
471.022	4611.6
471.394	4688.44
471.766	4739.51
472.138	4846.4
472.51	4881.2
472.882	4974.98
473.253	4968.65
473.625	5084.13
473.997	5198.71
474.369	5258.82
474.74	5235.77
475.112	5416.1
475.484	5463.33
475.855	5533.84
476.227	5601.86
476.598	5729.99
476.97	5801.4
477.341	5896.54
477.713	5988.06
478.084	6017.21
478.455	6174.5
478.827	6243.65
479.198	6445.23
479.569	6436.19
479.94	6630.08
480.311	6658.33
480.682	6782.17
481.053	6928.38
481.424	6990.97
481.795	7085.66
482.166	7230.29
482.537	7298.99
482.908	7470.06
483.279	7554.8
483.65	7718.19
484.021	7848.35
484.391	7964.28
484.762	8015.35
485.133	8049.25
485.503	8228.68
485.874	8403.59
486.244	8433.65
486.615	8626.41
486.985	8707.54
487.356	8910.7
487.726	8939.62
488.097	9121.31
488.467	9116.12
488.837	9356.11
489.207	9423.23
489.578	9562.43
489.948	9663.45
490.318	9757.23
490.688	9860.05
491.058	10012.36
491.428	10098.46
491.798	10284.9
492.168	10451.9
492.538	10483.54
492.908	10589.52
493.278	10709.29
493.648	10758.33
494.017	10908.39
494.387	11092.56
494.757	11165.1
495.126	11202.39
495.496	11281.03
495.866	11456.17
496.235	11463.63
496.605	11575.71
496.974	11700.46
497.344	11807.8
497.713	11915.59
498.082	11956.49
498.452	12081.69
498.821	12125.75
499.19	12233.1
499.559	12365.52
499.928	12371.4
500.298	12511.28
500.667	12696.36
501.036	12613.65
501.405	12757.15
501.774	12826.98
502.143	12971.83
502.512	12941.33
502.88	13167.76
503.249	13169.34
503.618	13178.61
503.987	13301.99
504.356	13438.04
504.724	13499.96
505.093	13609.56
505.462	13620.86
505.83	13713.74
506.199	13870.79
506.567	14049.09
506.936	14062.65
507.304	14256.09
507.672	14225.36
508.041	14400.95
508.409	14543.32
508.777	14652.92
509.145	14736.08
509.514	14659.7
509.882	14877.09
510.25	14845.23
510.618	15053.14
510.986	15134.26
511.354	15259.91
511.722	15385.1
512.09	15622.39
512.458	15557.53
512.826	15801.36
513.193	15845.43
513.561	15821.48
513.929	15950.96
514.297	16201.35
514.664	16307.34
515.032	16363.61
515.4	16511.63
515.767	16607.22
516.135	16751.17
516.502	16695.13
516.869	16958.85
517.237	17009.24
517.604	17052.63
517.972	17288.78
518.339	17378.95
518.706	17381.21
519.073	17541.43
519.44	17619.4
519.808	17858.03
520.175	17908.43
520.542	18171.25
520.909	18257.34
521.276	18329.89
521.643	18506.83
522.009	18535.76
522.376	18702.76
522.743	18919.93
523.11	19036.53
523.477	19247.38
523.843	19396.98
524.21	19516.29
524.577	19751.54
524.943	19797.19
525.31	19945.44
525.676	20189.5
526.043	20220.68
526.409	20293
526.776	20528.02
527.142	20634.68
527.508	20749.48
527.874	20960.1
528.241	21062.69
528.607	21246.19
528.973	21284.84
529.339	21326.87
529.705	21578.61
530.071	21776.35
530.437	21858.61
530.803	22033.97
531.169	22208.88
531.535	22165.49
531.901	22342.44
532.267	22457.23
532.632	22613.16
532.998	22686.38
533.364	22857.68
533.73	22907.62
534.095	23050.89
534.461	23137.22
534.826	23199.59
535.192	23367.27
535.557	23500.6
535.923	23450.88
536.288	23576.53
536.653	23831.89
537.019	23698.78
537.384	23825.33
537.749	24024.2
538.114	24154.36
538.479	24170.18
538.845	24271.42
539.21	24268.94
539.575	24476.84
539.94	24501.93
540.305	24704.41
540.67	24613.56
541.034	24855.14
541.399	24987.11
541.764	24840.9
542.129	25054.23
542.494	25123.38
542.858	25246.54
543.223	25281.79
543.587	25392.07
543.952	25590.49
544.316	25461.68
544.681	25569.69
545.045	25778.28
545.41	25752.97
545.774	25879.07
546.138	26113.86
546.503	26037.93
546.867	26025.28
547.231	26413.29
547.595	26397.47
547.959	26474.98
548.324	26434.98
548.688	26574.64
549.052	26759.04
549.416	26716.56
549.779	26862.32
550.143	26930.34
550.507	27118.81
550.871	27100.73
551.235	27051.01
551.599	27408.52
551.962	27594.95
552.326	27576.42
552.689	27719.69
553.053	27599.7
553.417	27700.94
553.78	28060.25
554.143	27949.97
554.507	28146.58
554.87	28214.37
555.234	28509.96
555.597	28355.84
555.96	28453.23
556.323	28683.29
556.686	28793.56
557.05	28976.38
557.413	29096.83
557.776	29153.56
558.139	29365.75
558.502	29335.92
558.865	29452.76
559.228	29792.41
559.59	29773.43
559.953	29847.32
560.316	30261.32
560.679	30149.69
561.041	30406.86
561.404	30461.54
561.767	30715.1
562.129	30637.58
562.492	30914.19
562.854	30891.14
563.217	31040.74
563.579	31066.05
563.941	31443.66
564.304	31464.91
564.666	31693.6
565.028	31736.99
565.39	31875.97
565.753	31981.5
566.115	32194.83
566.477	32199.58
566.839	32382.62
567.201	32589.62
567.563	32675.5
567.925	32920.91
568.287	32715.95
568.648	32993.91
569.01	33196.16
569.372	33405.87
569.734	33268.93
570.095	33521.35
570.457	33777.61
570.819	33686.77
571.18	33783.26
571.542	34030.04
571.903	33962.92
572.265	34074.1
572.626	34230.03
572.987	34331.95
573.349	34422.57
573.71	34588.67
574.071	34752.73
574.432	34745.95
574.794	35022.78
575.155	34944.59
575.516	34963.8
575.877	35097.58
576.238	35223.45
576.599	35272.72
576.96	35295.54
577.32	35274.52
577.681	35512.71
578.042	35472.94
578.403	35565.14
578.763	35637
579.124	35703.44
579.485	35784.34
579.845	35816.21
580.206	35745.92
580.566	35806.94
580.927	35956.54
581.287	35864.57
581.648	35943.43
582.008	36058.91
582.368	36069.98
582.728	36064.56
583.089	36139.13
583.449	36028.63
583.809	36112.47
584.169	36167.83
584.529	36097.1
584.889	36340.49
585.249	36161.51
585.609	36077.89
585.969	36273.37
586.329	36186.36
586.688	36236.99
587.048	36260.49
587.408	36235.63
587.768	36260.71
588.127	36156.99
588.487	36072.02
588.846	36408.96
589.206	36208.29
589.565	36279.47
589.925	36304.55
590.284	36372.8
590.643	36230.21
591.003	36387.26
591.362	36312.69
591.721	36346.36
592.08	36373.25
592.44	36512.01
592.799	36476.75
593.158	36344.55
593.517	36525.11
593.876	36540.03
594.235	36383.87
594.593	36538.9
594.952	36505.68
595.311	36417.77
595.67	36450.54
596.029	36708.84
596.387	36744.09
596.746	36722.85
597.104	36561.27
597.463	36546.58
597.822	36693.92
598.18	36652.79
598.538	36696.18
598.897	36886.91
599.255	36553.81
599.613	37076.29
599.972	36798.78
600.33	36848.04
600.688	36810.76
601.046	36951.32
601.404	37164.42
601.762	36944.31
602.12	37118.77
602.478	37246.9
602.836	37104.76
603.194	37025.66
603.552	37121.26
603.91	37067.92
604.268	37244.87
604.625	37172.33
604.983	37195.38
605.341	37206.9
605.698	37358.76
606.056	37371.19
606.413	37388.59
606.771	37429.27
607.128	37509.27
607.485	37304.53
607.843	37415.71
608.2	37588.81
608.557	37630.17
608.914	37498.19
609.272	37820.67
609.629	37863.83
609.986	38011.18
610.343	37856.6
610.7	37962.59
611.057	37915.58
611.414	37908.35
611.771	37940.67
612.127	38092.3
612.484	37963.95
612.841	38180.89
613.198	37991.97
613.554	38098.41
613.911	38249.14
614.267	38374.33
614.624	38230.6
614.98	38260.21
615.337	38423.59
615.693	38418.62
616.05	38365.74
616.406	38561.67
616.762	38394.89
617.118	38410.49
617.475	38462.01
617.831	38541.56
618.187	38502.46
618.543	38633.53
618.899	38804.83
619.255	38741.55
619.611	38616.81
619.967	38794.21
620.323	38918.5
620.678	38887.54
621.034	38683.93
621.39	38683.25
621.746	38592.18
622.101	39055.89
622.457	38616.36
622.812	38818.39
623.168	38903.13
623.523	38856.58
623.879	39042.11
624.234	38586.08
624.589	38837.37
624.945	38885.95
625.3	38853.64
625.655	38777.26
626.01	38742.91
626.365	38736.13
626.72	38715.34
627.075	38753.08
627.43	38812.28
627.785	38683.25
628.14	38773.64
628.495	38726.86
628.85	38701.1
629.205	38624.94
629.559	38850.02
629.914	38541.11
630.269	38699.75
630.623	38488.9
630.978	38499.52
631.332	38617.71
631.687	38708.78
632.041	38492.07
632.396	38510.6
632.75	38228.57
633.104	38384.27
633.459	38221.11
633.813	38313.99
634.167	38243.26
634.521	38206.65
634.875	38193.77
635.229	38155.35
635.583	37892.53
635.937	38031.51
636.291	38006.88
636.645	38007.11
636.999	37712.2
637.352	37945.64
637.706	37657.96
638.06	37876.04
638.413	37812.08
638.767	37616.38
639.121	37726.89
639.474	37428.14
639.828	37535.26
640.181	37547.23
640.534	37506.78
640.888	37443.06
641.241	37179.11
641.594	37262.95
641.947	37420.68
642.301	37369.61
642.654	37331.19
643.007	37194.02
643.36	37206
643.713	37212.33
644.066	37265.88
644.419	37045.33
644.771	36827.93
645.124	36488.05
645.477	36335.74
645.83	36119.7
646.182	35910.89
646.535	35803.55
646.888	35916.09
647.24	35680.84
647.593	35842.19
647.945	35852.14
648.298	35583.44
648.65	35465.93
649.002	35419.15
649.355	35566.49
649.707	35503.22
650.059	35656.44
650.411	36015.52
650.763	35935.3
651.115	36472.01
651.467	36277.21
651.819	36243.31
652.171	36159.02
652.523	36046.48
652.875	35966.71
653.227	35931.46
653.578	36135.29
653.93	35981.17
654.282	35856.2
654.633	35792.93
654.985	35865.92
655.337	35734.63
655.688	35880.16
656.039	35953.38
656.391	35617.11
656.742	35722.65
657.094	35682.2
657.445	35797.45
657.796	35623.67
658.147	35647.4
658.498	35661.18
658.849	35688.98
659.2	35564.91
659.551	35419.15
659.902	35524.01
660.253	35451.24
660.604	35558.58
660.955	35310.23
661.306	35414.63
661.656	35422.54
662.007	35451.69
662.358	35337.8
662.708	35338.03
663.059	35267.07
663.409	35134.19
663.76	35329.21
664.11	35267.07
664.461	35270.46
664.811	35285.15
665.161	35341.19
665.511	35267.52
665.862	35273.39
666.212	35231.59
666.562	35286.73
666.912	35146.62
667.262	35181.87
667.612	35032.5
667.962	35107.75
668.312	35058.48
668.662	35109.33
669.011	35088.54
669.361	35041.08
669.711	34972.39
670.06	34894.65
670.41	34918.6
670.76	34846.97
671.109	35084.7
671.459	34823.01
671.808	34830.47
672.157	34888.55
672.507	34491.27
672.856	34664.15
673.205	34747.08
673.554	34726.06
673.904	34680.19
674.253	34707.31
674.602	34751.6
674.951	34286.3
675.3	34055.57
675.649	34699.4
675.998	34494.21
676.346	34487.43
676.695	34554.54
677.044	34357.03
677.393	34416.47
677.741	34491.04
678.09	34280.88
678.438	34251.27
678.787	34307.77
679.135	34272.52
679.484	33980.55
679.832	34223.93
680.181	33889.02
680.529	34065.29
680.877	33994.33
681.225	33928.57
681.573	34065.97
681.922	33959.53
682.27	33675.02
682.618	33766.77
682.966	33683.83
683.314	33728.8
683.661	33710.05
684.009	33491.97
684.357	33461.69
684.705	33351.86
685.053	33566.32
685.4	33407.91
685.748	33223.96
686.095	33049.95
686.443	33022.38
686.79	33040.46
687.138	33159.1
687.485	32966.79
687.832	32998.88
688.18	32853.35
688.527	32722.05
688.874	32748.94
689.221	32645.89
689.568	32405.67
689.915	32361.38
690.262	32408.84
690.609	32261.95
690.956	32157.54
691.303	32146.02
691.65	31980.15
691.997	32082.52
692.344	31783.99
692.69	31712.58
693.037	31734.05
693.383	31466.49
693.73	31702.19
694.077	31474.62
694.423	31526.6
694.769	31362.31
695.116	31223.78
695.462	31245.93
695.808	31155.31
696.155	31182.43
696.501	30975.2
696.847	30866.73
697.193	30739.73
697.539	30881.42
697.885	30561.43
698.231	30560.75
698.577	30595.55
698.923	30432.17
699.269	30370.25
699.614	30168.9
699.96	30080.31
700.306	30122.8
700.651	29899.07
700.997	29830.6
701.342	29826.76
701.688	29741.79
702.033	29600.32
702.379	29644.62
702.724	29609.36
703.069	29607.55
703.415	29241.01
703.76	29272.42
704.105	29270.39
704.45	29283.27
704.795	28972.77
705.14	28925.31
705.485	28942.94
705.83	28733
706.175	28830.4
706.52	28807.12
706.865	28649.16
707.209	28614.59
707.554	28404.65
707.899	28488.71
708.243	28407.59
708.588	28394.71
708.932	28111.55
709.277	27993.59
709.621	28162.85
709.966	27909.07
710.31	28100.25
710.654	27790.65
710.998	27814.16
711.342	27874.04
711.687	27743.65
712.031	27587.49
712.375	27579.59
712.719	27543.2
713.063	27438.57
713.407	27547.27
713.75	27355.86
714.094	27347.05
714.438	27229.99
714.782	27352.92
715.125	27160.84
715.469	27179.6
715.812	26966.72
716.156	26818.02
716.499	26942.99
716.843	26922.88
717.186	26743.9
717.53	26930.56
717.873	26860.96
718.216	26712.49
718.559	26534.64
718.902	26524.47
719.246	26576.22
719.589	26567.86
719.932	26284.03
720.275	26251.48
720.617	26372.61
720.96	26254.65
721.303	26216.68
721.646	26260.07
721.989	25985.96
722.331	26115.9
722.674	25973.75
723.016	26016.91
723.359	25926.07
723.701	25948.22
724.044	25698.73
724.386	25736.47
724.729	25834.55
725.071	25640.88
725.413	25651.05
725.755	25581.22
726.097	25411.96
726.439	25310.04
726.782	25365.18
727.124	25564.05
727.465	25378.97
727.807	25370.6
728.149	25261.91
728.491	25185.98
728.833	25228.01
729.175	25148.46
729.516	25076.83
729.858	25044.96
730.199	25116.15
730.541	24947.56
730.882	24933.33
731.224	24982.82
731.565	24800
731.906	24834.12
732.248	24799.32
732.589	24718.19
732.93	24611.53
733.271	24591.42
733.612	24604.07
733.953	24654.24
734.294	24433.45
734.635	24497.41
734.976	24440.91
735.317	24330.86
735.658	24418.76
735.999	24359.78
736.339	24340.57
736.68	24325.89
737.021	24225.32
737.361	24081.82
737.702	24215.38
738.042	24056.51
738.383	24068.27
738.723	24024.42
739.063	23966.8
739.404	24052.67
739.744	23958.44
740.084	23844.99
740.424	23928.83
740.764	23838.67
741.104	23896.74
741.444	23675.28
741.784	23653.14
742.124	23657.88
742.464	23622.63
742.804	23611.78
743.143	23556.64
743.483	23612.91
743.823	23475.06
744.162	23467.83
744.502	23419.02
744.841	23358.45
745.181	23297.89
745.52	23207.5
745.86	23377.66
746.199	23249.08
746.538	23212.92
746.877	23207.05
747.216	23182.41
747.556	23063.32
747.895	23100.61
748.234	22932.93
748.573	22940.84
748.911	22883.21
749.25	22861.29
749.589	22767.73
749.928	22710.79
750.267	22793.04
750.605	22694.29
750.944	22633.05
751.283	22616.33
751.621	22513.73
751.96	22422.66
752.298	22414.07
752.636	22414.98
752.975	22253.17
753.313	22248.88
753.651	22291.14
