Data from White_paper_FLMS001491_097.txt Node
Date: Tue Feb 07 10:35:50 GMT 2017
User: dcchb
Spectrometer: FLMS00149
Trigger mode: 0
Integration Time (sec): 2.000000E-2
Scans to average: 10
Electric dark correction enabled: true
Nonlinearity correction enabled: false
Boxcar width: 0
XAxis mode: Wavelengths
Number of Pixels in Spectrum: 2048
>>>>>Begin Spectral Data<<<<<
341.393	-0.79
341.776	-0.79
342.16	-0.79
342.543	-62.94
342.927	-47.12
343.31	-66.1
343.693	-61.58
344.077	-71.07
344.46	-46.44
344.843	-65.42
345.226	-45.54
345.61	-42.82
345.993	-15.03
346.376	-1.02
346.759	20.68
347.142	20.23
347.525	44.63
347.908	53.9
348.291	65.87
348.674	104.07
349.057	105.65
349.44	131.18
349.823	151.97
350.206	176.38
350.588	213.67
350.971	236.26
351.354	269.48
351.737	271.29
352.119	278.98
352.502	274
352.884	297.73
353.267	307.22
353.65	325.75
354.032	324.17
354.414	350.16
354.797	346.54
355.179	337.51
355.562	371.63
355.944	364.85
356.326	371.4
356.709	368.92
357.091	347.45
357.473	358.3
357.855	361.46
358.238	393.32
358.62	364.62
359.002	363.72
359.384	354.68
359.766	375.7
360.148	377.73
360.53	396.26
360.912	380.22
361.294	371.85
361.676	374.11
362.057	376.37
362.439	367.79
362.821	363.95
363.203	362.59
363.584	379.09
363.966	356.49
364.348	372.76
364.729	361.23
365.111	377.05
365.493	359.65
365.874	355.36
366.256	340.67
366.637	366.88
367.019	362.59
367.4	366.21
367.781	362.82
368.163	348.35
368.544	351.29
368.925	358.07
369.306	364.4
369.688	364.4
370.069	365.75
370.45	355.13
370.831	371.63
371.212	353.78
371.593	358.3
371.974	357.62
372.355	363.72
372.736	360.1
373.117	356.94
373.498	364.17
373.879	380.67
374.26	358.52
374.641	364.62
375.021	378.86
375.402	356.26
375.783	366.88
376.163	391.06
376.544	394
376.925	381.57
377.305	393.55
377.686	377.28
378.066	389.71
378.447	384.28
378.827	389.48
379.208	383.38
379.588	406.2
379.968	394.68
380.349	421.8
380.729	398.75
381.109	408.24
381.489	391.29
381.87	382.93
382.25	385.87
382.63	436.03
383.01	410.05
383.39	414.11
383.77	434.45
384.15	426.32
384.53	437.62
384.91	418.41
385.29	429.25
385.67	422.93
386.049	445.3
386.429	466.09
386.809	457.28
387.189	472.42
387.568	471.51
387.948	452.3
388.328	462.7
388.707	470.16
389.087	471.74
389.466	493.66
389.846	459.99
390.225	481.91
390.605	481.68
390.984	515.81
391.363	514
391.743	479.87
392.122	512.42
392.501	543.38
392.881	523.49
393.26	526.43
393.639	506.09
394.018	541.34
394.397	521
394.776	525.07
395.155	524.84
395.534	536.6
395.913	557.84
396.292	570.95
396.671	563.94
397.05	547.44
397.429	575.92
397.808	576.6
398.186	582.02
398.565	585.63
398.944	587.44
399.323	591.51
399.701	596.71
400.08	588.12
400.458	604.16
400.837	641.45
401.215	641.68
401.594	656.37
401.972	633.09
402.351	664.28
402.729	671.73
403.107	697.5
403.486	662.47
403.864	698.17
404.242	691.39
404.62	699.76
404.999	737.95
405.377	729.59
405.755	756.7
406.133	789.7
406.511	803.48
406.889	788.57
407.267	833.09
407.645	817.27
408.023	858.62
408.401	872.63
408.779	887.32
409.156	946.98
409.534	950.37
409.912	950.37
410.29	998.28
410.667	1006.64
411.045	1003.93
411.422	1027.2
411.8	1085.73
412.178	1089.12
412.555	1113.98
412.933	1150.59
413.31	1189.23
413.687	1213.87
414.065	1225.39
414.442	1267.2
414.819	1283.47
415.197	1308.78
415.574	1353.75
415.951	1343.58
416.328	1394.43
416.705	1420.41
417.082	1411.6
417.46	1452.96
417.837	1468.55
418.214	1523.46
418.591	1551.48
418.967	1542.45
419.344	1590.81
419.721	1611.37
420.098	1601.43
420.475	1658.15
420.852	1687.75
421.228	1713.29
421.605	1717.81
421.982	1754.19
422.358	1761.2
422.735	1833.06
423.111	1803.46
423.488	1866.96
423.864	1876
424.241	1879.84
424.617	1937.92
424.994	1904.02
425.37	1979.5
425.746	1974.98
426.123	1998.03
426.499	2026.5
426.875	2083.22
427.251	2105.59
427.627	2155.99
428.003	2199.15
428.379	2182.43
428.756	2243.67
429.132	2263.56
429.507	2288.64
429.883	2357.11
430.259	2371.12
430.635	2368.86
431.011	2444.34
431.387	2514.4
431.763	2562.31
432.138	2525.24
432.514	2569.08
432.89	2583.1
433.265	2659.48
433.641	2713.94
434.016	2730.89
434.392	2756.65
434.767	2841.62
435.143	2802.98
435.518	2872.81
435.894	2892.47
436.269	2971.56
436.644	2982.18
437.02	2986.25
437.395	3059.24
437.77	3087.49
438.145	3128.17
438.52	3169.75
438.895	3218.79
439.271	3261.95
439.646	3285.9
440.021	3319.8
440.395	3316.18
440.77	3281.83
441.145	3345.11
441.52	3437.31
441.895	3405.9
442.27	3476.18
442.645	3430.98
443.019	3444.77
443.394	3506.69
443.769	3562.96
444.143	3507.14
444.518	3589.62
444.892	3580.58
445.267	3612
445.641	3681.82
446.016	3666.01
446.39	3727.92
446.764	3744.87
447.139	3718.66
447.513	3813.8
447.887	3810.63
448.262	3805.44
448.636	3840.01
449.01	3897.41
449.384	3906
449.758	3911.42
450.132	3972.66
450.506	3974.25
450.88	4062.83
451.254	4046.11
451.628	4086.56
452.002	4123.39
452.376	4174.47
452.75	4262.37
453.123	4235.48
453.497	4324.97
453.871	4353.9
454.244	4443.39
454.618	4435.48
454.992	4519.09
455.365	4543.5
455.739	4619.2
456.112	4701.68
456.486	4680.67
456.859	4743.49
457.232	4820.78
457.606	4863.94
457.979	4922.47
458.352	4964.73
458.725	5085.18
459.099	5103.26
459.472	5166.3
459.845	5270.71
460.218	5264.61
460.591	5289.92
460.964	5402
461.337	5462.12
461.71	5567.88
462.083	5630.47
462.456	5667.31
462.829	5666.63
463.201	5778.72
463.574	5780.07
463.947	5901.2
464.32	5974.65
464.692	6058.94
465.065	6097.58
465.438	6262.32
465.81	6287.63
466.183	6325.37
466.555	6499.6
466.928	6552.03
467.3	6516.1
467.672	6691.91
468.045	6793.83
468.417	6843.77
468.789	6934.39
469.161	7026.59
469.534	7142.52
469.906	7250.09
470.278	7298.68
470.65	7379.81
471.022	7541.38
471.394	7672.23
471.766	7727.14
472.138	7853.92
472.51	8018.66
472.882	8126
473.253	8198.09
473.625	8355.37
473.997	8536.39
474.369	8550.85
474.74	8648.47
475.112	8870.39
475.484	9021.34
475.855	9122.81
476.227	9168.23
476.598	9438.06
476.97	9514.67
477.341	9736.81
477.713	9873.75
478.084	9967.99
478.455	10218.15
478.827	10292.27
479.198	10545.15
479.569	10617.46
479.94	10872.37
480.311	10953.27
480.682	11186.03
481.053	11492.47
481.424	11590.99
481.795	11727.71
482.166	11987.14
482.537	12126.12
482.908	12367.47
483.279	12421.03
483.65	12667.8
484.021	12908.47
484.391	13065.98
484.762	13212.87
485.133	13336.26
485.503	13555.46
485.874	13779.19
486.244	13852.4
486.615	14140.31
486.985	14318.83
487.356	14496.91
487.726	14638.6
488.097	15012.37
488.467	15013.05
488.837	15299.6
489.207	15607.39
489.578	15801.28
489.948	15872.46
490.318	16064.1
490.688	16112.23
491.058	16427.03
491.428	16589.96
491.798	16803.51
492.168	17016.16
492.538	17134.13
492.908	17385.87
493.278	17645.07
493.648	17523.27
494.017	17821.11
494.387	17962.13
494.757	18091.39
495.126	18172.29
495.496	18313.76
495.866	18509.23
496.235	18675.1
496.605	18775.21
496.974	18870.8
497.344	19130.23
497.713	19181.53
498.082	19428.53
498.452	19590.78
498.821	19700.39
499.19	19750.55
499.559	19915.75
499.928	19981.28
500.298	20201.84
500.667	20435.73
501.036	20324.78
501.405	20578.78
501.774	20579.91
502.143	20849.28
502.512	20988.71
502.88	21066.23
503.249	21082.5
503.618	21375.37
503.987	21367.01
504.356	21522.03
504.724	21741.91
505.093	21781.24
505.462	21886.54
505.83	22071.4
506.199	22284.27
506.567	22502.57
506.936	22551.84
507.304	22834.54
507.672	22801.77
508.041	22983.69
508.409	23160.86
508.777	23261.65
509.145	23522.21
509.514	23436.33
509.882	23631.58
510.25	23759.26
510.618	23978.69
510.986	24002.19
511.354	24338.46
511.722	24424.1
512.09	24777.54
512.458	24615.28
512.826	24954.94
513.193	25077.19
513.561	25132.79
513.929	25424.53
514.297	25669.04
514.664	25655.48
515.032	25868.36
515.4	26050.73
515.767	26088.47
516.135	26236.94
516.502	26083.95
516.869	26711.95
517.237	26664.5
517.604	26627.89
517.972	27111.94
518.339	27213.18
518.706	27298.83
519.073	27527.98
519.44	27577.47
519.808	27839.61
520.175	27876.22
520.542	28251.8
520.909	28384.68
521.276	28446.37
521.643	28718
522.009	28857.66
522.376	29188.27
522.743	29360.47
523.11	29502.16
523.477	29872.55
523.843	29999.32
524.21	30229.15
524.577	30561.34
524.943	30581.23
525.31	30764.5
525.676	31158.84
526.043	31223.25
526.409	31329.46
526.776	31759.96
527.142	31758.6
527.508	32009.21
527.874	32238.59
528.241	32434.74
528.607	32453.5
528.973	32870.21
529.339	32959.02
529.705	33229.75
530.071	33336.41
530.437	33465.22
530.803	33726.91
531.169	33978.43
531.535	34008.71
531.901	34093.91
532.267	34337.97
532.632	34491.41
532.998	34677.39
533.364	34937.27
533.73	34996.71
534.095	35209.81
534.461	35314.89
534.826	35520.08
535.192	35593.53
535.557	35861.77
535.923	35944.03
536.288	36133.4
536.653	36259.5
537.019	36155.32
537.384	36373.85
537.749	36653.39
538.114	36616.78
538.479	36680.28
538.845	36927.05
539.21	36978.35
539.575	37139.7
539.94	37275.52
540.305	37434.38
540.67	37444.55
541.034	37576.98
541.399	37724.77
541.764	37751.89
542.129	38056.97
542.494	38075.72
542.858	38338.09
543.223	38281.14
543.587	38659.44
543.952	38570.85
544.316	38770.39
544.681	38697.4
545.045	39067.33
545.41	39247.44
545.774	39179.87
546.138	39438.62
546.503	39511.84
546.867	39503.48
547.231	39802.91
547.595	39964.49
547.959	40086.29
548.324	40086.74
548.688	40289
549.052	40430.24
549.416	40491.03
549.779	40565.83
550.143	40550.91
550.507	40962.43
550.871	41114.06
551.235	41040.84
551.599	41302.3
551.962	41392.92
552.326	41489.42
552.689	41731.45
553.053	41617.78
553.417	41763.76
553.78	42227.93
554.143	42214.37
554.507	42319.45
554.87	42421.6
555.234	42798.54
555.597	42555.15
555.96	42743.62
556.323	42981.13
556.686	43103.61
557.05	43310.61
557.413	43525.07
557.776	43560.32
558.139	43862.01
558.502	43959.18
558.865	44012.06
559.228	44244.83
559.59	44358.72
559.953	44417.48
560.316	44985.37
560.679	44830.8
561.041	45196.89
561.404	45288.87
561.767	45426.49
562.129	45396.89
562.492	45936.76
562.854	45775.41
563.217	45768.63
563.579	45978.79
563.941	46272.12
564.304	46442.73
564.666	46782.84
565.028	46734.48
565.39	46781.48
565.753	47183.28
566.115	47169.04
566.477	47493.33
566.839	47479.77
567.201	47810.83
567.563	47828.91
567.925	48139.41
568.287	47987.78
568.648	48035.23
569.01	48472.28
569.372	48630.92
569.734	48551.6
570.095	48757.02
570.457	48977.58
570.819	49041.99
571.18	49039.05
571.542	49291.47
571.903	49401.75
572.265	49545.7
572.626	49586.61
572.987	49707.73
573.349	49850.78
573.71	50009.65
574.071	50029.76
574.432	50255.97
574.794	50447.15
575.155	50327.38
575.516	50320.82
575.877	50472.68
576.238	50521.5
576.599	50735.73
576.96	50779.12
577.32	50826.8
577.681	50902.5
578.042	51049.62
578.403	51063.63
578.763	51017.08
579.124	51267.92
579.485	51333.23
579.845	51466.78
580.206	51317.63
580.566	51392.66
580.927	51431.08
581.287	51610.96
581.648	51495.26
582.008	51643.73
582.368	51556.5
582.728	51736.61
583.089	51717.85
583.449	51777.06
583.809	51800.56
584.169	51862.48
584.529	51842.37
584.889	52018.63
585.249	51868.35
585.609	51817.51
585.969	52069.03
586.329	51875.81
586.688	52034.23
587.048	52004.62
587.408	51970.5
587.768	51905.19
588.127	52139.31
588.487	52027.45
588.846	52246.87
589.206	51982.02
589.565	52052.53
589.925	52243.03
590.284	52192.86
590.643	52200.32
591.003	52292.98
591.362	52403.71
591.721	52251.17
592.08	52330.94
592.44	52343.82
592.799	52323.48
593.158	52365.29
593.517	52387.89
593.876	52400.32
594.235	52425.18
594.593	52456.81
594.952	52517.38
595.311	52420.2
595.67	52514.66
596.029	52613.42
596.387	52636.47
596.746	52824.94
597.104	52598.05
597.463	52606.41
597.822	52775
598.18	52652.06
598.538	52658.16
598.897	52838.27
599.255	52615.9
599.613	53031.26
599.972	52719.18
600.33	52883.02
600.688	52839.85
601.046	52936.57
601.404	53013.18
601.762	53016.57
602.12	53196.68
602.478	53142.9
602.836	53059.51
603.194	52870.59
603.552	53069.45
603.91	52942.68
604.268	53168.66
604.625	53041.66
604.983	53160.3
605.341	53113.52
605.698	53240.52
606.056	53226.96
606.413	53207.53
606.771	53342.89
607.128	53348.77
607.485	53226.06
607.843	53229.67
608.2	53435.09
608.557	53480.97
608.914	53359.16
609.272	53529.55
609.629	53651.58
609.986	53678.93
610.343	53567.07
610.7	53750.56
611.057	53696.55
611.414	53652.71
611.771	53784.69
612.127	53913.5
612.484	53797.79
612.841	53904.91
613.198	53741.07
613.554	53766.83
613.911	54032.82
614.267	53959.82
614.624	53918.47
614.98	53991.24
615.337	54094.06
615.693	53987.62
616.05	54011.35
616.406	54209.76
616.762	54049.09
617.118	54061.97
617.475	54056.77
617.831	54174.73
618.187	54075.98
618.543	54196.65
618.899	54313.26
619.255	54318.46
619.611	54236.2
619.967	54361.17
620.323	54406.37
620.678	54336.31
621.034	54263.32
621.39	54301.28
621.746	54178.58
622.101	54580.82
622.457	54294.96
622.812	54358.91
623.168	54405.91
623.523	54380.6
623.879	54475.29
624.234	54312.81
624.589	54366.59
624.945	54368.4
625.3	54403.43
625.655	54388.29
626.01	54508.51
626.365	54417.44
626.72	54400.26
627.075	54403.88
627.43	54401.17
627.785	54277.56
628.14	54420.6
628.495	54432.35
628.85	54359.14
629.205	54306.71
629.559	54488.62
629.914	54445.01
630.269	54432.58
630.623	54281.62
630.978	54322.3
631.332	54450.88
631.687	54440.49
632.041	54336.76
632.396	54402.3
632.75	54235.75
633.104	54359.14
633.459	54191.68
633.813	54274.39
634.167	54174.96
634.521	54218.12
634.875	54240.27
635.229	54109.88
635.583	54038.69
635.937	54067.39
636.291	54048.86
636.645	54054.06
636.999	54000.5
637.352	54214.96
637.706	53901.07
638.06	54110.55
638.413	54014.96
638.767	53941.07
639.121	54030.1
639.474	53875.08
639.828	53889.77
640.181	53845.7
640.534	53887.06
640.888	53882.31
641.241	53763.22
641.594	53715.08
641.947	53855.65
642.301	53745.82
642.654	53767.51
643.007	53745.14
643.36	53783.11
643.713	53675.76
644.066	53689.1
644.419	53548.08
644.771	53323.91
645.124	53152.84
645.477	53096.8
645.83	52901.09
646.182	52806.63
646.535	52721.21
646.888	52826.75
647.24	52609.13
647.593	52688.22
647.945	52739.52
648.298	52675.11
648.65	52502.91
649.002	52467.66
649.355	52630.82
649.707	52593.08
650.059	52673.76
650.411	53114.65
650.763	53230.13
651.115	53477.35
651.467	53308.54
651.819	53308.99
652.171	53263.35
652.523	53225.61
652.875	53297.47
653.227	53083.69
653.578	53389.67
653.93	53145.38
654.282	53086.63
654.633	53040.3
654.985	53128.66
655.337	53182.9
655.688	53070.81
656.039	53164.36
656.391	52933.86
656.742	52972.05
657.094	52891.83
657.445	53080.98
657.796	53042.33
658.147	52958.95
658.498	52965.27
658.849	53040.98
659.2	52951.49
659.551	52841.89
659.902	53057.93
660.253	52947.2
660.604	52953.97
660.955	52849.12
661.306	52944.26
661.656	52845.05
662.007	52856.35
662.358	52768.44
662.708	52836.24
663.059	52798.72
663.409	52656.58
663.76	52796.92
664.11	52767.54
664.461	52782.23
664.811	52876.01
665.161	52760.99
665.511	52668.78
665.862	52704.94
666.212	52791.49
666.562	52778.84
666.912	52682.8
667.262	52599.86
667.612	52677.82
667.962	52676.92
668.312	52569.58
668.662	52720.99
669.011	52636.7
669.361	52558.73
669.711	52518.96
670.06	52542.91
670.41	52391.28
670.76	52331.62
671.109	52572.06
671.459	52448.45
671.808	52392.86
672.157	52445.29
672.507	52186.76
672.856	52245.29
673.205	52256.82
673.554	52375.91
673.904	52198.29
674.253	52425.63
674.602	52231.06
674.951	51829.26
675.3	51627.91
675.649	52115.8
675.998	51960.78
676.346	52124.62
676.695	52137.05
677.044	51836.04
677.393	52022.25
677.741	51953.78
678.09	51952.42
678.438	51804.17
678.787	51850.28
679.135	51849.37
679.484	51615.25
679.832	51740.45
680.181	51583.84
680.529	51596.27
680.877	51516.05
681.225	51446.67
681.573	51699.09
681.922	51355.82
682.27	51257.75
682.618	51339.1
682.966	51275.15
683.314	51321.7
683.661	51102.95
684.009	50952.9
684.357	50873.8
684.705	50853.92
685.053	50787.7
685.4	50846.91
685.748	50716.29
686.095	50609.63
686.443	50497.77
686.79	50433.14
687.138	50420.03
687.485	50457.09
687.832	50297.32
688.18	50349.52
688.527	50150.43
688.874	50136.42
689.221	49948.86
689.568	49862.98
689.915	49774.17
690.262	49802.42
690.609	49544.8
690.956	49512.71
691.303	49543.9
691.65	49361.53
691.997	49256.22
692.344	49086.28
692.69	49025.94
693.037	49120.86
693.383	48756.12
693.73	48962.89
694.077	48581.21
694.423	48579.4
694.769	48546.86
695.116	48465.28
695.462	48450.59
695.808	48239.75
696.155	48357.94
696.501	48037.72
696.847	47990.04
697.193	47704.17
697.539	47932.64
697.885	47616.04
698.231	47396.83
698.577	47544.4
698.923	47372.43
699.269	47165.2
699.614	46909.84
699.96	47020.57
700.306	46962.27
700.651	46836.17
700.997	46809.96
701.342	46688.83
701.688	46652.9
702.033	46495.61
702.379	46407.25
702.724	46397.76
703.069	46426.91
703.415	45890.21
703.76	45889.75
704.105	45838.23
704.45	45755.97
704.795	45548.07
705.14	45501.52
705.485	45478.01
705.83	45300.16
706.175	45487.73
706.52	45225.59
706.865	45107.4
707.209	45025.37
707.554	44919.38
707.899	44972.04
708.243	44646.62
708.588	44741.54
708.932	44421.54
709.277	44377.93
709.621	44440.75
709.966	44169.35
710.31	44285.28
710.654	43941.56
710.998	44133.19
711.342	44121.89
711.687	43818.4
712.031	43663.15
712.375	43572.3
712.719	43587.67
713.063	43434.9
713.407	43676.48
713.75	43506.99
714.094	43428.8
714.438	43187
714.782	43244.17
715.125	43090.73
715.469	43148.13
715.812	42832.89
716.156	42793.34
716.499	42788.14
716.843	42734.58
717.186	42560.58
717.53	42719.44
717.873	42570.29
718.216	42518.09
718.559	42431.54
718.902	42033.58
719.246	42090.08
719.589	42055.05
719.932	41865.68
720.275	41973.92
720.617	41966.47
720.96	41855.06
721.303	41787.26
721.646	41805.34
721.989	41453.03
722.331	41644.89
722.674	41587.72
723.016	41541.62
723.359	41375.3
723.701	41471.11
724.044	41158.13
724.386	40968.75
724.729	41317.9
725.071	41170.1
725.413	41059.15
725.755	41051.24
726.097	40818.47
726.439	40665.48
726.782	40703.68
727.124	40864.58
727.465	40655.54
727.807	40635.88
728.149	40671.13
728.491	40448.54
728.833	40561.76
729.175	40229.79
729.516	40140.3
729.858	40188.43
730.199	40261.43
730.541	40169
730.882	40120.87
731.224	40136.46
731.565	39991.6
731.906	40001.55
732.248	39926.29
732.589	39710.48
732.93	39676.36
733.271	39554.33
733.612	39795.68
733.953	39703.48
734.294	39546.19
734.635	39393.43
734.976	39492.41
735.317	39228.91
735.658	39385.29
735.999	39312.07
736.339	39141.68
736.68	39287.89
737.021	39162.93
737.361	38976.72
737.702	39176.94
738.042	38924.97
738.383	38818.75
738.723	38990.95
739.063	38826.89
739.404	38848.36
739.744	38707.34
740.084	38506.22
740.424	38582.83
740.764	38587.12
741.104	38495.15
741.444	38427.58
741.784	38290.18
742.124	38356.17
742.464	38308.26
742.804	38232.33
743.143	38165.44
743.483	38207.47
743.823	38010.86
744.162	37988.49
744.502	38080.92
744.841	37843.64
745.181	38127.25
745.52	37879.12
745.86	37914.82
746.199	37757.54
746.538	37718.44
746.877	37796.41
747.216	37733.58
747.556	37553.7
747.895	37513.48
748.234	37482.07
748.573	37469.18
748.911	37338.57
749.25	37313.03
749.589	37061.96
749.928	37002.08
750.267	37137.22
750.605	36987.62
750.944	36951.46
751.283	36776.55
751.621	36845.02
751.96	36635.08
752.298	36736.77
752.636	36629.21
752.975	36486.16
753.313	36527.74
