Data from White_reflection_standard_FLMS001491_076.txt Node
Date: Tue Feb 07 10:32:10 GMT 2017
User: dcchb
Spectrometer: FLMS00149
Trigger mode: 0
Integration Time (sec): 2.000000E-2
Scans to average: 10
Electric dark correction enabled: true
Nonlinearity correction enabled: false
Boxcar width: 0
XAxis mode: Wavelengths
Number of Pixels in Spectrum: 2048
>>>>>Begin Spectral Data<<<<<
341.393	-6.95
341.776	-6.95
342.16	-6.95
342.543	-35.65
342.927	-47.63
343.31	-56.44
343.693	-80.17
344.077	-77.91
344.46	-68.42
344.843	-46.27
345.226	-51.02
345.61	-51.02
345.993	-23.9
346.376	5.25
346.759	35.76
347.142	18.59
347.525	30.11
347.908	59.04
348.291	91.58
348.674	106.49
349.057	108.3
349.44	137
349.823	143.33
350.206	177.45
350.588	235.3
350.971	245.02
351.354	265.81
351.737	282.76
352.119	307.39
352.502	316.66
352.884	326.38
353.267	316.66
353.65	348.52
354.032	345.36
354.414	361.18
354.797	369.31
355.179	384.45
355.562	396.2
355.944	406.15
356.326	372.93
356.709	381.06
357.091	392.59
357.473	403.89
357.855	408.63
358.238	419.93
358.62	404.34
359.002	421.29
359.384	409.76
359.766	409.54
360.148	430.1
360.53	407.96
360.912	388.75
361.294	386.94
361.676	414.06
362.057	407.28
362.439	398.92
362.821	424.45
363.203	400.27
363.584	432.14
363.966	404.57
364.348	413.6
364.729	411.35
365.111	425.36
365.493	419.71
365.874	399.14
366.256	424.23
366.637	413.15
367.019	402.08
367.4	416.54
367.781	429.88
368.163	433.94
368.544	437.11
368.925	421.51
369.306	442.3
369.688	441.63
370.069	425.36
370.45	430.1
370.831	433.49
371.212	449.08
371.593	443.43
371.974	466.03
372.355	484.34
372.736	447.95
373.117	446.82
373.498	459.93
373.879	480.5
374.26	468.52
374.641	454.73
375.021	466.48
375.402	491.79
375.783	485.69
376.163	518.23
376.544	525.24
376.925	490.89
377.305	513.04
377.686	472.36
378.066	506.48
378.447	514.85
378.827	520.49
379.208	511.46
379.588	525.24
379.968	500.38
380.349	515.52
380.729	525.92
381.109	527.73
381.489	558.69
381.87	548.52
382.25	569.31
382.63	559.82
383.01	561.4
383.39	572.47
383.77	573.6
384.15	584.45
384.53	593.04
384.91	592.81
385.29	616.99
385.67	589.87
386.049	618.57
386.429	623.32
386.809	615.41
387.189	623.77
387.568	642.53
387.948	626.25
388.328	640.49
388.707	633.03
389.087	659.93
389.466	678
389.846	682.98
390.225	688.17
390.605	702.18
390.984	717.78
391.363	725.91
391.743	710.77
392.122	722.75
392.501	723.88
392.881	738.12
393.26	734.95
393.639	775.86
394.018	781.73
394.397	765.01
394.776	789.87
395.155	795.06
395.534	818.11
395.913	797.78
396.292	792.58
396.671	808.4
397.05	855.85
397.429	849.75
397.808	861.28
398.186	868.73
398.565	842.97
398.944	877.32
399.323	901.95
399.701	904.89
400.08	894.72
400.458	912.35
400.837	924.78
401.215	932.01
401.594	976.98
401.972	939.92
402.351	930.2
402.729	991.22
403.107	964.32
403.486	991.67
403.864	982.63
404.242	983.08
404.62	1010.2
404.999	1049.07
405.377	1056.75
405.755	1064.44
406.133	1085.45
406.511	1075.28
406.889	1093.14
407.267	1109.63
407.645	1143.98
408.023	1153.7
408.401	1152.12
408.779	1182.62
409.156	1195.28
409.534	1228.5
409.912	1203.87
410.29	1247.48
410.667	1264.43
411.045	1282.28
411.422	1266.24
411.8	1299.68
412.178	1320.02
412.555	1346.01
412.933	1352.11
413.31	1368.38
413.687	1390.98
414.065	1431.66
414.442	1421.49
414.819	1435.72
415.197	1476.63
415.574	1469.4
415.951	1504.42
416.328	1512.11
416.705	1511.66
417.082	1542.61
417.46	1561.82
417.837	1560.47
418.214	1590.3
418.591	1599.11
418.967	1620.8
419.344	1654.25
419.721	1647.02
420.098	1667.58
420.475	1709.84
420.852	1709.39
421.228	1735.83
421.605	1738.09
421.982	1762.27
422.358	1791.87
422.735	1811.99
423.111	1818.54
423.488	1849.5
423.864	1879.56
424.241	1897.63
424.617	1925.88
424.994	1943.51
425.37	1953.9
425.746	1958.2
426.123	2005.2
426.499	2042.94
426.875	2030.74
427.251	2078.19
427.627	2112.54
428.003	2108.7
428.379	2150.06
428.756	2190.06
429.132	2209.04
429.507	2260.56
429.883	2314.12
430.259	2314.35
430.635	2345.08
431.011	2330.39
431.387	2394.12
431.763	2441.57
432.138	2456.94
432.514	2502.82
432.89	2514.11
433.265	2558.18
433.641	2602.47
434.016	2642.25
434.392	2673.43
434.767	2736.93
435.143	2736.71
435.518	2767.44
435.894	2806.08
436.269	2840.66
436.644	2859.42
437.02	2894.44
437.395	2929.47
437.77	2986.64
438.145	2979.87
438.52	3028.45
438.895	3083.14
439.271	3051.5
439.646	3186.87
440.021	3172.85
440.395	3217.82
440.77	3133.99
441.145	3223.02
441.52	3225.96
441.895	3278.16
442.27	3315.68
442.645	3338.95
443.019	3335.56
443.394	3369.69
443.769	3385.5
444.143	3399.97
444.518	3460.08
444.892	3450.81
445.267	3488.78
445.641	3547.53
446.016	3585.95
446.39	3607.87
446.764	3599.28
447.139	3609.91
447.513	3649.68
447.887	3654.65
448.262	3730.13
448.636	3713.18
449.01	3808.09
449.384	3845.61
449.758	3811.26
450.132	3866.85
450.506	3923.8
450.88	3978.03
451.254	3966.73
451.628	4007.63
452.002	4073.4
452.376	4135.99
452.75	4158.37
453.123	4210.57
453.497	4300.96
453.871	4277.91
454.244	4386.61
454.618	4430.67
454.992	4472.26
455.365	4472.03
455.739	4575.76
456.112	4629.54
456.486	4697.56
456.859	4694.62
457.232	4813.04
457.606	4851.45
457.979	4873.83
458.352	4989.08
458.725	5073.6
459.099	5069.08
459.472	5197.43
459.845	5212.12
460.218	5277.88
460.591	5314.27
460.964	5359.01
461.337	5479.69
461.71	5575.28
462.083	5651.43
462.456	5685.33
462.829	5733.92
463.201	5802.16
463.574	5830.64
463.947	5893.01
464.32	6039.45
464.692	6115.83
465.065	6149.27
465.438	6164.19
465.81	6299.1
466.183	6400.34
466.555	6520.11
466.928	6518.76
467.3	6565.53
467.672	6678.07
468.045	6859.09
468.417	6902.7
468.789	6977.95
469.161	7054.56
469.534	7171.39
469.906	7334.55
470.278	7334.33
470.65	7520.08
471.022	7641.21
471.394	7709.68
471.766	7852.05
472.138	7914.2
472.51	8163.68
472.882	8192.61
473.253	8314.64
473.625	8416.33
473.997	8595.54
474.369	8692.71
474.74	8751.46
475.112	8913.04
475.484	9099.03
475.855	9245.01
476.227	9348.29
476.598	9612.69
476.97	9720.93
477.341	9922.96
477.713	9986.69
478.084	10133.8
478.455	10437.07
478.827	10491.08
479.198	10823.73
479.569	10871.18
479.94	11162.25
480.311	11272.75
480.682	11484.5
481.053	11704.61
481.424	11927.2
481.795	12012.62
482.166	12223.46
482.537	12398.37
482.908	12698.03
483.279	12788.42
483.65	13005.14
484.021	13313.38
484.391	13435.86
484.762	13568.06
485.133	13737.77
485.503	13925.57
485.874	14185.9
486.244	14351.32
486.615	14651.87
486.985	14737.52
487.356	15088.47
487.726	15217.28
488.097	15563.26
488.467	15583.83
488.837	15898.17
489.207	16067.2
489.578	16374.54
489.948	16446.18
490.318	16706.28
490.688	16712.84
491.058	17103.79
491.428	17346.27
491.798	17440.5
492.168	17836.42
492.538	17893.37
492.908	18077.32
493.278	18336.98
493.648	18416.75
494.017	18626.23
494.387	18836.17
494.757	18961.14
495.126	19058.54
495.496	19220.12
495.866	19276.16
496.235	19508.47
496.605	19724.51
496.974	19828.24
497.344	20063.03
497.713	20141
498.082	20409.46
498.452	20656.91
498.821	20624.15
499.19	20797.02
499.559	21026.17
499.928	21112.04
500.298	21264.36
500.667	21439.04
501.036	21439.72
501.405	21791.57
501.774	21674.29
502.143	21966.48
502.512	22131.9
502.88	22264.33
503.249	22403.99
503.618	22577.99
503.987	22615.73
504.356	22841.04
504.724	22936.18
505.093	22979.34
505.462	23201.03
505.83	23313.79
506.199	23636.27
506.567	23915.59
506.936	23909.26
507.304	24203.26
507.672	24292.98
508.041	24249.81
508.409	24675.79
508.777	24826.97
509.145	24938.38
509.514	25061.54
509.882	25277.13
510.25	25489.56
510.618	25495.66
510.986	25655.43
511.354	26015.87
511.722	26132.48
512.09	26439.59
512.458	26449.76
512.826	26588.28
513.193	26874.38
513.561	26911.89
513.929	27160.02
514.297	27430.75
514.664	27686.79
515.032	27690.18
515.4	28028.25
515.767	28225.53
516.135	28302.59
516.502	28195.93
516.869	28779.86
517.237	28899.64
517.604	28834.1
517.972	29186.41
518.339	29341.66
518.706	29566.74
519.073	29695.77
519.44	29871.36
519.808	30224.57
520.175	30407.17
520.542	30661.17
520.909	30856.19
521.276	30879.92
521.643	31330.31
522.009	31474.71
522.376	31708.38
522.743	31968.93
523.11	32233.11
523.477	32517.85
523.843	32652.53
524.21	33032.63
524.577	33212.52
524.943	33386.75
525.31	33620.19
525.676	34020.63
526.043	34174.53
526.409	34320.28
526.776	34795.75
527.142	34878.01
527.508	35046.14
527.874	35380.82
528.241	35349.86
528.607	35658.33
528.973	36034.82
529.339	36019.67
529.705	36423.05
530.071	36630.05
530.437	36710.28
530.803	36884.74
531.169	37202.47
531.535	37156.37
531.901	37347.32
532.267	37569.46
532.632	37818.95
532.998	37932.62
533.364	38230.24
533.73	38304.36
534.095	38649.21
534.461	38594.97
534.826	38914.06
535.192	39091.46
535.557	39438.34
535.923	39481.96
536.288	39716.75
536.653	39745.45
537.019	39745.23
537.384	39938.67
537.749	40126.69
538.114	40221.6
538.479	40335.49
538.845	40578.88
539.21	40402.61
539.575	40797.4
539.94	40940.45
540.305	41205.07
540.67	41115.13
541.034	41164.85
541.399	41525.52
541.764	41591.96
542.129	41654.1
542.494	41842.8
542.858	41999.18
543.223	42024.26
543.587	42269.45
543.952	42331.15
544.316	42380.86
544.681	42562.1
545.045	42674.64
545.41	43044.57
545.774	42907.85
546.138	43141.3
546.503	43383.1
546.867	43339.03
547.231	43828.06
547.595	43827.38
547.959	43890.65
548.324	43961.39
548.688	44056.53
549.052	44303.07
549.416	44225.56
549.779	44339.91
550.143	44585.55
550.507	44872.32
550.871	44889.05
551.235	44956.84
551.599	45279.54
551.962	45345.76
552.326	45621.23
552.689	45626.43
553.053	45693.54
553.417	45851.96
553.78	46323.58
554.143	46114.55
554.507	46291.04
554.87	46563.13
555.234	46891.48
555.597	46659.85
555.96	46937.58
556.323	47132.6
556.686	47184.13
557.05	47537.79
557.413	47601.97
557.776	47698.01
558.139	47980.04
558.502	48000.38
558.865	48169.86
559.228	48443.98
559.59	48578.89
559.953	48721.04
560.316	49024.53
560.679	48998.54
561.041	49284.64
561.404	49402.6
561.767	49659.77
562.129	49614.12
562.492	49941.79
562.854	49932.08
563.217	49975.92
563.579	50259.3
563.941	50419.52
564.304	50543.81
564.666	50618.16
565.028	50924.14
565.39	50919.85
565.753	51080.97
566.115	51246.17
566.477	51347.86
566.839	51433.96
567.201	51672.37
567.563	51673.05
567.925	51950.78
568.287	52008.18
568.648	52009.99
569.01	52197.78
569.372	52447.94
569.734	52327.49
570.095	52628.5
570.457	52724.77
570.819	52786.47
571.18	52723.19
571.542	52995.73
571.903	53106
572.265	53087.02
572.626	53246.79
572.987	53313
573.349	53318.65
573.71	53490.85
574.071	53580.57
574.432	53652.21
574.794	53727.68
575.155	53868.7
575.516	53826.89
575.877	53917.73
576.238	53897.17
576.599	54081.35
576.96	54120.22
577.32	54186.88
577.681	54192.08
578.042	54267.78
578.403	54346.65
578.763	54329.02
579.124	54453.77
579.485	54507.1
579.845	54551.62
580.206	54550.71
580.566	54507.55
580.927	54538.96
581.287	54700.54
581.648	54542.13
582.008	54713.87
582.368	54741.44
582.728	54735.11
583.089	54601.56
583.449	54683.82
583.809	54780.54
584.169	54814.21
584.529	54775.34
584.889	54935.34
585.249	54795.23
585.609	54755.9
585.969	54848.33
586.329	54702.35
586.688	54857.6
587.048	54851.04
587.408	54798.84
587.768	54763.81
588.127	54815.34
588.487	54750.48
588.846	55007.2
589.206	54732.18
589.565	54737.15
589.925	54839.52
590.284	54883.59
590.643	54843.59
591.003	54994.77
591.362	55037.25
591.721	54917.03
592.08	54917.48
592.44	54981.21
592.799	55010.14
593.158	55022.11
593.517	54939.85
593.876	55063.02
594.235	54953.64
594.593	54976.01
594.952	55088.1
595.311	54981.21
595.67	55071.6
596.029	55172.17
596.387	55171.71
596.746	55257.36
597.104	55093.07
597.463	55123.13
597.822	55277.93
598.18	55067.76
598.538	55186.4
598.897	55290.35
599.255	55009.46
599.613	55434.98
599.972	55242.22
600.33	55392.72
600.688	55196.12
601.046	55345.95
601.404	55440.86
601.762	55321.77
602.12	55444.02
602.478	55506.62
602.836	55536.68
603.194	55420.75
603.552	55502.33
603.91	55359.28
604.268	55548.88
604.625	55463.68
604.983	55596.56
605.341	55466.17
605.698	55637.01
606.056	55637.24
606.413	55612.83
606.771	55677.24
607.128	55775.54
607.485	55665.26
607.843	55745.03
608.2	55837.46
608.557	55907.74
608.914	55735.54
609.272	55893.73
609.629	56041.29
609.986	56055.76
610.343	55858.02
610.7	56059.15
611.057	56025.25
611.414	56020.73
611.771	56063.22
612.127	56216.43
612.484	56171.23
612.841	56257.33
613.198	56114.51
613.554	56211.46
613.911	56320.61
614.267	56300.5
614.624	56218.92
614.98	56314.73
615.337	56402.87
615.693	56321.51
616.05	56292.14
616.406	56506.14
616.762	56354.96
617.118	56369.65
617.475	56396.77
617.831	56511.11
618.187	56541.62
618.543	56512.92
618.899	56576.2
619.255	56548.4
619.611	56514.5
619.967	56669.53
620.323	56589.98
620.678	56631.79
621.034	56506.59
621.39	56549.3
621.746	56590.43
622.101	56798.11
622.457	56507.05
622.812	56605.8
623.168	56658.91
623.523	56533.94
623.879	56755.4
624.234	56480.38
624.589	56674.05
624.945	56629.98
625.3	56727.38
625.655	56643.54
626.01	56597.89
626.365	56624.33
626.72	56682.63
627.075	56608.51
627.43	56573.48
627.785	56541.39
628.14	56667.72
628.495	56540.49
628.85	56574.84
629.205	56435.41
629.559	56615.52
629.914	56511.79
630.269	56451.45
630.623	56428.63
630.978	56352.25
631.332	56475.41
631.687	56519.93
632.041	56349.08
632.396	56408.29
632.75	56337.11
633.104	56364.22
633.459	56213.27
633.813	56239.26
634.167	56172.82
634.521	56248.97
634.875	56149.54
635.229	56158.58
635.583	55977.79
635.937	55952.71
636.291	55992.48
636.645	55959.94
636.999	55853.73
637.352	55979.83
637.706	55733.73
638.06	55909.09
638.413	55813.73
638.767	55729.44
639.121	55743.45
639.474	55622.32
639.828	55633.17
640.181	55643.34
640.534	55655.54
640.888	55543
641.241	55497.81
641.594	55534.87
641.947	55500.97
642.301	55502.1
642.654	55432.27
643.007	55406.51
643.36	55410.8
643.713	55330.13
644.066	55434.53
644.419	55155.67
644.771	55018.95
645.124	54674.1
645.477	54694.21
645.83	54509.36
646.182	54348.91
646.535	54315.46
646.888	54421.68
647.24	54192.98
647.593	54350.94
647.945	54212.87
648.298	54205.64
648.65	54132.42
649.002	53988.92
649.355	54119.09
649.707	54016.49
650.059	54089.93
650.411	54468
650.763	54566.98
651.115	54842.23
651.467	54604.95
651.819	54647.89
652.171	54498.51
652.523	54508.45
652.875	54544.16
653.227	54341.45
653.578	54577.6
653.93	54491.73
654.282	54322.47
654.633	54287.22
654.985	54298.97
655.337	54305.07
655.688	54261
656.039	54425.52
656.391	54052.87
656.742	54146.43
657.094	54131.97
657.445	54279.76
657.796	54118.86
658.147	54158.41
658.498	54039.54
658.849	54061.46
659.2	54037.73
659.551	54009.71
659.902	54051.06
660.253	53958.41
660.604	54034.34
660.955	53876.61
661.306	53978.98
661.656	53880.45
662.007	53936.94
662.358	53930.84
662.708	53858.08
663.059	53829.15
663.409	53708.7
663.76	53809.94
664.11	53870.5
664.461	53830.51
664.811	53828.7
665.161	53748.47
665.511	53719.55
665.862	53722.03
666.212	53765.87
666.562	53714.58
666.912	53658.98
667.262	53615.6
667.612	53611.08
667.962	53632.09
668.312	53651.98
668.662	53748.93
669.011	53673.67
669.361	53569.72
669.711	53559.33
670.06	53462.15
670.41	53349.61
670.76	53378.09
671.109	53426.9
671.459	53411.99
671.808	53299.9
672.157	53349.16
672.507	53270.07
672.856	53278.43
673.205	53320.24
673.554	53306
673.904	53214.93
674.253	53336.73
674.602	53224.87
674.951	52764.77
675.3	52562.97
675.649	53072.11
675.998	53029.17
676.346	53113.91
676.695	53171.31
677.044	52881.6
677.393	53020.58
677.741	53042.05
678.09	52811.1
678.438	52914.6
678.787	52872.56
679.135	52935.84
679.484	52719.35
679.832	52799.8
680.181	52576.98
680.529	52733.59
680.877	52541.73
681.225	52642.74
681.573	52772.91
681.922	52527.94
682.27	52411.79
682.618	52394.39
682.966	52349.64
683.314	52279.13
683.661	52202.3
684.009	52038.24
684.357	51977.45
684.705	51877.56
685.053	52005.02
685.4	51836.66
685.748	51795.53
686.095	51738.81
686.443	51619.26
686.79	51546.5
687.138	51588.08
687.485	51654.07
687.832	51420.85
688.18	51398.03
688.527	51245.94
688.874	51243.91
689.221	51217.92
689.568	51064.93
689.915	50858.61
690.262	50924.37
690.609	50890.92
690.956	50808.66
691.303	50726.63
691.65	50495.68
691.997	50637.82
692.344	50325.96
692.69	50286.19
693.037	50317.38
693.383	50048.91
693.73	50130.49
694.077	49883.72
694.423	49833.55
694.769	49728.47
695.116	49598.07
695.462	49637.4
695.808	49440.56
696.155	49401.47
696.501	49240.34
696.847	49215.94
697.193	48945.66
697.539	49173.9
697.885	48789.28
698.231	48670.64
698.577	48707.02
698.923	48614.37
699.269	48433.13
699.614	48281.95
699.96	48216.19
700.306	48279.01
700.651	48111.56
700.997	47971.45
701.342	47970.77
701.688	47852.36
702.033	47719.03
702.379	47644.91
702.724	47573.27
703.069	47601.74
703.415	47208.53
703.76	47190
704.105	47112.94
704.45	46951.36
704.795	46784.36
705.14	46629.56
705.485	46522.9
705.83	46539.85
706.175	46610.13
706.52	46352.51
706.865	46134.89
707.209	46128.56
707.554	45918.17
707.899	46093.99
708.243	45853.09
708.588	45832.52
708.932	45480.22
709.277	45517.05
709.621	45499.88
709.966	45256.95
710.31	45178.08
710.654	44982.38
710.998	45049.72
711.342	45073
711.687	44963.85
712.031	44723.63
712.375	44554.37
712.719	44665.55
713.063	44566.79
713.407	44732.21
713.75	44269.85
714.094	44362.51
714.438	44152.34
714.782	44296.74
715.125	43983.76
715.469	44049.07
715.812	43854.72
716.156	43777.89
716.499	43698.12
716.843	43739.47
717.186	43325.7
717.53	43590.55
717.873	43651.56
718.216	43468.07
718.559	43328.63
718.902	42925.93
719.246	43150.33
719.589	43011.35
719.932	42799.38
720.275	42976.33
720.617	42720.97
720.96	42714.41
721.303	42635.32
721.646	42609.78
721.989	42355.78
722.331	42485.27
722.674	42401.43
723.016	42384.03
723.359	42064.71
723.701	42236.69
724.044	41955.11
724.386	41734.33
724.729	42018.39
725.071	41797.15
725.413	41896.36
725.755	41806.64
726.097	41600.32
726.439	41404.17
726.782	41612.75
727.124	41536.82
727.465	41250.27
727.807	41261.57
728.149	41183.15
728.491	41145.42
728.833	41177.28
729.175	40956.04
729.516	40841.92
729.858	40998.07
730.199	40948.36
730.541	40806.22
730.882	40706.78
731.224	40799.89
731.565	40491.87
731.906	40570.06
732.248	40538.88
732.589	40276.06
732.93	40206.91
733.271	40196.51
733.612	40176.18
733.953	40177.31
734.294	40168.27
734.635	40092.56
734.976	40038.78
735.317	39713.14
735.658	39799.69
735.999	39668.84
736.339	39747.26
736.68	39713.81
737.021	39582.29
737.361	39393.82
737.702	39446.48
738.042	39417.55
738.383	39316.54
738.723	39373.48
739.063	39182.3
739.404	39067.5
739.744	38997.45
740.084	38942.31
740.424	39030.89
740.764	38963.1
741.104	38886.94
741.444	38713.16
741.784	38561.3
742.124	38834.52
742.464	38712.71
742.804	38626.16
743.143	38455.77
743.483	38442.89
743.823	38249.45
744.162	38244.25
744.502	38334.87
744.841	38092.84
745.181	38234.98
745.52	37898.72
745.86	38175.1
746.199	37938.04
746.538	37891.49
746.877	37899.4
747.216	37844.71
747.556	37632.74
747.895	37814.43
748.234	37580.31
748.573	37517.26
748.911	37465.51
749.25	37430.71
749.589	37207.89
749.928	37327.66
750.267	37204.5
750.605	37084.05
750.944	36958.86
751.283	36899.43
751.621	36920.89
751.96	36706.21
752.298	36627.79
