Data from White_reflection_standard_FLMS001491_004.txt Node
Date: Tue Feb 07 10:31:56 GMT 2017
User: dcchb
Spectrometer: FLMS00149
Trigger mode: 0
Integration Time (sec): 2.000000E-2
Scans to average: 10
Electric dark correction enabled: true
Nonlinearity correction enabled: false
Boxcar width: 0
XAxis mode: Wavelengths
Number of Pixels in Spectrum: 2048
>>>>>Begin Spectral Data<<<<<
341.393	-14.7
341.776	-14.7
342.16	-14.7
342.543	-60.8
342.927	-62.84
343.31	-74.14
343.693	-70.29
344.077	-54.02
344.46	-84.31
344.843	-50.41
345.226	-56.06
345.61	-22.61
345.993	-29.17
346.376	18.29
346.759	2.47
347.142	34.34
347.525	42.02
347.908	55.13
348.291	71.17
348.674	109.59
349.057	108.01
349.44	128.57
349.823	138.74
350.206	158.17
350.588	225.06
350.971	243.37
351.354	255.12
351.737	270.94
352.119	282.24
352.502	314.1
352.884	310.03
353.267	336.47
353.65	328.11
354.032	331.28
354.414	354.1
354.797	382.35
355.179	384.16
355.562	367.89
355.944	384.61
356.326	374.67
356.709	380.99
357.091	378.73
357.473	398.85
357.855	398.39
358.238	394.55
358.62	388.9
359.002	399.07
359.384	418.51
359.766	411.73
360.148	385.06
360.53	409.69
360.912	404.5
361.294	418.05
361.676	410.14
362.057	401.11
362.439	407.88
362.821	420.99
363.203	406.53
363.584	390.71
363.966	408.56
364.348	404.72
364.729	410.6
365.111	388.9
365.493	421.44
365.874	421.67
366.256	408.11
366.637	397.49
367.019	422.35
367.4	419.41
367.781	413.76
368.163	405.4
368.544	432.74
368.925	435.68
369.306	417.83
369.688	433.65
370.069	427.32
370.45	435.23
370.831	427.55
371.212	430.93
371.593	429.13
371.974	440.88
372.355	431.16
372.736	427.32
373.117	444.04
373.498	431.61
373.879	457.15
374.26	455.57
374.641	422.12
375.021	425.06
375.402	476.36
375.783	457.6
376.163	507.32
376.544	509.8
376.925	483.14
377.305	498.05
377.686	469.58
378.066	495.11
378.447	479.97
378.827	521.55
379.208	508
379.588	509.13
379.968	539.18
380.349	526.98
380.729	533.76
381.109	527.66
381.489	518.16
381.87	534.89
382.25	556.13
382.63	531.5
383.01	547.99
383.39	559.75
383.77	564.72
384.15	561.33
384.53	587.77
384.91	602.23
385.29	572.63
385.67	616.92
386.049	614.43
386.429	610.14
386.809	623.47
387.189	622.57
387.568	624.15
387.948	610.59
388.328	637.03
388.707	651.95
389.087	653.53
389.466	665.73
389.846	692.85
390.225	694.66
390.605	679.52
390.984	682
391.363	707.09
391.743	726.97
392.122	710.93
392.501	732.62
392.881	740.98
393.26	764.03
393.639	762.23
394.018	772.39
394.397	773.52
394.776	781.66
395.155	789.57
395.534	791.6
395.913	793.41
396.292	807.2
396.671	790.25
397.05	823.02
397.429	866.63
397.808	818.5
398.186	846.97
398.565	863.47
398.944	846.07
399.323	876.12
399.701	894.88
400.08	889.68
400.458	877.02
400.837	921.09
401.215	934.42
401.594	931.94
401.972	945.5
402.351	947.76
402.729	982.78
403.107	971.49
403.486	970.58
403.864	964.25
404.242	997.7
404.62	1023.91
404.999	1007.19
405.377	1043.12
405.755	1060.3
406.133	1091.93
406.511	1085.38
406.889	1079.96
407.267	1132.39
407.645	1115.44
408.023	1143.91
408.401	1135.78
408.779	1180.75
409.156	1215.1
409.534	1181.2
409.912	1236.56
410.29	1244.02
410.667	1235.21
411.045	1275.88
411.422	1283.12
411.8	1280.86
412.178	1320.4
412.555	1328.54
412.933	1346.17
413.31	1379.16
413.687	1384.81
414.065	1418.71
414.442	1426.84
414.819	1448.99
415.197	1432.72
415.574	1512.26
415.951	1475.2
416.328	1507.74
416.705	1517.69
417.082	1519.04
417.46	1550.68
417.837	1569.66
418.214	1571.02
418.591	1612.82
418.967	1612.6
419.344	1625.03
419.721	1659.15
420.098	1651.24
420.475	1682.2
420.852	1691.24
421.228	1718.81
421.605	1743.89
421.982	1777.57
422.358	1776.66
422.735	1792.48
423.111	1802.65
423.488	1849.2
423.864	1859.15
424.241	1867.28
424.617	1914.29
424.994	1932.36
425.37	1926.94
425.746	1968.97
426.123	1994.28
426.499	1970.33
426.875	2037.9
427.251	2051.68
427.627	2100.72
428.003	2120.16
428.379	2149.08
428.756	2160.38
429.132	2201.28
429.507	2251.68
429.883	2273.82
430.259	2293.94
430.635	2324.67
431.011	2329.87
431.387	2407.61
431.763	2429.3
432.138	2454.16
432.514	2488.73
432.89	2464.33
433.265	2584.1
433.641	2603.99
434.016	2643.31
434.392	2683.53
434.767	2707.03
435.143	2712.23
435.518	2744.55
435.894	2817.99
436.269	2839.91
436.644	2868.16
437.02	2906.8
437.395	2937.31
437.77	2980.02
438.145	2989.96
438.52	3050.08
438.895	3053.46
439.271	3039.68
439.646	3126.68
440.021	3181.82
440.395	3160.81
440.77	3170.07
441.145	3220.69
441.52	3279.45
441.895	3286
442.27	3281.93
442.645	3352.89
443.019	3364.64
443.394	3348.15
443.769	3396.73
444.143	3365.77
444.518	3466.56
444.892	3460.69
445.267	3468.82
445.641	3547.92
446.016	3530.74
446.39	3584.75
446.764	3575.49
447.139	3571.87
447.513	3653.9
447.887	3651.87
448.262	3705.43
448.636	3717.18
449.01	3800.34
449.384	3832.88
449.758	3831.3
450.132	3895.93
450.506	3910.39
450.88	3953.33
451.254	3941.35
451.628	4017.51
452.002	4046.66
452.376	4069.48
452.75	4122.59
453.123	4196.49
453.497	4239.2
453.871	4273.09
454.244	4355.8
454.618	4390.83
454.992	4509.02
455.365	4485.07
455.739	4600.32
456.112	4631.95
456.486	4677.38
456.859	4734.1
457.232	4783.59
457.606	4814.1
457.979	4849.12
458.352	4971.61
458.725	5054.32
459.099	5009.8
459.472	5181.77
459.845	5217.7
460.218	5315.1
460.591	5349.9
460.964	5378.38
461.337	5483.68
461.71	5545.15
462.083	5655.2
462.456	5615.66
462.829	5694.3
463.201	5785.37
463.574	5778.14
463.947	5876.44
464.32	6041.63
464.692	6055.87
465.065	6116.21
465.438	6229.43
465.81	6362.76
466.183	6385.81
466.555	6557.78
466.928	6550.77
467.3	6576.54
467.672	6658.12
468.045	6898.34
468.417	6835.51
468.789	6927.04
469.161	7021.72
469.534	7164.32
469.906	7322.05
470.278	7383.29
470.65	7452.67
471.022	7594.14
471.394	7714.81
471.766	7835.26
472.138	7948.03
472.51	8098.98
472.882	8192.76
473.253	8244.74
473.625	8416.04
473.997	8623.71
474.369	8643.83
474.74	8824.61
475.112	8902.12
475.484	9084.72
475.855	9304.83
476.227	9336.46
476.598	9624.82
476.97	9701.65
477.341	9891.48
477.713	10076.11
478.084	10072.72
478.455	10291.01
478.827	10476.77
479.198	10802.19
479.569	10821.4
479.94	11068.17
480.311	11255.51
480.682	11500.47
481.053	11740.47
481.424	11936.4
481.795	12122.15
482.166	12207.12
482.537	12383.16
482.908	12637.62
483.279	12781.8
483.65	13007.55
484.021	13265.17
484.391	13407.32
484.762	13620.19
485.133	13611.61
485.503	13847.08
485.874	14187.18
486.244	14305.82
486.615	14580.62
486.985	14706.49
487.356	15023.09
487.726	15226.25
488.097	15487.49
488.467	15568.16
488.837	15956.63
489.207	16080.02
489.578	16306
489.948	16505.31
490.318	16650.4
490.688	16774.23
491.058	16973.1
491.428	17301.68
491.798	17449.92
492.168	17776.24
492.538	17867.76
492.908	18035.22
493.278	18287.87
493.648	18211.71
494.017	18624.58
494.387	18766.72
494.757	18906.38
495.126	19152.25
495.496	19236.77
495.866	19306.14
496.235	19575.74
496.605	19814.83
496.974	19899.8
497.344	20035.84
497.713	20298.21
498.082	20318.77
498.452	20594.02
498.821	20699.33
499.19	20736.39
499.559	20989.49
499.928	21065.42
500.298	21231.29
500.667	21527.1
501.036	21520.55
501.405	21717.61
501.774	21708.57
502.143	22001.44
502.512	22021.1
502.88	22362.11
503.249	22370.02
503.618	22565.04
503.987	22666.51
504.356	22751.25
504.724	22932.49
505.093	23028.98
505.462	23185.59
505.83	23354.85
506.199	23714.39
506.567	23887.04
506.936	23922.52
507.304	24206.58
507.672	24286.58
508.041	24452
508.409	24578.55
508.777	24695.83
509.145	24947.8
509.514	25008.82
509.882	25282.48
510.25	25291.3
510.618	25536.94
510.986	25595.02
511.354	25907.55
511.722	26102.35
512.09	26378.5
512.458	26406.98
512.826	26718.61
513.193	26761.99
513.561	26913.85
513.929	27138.71
514.297	27432.48
514.664	27601.75
515.032	27665.93
515.4	28078.12
515.767	28140.94
516.135	28346.36
516.502	28176.65
516.869	28641.04
517.237	28799.91
517.604	28747.93
517.972	29170.07
518.339	29332.32
518.706	29448.7
519.073	29681.01
519.44	29886.66
519.808	30234.9
520.175	30305.63
520.542	30638.5
520.909	30788.33
521.276	30861.1
521.643	31196.45
522.009	31362.33
522.376	31596.44
522.743	31858.81
523.11	32240.49
523.477	32456.99
523.843	32635.29
524.21	33026.46
524.577	33266.23
524.943	33299
525.31	33635.26
525.676	33999.32
526.043	34073.67
526.409	34256.49
526.776	34712.29
527.142	34761.56
527.508	34944.15
527.874	35156.58
528.241	35537.36
528.607	35513.63
528.973	35855.31
529.339	35900.74
529.705	36326.26
530.071	36616.2
530.437	36787.04
530.803	36927.38
531.169	37308.61
531.535	37199.69
531.901	37305.45
532.267	37645.32
532.632	37940.68
532.998	37871.08
533.364	38203.05
533.73	38440.78
534.095	38653.21
534.461	38612.76
534.826	38974.33
535.192	39046.42
535.557	39377.03
535.923	39402.57
536.288	39584.93
536.653	39797.58
537.019	39592.84
537.384	39887.07
537.749	40073.73
538.114	40186.05
538.479	40294.75
538.845	40536.55
539.21	40476.89
539.575	40814.05
539.94	40912.36
540.305	41183.76
540.67	41107.15
541.034	41216.98
541.399	41414.26
541.764	41560.02
542.129	41737.65
542.494	41821.26
542.858	42109.16
543.223	42052.44
543.587	42327.23
543.952	42358.65
544.316	42415.14
544.681	42507.79
545.045	42703.27
545.41	42888.35
545.774	42994.34
546.138	43147.78
546.503	43358.62
546.867	43425.06
547.231	43644.94
547.595	43754.99
547.959	43827.53
548.324	43881.09
548.688	44007.87
549.052	44261.19
549.416	44433.85
549.779	44395.88
550.143	44609.21
550.507	44903.66
550.871	44952.25
551.235	44973.27
551.599	45291.45
551.962	45316.08
552.326	45374.16
552.689	45799.91
553.053	45586.13
553.417	45773.02
553.78	46320.58
554.143	46180.92
554.507	46365.77
554.87	46465.88
555.234	46833.78
555.597	46532.32
555.96	46958.3
556.323	47154.9
556.686	47106.09
557.05	47576.14
557.413	47600.32
557.776	47638.51
558.139	47951.95
558.502	47948.1
558.865	48196.46
559.228	48375.21
559.59	48487.07
559.953	48686.84
560.316	49023.56
560.679	49023.1
561.041	49249.76
561.404	49462.64
561.767	49657.21
562.129	49563.2
562.492	49917.32
562.854	49879.35
563.217	49913.7
563.579	50160.47
563.941	50389.62
564.304	50519.79
564.666	50687.47
565.028	50809.27
565.39	50999.77
565.753	51098.08
566.115	51251.07
566.477	51347.79
566.839	51409.26
567.201	51686.76
567.563	51745.52
567.925	51969.92
568.287	51962.46
568.648	52010.6
569.01	52259.85
569.372	52388.21
569.734	52428.21
570.095	52550.02
570.457	52722.89
570.819	52758.37
571.18	52733.06
571.542	53001.3
571.903	53008.08
572.265	53140.51
572.626	53249.89
572.987	53228.87
573.349	53354.29
573.71	53444
574.071	53561.52
574.432	53635.41
574.794	53870.21
575.155	53756.99
575.516	53765.58
575.877	53964.67
576.238	54011.9
576.599	54062.29
576.96	54049.64
577.32	54076.53
577.681	54236.98
578.042	54241.05
578.403	54237.2
578.763	54290.08
579.124	54359.01
579.485	54391.55
579.845	54569.85
580.206	54557.2
580.566	54575.5
580.927	54521.04
581.287	54640.58
581.648	54549.51
582.008	54707.02
582.368	54649.17
582.728	54727.81
583.089	54643.97
583.449	54722.39
583.809	54736.85
584.169	54801.93
584.529	54704.08
584.889	54974.13
585.249	54671.32
585.609	54753.8
585.969	54775.04
586.329	54761.94
586.688	54828.83
587.048	54852.55
587.408	54674.25
587.768	54795.16
588.127	54738.89
588.487	54771.65
588.846	54930.29
589.206	54791.31
589.565	54826.11
589.925	54963.51
590.284	54775.72
590.643	54867.24
591.003	54974.81
591.362	54962.83
591.721	54884.64
592.08	54955.83
592.44	54987.01
592.799	55038.31
593.158	54914.93
593.517	54946.56
593.876	55055.26
594.235	54948.6
594.593	55008.93
594.952	55002.83
595.311	54922.16
595.67	55030.4
596.029	55166.9
596.387	55221.13
596.746	55201.92
597.104	55107.46
597.463	55106.79
597.822	55172.32
598.18	55092.32
598.538	55110.63
598.897	55349.72
599.255	55097.52
599.613	55475.59
599.972	55212.77
600.33	55301.58
600.688	55228.59
601.046	55340.45
601.404	55372.54
601.762	55340
602.12	55517.62
602.478	55412.09
602.836	55511.52
603.194	55383.84
603.552	55464.29
603.91	55447.34
604.268	55545.64
604.625	55423.16
604.983	55525.31
605.341	55452.77
605.698	55645.08
606.056	55682.14
606.413	55614.34
606.771	55645.08
607.128	55745.41
607.485	55647.79
607.843	55651.63
608.2	55790.16
608.557	55862.02
608.914	55778.86
609.272	55954.45
609.629	55981.34
609.986	56029.02
610.343	55877.84
610.7	56121.45
611.057	55943.6
611.414	55979.98
611.771	56087.32
612.127	56130.26
612.484	56152.86
612.841	56198.28
613.198	56106.08
613.554	56108.12
613.911	56263.59
614.267	56263.37
614.624	56244.61
614.98	56294.32
615.337	56405.51
615.693	56281.9
616.05	56294.32
616.406	56492.29
616.762	56318.51
617.118	56344.27
617.475	56467.88
617.831	56483.02
618.187	56436.47
618.543	56513.08
618.899	56601.21
619.255	56551.95
619.611	56525.96
619.967	56575.45
620.323	56672.39
620.678	56543.58
621.034	56519.18
621.39	56554.66
621.746	56412.51
622.101	56777.93
622.457	56525.28
622.812	56571.38
623.168	56587.42
623.523	56570.7
623.879	56721.43
624.234	56532.51
624.589	56657.25
624.945	56641.66
625.3	56702.45
625.655	56638.27
626.01	56650.93
626.365	56657.25
626.72	56675.56
627.075	56560.31
627.43	56566.18
627.785	56569.12
628.14	56560.76
628.495	56565.05
628.85	56542.68
629.205	56521.44
629.559	56617.03
629.914	56486.18
630.269	56412.74
630.623	56406.64
630.978	56398.05
631.332	56487.54
631.687	56455.22
632.041	56356.02
632.396	56380.88
632.75	56258.85
633.104	56376.13
633.459	56219.3
633.813	56168.45
634.167	56217.49
634.521	56170.26
634.875	56128.68
635.229	56144.95
635.583	55984.05
635.937	55961.23
636.291	55959.64
636.645	55981.34
636.999	55956.71
637.352	55954.45
637.706	55761.91
638.06	55902.7
638.413	55779.31
638.767	55790.38
639.121	55783.83
639.474	55564.17
639.828	55596.49
640.181	55706.32
640.534	55578.19
640.888	55556.04
641.241	55483.72
641.594	55539.99
641.947	55481.69
642.301	55473.33
642.654	55428.36
643.007	55410.05
643.36	55334.8
643.713	55276.27
644.066	55364.18
644.419	55165.77
644.771	54953.8
645.124	54736.17
645.477	54680.13
645.83	54573.01
646.182	54366.47
646.535	54344.55
646.888	54354.94
647.24	54223.87
647.593	54336.41
647.945	54146.81
648.298	54164.21
648.65	54123.31
649.002	53910.43
649.355	54011.67
649.707	53986.81
650.059	54116.76
650.411	54536.18
650.763	54479.46
651.115	54789.51
651.467	54646.23
651.819	54586.57
652.171	54526.69
652.523	54547.7
652.875	54460.93
653.227	54376.41
653.578	54510.64
653.93	54482.4
654.282	54398.1
654.633	54233.14
654.985	54272.01
655.337	54236.07
655.688	54287.37
656.039	54328.27
656.391	54075.4
656.742	54105
657.094	54103.87
657.445	54275.85
657.796	54182.97
658.147	54071.78
658.498	54018.68
658.849	54143.2
659.2	54076.76
659.551	54014.61
659.902	54054.16
660.253	53965.35
660.604	54015.51
660.955	53824.11
661.306	53984.78
661.656	54004.44
662.007	53861.85
662.358	53833.82
662.708	53820.49
663.059	53778.46
663.409	53600.61
663.76	53825.92
664.11	53808.74
664.461	53802.86
664.811	53756.76
665.161	53680.83
665.511	53601.29
665.862	53669.31
666.212	53774.62
666.562	53705.92
666.912	53665.24
667.262	53661.17
667.612	53680.61
667.962	53617.11
668.312	53543.66
668.662	53647.16
669.011	53604.68
669.361	53508.64
669.711	53534.4
670.06	53397.68
670.41	53474.96
670.76	53350
671.109	53554.06
671.459	53393.61
671.808	53329.43
672.157	53333.72
672.507	53134.18
672.856	53176.21
673.205	53287.4
673.554	53240.17
673.904	53167.85
674.253	53331.01
674.602	53232.71
674.951	52711.59
675.3	52629.79
675.649	53126.27
675.998	53106.16
676.346	53065.48
676.695	53144.8
677.044	52925.15
677.393	52986.16
677.741	52914.98
678.09	52803.12
678.438	52926.73
678.787	52827.75
679.135	52926.73
679.484	52686.51
679.832	52862.78
680.181	52592.28
680.529	52609.45
680.877	52579.39
681.225	52533.75
681.573	52750.69
681.922	52455.56
682.27	52321.32
682.618	52367.42
682.966	52331.72
683.314	52329.46
683.661	52225.28
684.009	52108.22
684.357	52003.36
684.705	51975.12
685.053	52017.15
685.4	51938.06
685.748	51801.34
686.095	51767.21
686.443	51547.33
686.79	51533.09
687.138	51558.4
687.485	51556.14
687.832	51394.11
688.18	51496.48
688.527	51282.48
688.874	51284.06
689.221	51184.18
689.568	51123.84
689.915	50891.08
690.262	50931.3
690.609	50871.19
690.956	50752.78
691.303	50704.19
691.65	50435.27
691.997	50476.4
692.344	50375.16
692.69	50265.78
693.037	50214.26
693.383	49970.65
693.73	50138.55
694.077	49885.23
694.423	49903.76
694.769	49678
695.116	49675.97
695.462	49537.67
695.808	49542.86
696.155	49447.73
696.501	49327.5
696.847	49174.06
697.193	48986.49
697.539	49006.15
697.885	48802.32
698.231	48727.52
698.577	48746.5
698.923	48701.53
699.269	48440.29
699.614	48205.27
699.96	48254.76
700.306	48222.67
700.651	48053.64
700.997	47955.56
701.342	47818.84
701.688	47899.52
702.033	47642.8
702.379	47767.09
702.724	47510.38
703.069	47577.72
703.415	47062.93
703.76	47166.43
704.105	47176.82
704.45	47047.56
704.795	46763.95
705.14	46741.13
705.485	46669.04
705.83	46457.75
706.175	46496.84
706.52	46312.21
706.865	46206.68
707.209	46095.05
707.554	46015.05
707.899	46085.55
708.243	45788.16
708.588	45752.68
708.932	45506.13
709.277	45458.45
709.621	45493.7
709.966	45226.82
710.31	45282.64
710.654	44901.63
710.998	45001.51
711.342	45087.84
711.687	44901.63
712.031	44771.92
712.375	44609.43
712.719	44665.25
713.063	44650.11
713.407	44603.11
713.75	44333.28
714.094	44363.11
714.438	44088.32
714.782	44183.46
715.125	44000.18
715.469	44218.71
715.812	43935.78
716.156	43664.37
716.499	43674.54
716.843	43696.46
717.186	43349.58
717.53	43686.29
717.873	43668.22
718.216	43392.07
718.559	43317.72
718.902	43005.63
719.246	43091.96
719.589	43004.28
719.932	42912.3
720.275	42737.17
720.617	42757.28
720.96	42647.23
721.303	42708.92
721.646	42713.67
721.989	42369.72
722.331	42354.13
722.674	42300.57
723.016	42398.87
723.359	42141.93
723.701	42208.82
724.044	41811.54
724.386	41738.1
724.729	42017.86
725.071	41936.74
725.413	41888.15
725.755	41764.54
726.097	41527.93
726.439	41316.19
726.782	41484.32
727.124	41620.13
727.465	41217.89
727.807	41230.31
728.149	41128.4
728.491	41172.24
728.833	41263.99
729.175	40888.4
729.516	40897.22
729.858	40889.53
730.199	40904
730.541	40793.04
730.882	40692.7
731.224	40770.67
731.565	40474.4
731.906	40479.83
732.248	40523.21
732.589	40318.7
732.93	40181.75
733.271	40218.59
733.612	40240.28
733.953	40228.53
734.294	39957.13
734.635	39845.49
734.976	39969.1
735.317	39684.14
735.658	39688.66
735.999	39640.3
736.339	39681.2
736.68	39591.04
737.021	39551.94
737.361	39274.89
737.702	39545.61
738.042	39422.23
738.383	39166.41
738.723	39351.04
739.063	39040.09
739.404	39173.42
739.744	39107.66
740.084	38869.92
740.424	38991.95
740.764	38885.52
741.104	39002.8
741.444	38719.42
741.784	38638.97
742.124	38822.47
742.464	38563.72
742.804	38536.6
743.143	38300.22
743.483	38460.44
743.823	38023.84
744.162	38223.39
744.502	38263.39
744.841	38200.79
745.181	38160.34
745.52	37935.94
745.86	38081.47
746.199	37916.28
746.538	37837.18
746.877	37949.72
747.216	37829.05
747.556	37648.71
747.895	37726.45
748.234	37486.46
748.573	37500.24
748.911	37432.45
749.25	37435.39
749.589	37330.76
749.928	37215.28
750.267	37252.79
750.605	37174.15
750.944	37019.13
751.283	36921.05
751.621	36955.62
751.96	36627.5
752.298	36654.39
752.636	36640.83
