Data from white_wall_FLMS001491_021.txt Node
Date: Tue Feb 07 11:04:00 GMT 2017
User: dcchb
Spectrometer: FLMS00149
Trigger mode: 0
Integration Time (sec): 2.000000E-2
Scans to average: 10
Electric dark correction enabled: true
Nonlinearity correction enabled: false
Boxcar width: 0
XAxis mode: Wavelengths
Number of Pixels in Spectrum: 2048
>>>>>Begin Spectral Data<<<<<
341.393	-20.55
341.776	-20.55
342.16	-20.55
342.543	-56.03
342.927	-72.75
343.31	-62.81
343.693	-77.72
344.077	-59.19
344.46	-68.91
344.843	-52.41
345.226	-46.76
345.61	-32.08
345.993	-14.9
346.376	-11.74
346.759	15.15
347.142	17.19
347.525	66.91
347.908	56.06
348.291	70.75
348.674	90.41
349.057	110.07
349.44	124.3
349.823	145.55
350.206	165.21
350.588	209.5
350.971	208.6
351.354	244.08
351.737	270.06
352.119	245.88
352.502	287.46
352.884	267.35
353.267	301.93
353.65	298.54
354.032	319.78
354.414	341.25
354.797	322.94
355.179	360.46
355.562	350.29
355.944	353
356.326	343.73
356.709	331.98
357.091	353
357.473	348.25
357.855	345.09
358.238	346.22
358.62	360.23
359.002	362.72
359.384	352.32
359.766	367.24
360.148	356.16
360.53	352.32
360.912	349.84
361.294	349.84
361.676	340.34
362.057	360
362.439	351.64
362.821	337.63
363.203	352.55
363.584	337.63
363.966	367.01
364.348	327.46
364.729	336.28
365.111	339.21
365.493	343.51
365.874	328.59
366.256	324.53
366.637	305.99
367.019	306.22
367.4	316.39
367.781	335.6
368.163	344.19
368.544	332.43
368.925	345.77
369.306	353.68
369.688	335.37
370.069	342.38
370.45	342.38
370.831	311.87
371.212	337.18
371.593	342.83
371.974	345.32
372.355	332.66
372.736	335.15
373.117	324.53
373.498	339.67
373.879	323.4
374.26	342.15
374.641	325.66
375.021	340.8
375.402	343.28
375.783	339.89
376.163	357.74
376.544	349.38
376.925	338.76
377.305	355.49
377.686	336.28
378.066	355.49
378.447	364.52
378.827	347.58
379.208	344.41
379.588	362.72
379.968	360.23
380.349	366.11
380.729	373.34
381.109	386.44
381.489	361.59
381.87	366.33
382.25	371.53
382.63	391.87
383.01	374.24
383.39	390.74
383.77	388.03
384.15	361.81
384.53	395.71
384.91	409.27
385.29	391.19
385.67	394.58
386.049	386.44
386.429	390.96
386.809	414.47
387.189	422.15
387.568	404.3
387.948	418.53
388.328	423.51
388.707	415.37
389.087	411.53
389.466	424.41
389.846	427.12
390.225	462.6
390.605	438.42
390.984	423.05
391.363	426.9
391.743	451.3
392.122	456.27
392.501	458.99
392.881	465.99
393.26	456.05
393.639	475.93
394.018	484.75
394.397	491.07
394.776	492.88
395.155	472.32
395.534	505.31
395.913	503.28
396.292	528.36
396.671	532.43
397.05	525.42
397.429	539.89
397.808	551.41
398.186	562.26
398.565	527.46
398.944	564.97
399.323	598.87
399.701	580.34
400.08	614.91
400.458	607.23
400.837	633.67
401.215	608.13
401.594	632.54
401.972	626.66
402.351	654.23
402.729	667.34
403.107	664.18
403.486	708.02
403.864	688.58
404.242	713.22
404.62	726.32
404.999	728.58
405.377	718.19
405.755	737.85
406.133	773.33
406.511	767.68
406.889	806.09
407.267	805.42
407.645	827.56
408.023	840.22
408.401	843.61
408.779	859.88
409.156	894.91
409.534	881.8
409.912	893.55
410.29	901.91
410.667	925.64
411.045	937.39
411.422	966.77
411.8	970.84
412.178	982.14
412.555	995.02
412.933	1030.27
413.31	1018.07
413.687	1063.49
414.065	1056.94
414.442	1081.57
414.819	1077.27
415.197	1134.45
415.574	1109.59
415.951	1116.14
416.328	1138.29
416.705	1137.84
417.082	1180.77
417.46	1155.69
417.837	1216.03
418.214	1205.63
418.591	1213.77
418.967	1223.03
419.344	1231.62
419.721	1246.31
420.098	1240.66
420.475	1296.25
420.852	1303.26
421.228	1301.45
421.605	1322.69
421.982	1338.06
422.358	1350.04
422.735	1370.6
423.111	1373.31
423.488	1407.21
423.864	1408.79
424.241	1438.62
424.617	1439.75
424.994	1450.6
425.37	1481.11
425.746	1498.96
426.123	1496.92
426.499	1525.85
426.875	1529.69
427.251	1556.36
427.627	1600.65
428.003	1591.84
428.379	1613.98
428.756	1651.04
429.132	1646.98
429.507	1663.93
429.883	1690.59
430.259	1729.69
430.635	1743.92
431.011	1741.89
431.387	1810.59
431.763	1834.32
432.138	1838.84
432.514	1852.39
432.89	1867.08
433.265	1906.18
433.641	1938.04
434.016	1945.73
434.392	1992.05
434.767	2024.82
435.143	2041.54
435.518	2054.42
435.894	2059.4
436.269	2094.2
436.644	2149.79
437.02	2157.92
437.395	2156.79
437.77	2194.08
438.145	2226.17
438.52	2262.1
438.895	2274.76
439.271	2300.29
439.646	2342.1
440.021	2333.06
440.395	2370.35
440.77	2338.71
441.145	2366.28
441.52	2462.77
441.895	2432.27
442.27	2444.7
442.645	2452.83
443.019	2480.85
443.394	2488.99
443.769	2546.39
444.143	2539.83
444.518	2573.28
444.892	2573.05
445.267	2582.09
445.641	2617.12
446.016	2649.89
446.39	2681.98
446.764	2662.09
447.139	2677.68
447.513	2705.48
447.887	2733.5
448.262	2760.17
448.636	2735.31
449.01	2817.79
449.384	2872.93
449.758	2876.1
450.132	2889.88
450.506	2915.42
450.88	2934.63
451.254	2921.29
451.628	2971.69
452.002	3061.63
452.376	3051.46
452.75	3054.17
453.123	3111.34
453.497	3176.2
453.871	3161.96
454.244	3264.11
454.618	3255.52
454.992	3269.76
455.365	3328.97
455.739	3426.36
456.112	3419.59
456.486	3470.43
456.859	3496.42
457.232	3560.37
457.606	3529.19
457.979	3602.86
458.352	3698.67
458.725	3735.06
459.099	3737.09
459.472	3838.78
459.845	3848.73
460.218	3895.96
460.591	3970.53
460.964	3982.51
461.337	4069.96
461.71	4122.84
462.083	4159.23
462.456	4183.41
462.829	4182.28
463.201	4302.5
463.574	4334.59
463.947	4409.84
464.32	4479.22
464.692	4521.03
465.065	4549.95
465.438	4600.35
465.81	4658.42
466.183	4730.96
466.555	4812.54
466.928	4848.93
467.3	4881.24
467.672	4956.27
468.045	5060.45
468.417	5055.02
468.789	5126.88
469.161	5195.81
469.534	5338.63
469.906	5445.75
470.278	5492.3
470.65	5522.58
471.022	5624.05
471.394	5681.22
471.766	5784.49
472.138	5862.23
472.51	5965.96
472.882	6047.54
473.253	6144.94
473.625	6189.23
473.997	6361.43
474.369	6407.76
474.74	6512.61
475.112	6610.69
475.484	6698.82
475.855	6840.51
476.227	6901.98
476.598	7065.37
476.97	7205.93
477.341	7379.93
477.713	7514.62
478.084	7511.91
478.455	7745.35
478.827	7759.36
479.198	8056.07
479.569	8063.08
479.94	8204.32
480.311	8341.94
480.682	8504.65
481.053	8753.68
481.424	8940.57
481.795	9003.17
482.166	9129.04
482.537	9270.5
482.908	9432.76
483.279	9555.24
483.65	9771.06
484.021	9893.31
484.391	10076.81
484.762	10164.27
485.133	10203.36
485.503	10432.06
485.874	10599.06
486.244	10694.42
486.615	10918.82
486.985	11137.57
487.356	11271.13
487.726	11338.47
488.097	11626.6
488.467	11670.89
488.837	11907.05
489.207	12096.65
489.578	12250.31
489.948	12393.81
490.318	12566.24
490.688	12585.45
491.058	12776.4
491.428	13001.25
491.798	13123.06
492.168	13355.6
492.538	13479.89
492.908	13634.01
493.278	13780.89
493.648	13861.34
494.017	14061.11
494.387	14102.47
494.757	14240.54
495.126	14431.95
495.496	14440.76
495.866	14681.89
496.235	14776.57
496.605	14954.42
496.974	15040.07
497.344	15155.77
497.713	15383.56
498.082	15485.26
498.452	15719.83
498.821	15698.36
499.19	15746.72
499.559	15962.31
499.928	16121.4
500.298	16128.18
500.667	16318.23
501.036	16338.34
501.405	16514.38
501.774	16633.7
502.143	16733.59
502.512	16891.55
502.88	17050.41
503.249	17108.04
503.618	17247.24
503.987	17322.27
504.356	17412.66
504.724	17460.57
505.093	17590.74
505.462	17776.72
505.83	17822.14
506.199	18016.72
506.567	18298.29
506.936	18285.41
507.304	18447.66
507.672	18620.32
508.041	18722.23
508.409	18903.02
508.777	19056.01
509.145	19209.9
509.514	19249.45
509.882	19401.54
510.25	19448.77
510.618	19704.58
510.986	19752.26
511.354	19969.88
511.722	20153.16
512.09	20301.63
512.458	20295.53
512.826	20534.16
513.193	20602.41
513.561	20664.1
513.929	20990.65
514.297	21130.08
514.664	21206.24
515.032	21409.62
515.4	21539.11
515.767	21714.92
516.135	21877.18
516.502	21692.78
516.869	22298.18
517.237	22229.94
517.604	22208.47
517.972	22554.22
518.339	22650.94
518.706	22713.99
519.073	22995.57
519.44	23096.81
519.808	23342.9
520.175	23343.81
520.542	23692.72
520.909	23841.65
521.276	23907.41
521.643	24137.46
522.009	24256.55
522.376	24423.1
522.743	24637.78
523.11	24791.23
523.477	25135.17
523.843	25264.21
524.21	25554.37
524.577	25680.24
524.943	25871.2
525.31	25967.01
525.676	26416.49
526.043	26489.49
526.409	26422.6
526.776	26741.23
527.142	26856.03
527.508	27084.73
527.874	27282.69
528.241	27480.65
528.607	27516.8
528.973	27736.01
529.339	27871.37
529.705	28098.26
530.071	28312.49
530.437	28390.68
530.803	28563.78
531.169	28827.28
531.535	28728.98
531.901	28972.81
532.267	29094.16
532.632	29269.3
532.998	29427.94
533.364	29592.46
533.73	29652.57
534.095	29939.57
534.461	29921.04
534.826	30111.99
535.192	30318.31
535.557	30491.42
535.923	30398.31
536.288	30601.7
536.653	30745.42
537.019	30780.22
537.384	30789.94
537.749	31035.81
538.114	31225.63
538.479	31186.54
538.845	31406.19
539.21	31450.94
539.575	31626.08
539.94	31718.5
540.305	31897.25
540.67	31915.33
541.034	32139.28
541.399	32232.16
541.764	32285.27
542.129	32442.55
542.494	32518.48
542.858	32803.9
543.223	32816.33
543.587	32959.6
543.952	33027.62
544.316	33167.96
544.681	33119.6
545.045	33408.85
545.41	33595.29
545.774	33621.95
546.138	33586.7
546.503	33839.35
546.867	33896.3
547.231	34138.1
547.595	34263.75
547.959	34319.11
548.324	34364.99
548.688	34518.88
549.052	34764.75
549.416	34903.5
549.779	34827.8
550.143	35098.3
550.507	35538.74
550.871	35399.99
551.235	35415.13
551.599	35742.8
551.962	35985.06
552.326	35973.76
552.689	36283.35
553.053	36254.2
553.417	36239.29
553.78	36752.72
554.143	36718.37
554.507	36876.33
554.87	37076.55
555.234	37298.47
555.597	37319.26
555.96	37343.44
556.323	37612.13
556.686	37674.28
557.05	37937.55
557.413	38139.8
557.776	38197.65
558.139	38422.51
558.502	38577.3
558.865	38586.12
559.228	38940.01
559.59	39021.59
559.953	39143.62
560.316	39675.81
560.679	39598.07
561.041	39736.6
561.404	40017.72
561.767	40265.85
562.129	40235.79
562.492	40652.28
562.854	40725.95
563.217	40747.19
563.579	40958.49
563.941	41204.58
564.304	41297.46
564.666	41616.32
565.028	41550.33
565.39	41780.38
565.753	42024.22
566.115	42086.14
566.477	42328.84
566.839	42459.69
567.201	42769.06
567.563	42757.31
567.925	43001.14
568.287	43078.66
568.648	43110.52
569.01	43324.52
569.372	43568.36
569.734	43473.45
570.095	43781.69
570.457	43939.2
570.819	44044.05
571.18	44077.27
571.542	44302.8
571.903	44314.33
572.265	44428.45
572.626	44660.31
572.987	44819.63
573.349	44885.39
573.71	45080.18
574.071	45120.86
574.432	45303
574.794	45509.1
575.155	45416.22
575.516	45444.69
575.877	45580.74
576.238	45723.11
576.599	45894.17
576.96	45877
577.32	45888.75
577.681	45961.74
578.042	46248.52
578.403	46110.67
578.763	46298.23
579.124	46256.88
579.485	46338.46
579.845	46513.59
580.206	46429.08
580.566	46462.52
580.927	46556.53
581.287	46638.79
581.648	46585
582.008	46703.64
582.368	46624.32
582.728	46745.9
583.089	46844.21
583.449	46559.92
583.809	46721.27
584.169	46870.19
584.529	46771.44
584.889	47042.62
585.249	46911.1
585.609	46710.88
585.969	46898.67
586.329	46781.61
586.688	46830.2
587.048	46911.55
587.408	46885.11
587.768	46784.09
588.127	46756.75
588.487	46825.22
588.846	47100.24
589.206	46814.15
589.565	46843.08
589.925	47015.5
590.284	46977.31
590.643	46904.54
591.003	47062.28
591.362	47210.3
591.721	46951.32
592.08	47045.33
592.44	47172.56
592.799	47194.71
593.158	46977.08
593.517	47109.74
593.876	47114.93
594.235	47236.06
594.593	47086.23
594.952	47214.82
595.311	47152.67
595.67	47188.38
596.029	47401.03
596.387	47442.61
596.746	47458.88
597.104	47259.34
597.463	47237.87
597.822	47429.05
598.18	47251.2
598.538	47214.59
598.897	47478.31
599.255	47151.99
599.613	47724.18
599.972	47413.68
600.33	47556.5
600.688	47415.49
601.046	47621.36
601.404	47767.8
601.762	47646.9
602.12	47855.48
602.478	47703.17
602.836	47885.31
603.194	47506.79
603.552	47675.6
603.91	47633.56
604.268	47808.7
604.625	47696.16
604.983	47810.96
605.341	47598.76
605.698	47992.42
606.056	48085.08
606.413	48015.25
606.771	48147.9
607.128	48294.11
607.485	48049.6
607.843	48175.47
608.2	48334.11
608.557	48408.23
608.914	48210.95
609.272	48439.64
609.629	48514.9
609.986	48561.9
610.343	48417.72
610.7	48627.66
611.057	48709.47
611.414	48554.67
611.771	48520.77
612.127	48747.21
612.484	48653.88
612.841	48885.28
613.198	48795.79
613.554	48845.51
613.911	49014.54
614.267	48984.71
614.624	48972.29
614.98	49060.19
615.337	49177.03
615.693	49149.46
616.05	49073.75
616.406	49357.59
616.762	49167.31
617.118	49185.84
617.475	49208.66
617.831	49293.86
618.187	49301.99
618.543	49324.14
618.899	49574.98
619.255	49414.76
619.611	49551.48
619.967	49607.98
620.323	49579.95
620.678	49493.63
621.034	49378.38
621.39	49393.07
621.746	49318.49
622.101	49729.33
622.457	49565.04
622.812	49564.81
623.168	49727.29
623.523	49584.7
623.879	49647.52
624.234	49539.28
624.589	49699.27
624.945	49747.41
625.3	49756.22
625.655	49705.37
626.01	49619.05
626.365	49701.98
626.72	49620.86
627.075	49646.84
627.43	49486.17
627.785	49490.24
628.14	49598.03
628.495	49638.48
628.85	49653.85
629.205	49406.85
629.559	49783.79
629.914	49445.27
630.269	49579.5
630.623	49468.09
630.978	49279.4
631.332	49513.06
631.687	49633.51
632.041	49428.77
632.396	49473.74
632.75	49263.8
633.104	49389.45
633.459	49198.49
633.813	49089.8
634.167	49194.2
634.521	49125.95
634.875	49161.43
635.229	49169.12
635.583	49071.27
635.937	48928.9
636.291	48907.2
636.645	48816.81
636.999	48831.27
637.352	48941.78
637.706	48769.58
638.06	48862.46
638.413	48687.32
638.767	48683.93
639.121	48710.15
639.474	48416.37
639.828	48581.56
640.181	48560.55
640.534	48527.1
640.888	48518.06
641.241	48270.38
641.594	48309.7
641.947	48475.58
642.301	48363.71
642.654	48323.49
643.007	48329.36
643.36	48159.65
643.713	48204.62
644.066	48269.71
644.419	48079.65
644.771	47872.2
645.124	47413.68
645.477	47428.6
645.83	47212.33
646.182	47116.06
646.535	46988.38
646.888	47017.53
647.24	46779.58
647.593	47010.08
647.945	46851.66
648.298	46630.65
648.65	46678.33
649.002	46479.24
649.355	46655.51
649.707	46530.77
650.059	46655.28
650.411	47059.34
650.763	47100.92
651.115	47670.85
651.467	47455.04
651.819	47418.43
652.171	47276.96
652.523	47287.13
652.875	47277.87
653.227	46973.02
653.578	47332.55
653.93	47139.79
654.282	46938.89
654.633	46861.15
654.985	46898.44
655.337	47081.26
655.688	46932.11
656.039	47133.46
656.391	46804.66
656.742	46942.06
657.094	46896.41
657.445	47023.64
657.796	46897.54
658.147	46824.32
658.498	46627.26
658.849	46787.94
659.2	46746.13
659.551	46682.85
659.902	46554.95
660.253	46646.7
660.604	46718.79
660.955	46367.38
661.306	46598.79
661.656	46650.31
662.007	46610.99
662.358	46541.62
662.708	46571.44
663.059	46435.86
663.409	46179.14
663.76	46437.21
664.11	46411
664.461	46502.29
664.811	46414.84
665.161	46342.07
665.511	46262.07
665.862	46393.14
666.212	46318.8
666.562	46337.1
666.912	46251.45
667.262	46185.92
667.612	46168.07
667.962	46240.15
668.312	46135.52
668.662	46335.07
669.011	46197.67
669.361	46040.16
669.711	46116.32
670.06	46077.22
670.41	46061.85
670.76	45832.26
671.109	46007.84
671.459	46003.32
671.808	45767.4
672.157	45879.94
672.507	45704.35
672.856	45627.06
673.205	45783.9
673.554	45860.96
673.904	45612.6
674.253	45870.9
674.602	45815.53
674.951	45112.05
675.3	44895.1
675.649	45564.01
675.998	45532.6
676.346	45631.13
676.695	45684.24
677.044	45279.73
677.393	45419.38
677.741	45353.17
678.09	45156.34
678.438	45194.98
678.787	45153.4
679.135	45202.22
679.484	44973.07
679.832	45081.31
680.181	44893.52
680.529	44949.57
680.877	44933.75
681.225	44846.97
681.573	44988.66
681.922	44597.03
682.27	44462.35
682.618	44534.21
682.966	44568.33
683.314	44600.65
683.661	44475.45
684.009	44227.33
684.357	44152.98
684.705	44045.64
685.053	44148.68
685.4	43983.72
685.748	43898.97
686.095	43882.48
686.443	43680.22
686.79	43640.67
687.138	43729.94
687.485	43590.96
687.832	43571.75
688.18	43436.16
688.527	43164.75
688.874	43182.61
689.221	43256.96
689.568	42950.3
689.915	42798.89
690.262	42930.18
690.609	42728.16
690.956	42778.55
691.303	42626.69
691.65	42516.18
691.997	42424.89
692.344	42197.77
692.69	42152.13
693.037	42113.48
693.383	41893.83
693.73	41930.21
694.077	41478.02
694.423	41665.59
694.769	41479.83
695.116	41332.03
695.462	41421.52
695.808	41215.2
696.155	41270.79
696.501	41000.52
696.847	40969.11
697.193	40852.05
697.539	40980.63
697.885	40523.24
698.231	40406.41
698.577	40319.41
698.923	40344.04
699.269	40164.38
699.614	40146.53
699.96	39943.82
700.306	40018.62
700.651	39791.51
700.997	39683.72
701.342	39609.82
701.688	39555.13
702.033	39343.61
702.379	39461.8
702.724	39401.92
703.069	39410.96
703.415	38834.47
703.76	39028.37
704.105	38887.35
704.45	38736.4
704.795	38564.65
705.14	38349.29
705.485	38363.53
705.83	38468.16
706.175	38417.99
706.52	38173.7
706.865	38177.32
707.209	38181.84
707.554	37920.6
707.899	38224.77
708.243	37776.87
708.588	37695.52
708.932	37402.65
709.277	37498.69
709.621	37587.95
709.966	37255.31
710.31	37383.44
710.654	37042.66
710.998	37210.34
711.342	37222.31
711.687	37124.69
712.031	36954.07
712.375	36728.54
712.719	36920.4
713.063	36680.18
713.407	36781.65
713.75	36578.94
714.094	36619.62
714.438	36388.44
714.782	36428.66
715.125	36255.33
715.469	36379.17
715.812	36083.59
716.156	35975.57
716.499	36037.48
716.843	36038.61
717.186	35791.62
717.53	36023.93
717.873	35883.36
718.216	35848.34
718.559	35666.19
718.902	35304.17
719.246	35542.36
719.589	35341.46
719.932	35221.01
720.275	35143.95
720.617	35183.27
720.96	35000
721.303	35200.22
721.646	35032.31
721.989	34806.78
722.331	34914.12
722.674	34832.09
723.016	34893.33
723.359	34772.66
723.701	34702.38
724.044	34480.01
724.386	34385.78
724.729	34616.05
725.071	34540.12
725.413	34449.96
725.755	34363.18
726.097	34219.45
726.439	34258.77
726.782	34169.06
727.124	34309.39
727.465	34093.13
727.807	34096.97
728.149	34085.45
728.491	33909.63
728.833	33933.81
729.175	33883.42
729.516	33745.79
729.858	33699.47
730.199	33744.21
730.541	33699.69
730.882	33569.3
731.224	33625.8
731.565	33436.65
731.906	33474.39
732.248	33456.31
732.589	33303.55
732.93	33152.59
733.271	33243.21
733.612	33253.15
733.953	33211.8
734.294	33017.68
734.635	32912.6
734.976	33104.45
735.317	32850
735.658	32845.03
735.999	32775.2
736.339	32824.46
736.68	32854.74
737.021	32668.76
737.361	32523.23
737.702	32681.19
738.042	32466.96
738.383	32477.35
738.723	32472.83
739.063	32424.92
739.404	32513.06
739.744	32287.07
740.084	32134.08
740.424	32136.12
740.764	32210.01
741.104	32254.31
741.444	32126.63
741.784	32066.06
742.124	32235.32
742.464	32004.37
742.804	32013.18
743.143	31875.56
743.483	31820.87
743.823	31665.4
744.162	31685.73
744.502	31729.12
744.841	31570.03
745.181	31618.17
745.52	31376.14
745.86	31495.01
746.199	31408.45
746.538	31303.6
746.877	31472.18
747.216	31343.37
747.556	31186.31
747.895	31279.64
748.234	31081.46
748.573	31033.32
748.911	31070.84
749.25	30983.83
749.589	30996.71
749.928	30838.75
750.267	30851.63
750.605	30725.08
750.944	30728.25
751.283	30517.86
751.621	30641.92
751.96	30389.72
752.298	30384.75
752.636	30269.73
752.975	30114.93
753.313	30090.97
