Data from White_paper_FLMS001491_043.txt Node
Date: Tue Feb 07 10:35:08 GMT 2017
User: dcchb
Spectrometer: FLMS00149
Trigger mode: 0
Integration Time (sec): 2.000000E-2
Scans to average: 10
Electric dark correction enabled: true
Nonlinearity correction enabled: false
Boxcar width: 0
XAxis mode: Wavelengths
Number of Pixels in Spectrum: 2048
>>>>>Begin Spectral Data<<<<<
341.393	13.23
341.776	13.23
342.16	13.23
342.543	-48.91
342.927	-53.43
343.31	-63.15
343.693	-59.31
344.077	-60.44
344.46	-64.73
344.843	-72.19
345.226	-45.07
345.61	-37.61
345.993	-12.3
346.376	-1.23
346.759	1.71
347.142	37.87
347.525	39
347.908	70.18
348.291	74.7
348.674	86.23
349.057	106.34
349.44	140.46
349.823	150.86
350.206	170.74
350.588	230.86
350.971	243.28
351.354	258.65
351.737	270.63
352.119	283.28
352.502	291.19
352.884	300.68
353.267	316.95
353.65	326.67
354.032	349.27
354.414	329.61
354.797	344.3
355.179	355.15
355.562	384.52
355.944	365.09
356.326	347.69
356.709	362.15
357.091	367.58
357.473	383.62
357.855	366.67
358.238	365.99
358.62	377.52
359.002	386.33
359.384	382.04
359.766	359.44
360.148	384.52
360.53	403.73
360.912	383.17
361.294	377.07
361.676	372.55
362.057	393.34
362.439	375.26
362.821	384.98
363.203	375.03
363.584	351.53
363.966	360.8
364.348	376.84
364.729	357.18
365.111	363.96
365.493	366.22
365.874	367.58
366.256	363.28
366.637	360.8
367.019	372.09
367.4	372.55
367.781	368.03
368.163	344.3
368.544	346.56
368.925	369.61
369.306	394.24
369.688	371.64
370.069	369.16
370.45	396.05
370.831	342.49
371.212	371.64
371.593	354.92
371.974	361.7
372.355	360.34
372.736	371.42
373.117	385.65
373.498	368.7
373.879	401.92
374.26	369.61
374.641	381.59
375.021	370.06
375.402	378.65
375.783	400.12
376.163	408.93
376.544	390.63
376.925	401.02
377.305	400.57
377.686	387.91
378.066	418.2
378.447	411.19
378.827	402.6
379.208	431.3
379.588	405.09
379.968	399.44
380.349	424.97
380.729	399.89
381.109	426.78
381.489	439.21
381.87	411.87
382.25	418.2
382.63	430.85
383.01	424.52
383.39	447.12
383.77	449.61
384.15	444.18
384.53	435.6
384.91	441.25
385.29	442.38
385.67	472.88
386.049	461.81
386.429	442.83
386.809	434.01
387.189	462.94
387.568	469.49
387.948	467.46
388.328	470.85
388.707	478.98
389.087	486.89
389.466	504.07
389.846	520.34
390.225	506.78
390.605	519.66
390.984	522.6
391.363	505.65
391.743	513.79
392.122	509.49
392.501	520.79
392.881	556.5
393.26	537.97
393.639	521.47
394.018	563.28
394.397	547.46
394.776	575.71
395.155	571.64
395.534	574.58
395.913	563.05
396.292	560.79
396.671	585.42
397.05	591.98
397.429	603.28
397.808	623.39
398.186	602.6
398.565	616.38
398.944	605.76
399.323	633.1
399.701	625.2
400.08	627.68
400.458	636.72
400.837	652.31
401.215	665.87
401.594	674.69
401.972	671.3
402.351	676.49
402.729	702.26
403.107	679.66
403.486	694.35
403.864	716.27
404.242	755.59
404.62	750.16
404.999	755.14
405.377	785.42
405.755	780.9
406.133	813.44
406.511	793.78
406.889	843.27
407.267	827.45
407.645	876.04
408.023	876.94
408.401	880.1
408.779	933.21
409.156	957.62
409.534	959.65
409.912	991.06
410.29	1027.67
410.667	1027.9
411.045	1045.75
411.422	1088.91
411.8	1097.5
412.178	1133.88
412.555	1153.32
412.933	1184.73
413.31	1214.78
413.687	1244.16
414.065	1297.49
414.442	1288.91
414.819	1332.97
415.197	1339.07
415.574	1392.86
415.951	1405.97
416.328	1444.16
416.705	1462.24
417.082	1468.56
417.46	1530.03
417.837	1561.89
418.214	1570.03
418.591	1597.15
418.967	1618.84
419.344	1644.6
419.721	1698.61
420.098	1688.44
420.475	1710.14
420.852	1716.24
421.228	1794.66
421.605	1798.72
421.982	1833.98
422.358	1845.05
422.735	1820.42
423.111	1870.36
423.488	1956.91
423.864	1962.34
424.241	1982.9
424.617	1972.5
424.994	2021.32
425.37	2033.97
425.746	2046.4
426.123	2084.59
426.499	2142.9
426.875	2171.37
427.251	2176.57
427.627	2222.67
428.003	2245.94
428.379	2298.6
428.756	2309.44
429.132	2351.03
429.507	2382.66
429.883	2428.31
430.259	2466.05
430.635	2480.51
431.011	2499.72
431.387	2612.04
431.763	2626.5
432.138	2662.43
432.514	2703.56
432.89	2719.6
433.265	2781.52
433.641	2805.7
434.016	2840.73
434.392	2878.92
434.767	2962.54
435.143	2968.64
435.518	2991.23
435.894	2994.85
436.269	3102.64
436.644	3082.76
437.02	3151
437.395	3122.3
437.77	3197.56
438.145	3257.22
438.52	3314.39
438.895	3338.34
439.271	3343.09
439.646	3427.16
440.021	3457.44
440.395	3453.37
440.77	3401.62
441.145	3511.67
441.52	3550.77
441.895	3556.42
442.27	3591.22
442.645	3576.53
443.019	3624.66
443.394	3645.45
443.769	3675.51
444.143	3671.89
444.518	3741.95
444.892	3694.49
445.267	3754.6
445.641	3793.47
446.016	3868.73
446.39	3883.19
446.764	3868.27
447.139	3855.39
447.513	3901.72
447.887	3950.76
448.262	3942.17
448.636	3977.2
449.01	4005.9
449.384	4062.62
449.758	4046.57
450.132	4122.05
450.506	4152.56
450.88	4186.01
451.254	4213.58
451.628	4280.92
452.002	4281.82
452.376	4298.32
452.75	4371.99
453.123	4374.93
453.497	4492.44
453.871	4531.31
454.244	4591.19
454.618	4627.35
454.992	4673
455.365	4695.14
455.739	4783.5
456.112	4848.81
456.486	4912.31
456.859	4907.79
457.232	5045.19
457.606	4976.72
457.979	5078.86
458.352	5197.5
458.725	5268.46
459.099	5279.08
459.472	5328.35
459.845	5455.58
460.218	5469.14
460.591	5528.57
460.964	5594.1
461.337	5686.53
461.71	5802.01
462.083	5858.5
462.456	5875.68
462.829	5909.12
463.201	5995.9
463.574	6039.06
463.947	6168.55
464.32	6321.99
464.692	6331.71
465.065	6352.28
465.438	6437.02
465.81	6531.48
466.183	6603.34
466.555	6776.22
466.928	6778.25
467.3	6765.82
467.672	6878.14
468.045	7101.64
468.417	7073.84
468.789	7115.65
469.161	7238.35
469.534	7370.1
469.906	7614.62
470.278	7567.61
470.65	7719.7
471.022	7832.46
471.394	7933.7
471.766	8064.55
472.138	8133.02
472.51	8260.7
472.882	8419.79
473.253	8581.14
473.625	8656.17
473.997	8795.15
474.369	8870.4
474.74	8938.2
475.112	9139.55
475.484	9298.87
475.855	9406.89
476.227	9547.9
476.598	9809.13
476.97	9961.45
477.341	10053.2
477.713	10231.27
478.084	10320.08
478.455	10637.14
478.827	10748.32
479.198	11016.56
479.569	10997.13
479.94	11277.34
480.311	11383.56
480.682	11663.1
481.053	11957.1
481.424	12084.78
481.795	12200.26
482.166	12428.27
482.537	12546.01
482.908	12767.02
483.279	12964.98
483.65	13231.64
484.021	13375.37
484.391	13522.03
484.762	13713.44
485.133	13737.39
485.503	14020.78
485.874	14274.78
486.244	14389.35
486.615	14764.26
486.985	14803.13
487.356	15154.3
487.726	15248.09
488.097	15609.21
488.467	15599.94
488.837	15893.04
489.207	16069.54
489.578	16367.61
489.948	16430.43
490.318	16732.34
490.688	16797.43
491.058	16997.42
491.428	17186.57
491.798	17367.13
492.168	17702.49
492.538	17769.6
492.908	17916.27
493.278	18201.46
493.648	18196.71
494.017	18494.33
494.387	18700.2
494.757	18782.23
495.126	18998.27
495.496	19043.24
495.866	19184.26
496.235	19351.03
496.605	19528.43
496.974	19695.65
497.344	19837.35
497.713	19994.18
498.082	20148.07
498.452	20404.11
498.821	20398.01
499.19	20556.42
499.559	20666.02
499.928	20818.56
500.298	21026.24
500.667	21105.33
501.036	21146.92
501.405	21381.94
501.774	21413.12
502.143	21646.34
502.512	21769.5
502.88	21869.83
503.249	21988.93
503.618	22108.25
503.987	22286.55
504.356	22319.09
504.724	22450.16
505.093	22610.15
505.462	22773.09
505.83	22982.12
506.199	23089.46
506.567	23373.75
506.936	23392.51
507.304	23579.62
507.672	23715.21
508.041	23807.41
508.409	23870.69
508.777	24209.89
509.145	24417.11
509.514	24381.63
509.882	24625.24
510.25	24648.29
510.618	24843.32
510.986	24971.67
511.354	25213.25
511.722	25377.09
512.09	25560.36
512.458	25562.84
512.826	25786.12
513.193	26006.9
513.561	26027.01
513.929	26369.83
514.297	26508.81
514.664	26692.98
515.032	26788.8
515.4	26948.12
515.767	27041.22
516.135	27311.27
516.502	27097.49
516.869	27576.8
517.237	27693.64
517.604	27640.08
517.972	28023.12
518.339	28303.56
518.706	28307.63
519.073	28518.7
519.44	28663.55
519.808	28962.76
520.175	28888.86
520.542	29381.95
520.909	29467.6
521.276	29437.77
521.643	29847.25
522.009	30118.66
522.376	30205.43
522.743	30443.17
523.11	30712.31
523.477	31004.74
523.843	31097.16
524.21	31481.11
524.577	31666.19
524.943	31695.34
525.31	31881.1
525.676	32230.24
526.043	32438.14
526.409	32580.06
526.776	32860.51
527.142	32982.31
527.508	33215.52
527.874	33476.31
528.241	33577.32
528.607	33643.99
528.973	34021.15
529.339	34037.65
529.705	34448.03
530.071	34533
530.437	34717.41
530.803	34918.98
531.169	35170.28
531.535	35130.95
531.901	35386.54
532.267	35496.37
532.632	35778.62
532.998	35817.04
533.364	36017.94
533.73	36207.76
534.095	36457.47
534.461	36644.14
534.826	36648.2
535.192	36908.31
535.557	36992.37
535.923	37070.79
536.288	37340.61
536.653	37620.15
537.019	37591
537.384	37692.24
537.749	37967.72
538.114	37940.37
538.479	38038.67
538.845	38231.66
539.21	38270.99
539.575	38329.74
539.94	38666.23
540.305	38780.12
540.67	38732.44
541.034	38936.96
541.399	38914.58
541.764	39277.74
542.129	39229.6
542.494	39522.7
542.858	39631.18
543.223	39767.67
543.587	39941.68
543.952	39958.17
544.316	40151.39
544.681	40169.24
545.045	40321.1
545.41	40606.29
545.774	40625.27
546.138	40663.24
546.503	40870.01
546.867	40902.33
547.231	41318.81
547.595	41183.45
547.959	41475.19
548.324	41491.01
548.688	41542.31
549.052	41806.71
549.416	41831.8
549.779	41956.99
550.143	41919.48
550.507	42394.94
550.871	42406.02
551.235	42411.67
551.599	42765.33
551.962	42847.36
552.326	42839.9
552.689	43219.78
553.053	43064.08
553.417	43151.99
553.78	43684.18
554.143	43450.96
554.507	43788.81
554.87	43813.44
555.234	44004.39
555.597	44090.72
555.96	44227.21
556.323	44425.85
556.686	44403.71
557.05	44833.3
557.413	44751.72
557.776	44930.47
558.139	45221.08
558.502	45209.11
558.865	45422.21
559.228	45633.5
559.59	45730
559.953	45830.33
560.316	46341.51
560.679	46288.63
561.041	46327.04
561.404	46531.78
561.767	46905.56
562.129	46823.98
562.492	47237.53
562.854	47064.88
563.217	47255.83
563.579	47412.44
563.941	47635.94
564.304	47876.38
564.666	47974.46
565.028	48039.77
565.39	48251.74
565.753	48442.24
566.115	48544.61
566.477	48726.76
566.839	48875.9
567.201	49139.17
567.563	49138.27
567.925	49388.43
568.287	49418.49
568.648	49434.53
569.01	49617.58
569.372	49800.17
569.734	49739.61
570.095	50064.8
570.457	50284
570.819	50313.83
571.18	50376.2
571.542	50513.38
571.903	50634.28
572.265	50715.86
572.626	50890.54
572.987	50904.55
573.349	50981.84
573.71	51203.98
574.071	51259.12
574.432	51343.18
574.794	51618.2
575.155	51512.9
575.516	51586.57
575.877	51636.06
576.238	51847.58
576.599	51929.61
576.96	51922.15
577.32	51987.46
577.681	52103.84
578.042	52238.3
578.403	52192.65
578.763	52276.72
579.124	52365.53
579.485	52424.06
579.845	52604.62
580.206	52489.14
580.566	52554.68
580.927	52612.3
581.287	52742.24
581.648	52655.01
582.008	52745.86
582.368	52738.18
582.728	52835.8
583.089	52854.78
583.449	52864.27
583.809	52909.92
584.169	52938.85
584.529	52846.87
584.889	53119.86
585.249	52972.29
585.609	52930.26
585.969	53115.57
586.329	52963.03
586.688	53124.15
587.048	53046.42
587.408	53044.83
587.768	53130.93
588.127	53122.8
588.487	53099.97
588.846	53299.29
589.206	53142.91
589.565	53230.14
589.925	53309.91
590.284	53148.79
590.643	53318.73
591.003	53359.4
591.362	53479.17
591.721	53334.54
592.08	53360.31
592.44	53506.06
592.799	53526.86
593.158	53323.7
593.517	53452.73
593.876	53608.21
594.235	53422.9
594.593	53506.29
594.952	53570.47
595.311	53530.25
595.67	53658.15
596.029	53781.54
596.387	53750.35
596.746	53782.67
597.104	53676.91
597.463	53749.9
597.822	53892.5
598.18	53700.18
598.538	53762.56
598.897	53952.15
599.255	53649.11
599.613	54028.31
599.972	53963.23
600.33	54033.51
600.688	53858.15
601.046	53992.15
601.404	54161.19
601.762	54020.18
602.12	54142.43
602.478	54133.84
602.836	54198.48
603.194	54049.78
603.552	54120.51
603.91	54020.63
604.268	54242.09
604.625	54113.96
604.983	54216.55
605.341	54183.34
605.698	54296.33
606.056	54363.44
606.413	54242.99
606.771	54383.56
607.128	54405.25
607.485	54237.57
607.843	54322.31
608.2	54527.96
608.557	54601.63
608.914	54584.23
609.272	54581.29
609.629	54664.9
609.986	54710.55
610.343	54545.13
610.7	54737.22
611.057	54735.19
611.414	54734.06
611.771	54800.95
612.127	54866.48
612.484	54842.07
612.841	54934.73
613.198	54841.4
613.554	54785.13
613.911	54996.87
614.267	54983.31
614.624	54908.29
614.98	54995.74
615.337	55054.27
615.693	55073.03
616.05	55045.91
616.406	55163.42
616.762	55007.49
617.118	55122.52
617.475	55086.81
617.831	55263.31
618.187	55157.32
618.543	55235.06
618.899	55341.95
619.255	55260.82
619.611	55291.1
619.967	55321.16
620.323	55341.27
620.678	55361.16
621.034	55264.66
621.39	55273.02
621.746	55312.12
622.101	55568.61
622.457	55291.78
622.812	55307.6
623.168	55414.94
623.523	55425.11
623.879	55484.09
624.234	55324.32
624.589	55395.05
624.945	55426.01
625.3	55494.26
625.655	55498.55
626.01	55438.44
626.365	55484.54
626.72	55349.86
627.075	55419.46
627.43	55313.7
627.785	55361.16
628.14	55450.65
628.495	55466.92
628.85	55405.45
629.205	55274.83
629.559	55531.32
629.914	55366.35
630.269	55393.92
630.623	55364.77
630.978	55338.56
631.332	55457.88
631.687	55429.63
632.041	55331.55
632.396	55354.6
632.75	55307.6
633.104	55340.82
633.459	55233.25
633.813	55245.23
634.167	55195.06
634.521	55152.8
634.875	55183.53
635.229	55195.29
635.583	55109.86
635.937	55110.77
636.291	55084.55
636.645	55040.71
636.999	55029.87
637.352	55020.6
637.706	54919.36
638.06	55107.83
638.413	55092.92
638.767	55023.31
639.121	55033.26
639.474	54899.02
639.828	54875.97
640.181	54955.52
640.534	54943.09
640.888	54774.28
641.241	54723.21
641.594	54826.93
641.947	54925.24
642.301	54780.83
642.654	54824
643.007	54785.13
643.36	54813.83
643.713	54750.1
644.066	54868.06
644.419	54650.22
644.771	54466.27
645.124	54143.79
645.477	54173.62
645.83	54002.32
646.182	54002.1
646.535	53853.4
646.888	53986.73
647.24	53728.66
647.593	53998.03
647.945	53850.24
648.298	53728.43
648.65	53734.08
649.002	53634.2
649.355	53776.57
649.707	53692.95
650.059	53842.78
650.411	54205.71
650.763	54209.55
651.115	54485.7
651.467	54363.9
651.819	54392.37
652.171	54291.81
652.523	54307.17
652.875	54286.16
653.227	54128.42
653.578	54433.05
653.93	54365.25
654.282	54121.19
654.633	54125.26
654.985	54120.06
655.337	54184.24
655.688	54183.79
656.039	54224.24
656.391	53970.91
656.742	54066.73
657.094	54077.35
657.445	54211.81
657.796	54080.06
658.147	54063.79
658.498	54027.41
658.849	54108.08
659.2	54032.38
659.551	53963
659.902	54073.96
660.253	53923.68
660.604	53979.95
660.955	53928.2
661.306	54045.26
661.656	53975.88
662.007	53920.29
662.358	53861.99
662.708	53856.79
663.059	53820.63
663.409	53635.78
663.76	53985.6
664.11	53857.92
664.461	53831.71
664.811	53880.97
665.161	53871.48
665.511	53756.91
665.862	53758.04
666.212	53876.9
666.562	53857.92
666.912	53753.74
667.262	53754.65
667.612	53724.82
667.962	53684.59
668.312	53703.12
668.662	53843.68
669.011	53682.56
669.361	53695.21
669.711	53623.12
670.06	53630.36
670.41	53546.74
670.76	53485.27
671.109	53569.79
671.459	53511.71
671.808	53421.55
672.157	53542.22
672.507	53389.01
672.856	53313.3
673.205	53394.43
673.554	53439.4
673.904	53340.87
674.253	53525.05
674.602	53382.23
674.951	52838.96
675.3	52736.37
675.649	53265.85
675.998	53168.22
676.346	53272.17
676.695	53247.09
677.044	53030.15
677.393	53161.89
677.741	53149.92
678.09	52993.08
678.438	52966.19
678.787	52994.21
679.135	52963.71
679.484	52748.8
679.832	52981.11
680.181	52760.32
680.529	52805.97
680.877	52775.01
681.225	52700.21
681.573	52822.92
681.922	52599.2
682.27	52474.68
682.618	52557.39
682.966	52443.72
683.314	52450.27
683.661	52411.86
684.009	52201.69
684.357	52111.75
684.705	52036.72
685.053	52090.28
685.4	52061.81
685.748	51883.73
686.095	51920.8
686.443	51725.77
686.79	51710.63
687.138	51767.13
687.485	51706.11
687.832	51513.57
688.18	51614.14
688.527	51418.21
688.874	51346.8
689.221	51179.35
689.568	51174.6
689.915	51062.51
690.262	51061.84
690.609	50955.4
690.956	50837.43
691.303	50777.32
691.65	50659.13
691.997	50591.57
692.344	50314.96
692.69	50407.39
693.037	50486.94
693.383	50071.13
693.73	50174.4
694.077	50002.43
694.423	50016.21
694.769	49947.97
695.116	49850.12
695.462	49695.77
695.808	49605.6
696.155	49638.37
696.501	49435.89
696.847	49497.81
697.193	49123.58
697.539	49208.1
697.885	48939.18
698.231	48797.26
698.577	48814.89
698.923	48848.11
699.269	48550.26
699.614	48502.58
699.96	48383.71
700.306	48410.38
700.651	48206.77
700.997	47946.89
701.342	47994.8
701.688	47878.87
702.033	47884.52
702.379	47816.5
702.724	47751.87
703.069	47762.71
703.415	47390.07
703.76	47423.51
704.105	47364.08
704.45	47259
704.795	46929.29
705.14	46971.77
705.485	46917.54
705.83	46660.37
706.175	46872.79
706.52	46665.57
706.865	46458.57
707.209	46467.83
707.554	46313.94
707.899	46338.8
708.243	46199.59
708.588	46101.97
708.932	45938.81
709.277	45928.86
709.621	45920.05
709.966	45627.85
710.31	45776.78
710.654	45273.51
710.998	45606.16
711.342	45552.38
711.687	45386.73
712.031	45087.98
712.375	45119.84
712.719	45063.57
713.063	45009.57
713.407	45181.54
713.75	44797.82
714.094	44811.6
714.438	44614.55
714.782	44651.83
715.125	44577.71
715.469	44645.05
715.812	44484.83
716.156	44198.06
716.499	44151.06
716.843	44146.99
717.186	44043.71
717.53	44139.76
717.873	44123.71
718.216	43920.33
718.559	43742.93
718.902	43438.98
719.246	43563.73
719.589	43541.13
719.932	43391.3
720.275	43465.42
720.617	43517.63
720.96	43221.14
721.303	43214.13
721.646	43194.7
721.989	42996.51
722.331	43114.7
722.674	42969.39
723.016	43104.98
723.359	42854.14
723.701	42960.58
724.044	42636.97
724.386	42470.42
724.729	42370.99
725.071	42416.86
725.413	42495.73
725.755	42358.11
726.097	42268.17
726.439	42076.08
726.782	42130.32
727.124	42284.21
727.465	42085.8
727.807	41896.88
728.149	41932.81
728.491	41788.86
728.833	41959.48
729.175	41650.11
729.516	41602.42
729.858	41540.96
730.199	41637.9
730.541	41634.06
730.882	41444.46
731.224	41475.19
731.565	41242.43
731.906	41205.15
732.248	41268.65
732.589	40993.17
732.93	40933.51
733.271	41020.97
733.612	40963.8
733.953	41088.31
734.294	40951.14
734.635	40722.22
734.976	40714.99
735.317	40694.65
735.658	40553.64
735.999	40612.62
736.339	40463.7
736.68	40545.05
737.021	40526.07
737.361	40316.58
737.702	40432.74
738.042	40291.72
738.383	40225.51
738.723	40237.94
739.063	40215.57
739.404	40187.55
739.744	40055.35
740.084	39788.91
740.424	39987.1
740.764	39812.19
741.104	39952.75
741.444	39740.55
741.784	39564.28
742.124	39699.87
742.464	39638.63
742.804	39516.38
743.143	39623.72
743.483	39554.79
743.823	39296.49
744.162	39335.82
744.502	39358.19
744.841	39278.64
745.181	39246.1
745.52	39214.01
745.86	39162.94
746.199	39099.44
746.538	39045.43
746.877	39116.61
747.216	39057.41
747.556	38996.84
747.895	38891.76
748.234	38713.91
748.573	38698.77
748.911	38592.11
749.25	38675.27
749.589	38519.79
749.928	38423.07
750.267	38574.25
750.605	38329.06
750.944	38297.88
751.283	38081.39
751.621	38214.04
751.96	38063.99
752.298	37958.9
752.636	37961.16
752.975	37869.19
753.313	37713.71
