Data from whiteboard_FLMS001491_00099.txt Node
Date: Wed Feb 08 11:28:45 GMT 2017
User: dcchb
Spectrometer: FLMS00149
Trigger mode: 0
Integration Time (sec): 2.000000E-2
Scans to average: 10
Electric dark correction enabled: true
Nonlinearity correction enabled: false
Boxcar width: 0
XAxis mode: Wavelengths
Number of Pixels in Spectrum: 2048
>>>>>Begin Spectral Data<<<<<
341.393	-3.94
341.776	-3.94
342.16	-3.94
342.543	-54.33
342.927	-67.22
343.31	-71.06
343.693	-64.5
344.077	-59.53
344.46	-65.41
344.843	-45.97
345.226	-21.57
345.61	-24.51
345.993	-12.3
346.376	-1.23
346.759	-2.13
347.142	20.69
347.525	36.06
347.908	49.39
348.291	74.7
348.674	81.93
349.057	105.44
349.44	129.39
349.823	143.4
350.206	157.19
350.588	218.2
350.971	232.66
351.354	262.72
351.737	267.46
352.119	285.54
352.502	275.37
352.884	317.63
353.267	320.12
353.65	354.02
354.032	364.64
354.414	342.49
354.797	332.77
355.179	365.09
355.562	369.83
355.944	367.8
356.326	389.27
356.709	385.43
357.091	367.8
357.473	375.71
357.855	387.01
358.238	387.46
358.62	379.1
359.002	396.27
359.384	389.04
359.766	376.39
360.148	392.43
360.53	380.23
360.912	366.67
361.294	362.6
361.676	365.09
362.057	372.55
362.439	379.33
362.821	375.94
363.203	372.09
363.584	371.19
363.966	386.33
364.348	384.07
364.729	377.29
365.111	380.91
365.493	388.82
365.874	363.51
366.256	361.02
366.637	371.87
367.019	365.54
367.4	367.35
367.781	382.26
368.163	354.92
368.544	367.35
368.925	368.7
369.306	369.61
369.688	400.57
370.069	384.07
370.45	373.9
370.831	372.09
371.212	396.5
371.593	371.64
371.974	372.55
372.355	380.68
372.736	385.43
373.117	383.62
373.498	383.39
373.879	375.94
374.26	361.47
374.641	389.72
375.021	382.72
375.402	396.27
375.783	390.17
376.163	407.35
376.544	406.67
376.925	402.83
377.305	409.16
377.686	408.93
378.066	405.31
378.447	431.3
378.827	427.46
379.208	411.42
379.588	410.29
379.968	418.2
380.349	421.36
380.729	421.81
381.109	436.5
381.489	428.82
381.87	415.94
382.25	434.47
382.63	424.97
383.01	444.86
383.39	414.13
383.77	439.89
384.15	459.78
384.53	445.54
384.91	447.12
385.29	467.46
385.67	447.57
386.049	458.87
386.429	462.26
386.809	481.92
387.189	496.39
387.568	502.94
387.948	479.89
388.328	477.18
388.707	488.7
389.087	504.29
389.466	509.27
389.846	511.53
390.225	512.66
390.605	500.23
390.984	526.89
391.363	534.35
391.743	530.28
392.122	544.29
392.501	545.65
392.881	556.27
393.26	535.71
393.639	582.26
394.018	594.24
394.397	568.25
394.776	556.72
395.155	587.23
395.534	620.68
395.913	602.6
396.292	604.63
396.671	635.36
397.05	629.94
397.429	623.39
397.808	660.9
398.186	661.58
398.565	668.36
398.944	674.46
399.323	680.34
399.701	686.21
400.08	699.09
400.458	717.62
400.837	714.68
401.215	755.14
401.594	748.13
401.972	762.14
402.351	807.34
402.729	786.55
403.107	804.85
403.486	824.74
403.864	847.56
404.242	824.74
404.62	860.44
404.999	884.4
405.377	869.48
405.755	903.83
406.133	933.66
406.511	960.1
406.889	949.48
407.267	964.17
407.645	990.16
408.023	1005.07
408.401	1043.49
408.779	1036.26
409.156	1093.88
409.534	1115.13
409.912	1112.64
410.29	1159.42
410.667	1185.41
411.045	1153.09
411.422	1217.04
411.8	1219.3
412.178	1243.03
412.555	1270.6
412.933	1283.71
413.31	1311.51
413.687	1344.27
414.065	1337.04
414.442	1379.07
414.819	1408.68
415.197	1425.63
415.574	1462.91
415.951	1480.54
416.328	1492.97
416.705	1522.57
417.082	1530.93
417.46	1539.3
417.837	1588.56
418.214	1576.13
418.591	1628.56
418.967	1607.99
419.344	1612.06
419.721	1693.42
420.098	1653.87
420.475	1722.12
420.852	1721.89
421.228	1768.89
421.605	1779.74
421.982	1803.47
422.358	1812.51
422.735	1824.94
423.111	1846.63
423.488	1892.05
423.864	1902.22
424.241	1906.52
424.617	1958.49
424.994	1966.18
425.37	1996.23
425.746	1963.24
426.123	2031.71
426.499	2043.92
426.875	2070.36
427.251	2134.76
427.627	2156.23
428.003	2174.31
428.379	2223.12
428.756	2222.67
429.132	2268.54
429.507	2323.46
429.883	2375.43
430.259	2367.75
430.635	2404.81
431.011	2424.47
431.387	2468.08
431.763	2526.61
432.138	2539.27
432.514	2523.68
432.89	2574.52
433.265	2712.15
433.641	2692.26
434.016	2736.55
434.392	2764.8
434.767	2821.52
435.143	2832.6
435.518	2839.37
435.894	2873.05
436.269	2938.35
436.644	2968.41
437.02	3004.34
437.395	3005.47
437.77	3041.4
438.145	3131.34
438.52	3121.63
438.895	3172.93
439.271	3195.3
439.646	3257.44
440.021	3299.7
440.395	3271
440.77	3263.77
441.145	3286.37
441.52	3381.06
441.895	3371.79
442.27	3429.87
442.645	3421.28
443.019	3539.02
443.394	3485.46
443.769	3544.89
444.143	3521.84
444.518	3603.2
444.892	3556.87
445.267	3635.06
445.641	3631.9
446.016	3640.48
446.39	3694.49
446.764	3708.96
447.139	3732.46
447.513	3799.58
447.887	3780.14
448.262	3774.27
448.636	3834.83
449.01	3901.49
449.384	3936.07
449.758	3945.56
450.132	3983.75
450.506	4014.71
450.88	4051.55
451.254	4099
451.628	4169.51
452.002	4170.64
452.376	4212.45
452.75	4271.88
453.123	4338.77
453.497	4378.54
453.871	4369.5
454.244	4484.98
454.618	4540.8
454.992	4586
455.365	4580.57
455.739	4714.81
456.112	4745.09
456.486	4815.14
456.859	4844.75
457.232	4943.95
457.606	4946.44
457.979	5012.88
458.352	5166.09
458.725	5204.06
459.099	5204.74
459.472	5376.71
459.845	5398.18
460.218	5440.66
460.591	5457.61
460.964	5498.51
461.337	5690.37
461.71	5737.6
462.083	5788.9
462.456	5825.74
462.829	5844.49
463.201	5952.96
463.574	5984.83
463.947	6080.87
464.32	6227.76
464.692	6229.12
465.065	6299.85
465.438	6362.9
465.81	6503.23
466.183	6582.55
466.555	6721.98
466.928	6717.69
467.3	6749.1
467.672	6906.61
468.045	7082.2
468.417	7092.82
468.789	7135.31
469.161	7177.79
469.534	7363.32
469.906	7507.5
470.278	7587.05
470.65	7681.06
471.022	7866.36
471.394	7954.72
471.766	8066.81
472.138	8148.16
472.51	8398.1
472.882	8461.6
473.253	8508.15
473.625	8694.14
473.997	8868.37
474.369	8923.06
474.74	9001.7
475.112	9208.7
475.484	9311.29
475.855	9447.79
476.227	9535.92
476.598	9858.17
476.97	9919.41
477.341	10152.4
477.713	10289.8
478.084	10346.75
478.455	10629.23
478.827	10691.37
479.198	11075.99
479.569	11064.47
479.94	11394.4
480.311	11472.59
480.682	11739.93
481.053	12086.36
481.424	12203.87
481.795	12441.38
482.166	12593.69
482.537	12643.86
482.908	12947.36
483.279	13075.04
483.65	13349.38
484.021	13571.3
484.391	13777.39
484.762	13858.29
485.133	14037.5
485.503	14216.25
485.874	14579.18
486.244	14710.93
486.615	14972.84
486.985	15162.89
487.356	15421.42
487.726	15541.87
488.097	15773.95
488.467	15897.79
488.837	16292.35
489.207	16480.15
489.578	16795.62
489.948	16785.22
490.318	17047.59
490.688	17049.85
491.058	17411.42
491.428	17578.42
491.798	17734.35
492.168	18130.05
492.538	18158.29
492.908	18380.21
493.278	18642.57
493.648	18735.91
494.017	18942
494.387	19191.94
494.757	19241.66
495.126	19521.65
495.496	19621.76
495.866	19772.26
496.235	19906.5
496.605	20135.19
496.974	20267.39
497.344	20480.27
497.713	20552.58
498.082	20701.73
498.452	20993.25
498.821	21031.21
499.19	21141.04
499.559	21344.88
499.928	21501.71
500.298	21650.63
500.667	21964.3
501.036	21766.33
501.405	22127
501.774	22070.06
502.143	22445.64
502.512	22515.47
502.88	22723.15
503.249	22725.63
503.618	23019.18
503.987	23068.45
504.356	23043.36
504.724	23241.55
505.093	23381.89
505.462	23444.26
505.83	23733.97
506.199	23753.17
506.567	24228.19
506.936	24199.72
507.304	24469.99
507.672	24419.37
508.041	24736.65
508.409	24864.33
508.777	25041.5
509.145	25223.19
509.514	25167.37
509.882	25471.1
510.25	25516.29
510.618	25701.82
510.986	25813.69
511.354	26161.93
511.722	26272.2
512.09	26577.96
512.458	26710.39
512.826	26830.61
513.193	27084.84
513.561	27080.55
513.929	27338.39
514.297	27532.28
514.664	27807.08
515.032	27991.03
515.4	28161.19
515.767	28309.44
516.135	28472.15
516.502	28364.35
516.869	28917.11
517.237	29097.89
517.604	29071.68
517.972	29440.93
518.339	29566.13
518.706	29692.23
519.073	29864.2
519.44	29989.62
519.808	30338.31
520.175	30382.15
520.542	30821.69
520.909	30877.73
521.276	30929.71
521.643	31257.16
522.009	31475.68
522.376	31687.43
522.743	31866.18
523.11	32166.96
523.477	32479.5
523.843	32620.96
524.21	32900.73
524.577	33271.79
524.943	33442.19
525.31	33480.15
525.676	33794.49
526.043	33964.88
526.409	34147.03
526.776	34420.01
527.142	34535.94
527.508	34913.56
527.874	35163.72
528.241	35335.7
528.607	35425.64
528.973	35868.34
529.339	35871.05
529.705	36382.22
530.071	36477.81
530.437	36592.84
530.803	36979.72
531.169	37047.06
531.535	37056.55
531.901	37356.88
532.267	37530.67
532.632	37774.5
532.998	37943.99
533.364	38287.03
533.73	38345.56
534.095	38594.14
534.461	38652.9
534.826	38958.2
535.192	38868.48
535.557	39189.15
535.923	39265.76
536.288	39565.41
536.653	39670.95
537.019	39552.53
537.384	39938.29
537.749	40021
538.114	40053.99
538.479	40157.72
538.845	40368.33
539.21	40256.02
539.575	40575.33
539.94	40685.84
540.305	40844.25
540.67	40691.26
541.034	41114.07
541.399	41135.54
541.764	41346.16
542.129	41411.24
542.494	41457.34
542.858	41607.39
543.223	41803.77
543.587	41901.62
543.952	41867.73
544.316	42073.15
544.681	42077.66
545.045	42349.52
545.41	42625
545.774	42646.92
546.138	42753.58
546.503	42918.55
546.867	42913.12
547.231	43339.1
547.595	43434.92
547.959	43571.64
548.324	43629.94
548.688	43735.7
549.052	43935.47
549.416	44096.37
549.779	44160.77
550.143	44199.87
550.507	44702.68
550.871	44807.54
551.235	44673.98
551.599	45080.98
551.962	45210.69
552.326	45306.05
552.689	45651.13
553.053	45291.59
553.417	45530.23
553.78	46028.97
554.143	45792.37
554.507	46108.07
554.87	46262.41
555.234	46601.16
555.597	46341.73
555.96	46581.05
556.323	46866.01
556.686	46873.7
557.05	47106.69
557.413	47197.53
557.776	47406.56
558.139	47548.71
558.502	47583.73
558.865	47573.57
559.228	47949.15
559.59	47984.4
559.953	47986.66
560.316	48404.96
560.679	48340.32
561.041	48718.39
561.404	48740.09
561.767	48849.01
562.129	48936.24
562.492	49325.61
562.854	49326.51
563.217	49302.11
563.579	49451.03
563.941	49734.86
564.304	49810.34
564.666	50024.57
565.028	50054.4
565.39	50166.27
565.753	50338.69
566.115	50406.03
566.477	50653.94
566.839	50666.14
567.201	51062.74
567.563	50950.43
567.925	51362.84
568.287	51373.92
568.648	51542.95
569.01	51681.48
569.372	51923.51
569.734	51890.51
570.095	52079.66
570.457	52249.37
570.819	52376.83
571.18	52396.72
571.542	52563.94
571.903	52592.42
572.265	52705.86
572.626	52847.1
572.987	52970.03
573.349	52999.19
573.71	53014.33
574.071	53107.88
574.432	53235.34
574.794	53535.22
575.155	53475.33
575.516	53410.7
575.877	53516.23
576.238	53698.83
576.599	53683.24
576.96	53797.58
577.32	53830.12
577.681	53907.86
578.042	53932.27
578.403	53939.05
578.763	53916
579.124	53910.35
579.485	54094.98
579.845	54023.57
580.206	53963.45
580.566	53994.87
580.927	54009.33
581.287	54183.56
581.648	53967.97
582.008	54132.04
582.368	54104.69
582.728	54086.16
583.089	54055.65
583.449	54089.1
583.809	54122.09
584.169	54222.2
584.529	54070.12
584.889	54246.16
585.249	54274.18
585.609	54086.39
585.969	54268.98
586.329	54209.78
586.688	54256.78
587.048	54261.07
587.408	54216.1
587.768	54244.12
588.127	54213.62
588.487	54172.49
588.846	54398.92
589.206	54271.24
589.565	54322.99
589.925	54458.58
590.284	54373.61
590.643	54501.52
591.003	54601.18
591.362	54633.49
591.721	54659.71
592.08	54703.55
592.44	54748.07
592.799	54798.91
593.158	54748.97
593.517	54739.03
593.876	54824.67
594.235	54750.55
594.593	54793.71
594.952	54891.57
595.311	54754.85
595.67	54823.54
596.029	54951.9
596.387	54977.89
596.746	54985.57
597.104	54864.45
597.463	54866.03
597.822	55007.49
598.18	54890.21
598.538	54815.86
598.897	55017.21
599.255	54760.72
599.613	55205.46
599.972	54944.45
600.33	54990.55
600.688	54864.22
601.046	54940.38
601.404	55069.41
601.762	54908.06
602.12	55078.68
602.478	54969.08
602.836	54944.67
603.194	54767.27
603.552	54821.74
603.91	54735.19
604.268	54856.76
604.625	54775.86
604.983	54849.53
605.341	54617.67
605.698	54811.12
606.056	54875.07
606.413	54861.51
606.771	54897.89
607.128	54972.92
607.485	54822.19
607.843	54950.55
608.2	54974.27
608.557	55149.86
608.914	54979.92
609.272	55166.81
609.629	55261.95
609.986	55380.37
610.343	55181.05
610.7	55415.62
611.057	55265.11
611.414	55399.35
611.771	55369.74
612.127	55511.89
612.484	55477.76
612.841	55604.99
613.198	55521.83
613.554	55588.27
613.911	55816.29
614.267	55717.31
614.624	55712.56
614.98	55847.92
615.337	56033.91
615.693	55959.56
616.05	55954.36
616.406	56170.4
616.762	56047.92
617.118	56102.15
617.475	56127.92
617.831	56172.21
618.187	56218.54
618.543	56236.39
618.899	56354.35
619.255	56255.37
619.611	56224.86
619.967	56328.59
620.323	56374.01
620.678	56250.63
621.034	56147.8
621.39	56116.84
621.746	56053.57
622.101	56440
622.457	56143.28
622.812	56181.25
623.168	56196.39
623.523	56161.14
623.879	56109.16
624.234	55969.28
624.589	55961.82
624.945	56005.43
625.3	56134.7
625.655	55978.77
626.01	56010.63
626.365	56047.47
626.72	55952.1
627.075	55868.71
627.43	55872.78
627.785	55795.72
628.14	55778.32
628.495	55896.06
628.85	55771.77
629.205	55718.89
629.559	55816.06
629.914	55683.86
630.269	55639.12
630.623	55579.46
630.978	55500.14
631.332	55587.59
631.687	55660.81
632.041	55541.04
632.396	55559.8
632.75	55427.6
633.104	55441.38
633.459	55451.1
633.813	55381.5
634.167	55449.06
634.521	55454.49
634.875	55487.93
635.229	55514.37
635.583	55363.19
635.937	55359.58
636.291	55359.35
636.645	55396.64
636.999	55282.52
637.352	55369.52
637.706	55230.09
638.06	55329.97
638.413	55288.84
638.767	55251.78
639.121	55347.37
639.474	55231.22
639.828	55171.78
640.181	55230.99
640.534	55291.78
640.888	55136.53
641.241	55108.06
641.594	55123.65
641.947	55207.72
642.301	55069.64
642.654	55179.02
643.007	55200.26
643.36	55092.01
643.713	55185.57
644.066	55196.42
644.419	54973.6
644.771	54741.06
645.124	54421.97
645.477	54391.69
645.83	54223.33
646.182	54105.6
646.535	54074.64
646.888	54141.3
647.24	53963.68
647.593	54183.56
647.945	54009.78
648.298	53816.11
648.65	53733.86
649.002	53563.01
649.355	53674.2
649.707	53669.9
650.059	53647.98
650.411	53966.39
650.763	54007.97
651.115	54205.93
651.467	54052.72
651.819	54010.23
652.171	53863.12
652.523	53901.31
652.875	53889.11
653.227	53761.2
653.578	53848.88
653.93	53744.7
654.282	53647.3
654.633	53611.6
654.985	53646.63
655.337	53581.54
655.688	53573.41
656.039	53629.23
656.391	53331.15
656.742	53457.93
657.094	53351.49
657.445	53530.7
657.796	53378.61
658.147	53305.17
658.498	53285.05
658.849	53452.05
659.2	53277.82
659.551	53263.36
659.902	53280.31
660.253	53243.47
660.604	53285.05
660.955	53156.02
661.306	53322.57
661.656	53252.74
662.007	53309.46
662.358	53293.19
662.708	53280.08
663.059	53272.62
663.409	53052.07
663.76	53277.14
664.11	53352.85
664.461	53421.32
664.811	53331.83
665.161	53307.88
665.511	53226.52
665.862	53236.92
666.212	53316.01
666.562	53274.88
666.912	53266.75
667.262	53178.39
667.612	53166.64
667.962	53203.25
668.312	53139.97
668.662	53215.45
669.011	53209.12
669.361	53240.99
669.711	53137.94
670.06	52983.14
670.41	53054.33
670.76	53071.95
671.109	53225.62
671.459	53094.1
671.808	52867.21
672.157	53062.23
672.507	52899.98
672.856	52810.26
673.205	52883.71
673.554	52889.13
673.904	52815.91
674.253	53026.08
674.602	52850.71
674.951	52355.13
675.3	52174.8
675.649	52715.35
675.998	52634.22
676.346	52557.84
676.695	52678.06
677.044	52480.78
677.393	52502.93
677.741	52411.4
678.09	52377.51
678.438	52190.85
678.787	52304.06
679.135	52161.92
679.484	51896.62
679.832	52111.98
680.181	51881.93
680.529	51870.85
680.877	51838.76
681.225	51699.56
681.573	51803.28
681.922	51645.32
682.27	51598.32
682.618	51607.58
682.966	51439
683.314	51434.03
683.661	51434.48
684.009	51193.13
684.357	51124.88
684.705	51045.34
685.053	51062.51
685.4	51006.7
685.748	50826.14
686.095	50763.31
686.443	50686.93
686.79	50526.26
687.138	50532.58
687.485	50611.23
687.832	50446.94
688.18	50615.75
688.527	50312.25
688.874	50260.73
689.221	50194.74
689.568	50186.83
689.915	50033.61
690.262	49930.11
690.609	49854.41
690.956	49797.91
691.303	49671.59
691.65	49513.4
691.997	49681.08
692.344	49350.69
692.69	49347.98
693.037	49412.84
693.383	48993.64
693.73	49156.35
694.077	48964.94
694.423	48959.97
694.769	48944.6
695.116	48748.9
695.462	48820.76
695.808	48605.4
696.155	48717.26
696.501	48454.9
696.847	48486.31
697.193	48180.78
697.539	48385.52
697.885	48037.06
698.231	47926.32
698.577	47934.91
698.923	47781.02
699.269	47716.16
699.614	47514.13
699.96	47480.91
700.306	47370.63
700.651	47359.56
700.997	47251.77
701.342	47117.98
701.688	47090.41
702.033	46960.93
702.379	46969.06
702.724	46916.41
703.069	46829.18
703.415	46414.95
703.76	46384.44
704.105	46454.27
704.45	46281.62
704.795	46176.09
705.14	45968.41
705.485	45969.99
705.83	45939.71
706.175	45857.9
706.52	45530.91
706.865	45548.31
707.209	45349.44
707.554	45174.08
707.899	45355.09
708.243	45085.95
708.588	45083.24
708.932	44723.02
709.277	44630.59
709.621	44706.97
709.966	44288.45
710.31	44388.56
710.654	44028.57
710.998	44109.25
711.342	44050.95
711.687	43809.37
712.031	43664.97
712.375	43538.87
712.719	43554.69
713.063	43470.4
713.407	43503.16
713.75	43064.98
714.094	43219.56
714.438	42971.2
714.782	43160.12
715.125	42918.09
715.469	43009.84
715.812	42616.86
716.156	42422.51
716.499	42403.31
716.843	42383.87
717.186	42134.84
717.53	42272.24
717.873	42227.49
718.216	42126.03
718.559	42017.78
718.902	41629.32
719.246	41620.73
719.589	41580.95
719.932	41474.29
720.275	41358.36
720.617	41405.37
720.96	41280.85
721.303	41206.05
721.646	41250.57
721.989	41049.9
722.331	41129.22
722.674	40915.66
723.016	40954.3
723.359	40867.75
723.701	40961.08
724.044	40589.79
724.386	40379.4
724.729	40665.05
725.071	40455.11
725.413	40426.63
725.755	40602.22
726.097	40274.77
726.439	40097.38
726.782	40178.96
727.124	40381.66
727.465	40001.34
727.807	39879.08
728.149	39842.47
728.491	39870.27
728.833	39761.79
729.175	39571.74
729.516	39496.49
729.858	39529.94
730.199	39590.05
730.541	39334.01
730.882	39425.76
731.224	39426.66
731.565	39260.79
731.906	39377.4
732.248	39244.74
732.589	39096.95
732.93	39035.26
733.271	39011.53
733.612	39077.52
733.953	39174.92
734.294	38953.91
734.635	38888.37
734.976	38941.25
735.317	38678.66
735.658	38755.72
735.999	38660.81
736.339	38541.26
736.68	38791.42
737.021	38577.64
737.361	38442.05
737.702	38692.67
738.042	38583.29
738.383	38247.93
738.723	38391.66
739.063	38203.87
739.404	38153.25
739.744	38071.22
740.084	37956.87
740.424	38070.54
740.764	37806.59
741.104	37916.42
741.444	37782.64
741.784	37551.91
742.124	37556.43
742.464	37694.05
742.804	37553.04
743.143	37448.41
743.483	37378.81
743.823	37192.37
744.162	37166.61
744.502	37294.97
744.841	36926.39
745.181	37106.27
745.52	36858.59
745.86	37088.64
746.199	36879.16
746.538	36725.72
746.877	36774.98
747.216	36570.46
747.556	36566.17
747.895	36540.64
748.234	36355.1
748.573	36356.01
748.911	36291.6
749.25	36130.48
749.589	36086.18
749.928	36123.02
750.267	35983.59
750.605	35859.98
750.944	35797.83
751.283	35586.08
751.621	35563.71
751.96	35436.26
752.298	35252.31
752.636	35426.77
752.975	35116.27
