Data from white_poster_card_FLMS001491_00003.txt Node
Date: Wed Feb 08 11:50:57 GMT 2017
User: dcchb
Spectrometer: FLMS00149
Trigger mode: 0
Integration Time (sec): 2.000000E-2
Scans to average: 10
Electric dark correction enabled: true
Nonlinearity correction enabled: false
Boxcar width: 0
XAxis mode: Wavelengths
Number of Pixels in Spectrum: 2048
>>>>>Begin Spectral Data<<<<<
341.393	-2.61
341.776	-2.61
342.16	-2.61
342.543	-64.31
342.927	-74.7
343.31	-68.6
343.693	-99.11
344.077	-78.32
344.46	-69.5
344.843	-52.56
345.226	-49.84
345.61	-42.84
345.993	-33.57
346.376	-7.36
346.759	24.51
347.142	57.95
347.525	54.79
347.908	69.7
348.291	67.44
348.674	94.11
349.057	133.2
349.44	113.77
349.823	123.94
350.206	162.58
350.588	200.32
350.971	215.69
351.354	226.31
351.737	232.64
352.119	239.87
352.502	252.07
352.884	285.97
353.267	279.19
353.65	300.88
354.032	288.68
354.414	301.33
354.797	308.57
355.179	327.1
355.562	323.71
355.944	339.98
356.326	336.59
356.709	345.17
357.091	355.57
357.473	330.49
357.855	344.5
358.238	314.89
358.62	337.94
359.002	340.88
359.384	364.16
359.766	340.65
360.148	340.43
360.53	336.36
360.912	342.46
361.294	340.2
361.676	324.84
362.057	333.88
362.439	333.88
362.821	346.53
363.203	316.25
363.584	339.75
363.966	323.71
364.348	320.09
364.729	317.6
365.111	319.64
365.493	332.75
365.874	330.94
366.256	329.13
366.637	314.44
367.019	323.71
367.4	318.51
367.781	318.96
368.163	312.63
368.544	307.21
368.925	317.38
369.306	320.77
369.688	326.42
370.069	317.38
370.45	325.74
370.831	322.58
371.212	322.58
371.593	321.22
371.974	318.51
372.355	314.67
372.736	319.64
373.117	320.77
373.498	324.84
373.879	333.88
374.26	334.55
374.641	321.67
375.021	316.47
375.402	336.14
375.783	330.94
376.163	345.63
376.544	322.8
376.925	337.94
377.305	340.43
377.686	348.34
378.066	348.11
378.447	347.43
378.827	351.95
379.208	327.77
379.588	337.27
379.968	336.14
380.349	340.65
380.729	344.04
381.109	347.21
381.489	346.08
381.87	351.28
382.25	344.95
382.63	338.17
383.01	349.69
383.39	370.71
383.77	348.56
384.15	369.35
384.53	363.48
384.91	361.67
385.29	339.52
385.67	376.59
386.049	377.94
386.429	373.42
386.809	357.6
387.189	378.17
387.568	397.15
387.948	375.23
388.328	379.98
388.707	377.94
389.087	370.48
389.466	402.8
389.846	389.02
390.225	399.86
390.605	410.71
390.984	398.73
391.363	400.54
391.743	384.5
392.122	388.56
392.501	388.79
392.881	411.61
393.26	424.27
393.639	431.5
394.018	428.79
394.397	413.42
394.776	405.74
395.155	443.7
395.534	413.2
395.913	431.27
396.292	444.15
396.671	444.61
397.05	458.84
397.429	446.64
397.808	432.63
398.186	452.06
398.565	441.44
398.944	452.52
399.323	480.09
399.701	461.1
400.08	449.13
400.458	476.47
400.837	483.02
401.215	470.82
401.594	473.98
401.972	481.89
402.351	480.76
402.729	481.22
403.107	492.06
403.486	518.73
403.864	475.11
404.242	511.72
404.62	505.62
404.999	540.2
405.377	538.62
405.755	531.16
406.133	530.25
406.511	544.49
406.889	546.53
407.267	561.67
407.645	572.97
408.023	563.25
408.401	580.87
408.779	589.24
409.156	609.8
409.534	601.44
409.912	618.39
410.29	631.95
410.667	658.39
411.045	661.1
411.422	681.66
411.8	687.31
412.178	701.1
412.555	703.36
412.933	707.2
413.31	740.64
413.687	750.81
414.065	762.11
414.442	792.62
414.819	799.85
415.197	808.44
415.574	838.04
415.951	867.19
416.328	878.04
416.705	852.51
417.082	904.71
417.46	886.18
417.837	938.83
418.214	958.72
418.591	963.01
418.967	983.35
419.344	998.49
419.721	1032.61
420.098	1018.6
420.475	1045.5
420.852	1038.49
421.228	1078.71
421.605	1065.38
421.982	1119.84
422.358	1136.34
422.735	1142.44
423.111	1146.28
423.488	1159.39
423.864	1182.44
424.241	1165.94
424.617	1219.73
424.994	1232.83
425.37	1260.86
425.746	1298.37
426.123	1264.47
426.499	1308.09
426.875	1294.75
427.251	1348.76
427.627	1374.3
428.003	1362.55
428.379	1399.61
428.756	1406.39
429.132	1446.61
429.507	1462.43
429.883	1474.64
430.259	1505.37
430.635	1526.39
431.011	1542.21
431.387	1551.7
431.763	1580.85
432.138	1623.56
432.514	1666.04
432.89	1668.76
433.265	1713.05
433.641	1700.17
434.016	1740.39
434.392	1762.99
434.767	1783.1
435.143	1796.44
435.518	1838.24
435.894	1826.04
436.269	1861.52
436.644	1900.61
437.02	1940.61
437.395	1941.06
437.77	1951.46
438.145	1992.59
438.52	2001.63
438.895	2037.56
439.271	1995.98
439.646	2056.54
440.021	2063.32
440.395	2080.72
440.77	2099.25
441.145	2137.44
441.52	2110.1
441.895	2148.74
442.27	2160.49
442.645	2161.4
443.019	2189.87
443.394	2179.7
443.769	2239.59
444.143	2208.63
444.518	2260.6
444.892	2250.21
445.267	2301.96
445.641	2297.67
446.016	2311.45
446.39	2314.39
446.764	2335.63
447.139	2343.54
447.513	2386.93
447.887	2342.18
448.262	2355.97
448.636	2438.45
449.01	2439.81
449.384	2465.34
449.758	2439.13
450.132	2495.85
450.506	2501.5
450.88	2510.32
451.254	2553.93
451.628	2561.84
452.002	2584.21
452.376	2632.8
452.75	2639.35
453.123	2607.49
453.497	2713.25
453.871	2721.16
454.244	2782.85
454.618	2774.26
454.992	2812
455.365	2839.57
455.739	2931.1
456.112	2918.44
456.486	2922.06
456.859	2943.52
457.232	3013.13
457.606	3016.29
457.979	3071.66
458.352	3104.42
458.725	3150.98
459.099	3200.47
459.472	3228.49
459.845	3269.62
460.218	3309.39
460.591	3364.53
460.964	3336.51
461.337	3398.43
461.71	3453.79
462.083	3509.39
462.456	3498.09
462.829	3527.01
463.201	3638.65
463.574	3564.75
463.947	3649.49
464.32	3787.12
464.692	3765.42
465.065	3755.48
465.438	3877.96
465.81	3919.09
466.183	3945.31
466.555	4028.24
466.928	4008.36
467.3	4018.3
467.672	4100.33
468.045	4225.98
468.417	4227.11
468.789	4299.87
469.161	4350.94
469.534	4384.84
469.906	4399.98
470.278	4504.39
470.65	4580.77
471.022	4646.98
471.394	4640.65
471.766	4760.2
472.138	4775.34
472.51	4893.98
472.882	4920.87
473.253	5052.17
473.625	5123.81
473.997	5159.51
474.369	5226.85
474.74	5302.11
475.112	5348.66
475.484	5484.25
475.855	5556.11
476.227	5586.84
476.598	5714.98
476.97	5783.45
477.341	5849.44
477.713	6043.1
478.084	6043.33
478.455	6199.26
478.827	6319.48
479.198	6431.57
479.569	6366.94
479.94	6601.28
480.311	6655.97
480.682	6825.23
481.053	6914.72
481.424	7029.07
481.795	7143.87
482.166	7228.16
482.537	7358.55
482.908	7459.79
483.279	7537.98
483.65	7638.32
484.021	7803.96
484.391	7868.59
484.762	8007.57
485.133	8052.09
485.503	8216.61
485.874	8393.78
486.244	8427.22
486.615	8629.7
486.985	8718.51
487.356	8858.85
487.726	8885.51
488.097	9134.32
488.467	9111.72
488.837	9306.29
489.207	9473.3
489.578	9619.28
489.948	9674.19
490.318	9858.82
490.688	9854.98
491.058	10055.65
491.428	10142.21
491.798	10237.34
492.168	10460.84
492.538	10544.91
492.908	10580.84
493.278	10807.27
493.648	10835.75
494.017	10956.19
494.387	10995.29
494.757	11172.01
495.126	11305.56
495.496	11318.9
495.866	11434.15
496.235	11463.07
496.605	11568.16
496.974	11706.23
497.344	11844.53
497.713	11911.88
498.082	12054.25
498.452	12149.61
498.821	12165.65
499.19	12157.75
499.559	12296.05
499.928	12468.25
500.298	12524.52
500.667	12729.03
501.036	12618.75
501.405	12866.2
501.774	12850.38
502.143	12955.24
502.512	12962.7
502.88	13153.88
503.249	13117.72
503.618	13275
503.987	13334.66
504.356	13424.38
504.724	13567.2
505.093	13513.64
505.462	13674.54
505.83	13852.84
506.199	13875.67
506.567	14078.15
506.936	14086.06
507.304	14203.34
507.672	14280.18
508.041	14387.97
508.409	14501.41
508.777	14711.8
509.145	14742.99
509.514	14813.04
509.882	14864.79
510.25	14949.31
510.618	15070.89
510.986	15253.48
511.354	15231.79
511.722	15526.24
512.09	15580.48
512.458	15577.54
512.826	15739.35
513.193	15771.66
513.561	15957.19
513.929	15986.35
514.297	16278.31
514.664	16291.42
515.032	16418.88
515.4	16501.13
515.767	16585.65
516.135	16754.69
516.502	16743.16
516.869	16983.83
517.237	17056.37
517.604	17032.42
517.972	17233.54
518.339	17405.29
518.706	17442.35
519.073	17541.56
519.44	17617.94
519.808	17899.74
520.175	17905.62
520.542	18186.97
520.909	18225.16
521.276	18245.72
521.643	18526.39
522.009	18620.63
522.376	18801.64
522.743	18963.67
523.11	19036.21
523.477	19204.34
523.843	19425.35
524.21	19597.1
524.577	19764.1
524.943	19896.3
525.31	19965.22
525.676	20211.77
526.043	20296.97
526.409	20375.38
526.776	20626.68
527.142	20620.12
527.508	20907.12
527.874	21024.86
528.241	21146.21
528.607	21164.97
528.973	21409.48
529.339	21441.79
529.705	21666.65
530.071	21793.65
530.437	21922.91
530.803	22137.82
531.169	22135.56
531.535	22117.26
531.901	22262.11
532.267	22402
532.632	22679.28
532.998	22679.95
533.364	22899.38
533.73	22869.1
534.095	23138.93
534.461	23230.22
534.826	23320.84
535.192	23308.19
535.557	23597.22
535.923	23599.7
536.288	23639.03
536.653	23867.49
537.019	23754.73
537.384	23899.81
537.749	24021.84
538.114	24139.8
538.479	24213.25
538.845	24390.42
539.21	24396.75
539.575	24439
539.94	24493.69
540.305	24732.1
540.67	24691.43
541.034	24731.65
541.399	24948.14
541.764	25040.12
542.129	25143.39
542.494	25072.21
542.858	25245.99
543.223	25192.66
543.587	25453.21
543.952	25497.96
544.316	25508.81
544.681	25498.86
545.045	25769.14
545.41	25951.28
545.774	25992.18
546.138	25960.77
546.503	26036.02
546.867	26112.41
547.231	26424.71
547.595	26322.12
547.959	26560.76
548.324	26500.42
548.688	26595.11
549.052	26824.7
549.416	26841.65
549.779	26833.29
550.143	26898.15
550.507	27122.1
550.871	27256.33
551.235	27214.52
551.599	27396.21
551.962	27504.46
552.326	27692.48
552.689	27739.26
553.053	27616.32
553.417	27739.26
553.78	28138.12
554.143	28045.69
554.507	28261.95
554.87	28307.38
555.234	28664.2
555.597	28561.38
555.96	28623.3
556.323	28720.7
556.686	28826.23
557.05	28982.16
557.413	29047.7
557.776	29289.5
558.139	29326.33
558.502	29310.51
558.865	29362.72
559.228	29694.46
559.59	29819.88
559.953	29934
560.316	30260.55
560.679	30143.71
561.041	30417.83
561.404	30542.12
561.767	30866.18
562.129	30677.48
562.492	31068.66
562.854	30923.58
563.217	30994.09
563.579	31156.79
563.941	31430.46
564.304	31537.12
564.666	31721.52
565.028	31766.27
565.39	31837.45
565.753	32183.89
566.115	32200.83
566.477	32406.93
566.839	32468.17
567.201	32561.95
567.563	32716.75
567.925	32951.77
568.287	32869.29
568.648	33067.7
569.01	33217.76
569.372	33382.05
569.734	33307.7
570.095	33479.9
570.457	33782.04
570.819	33801.47
571.18	33789.49
571.542	34012.09
571.903	34010.5
572.265	34268.58
572.626	34352.19
572.987	34362.81
573.349	34385.18
573.71	34599.19
574.071	34669.47
574.432	34839.18
574.794	35112.17
575.155	34963.93
575.516	34913.98
575.877	35115.33
576.238	35270.81
576.599	35419.28
576.96	35198.27
577.32	35328.89
577.681	35520.75
578.042	35508.54
578.403	35609.78
578.763	35492.5
579.124	35795.99
579.485	35795.54
579.845	35876.22
580.206	35875.99
580.566	35816.56
580.927	36018.13
581.287	36020.17
581.648	35965.71
582.008	36286.6
582.368	36072.82
582.728	36125.02
583.089	36067.4
583.449	36104.91
583.809	36205.93
584.169	36390.78
584.529	36198.24
584.889	36443.89
585.249	36206.15
585.609	36102.65
585.969	36436.65
586.329	36251.35
586.688	36256.77
587.048	36288.64
587.408	36202.76
587.768	36286.38
588.127	36270.56
588.487	36160.96
588.846	36422.87
589.206	36210.45
589.565	36235.76
589.925	36509.65
590.284	36287.51
590.643	36273.5
591.003	36452.25
591.362	36543.54
591.721	36334.74
592.08	36392.81
592.44	36567.72
592.799	36377.9
593.158	36471
593.517	36554.17
593.876	36476.65
594.235	36426.49
594.593	36499.7
594.952	36653.6
595.311	36485.47
595.67	36661.28
596.029	36847.27
596.387	36687.95
596.746	36840.49
597.104	36624.9
597.463	36606.59
597.822	36809.75
598.18	36715.97
598.538	36711.45
598.897	36901.05
599.255	36665.35
599.613	37115.96
599.972	36858.79
600.33	37096.07
600.688	36934.72
601.046	36947.6
601.404	37175.39
601.762	37061.72
602.12	37252
602.478	37172.45
602.836	37206.8
603.194	37120.93
603.552	37378.55
603.91	37112.8
604.268	37277.08
604.625	37230.76
604.983	37305.56
605.341	37273.92
605.698	37339.91
606.056	37458.1
606.413	37395.95
606.771	37598.88
607.128	37622.39
607.485	37355.73
607.843	37382.17
608.2	37664.42
608.557	37738.09
608.914	37618.09
609.272	37825.09
609.629	37947.35
609.986	38015.82
610.343	37792.55
610.7	38108.25
611.057	37962.72
611.414	37970.85
611.771	37986.67
612.127	38049.72
612.484	38020.12
612.841	38144.18
613.198	38176.5
613.554	38094.46
613.911	38413.55
614.267	38277.74
614.624	38273.67
614.98	38409.48
615.337	38596.82
615.693	38449.71
616.05	38390.28
616.406	38663.72
616.762	38558.86
617.118	38631.4
617.475	38520.44
617.831	38494.23
618.187	38679.08
618.543	38594.11
618.899	38957.72
619.255	38769.7
619.611	38710.72
619.967	38832.07
620.323	38929.02
620.678	38718.63
621.034	38632.76
621.39	38739.42
621.746	38729.25
622.101	39048.34
622.457	38752.07
622.812	38862.13
623.168	38890.6
623.523	39047.66
623.879	38949.58
624.234	38816.03
624.589	38768.35
624.945	38976.25
625.3	38839.53
625.655	38976.02
626.01	39071.61
626.365	38917.72
626.72	38784.62
627.075	38797.27
627.43	38805.63
627.785	38741
628.14	38801.34
628.495	38749.36
628.85	38798.4
629.205	38692.41
629.559	38861.9
629.914	38677.5
630.269	38770.83
630.623	38614.45
630.978	38522.25
631.332	38707.1
631.687	38635.92
632.041	38553.89
632.396	38501.01
632.75	38379.88
633.104	38670.04
633.459	38350.73
633.813	38289.49
634.167	38267.79
634.521	38269.83
634.875	38329.26
635.229	38145.31
635.583	37959.78
635.937	38078.42
636.291	38003.17
636.645	37902.15
636.999	37835.26
637.352	37911.64
637.706	37775.83
638.06	38002.72
638.413	37723.85
638.767	37634.82
639.121	37555.04
639.474	37514.14
639.828	37497.64
640.181	37492.67
640.534	37381.26
640.888	37538.77
641.241	37205.9
641.594	37377.87
641.947	37473.24
642.301	37289.29
642.654	37308.27
643.007	37352.11
643.36	37287.48
643.713	37249.51
644.066	37340.13
644.419	37040.48
644.771	36869.41
645.124	36501.29
645.477	36409.09
645.83	36053.84
646.182	36118.02
646.535	35863.34
646.888	35887.52
647.24	35687.07
647.593	35938.59
647.945	35815.43
648.298	35717.35
648.65	35574.98
649.002	35556.68
649.355	35561.2
649.707	35563.68
650.059	35760.06
650.411	36012.49
650.763	36028.76
651.115	36520.49
651.467	36362.76
651.819	36341.29
652.171	36094.07
652.523	36130.9
652.875	36065.82
653.227	35892.71
653.578	36229.2
653.93	36061.75
654.282	35826.5
654.633	35736.33
654.985	35874.86
655.337	35930.91
655.688	35868.99
656.039	36028.76
656.391	35662.89
656.742	35742.44
657.094	35663.79
657.445	35922.09
657.796	35711.48
658.147	35723
658.498	35551.03
658.849	35798.48
659.2	35537.47
659.551	35487.08
659.902	35618.15
660.253	35583.12
660.604	35620.86
660.955	35311.71
661.306	35451.37
661.656	35389.22
662.007	35386.74
662.358	35444.14
662.708	35370.47
663.059	35359.85
663.409	35027.88
663.76	35318.94
664.11	35385.61
664.461	35480.52
664.811	35307.65
665.161	35326.63
665.511	35128.67
665.862	35240.53
666.212	35453.86
666.562	35277.82
666.912	35177.93
667.262	35220.87
667.612	35145.62
667.962	35229.23
668.312	35000.08
668.662	35279.85
669.011	35255.67
669.361	35208.66
669.711	35072.4
670.06	35095.9
670.41	34933.87
670.76	34788.34
671.109	34910.59
671.459	34947.2
671.808	34999.18
672.157	34914.44
672.507	34674.67
672.856	34663.59
673.205	34734.1
673.554	34888.67
673.904	34614.78
674.253	34779.07
674.602	34715.12
674.951	34139.31
675.3	33977.51
675.649	34735
675.998	34532.52
676.346	34460.89
676.695	34598.51
677.044	34383.83
677.393	34611.84
677.741	34493.2
678.09	34394.45
678.438	34249.59
678.787	34359.65
679.135	34340.44
679.484	34153.78
679.832	34268.12
680.181	34001.24
680.529	34002.37
680.877	34005.76
681.225	34045.31
681.573	34157.17
681.922	33979.77
682.27	33849.83
682.618	33808.7
682.966	33728.93
683.314	33852.99
683.661	33680.8
684.009	33488.48
684.357	33581.36
684.705	33443.06
685.053	33506.79
685.4	33424.98
685.748	33245.33
686.095	33257.08
686.443	33033.35
686.79	33018.44
687.138	33137.08
687.485	33059.12
687.832	32993.13
688.18	32964.43
688.527	32857.99
688.874	32836.75
689.221	32643.76
689.568	32581.39
689.915	32453.03
690.262	32615.51
690.609	32378.23
690.956	32215.07
691.303	32265.24
691.65	32116.09
691.997	32112.02
692.344	31912.25
692.69	31843.33
693.037	31913.16
693.383	31647.63
693.73	31681.53
694.077	31502.1
694.423	31527.18
694.769	31435.2
695.116	31370.8
695.462	31297.58
695.808	31128.55
696.155	31241.54
696.501	30992.05
696.847	31056.01
697.193	30783.24
697.539	30781.89
697.885	30641.1
698.231	30589.58
698.577	30603.59
698.923	30618.28
699.269	30295.57
699.614	30305.97
699.96	30157.27
700.306	30167.44
700.651	29986.88
700.997	29923.83
701.342	29865.3
701.688	29837.51
702.033	29703.27
702.379	29648.36
702.724	29644.52
703.069	29611.3
703.415	29287.92
703.76	29394.81
704.105	29345.54
704.45	29278.88
704.795	29063.97
705.14	28892.22
705.485	29028.71
705.83	28795.27
706.175	28943.07
706.52	28887.93
706.865	28621.27
707.209	28553.02
707.554	28478.67
707.899	28576.97
708.243	28363.87
708.588	28402.97
708.932	28213.14
709.277	28158.91
709.621	28204.33
709.966	27986.48
710.31	27986.48
710.654	27761.18
710.998	27773.83
711.342	27899.48
711.687	27814.73
712.031	27622.65
712.375	27471.24
712.719	27655.64
713.063	27496.78
713.407	27569.09
713.75	27443.45
714.094	27457.91
714.438	27292.26
714.782	27310.79
715.125	27063.34
715.469	27296.33
715.812	27079.16
716.156	26976.11
716.499	26924.36
716.843	26822.44
717.186	26721.66
717.53	26892.05
717.873	26867.19
718.216	26831.48
718.559	26624.48
718.902	26574.77
719.246	26497.48
719.589	26391.72
719.932	26338.84
720.275	26354.89
720.617	26317.15
720.96	26392.17
721.303	26251.16
721.646	26269.46
721.989	26196.92
722.331	26154.89
722.674	26073.31
723.016	26048
723.359	26077.15
723.701	26037.61
724.044	25800.78
724.386	25738.41
724.729	25765.98
725.071	25698.41
725.413	25683.27
725.755	25666.99
726.097	25571.18
726.439	25431.97
726.782	25410.73
727.124	25596.04
727.465	25435.59
727.807	25405.98
728.149	25303.61
728.491	25257.06
728.833	25244.18
729.175	25199.89
729.516	25079.44
729.858	25001.25
730.199	25143.62
730.541	25068.82
730.882	24911.31
731.224	25074.47
731.565	24826.34
731.906	24833.8
732.248	24877.86
732.589	24742.95
732.93	24743.18
733.271	24650.52
733.612	24648.04
733.953	24577.31
734.294	24534.37
734.635	24498.21
734.976	24536.63
735.317	24352.45
735.658	24369.85
735.999	24365.33
736.339	24319.69
736.68	24417.54
737.021	24208.95
737.361	24182.51
737.702	24311.78
738.042	24167.6
738.383	24130.31
738.723	24195.39
739.063	24003.54
739.404	24112.91
739.744	23909.75
740.084	23994.04
740.424	23991.78
740.764	23798.57
741.104	23859.13
741.444	23815.29
741.784	23730.32
742.124	23736.42
742.464	23615.07
742.804	23639.25
743.143	23519.71
743.483	23561.29
743.823	23405.13
744.162	23420.5
744.502	23512.93
744.841	23402.87
745.181	23450.56
745.52	23291.69
745.86	23462.08
746.199	23273.61
746.538	23243.1
746.877	23350.9
747.216	23156.33
747.556	23117.91
747.895	23007.63
748.234	22927.18
748.573	22917.01
748.911	22926.05
749.25	22768.54
749.589	22721.31
749.928	22809.22
750.267	22852.83
750.605	22718.6
750.944	22661.88
751.283	22561.09
751.621	22592.05
751.96	22504.59
752.298	22487.87
752.636	22491.71
752.975	22393.63
753.313	22297.59
753.651	22346.18
753.989	22262.56
