Data from whiteboard_FLMS001491_00042.txt Node
Date: Wed Feb 08 11:26:39 GMT 2017
User: dcchb
Spectrometer: FLMS00149
Trigger mode: 0
Integration Time (sec): 2.000000E-2
Scans to average: 10
Electric dark correction enabled: true
Nonlinearity correction enabled: false
Boxcar width: 0
XAxis mode: Wavelengths
Number of Pixels in Spectrum: 2048
>>>>>Begin Spectral Data<<<<<
341.393	12.15
341.776	12.15
342.16	12.15
342.543	-62.2
342.927	-47.06
343.31	-69.21
343.693	-75.76
344.077	-60.62
344.46	-70.79
344.843	-57.23
345.226	-33.5
345.61	-33.5
345.993	-19.94
346.376	-2.09
346.759	4.69
347.142	16.89
347.525	40.17
347.908	62.09
348.291	76.1
348.674	89.43
349.057	133.27
349.44	134.63
349.823	136.21
350.206	179.37
350.588	213.5
350.971	259.82
351.354	258.69
351.737	276.32
352.119	284.46
352.502	287.62
352.884	310.9
353.267	337.34
353.65	326.49
354.032	326.26
354.414	360.61
354.797	323.1
355.179	355.19
355.562	366.49
355.944	364.68
356.326	374.85
356.709	364.91
357.091	363.1
357.473	371.91
357.855	366.49
358.238	388.18
358.62	379.37
359.002	371.01
359.384	365.58
359.766	373.72
360.148	377.11
360.53	394.96
360.912	383.44
361.294	371.46
361.676	380.27
362.057	384.79
362.439	386.6
362.821	373.27
363.203	375.07
363.584	358.13
363.966	373.04
364.348	364.91
364.729	372.36
365.111	365.58
365.493	369.65
365.874	376.88
366.256	386.37
366.637	375.53
367.019	365.58
367.4	379.37
367.781	366.26
368.163	355.64
368.544	384.57
368.925	378.01
369.306	384.11
369.688	360.61
370.069	375.53
370.45	375.3
370.831	381.85
371.212	380.95
371.593	392.25
371.974	388.86
372.355	386.83
372.736	384.11
373.117	386.83
373.498	388.18
373.879	408.97
374.26	386.6
374.641	394.74
375.021	390.22
375.402	423.21
375.783	378.69
376.163	407.16
376.544	411.46
376.925	427.5
377.305	397.9
377.686	421.4
378.066	402.42
378.447	432.47
378.827	444.68
379.208	429.54
379.588	425.47
379.968	421.18
380.349	421.18
380.729	426.82
381.109	442.19
381.489	444.68
381.87	445.81
382.25	475.19
382.63	454.62
383.01	436.54
383.39	446.94
383.77	481.06
384.15	489.42
384.53	460.95
384.91	474.73
385.29	494.62
385.67	499.82
386.049	528.97
386.429	499.37
386.809	524.68
387.189	525.13
387.568	515.86
387.948	515.18
388.328	506.82
388.707	530.1
389.087	539.82
389.466	536.88
389.846	534.84
390.225	548.4
390.605	571
390.984	573.71
391.363	558.57
391.743	585.69
392.122	582.08
392.501	575.97
392.881	607.16
393.26	616.2
393.639	597.89
394.018	624.79
394.397	617.1
394.776	605.58
395.155	645.58
395.534	664.33
395.913	605.58
396.292	655.52
396.671	667.5
397.05	686.93
397.429	721.73
397.808	724.9
398.186	706.82
398.565	729.19
398.944	738.46
399.323	713.37
399.701	766.48
400.08	776.87
400.458	772.8
400.837	805.35
401.215	810.32
401.594	818.45
401.972	840.6
402.351	839.02
402.729	847.6
403.107	880.6
403.486	881.95
403.864	904.78
404.242	908.17
404.62	904.1
404.999	934.83
405.377	956.53
405.755	998.79
406.133	1011.67
406.511	1022.52
406.889	1015.06
407.267	1036.98
407.645	1068.84
408.023	1085.11
408.401	1082.63
408.779	1111.78
409.156	1143.64
409.534	1184.32
409.912	1191.55
410.29	1225
410.667	1251.89
411.045	1284.43
411.422	1293.92
411.8	1353.81
412.178	1331.43
412.555	1374.6
412.933	1395.84
413.31	1443.52
413.687	1480.36
414.065	1445.78
414.442	1444.65
414.819	1517.87
415.197	1530.52
415.574	1537.3
415.951	1581.37
416.328	1580.24
416.705	1629.51
417.082	1634.48
417.46	1633.35
417.837	1649.84
418.214	1712.44
418.591	1690.97
418.967	1730.52
419.344	1752.21
419.721	1805.09
420.098	1780.69
420.475	1831.53
420.852	1826.79
421.228	1885.77
421.605	1916.96
421.982	1903.4
422.358	1965.09
422.735	1962.38
423.111	1974.81
423.488	1988.14
423.864	2021.81
424.241	2067.23
424.617	2096.84
424.994	2128.02
425.37	2131.41
425.746	2163.05
426.123	2180
426.499	2209.15
426.875	2229.04
427.251	2301.35
427.627	2340.9
428.003	2378.19
428.379	2410.95
428.756	2450.5
429.132	2476.94
429.507	2469.48
429.883	2535.24
430.259	2534.11
430.635	2593.32
431.011	2614.56
431.387	2710.15
431.763	2731.4
432.138	2739.76
432.514	2813.88
432.89	2814.33
433.265	2885.07
433.641	2924.39
434.016	2940.43
434.392	2998.96
434.767	3061.78
435.143	3097.94
435.518	3129.35
435.894	3134.32
436.269	3174.78
436.644	3255.9
437.02	3272.17
437.395	3265.85
437.77	3358.05
438.145	3380.65
438.52	3405.05
438.895	3525.5
439.271	3538.38
439.646	3599.85
440.021	3638.27
440.395	3650.69
440.77	3633.29
441.145	3692.05
441.52	3769.34
441.895	3687.98
442.27	3827.41
442.645	3821.54
443.019	3873.51
443.394	3880.07
443.769	3917.58
444.143	3932.04
444.518	3948.09
444.892	3995.54
445.267	4010.91
445.641	4041.42
446.016	4097.69
446.39	4099.04
446.764	4126.61
447.139	4087.07
447.513	4162.77
447.887	4147.41
448.262	4240.28
448.636	4255.65
449.01	4290.23
449.384	4308.76
449.758	4409.32
450.132	4490.9
450.506	4505.59
450.88	4520.05
451.254	4506.94
451.628	4608.18
452.002	4648.86
452.376	4683.21
452.75	4784.9
453.123	4848.18
453.497	4927.27
453.871	4947.16
454.244	5096.98
454.618	5110.54
454.992	5168.62
455.365	5194.84
455.739	5344.66
456.112	5402.97
456.486	5478.44
456.859	5534.26
457.232	5598.21
457.606	5604.77
457.979	5705.78
458.352	5829.17
458.725	5965.89
459.099	5908.26
459.472	6040.91
459.845	6104.87
460.218	6169.05
460.591	6177.63
460.964	6279.78
461.337	6424.41
461.71	6447.01
462.083	6571.75
462.456	6621.69
462.829	6597.74
463.201	6731.29
463.574	6797.96
463.947	6865.53
464.32	7011.74
464.692	7092.64
465.065	7086.31
465.438	7294.89
465.81	7323.14
466.183	7435.23
466.555	7571.95
466.928	7660.99
467.3	7701.21
467.672	7797.25
468.045	8052.16
468.417	8055.1
468.789	8187.75
469.161	8324.92
469.534	8427.52
469.906	8602.88
470.278	8655.76
470.65	8883.78
471.022	9019.82
471.394	9179.14
471.766	9297.1
472.138	9351.56
472.51	9621.84
472.882	9876.07
473.253	9875.39
473.625	10099.11
473.997	10243.52
474.369	10291.88
474.74	10459.1
475.112	10736.84
475.484	10837.62
475.855	10931.63
476.227	11175.24
476.598	11446.65
476.97	11552.41
477.341	11706.75
477.713	11949.23
478.084	11975.67
478.455	12278.26
478.827	12399.62
479.198	12809.55
479.569	12803.45
479.94	13132.25
480.311	13287.96
480.682	13583.32
481.053	13780.15
481.424	14052.23
481.795	14301.71
482.166	14404.31
482.537	14684.3
482.908	14951.41
483.279	15073.45
483.65	15358.64
484.021	15736.93
484.391	15832.97
484.762	16111.16
485.133	16197.48
485.503	16500.53
485.874	16895.54
486.244	16915.66
486.615	17404.68
486.985	17561.97
487.356	17941.84
487.726	18101.39
488.097	18500.93
488.467	18626.35
488.837	18914.7
489.207	19244.64
489.578	19612.31
489.948	19674.91
490.318	20076.48
490.688	20206.87
491.058	20533.64
491.428	20815.67
491.798	20955.55
492.168	21484.35
492.538	21571.81
492.908	21728.86
493.278	22082.3
493.648	22086.37
494.017	22406.59
494.387	22684.77
494.757	22840.47
495.126	22937.65
495.496	23100.35
495.866	23188.03
496.235	23545.99
496.605	23649.49
496.974	23869.6
497.344	24091.51
497.713	24188.69
498.082	24339.87
498.452	24489.7
498.821	24552.07
499.19	24723.59
499.559	24886.97
499.928	25041.09
500.298	25205.16
500.667	25608.54
501.036	25370.8
501.405	25749.55
501.774	25776.44
502.143	26062.54
502.512	26192.02
502.88	26379.81
503.249	26446.03
503.618	26616.19
503.987	26787.71
504.356	27086.91
504.724	27236.52
505.093	27401.93
505.462	27646.45
505.83	27846.22
506.199	28057.51
506.567	28404.39
506.936	28574.79
507.304	29024.49
507.672	29118.95
508.041	29221.55
508.409	29597.81
508.777	29869.44
509.145	29986.95
509.514	30141.98
509.882	30438.47
510.25	30496.77
510.618	30783.09
510.986	30947.6
511.354	31308.95
511.722	31580.58
512.09	31875.26
512.458	31767.02
512.826	32105.77
513.193	32361.35
513.561	32390.73
513.929	32598.63
514.297	32932.86
514.664	33201.1
515.032	33209.69
515.4	33463.92
515.767	33489.46
516.135	33862.78
516.502	33720.19
516.869	34205.15
517.237	34405.37
517.604	34162.89
517.972	34735.53
518.339	34800.61
518.706	34974.39
519.073	35134.39
519.44	35409.86
519.808	35735.5
520.175	35575.51
520.542	36192.44
520.909	36250.52
521.276	36396.73
521.643	36686.21
522.009	36930.05
522.376	37260.88
522.743	37433.76
523.11	37839.17
523.477	38276.23
523.843	38501.3
524.21	38888.64
524.577	39130.44
524.943	39279.81
525.31	39474.16
525.676	39914.83
526.043	40185.55
526.409	40430.97
526.776	40863.5
527.142	41013.1
527.508	41429.14
527.874	41691.73
528.241	41849.46
528.607	42098.72
528.973	42546.17
529.339	42559.05
529.705	42990.45
530.071	43275.64
530.437	43541.62
530.803	43695.29
531.169	44037.66
531.535	44039.01
531.901	44350.19
532.267	44528.72
532.632	44880.35
532.998	45056.39
533.364	45132.77
533.73	45304.06
534.095	45694.79
534.461	45770.72
534.826	46021.56
535.192	46079.41
535.557	46428.55
535.923	46404.6
536.288	46744.03
536.653	46710.13
537.019	46598.49
537.384	46874.87
537.749	47150.12
538.114	47147.4
538.479	47179.04
538.845	47396.21
539.21	47294.29
539.575	47476.21
539.94	47463.33
540.305	47655.19
540.67	47647.5
541.034	48000.04
541.399	47982.86
541.764	48094.05
542.129	48101.73
542.494	48225.12
542.858	48470.53
543.223	48327.94
543.587	48643.64
543.952	48601.6
544.316	48783.75
544.681	48776.29
545.045	49134.24
545.41	49216.28
545.774	49390.74
546.138	49338.76
546.503	49531.52
546.867	49545.76
547.231	49830.27
547.595	49901.91
547.959	50069.14
548.324	50278.4
548.688	50369.01
549.052	50449.24
549.416	50529.91
549.779	50693.98
550.143	50767.2
550.507	50963.8
550.871	51230.46
551.235	51275.88
551.599	51572.6
551.962	51619.6
552.326	51760.84
552.689	51964.23
553.053	51806.94
553.417	51917.9
553.78	52412.12
554.143	52274.73
554.507	52426.59
554.87	52625.68
555.234	52916.52
555.597	52815.28
555.96	52886.91
556.323	53062.05
556.686	53214.36
557.05	53410.74
557.413	53423.62
557.776	53455.94
558.139	53703.39
558.502	53776.83
558.865	53751.07
559.228	53926.66
559.59	53938.64
559.953	54111.74
560.316	54433.99
560.679	54324.84
561.041	54513.31
561.404	54648.9
561.767	54776.58
562.129	54689.8
562.492	54994.2
562.854	54848.67
563.217	54868.33
563.579	54986.29
563.941	55149.91
564.304	55331.6
564.666	55384.02
565.028	55392.16
565.39	55420.18
565.753	55633.73
566.115	55663.11
566.477	55834.41
566.839	55821.53
567.201	55991.47
567.563	56040.73
567.925	56211.57
568.287	56193.27
568.648	56224
569.01	56368.63
569.372	56582.86
569.734	56414.28
570.095	56630.77
570.457	56822.63
570.819	56794.38
571.18	56725.91
571.542	56967.49
571.903	57039.35
572.265	57188.27
572.626	57214.48
572.987	57285.44
573.349	57366.34
573.71	57480.47
574.071	57583.97
574.432	57649.95
574.794	57892.66
575.155	57889.49
575.516	57789.16
575.877	57927.69
576.238	57948.7
576.599	58157.96
576.96	58156.15
577.32	58203.84
577.681	58289.26
578.042	58412.19
578.403	58409.71
578.763	58494.9
579.124	58505.52
579.485	58656.03
579.845	58682.02
580.206	58647.22
580.566	58703.03
580.927	58743.71
581.287	58837.94
581.648	58783.03
582.008	58929.47
582.368	58835.91
582.728	58898.51
583.089	58902.12
583.449	58903.03
583.809	58969.69
584.169	58950.48
584.529	58862.35
584.889	58998.62
585.249	58877.94
585.609	58823.26
585.969	58975.12
586.329	58886.08
586.688	58953.2
587.048	58921.78
587.408	58855.12
587.768	58839.3
588.127	58781.67
588.487	58731.28
588.846	58904.16
589.206	58718.63
589.565	58724.05
589.925	58902.12
590.284	58741
590.643	58783.03
591.003	58815.12
591.362	58855.8
591.721	58764.05
592.08	58707.33
592.44	58720.89
592.799	58710.04
593.158	58702.13
593.517	58743.71
593.876	58700.55
594.235	58717.72
594.593	58709.81
594.952	58713.65
595.311	58704.84
595.67	58719.08
596.029	58854.67
596.387	58845.18
596.746	58853.09
597.104	58785.74
597.463	58752.97
597.822	58901.45
598.18	58763.14
598.538	58741.9
598.897	58972.4
599.255	58732.18
599.613	59079.29
599.972	58968.79
600.33	58987.32
600.688	58985.06
601.046	59054.66
601.404	59105.73
601.762	59082.01
602.12	59253.98
602.478	59258.72
602.836	59277.25
603.194	59227.76
603.552	59267.99
603.91	59173.75
604.268	59331.72
604.625	59323.13
604.983	59434.76
605.341	59388.89
605.698	59420.98
606.056	59564.25
606.413	59494.42
606.771	59568.32
607.128	59603.35
607.485	59527.42
607.843	59618.94
608.2	59806.28
608.557	59773.29
608.914	59724.7
609.272	59856.67
609.629	59922.44
609.986	59945.26
610.343	59828.88
610.7	60054.64
611.057	60009.44
611.414	59987.07
611.771	59997.69
612.127	60053.73
612.484	60105.26
612.841	60178.25
613.198	59981.19
613.554	60132.15
613.911	60232.03
614.267	60150.23
614.624	60106.16
614.98	60136.67
615.337	60286.04
615.693	60168.53
616.05	60136.89
616.406	60253.95
616.762	60161.3
617.118	60175.99
617.475	60054.64
617.831	60107.06
618.187	60144.8
618.543	60214.41
618.899	60326.27
619.255	60226.38
619.611	60173.05
619.967	60232.26
620.323	60245.59
620.678	60193.16
621.034	60090.57
621.39	60055.77
621.746	60027.07
622.101	60257.12
622.457	60003.79
622.812	60079.49
623.168	60066.61
623.523	60034.3
623.879	60091.92
624.234	59942.1
624.589	60032.04
624.945	60007.41
625.3	60053.28
625.655	59977.35
626.01	59992.72
626.365	60050.34
626.72	59995.88
627.075	59926.96
627.43	59911.14
627.785	59854.87
628.14	59914.75
628.495	59949.1
628.85	59893.51
629.205	59786.62
629.559	59907.97
629.914	59782.78
630.269	59845.83
630.623	59797.92
630.978	59778.26
631.332	59904.81
631.687	59959.5
632.041	59828.43
632.396	59904.58
632.75	59793.4
633.104	59790.69
633.459	59766.73
633.813	59758.37
634.167	59775.55
634.521	59783.91
634.875	59846.96
635.229	59792.5
635.583	59785.72
635.937	59755.89
636.291	59706.17
636.645	59726.73
636.999	59653.06
637.352	59749.56
637.706	59665.04
638.06	59824.59
638.413	59723.12
638.767	59653.74
639.121	59702.78
639.474	59553.18
639.828	59535.33
640.181	59618.26
640.534	59579.39
640.888	59540.07
641.241	59413.3
641.594	59478.61
641.947	59577.13
642.301	59471.6
642.654	59486.51
643.007	59451.49
643.36	59405.61
643.713	59267.99
644.066	59440.41
644.419	59235.9
644.771	59184.83
645.124	58939.18
645.477	58843.14
645.83	58653.77
646.182	58474.34
646.535	58359.31
646.888	58454.9
647.24	58254.01
647.593	58372.42
647.945	58305.53
648.298	58089.04
648.65	58103.73
649.002	57967.23
649.355	58083.61
649.707	57987.8
650.059	58118.87
650.411	58419.2
650.763	58374.68
651.115	58634.56
651.467	58426.43
651.819	58420.55
652.171	58272.76
652.523	58244.51
652.875	58277.06
653.227	58075.03
653.578	58257.17
653.93	58197.28
654.282	58049.49
654.633	58014.46
654.985	58054.91
655.337	58001.81
655.688	57939.66
656.039	58060.56
656.391	57806.33
656.742	57841.59
657.094	57782.15
657.445	57877.74
657.796	57747.13
658.147	57736.28
658.498	57758.2
658.849	57787.58
659.2	57733.34
659.551	57564.53
659.902	57658.99
660.253	57641.37
660.604	57697.41
660.955	57640.91
661.306	57673.23
661.656	57626
662.007	57625.09
662.358	57551.2
662.708	57631.65
663.059	57608.37
663.409	57378.32
663.76	57710.97
664.11	57606.11
664.461	57724.75
664.811	57532.22
665.161	57596.85
665.511	57588.71
665.862	57575.38
666.212	57677.97
666.562	57665.77
666.912	57583.06
667.262	57531.99
667.612	57559.56
667.962	57516.17
668.312	57482.5
668.662	57693.57
669.011	57588.03
669.361	57567.02
669.711	57508.71
670.06	57535.83
670.41	57421.26
670.76	57441.82
671.109	57539.67
671.459	57481.82
671.808	57394.82
672.157	57500.35
672.507	57355.72
672.856	57338.1
673.205	57419.68
673.554	57477.75
673.904	57315.95
674.253	57505.78
674.602	57385.33
674.951	56998.44
675.3	56854.27
675.649	57287.25
675.998	57259.91
676.346	57232.34
676.695	57310.75
677.044	57184.2
677.393	57248.83
677.741	57331.77
678.09	57233.24
678.438	57186.91
678.787	57160.02
679.135	57141.72
679.484	56984.43
679.832	57116.86
680.181	56934.72
680.529	57088.61
680.877	56940.82
681.225	56886.81
681.573	56927.49
681.922	56694.05
682.27	56743.31
682.618	56677.32
682.966	56549.87
683.314	56600.26
683.661	56399.36
684.009	56326.15
684.357	56343.55
684.705	56241.63
685.053	56266.94
685.4	56111.91
685.748	56030.56
686.095	56009.09
686.443	55906.5
686.79	55871.02
687.138	55910.56
687.485	55817.23
687.832	55699.95
688.18	55763.45
688.527	55602.55
688.874	55580.63
689.221	55400.97
689.568	55285.95
689.915	55331.37
690.262	55250.92
690.609	55230.36
690.956	55048.44
691.303	55030.59
691.65	54768.9
691.997	54821.78
692.344	54530.71
692.69	54528.91
693.037	54627.21
693.383	54256.82
693.73	54387.21
694.077	54138.18
694.423	54130.27
694.769	53975.7
695.116	53945.19
695.462	53994.91
695.808	53762.15
696.155	53830.62
696.501	53572.09
696.847	53476.73
697.193	53257.3
697.539	53448.93
697.885	53221.82
698.231	53108.83
698.577	53100.69
698.923	53094.59
699.269	52927.14
699.614	52809.4
699.96	52708.84
700.306	52636.53
700.651	52634.49
700.997	52500.94
701.342	52395.4
701.688	52440.82
702.033	52310.21
702.379	52333.03
702.724	52254.61
703.069	52282.86
703.415	51875.64
703.76	52077.67
704.105	51950.22
704.45	51948.86
704.795	51718.36
705.14	51663.67
705.485	51613.73
705.83	51537.12
706.175	51615.76
706.52	51463.45
706.865	51378.25
707.209	51305.26
707.554	51273.17
707.899	51442.88
708.243	51111.59
708.588	51028.43
708.932	50990.69
709.277	51006.51
709.621	50989.11
709.966	50751.83
710.31	50894.2
710.654	50590.25
710.998	50606.75
711.342	50679.29
711.687	50452.63
712.031	50409.69
712.375	50315.23
712.719	50306.64
713.063	50338.05
713.407	50341.44
713.75	50163.37
714.094	50179.87
714.438	49947.1
714.782	49891.29
715.125	49632.31
715.469	49903.94
715.812	49601.8
716.156	49456.27
716.499	49628.47
716.843	49491.52
717.186	49321.36
717.53	49416.5
717.873	49436.84
718.216	49309.38
718.559	49140.12
718.902	48858.77
719.246	48938.77
719.589	48822.39
719.932	48627.82
720.275	48694.03
720.617	48472.79
720.96	48575.16
721.303	48490.19
721.646	48476.18
721.989	48213.82
722.331	48355.96
722.674	48071.9
723.016	48150.54
723.359	47886.59
723.701	47998.23
724.044	47628.07
724.386	47473.27
724.729	47674.62
725.071	47405.93
725.413	47369.32
725.755	47365.93
726.097	47134.07
726.439	46955.77
726.782	46874.87
727.124	46968.88
727.465	46800.75
727.807	46612.5
728.149	46588.55
728.491	46506.74
728.833	46500.64
729.175	46286.64
729.516	46164.15
729.858	45969.58
730.199	45976.14
730.541	45987.66
730.882	45920.54
731.224	45842.58
731.565	45449.82
731.906	45535.92
732.248	45568.69
732.589	45411.63
732.93	45255.48
733.271	45233.78
733.612	45237.62
733.953	45151.52
734.294	45031.53
734.635	44873.34
734.976	44881.7
735.317	44646
735.658	44725.55
735.999	44691.65
736.339	44532.56
736.68	44636.74
737.021	44418.44
737.361	44200.14
737.702	44339.34
738.042	44161.49
738.383	44282.17
738.723	44095.51
739.063	44055.06
739.404	44044.21
739.744	43812.8
740.084	43787.27
740.424	43742.52
740.764	43630.21
741.104	43833.59
741.444	43538.01
741.784	43322.65
742.124	43654.61
742.464	43421.85
742.804	43476.09
743.143	43401.06
743.483	43326.71
743.823	43039.04
744.162	43006.72
744.502	43155.42
744.841	42955.65
745.181	43033.61
745.52	42838.14
745.86	42912.71
746.199	42773.51
746.538	42786.16
746.877	42813.28
747.216	42852.15
747.556	42604.47
747.895	42704.36
748.234	42534.19
748.573	42645.6
748.911	42619.84
749.25	42570.58
749.589	42205.16
749.928	42398.15
750.267	42376.23
750.605	42046.52
750.944	42172.39
751.283	41947.54
751.621	42049.91
751.96	41774.89
752.298	41743.48
