Data from white_steel_sheet_FLMS001491_001.txt Node
Date: Tue Feb 07 10:57:17 GMT 2017
User: dcchb
Spectrometer: FLMS00149
Trigger mode: 0
Integration Time (sec): 2.000000E-2
Scans to average: 10
Electric dark correction enabled: true
Nonlinearity correction enabled: false
Boxcar width: 0
XAxis mode: Wavelengths
Number of Pixels in Spectrum: 2048
>>>>>Begin Spectral Data<<<<<
341.393	2.71
341.776	2.71
342.16	2.71
342.543	-82.03
342.927	-58.98
343.31	-53.56
343.693	-88.81
344.077	-69.83
344.46	-59.66
344.843	-52.88
345.226	-55.14
345.61	-52.43
345.993	-35.25
346.376	-15.14
346.759	10.4
347.142	31.41
347.525	61.47
347.908	54.46
348.291	81.35
348.674	117.74
349.057	125.87
349.44	120.45
349.823	121.35
350.206	147.79
350.588	212.42
350.971	209.71
351.354	224.4
351.737	240.45
352.119	257.39
352.502	273.21
352.884	262.14
353.267	291.07
353.65	284.74
354.032	312.53
354.414	293.1
354.797	302.36
355.179	318.86
355.562	323.61
355.944	339.88
356.326	337.17
356.709	343.95
357.091	344.85
357.473	337.84
357.855	322.7
358.238	335.58
358.62	329.93
359.002	346.21
359.384	362.02
359.766	366.54
360.148	334.23
360.53	333.1
360.912	355.92
361.294	336.94
361.676	315.92
362.057	345.75
362.439	340.33
362.821	332.19
363.203	327.9
363.584	334.68
363.966	316.83
364.348	316.6
364.729	305.53
365.111	334.68
365.493	312.08
365.874	319.09
366.256	330.61
366.637	329.93
367.019	310.05
367.4	346.88
367.781	331.74
368.163	337.39
368.544	332.19
368.925	317.96
369.306	325.42
369.688	339.2
370.069	328.8
370.45	330.39
370.831	315.92
371.212	320.67
371.593	331.74
371.974	344.4
372.355	330.16
372.736	334.23
373.117	321.8
373.498	323.16
373.879	314.79
374.26	322.93
374.641	339.2
375.021	327.68
375.402	336.04
375.783	328.35
376.163	333.32
376.544	343.49
376.925	337.62
377.305	350.73
377.686	316.83
378.066	340.78
378.447	342.82
378.827	349.14
379.208	376.49
379.588	354.57
379.968	355.02
380.349	364.51
380.729	369.03
381.109	371.06
381.489	342.36
381.87	351.18
382.25	315.7
382.63	392.31
383.01	357.05
383.39	361.57
383.77	358.18
384.15	363.61
384.53	381.01
384.91	360.22
385.29	378.75
385.67	379.2
386.049	380.33
386.429	383.94
386.809	383.27
387.189	383.27
387.568	391.18
387.948	411.97
388.328	402.02
388.707	420.33
389.087	393.89
389.466	405.87
389.846	423.27
390.225	420.78
390.605	413.1
390.984	399.09
391.363	435.02
391.743	419.42
392.122	435.24
392.501	461
392.881	448.58
393.26	449.71
393.639	442.93
394.018	471.63
394.397	464.62
394.776	451.51
395.155	451.74
395.534	472.3
395.913	502.81
396.292	497.16
396.671	489.48
397.05	470.5
397.429	505.98
397.808	515.69
398.186	521.12
398.565	519.31
398.944	507.78
399.323	541.91
399.701	544.62
400.08	543.04
400.458	561.12
400.837	562.25
401.215	555.92
401.594	552.53
401.972	562.02
402.351	581.91
402.729	589.14
403.107	590.49
403.486	604.96
403.864	620.77
404.242	637.27
404.62	608.35
404.999	651.51
405.377	639.98
405.755	652.64
406.133	689.02
406.511	664.16
406.889	675.24
407.267	692.86
407.645	721.11
408.023	742.35
408.401	732.86
408.779	748.45
409.156	751.84
409.534	776.93
409.912	773.09
410.29	809.47
410.667	814.44
411.045	818.74
411.422	819.64
411.8	854.89
412.178	849.02
412.555	873.65
412.933	882.24
413.31	876.14
413.687	931.73
414.065	897.83
414.442	931.27
414.819	948.68
415.197	944.83
415.574	969.92
415.951	969.24
416.328	1006.98
416.705	982.57
417.082	981.22
417.46	1019.41
417.837	1017.37
418.214	1036.36
418.591	1042.23
418.967	1051.95
419.344	1052.85
419.721	1090.59
420.098	1086.98
420.475	1108.9
420.852	1096.92
421.228	1125.85
421.605	1136.92
421.982	1162.46
422.358	1148.9
422.735	1170.82
423.111	1158.39
423.488	1177.6
423.864	1208.1
424.241	1224.83
424.617	1204.94
424.994	1229.12
425.37	1260.98
425.746	1248.33
426.123	1269.35
426.499	1267.99
426.875	1269.57
427.251	1317.93
427.627	1365.84
428.003	1372.39
428.379	1386.18
428.756	1379.17
429.132	1391.83
429.507	1429.34
429.883	1444.71
430.259	1474.54
430.635	1466.85
431.011	1497.59
431.387	1522.45
431.763	1537.13
432.138	1580.98
432.514	1582.11
432.89	1622.56
433.265	1629.34
433.641	1643.57
434.016	1666.62
434.392	1688.77
434.767	1714.31
435.143	1715.44
435.518	1735.1
435.894	1770.8
436.269	1781.2
436.644	1822.1
437.02	1869.78
437.395	1855.54
437.77	1870.69
438.145	1908.88
438.52	1921.53
438.895	1967.18
439.271	1950.91
439.646	1973.51
440.021	1996.78
440.395	2012.6
440.77	2036.78
441.145	1992.04
441.52	2082.43
441.895	2085.14
442.27	2092.6
442.645	2076.33
443.019	2158.59
443.394	2132.6
443.769	2163.11
444.143	2113.62
444.518	2182.99
444.892	2205.14
445.267	2238.81
445.641	2252.6
446.016	2273.39
446.39	2268.87
446.764	2273.61
447.139	2289.21
447.513	2348.64
447.887	2323.33
448.262	2361.97
448.636	2361.97
449.01	2373.5
449.384	2424.34
449.758	2416.66
450.132	2454.4
450.506	2449.65
450.88	2504.79
451.254	2478.58
451.628	2517
452.002	2577.33
452.376	2596.99
452.75	2625.47
453.123	2623.43
453.497	2701.17
453.871	2679.03
454.244	2761.28
454.618	2776.42
454.992	2821.17
455.365	2823.2
455.739	2867.72
456.112	2914.05
456.486	2920.83
456.859	2955.4
457.232	3029.75
457.606	3023.88
457.979	3078.11
458.352	3087.6
458.725	3197.43
459.099	3201.05
459.472	3296.18
459.845	3261.16
460.218	3293.92
460.591	3313.59
460.964	3310.42
461.337	3420.7
461.71	3435.84
462.083	3507.25
462.456	3504.31
462.829	3522.62
463.201	3613.01
463.574	3624.99
463.947	3712.67
464.32	3734.59
464.692	3770.97
465.065	3817.53
465.438	3864.53
465.81	3929.16
466.183	3973.68
466.555	4006
466.928	4071.08
467.3	4078.31
467.672	4120.57
468.045	4211.19
468.417	4243.96
468.789	4289.15
469.161	4313.78
469.534	4450.05
469.906	4482.59
470.278	4544.97
470.65	4605.75
471.022	4696.6
471.394	4738.63
471.766	4811.4
472.138	4825.18
472.51	4926.2
472.882	4984.5
473.253	5069.47
473.625	5151.05
473.997	5256.58
474.369	5312.4
474.74	5341.1
475.112	5464.49
475.484	5522.11
475.855	5617.48
476.227	5645.73
476.598	5792.39
476.97	5868.55
477.341	6049.78
477.713	6122.55
478.084	6116.68
478.455	6269.67
478.827	6382.66
479.198	6599.6
479.569	6505.14
479.94	6747.17
480.311	6821.06
480.682	6973.15
481.053	7119.13
481.424	7118
481.795	7263.99
482.166	7372.24
482.537	7522.97
482.908	7682.06
483.279	7731.1
483.65	7874.37
484.021	8036.4
484.391	8064.19
484.762	8195.26
485.133	8267.81
485.503	8402.26
485.874	8576.95
486.244	8624.63
486.615	8814.68
486.985	8866.21
487.356	9091.29
487.726	9189.14
488.097	9378.74
488.467	9355.46
488.837	9594.78
489.207	9667.77
489.578	9842.68
489.948	9967.2
490.318	10017.14
490.688	10150.92
491.058	10244.48
491.428	10456
491.798	10477.01
492.168	10712.71
492.538	10771.47
492.908	10942.76
493.278	11117.67
493.648	11120.84
494.017	11231.8
494.387	11321.74
494.757	11520.6
495.126	11612.58
495.496	11606.47
495.866	11756.53
496.235	11805.57
496.605	12038.55
496.974	12009.18
497.344	12173.69
497.713	12179.79
498.082	12301.82
498.452	12543.17
498.821	12574.81
499.19	12621.14
499.559	12741.13
499.928	12815.48
500.298	12872.2
500.667	13036.72
501.036	13019.32
501.405	13243.27
501.774	13215.7
502.143	13319.88
502.512	13455.47
502.88	13515.12
503.249	13609.59
503.618	13660.88
503.987	13797.83
504.356	13845.74
504.724	14013.87
505.093	14092.06
505.462	14049.8
505.83	14277.14
506.199	14292.51
506.567	14532.5
506.936	14557.13
507.304	14722.78
507.672	14829.21
508.041	14821.31
508.409	14984.01
508.777	15174.52
509.145	15228.75
509.514	15281.18
509.882	15431.23
510.25	15388.75
510.618	15573.83
510.986	15725.69
511.354	15842.52
511.722	16005
512.09	16161.38
512.458	16138.33
512.826	16317.09
513.193	16432.79
513.561	16518.89
513.929	16790.97
514.297	16814.47
514.664	16931.76
515.032	16985.32
515.4	17134.24
515.767	17201.36
516.135	17382.59
516.502	17339.43
516.869	17738.52
517.237	17728.35
517.604	17734.22
517.972	17955.46
518.339	18032.75
518.706	18189.35
519.073	18234.1
519.44	18404.26
519.808	18654.65
520.175	18736
520.542	18948.65
520.909	18984.36
521.276	19036.34
521.643	19296.44
522.009	19408.3
522.376	19604.91
522.743	19730.1
523.11	19959.93
523.477	20121.5
523.843	20133.71
524.21	20486.92
524.577	20474.26
524.943	20568.5
525.31	20855.72
525.676	20926
526.043	21236.73
526.409	21232.44
526.776	21530.51
527.142	21490.96
527.508	21624.06
527.874	21945.64
528.241	22031.96
528.607	22035.13
528.973	22285.52
529.339	22259.3
529.705	22628.56
530.071	22740.42
530.437	22930.7
530.803	22990.13
531.169	23159.17
531.535	23153.52
531.901	23269.22
532.267	23364.58
532.632	23567.29
532.998	23696.33
533.364	23896.09
533.73	23913.5
534.095	24233.04
534.461	24268.74
534.826	24308.06
535.192	24435.52
535.557	24599.13
535.923	24556.64
536.288	24778.33
536.653	24782.63
537.019	24739.01
537.384	24813.13
537.749	24919.8
538.114	25128.83
538.479	25202.5
538.845	25251.09
539.21	25275.27
539.575	25599.1
539.94	25560.01
540.305	25704.63
540.67	25717.74
541.034	25806.1
541.399	26026.66
541.764	26073.66
542.129	26186.88
542.494	26160.67
542.858	26403.15
543.223	26483.15
543.587	26544.16
543.952	26621.45
544.316	26827.77
544.681	26716.81
545.045	26806.53
545.41	26858.73
545.774	27191.6
546.138	27179.4
546.503	27175.33
546.867	27272.73
547.231	27498.71
547.595	27540.97
547.959	27536.45
548.324	27601.76
548.688	27674.3
549.052	27851.47
549.416	27929.21
549.779	27960.39
550.143	28070.67
550.507	28356.77
550.871	28363.32
551.235	28335.53
551.599	28566.03
551.962	28615.52
552.326	28761.28
552.689	28888.96
553.053	28807.83
553.417	28899.58
553.78	29304.54
554.143	29229.74
554.507	29346.57
554.87	29410.3
555.234	29780.46
555.597	29566
555.96	29683.74
556.323	29864.3
556.686	29879.67
557.05	30174.8
557.413	30344.06
557.776	30282.37
558.139	30419.77
558.502	30694.11
558.865	30742.69
559.228	30889.36
559.59	31012.74
559.953	31070.14
560.316	31337.26
560.679	31292.74
561.041	31456.8
561.404	31589.9
561.767	31895.66
562.129	31806.62
562.492	32129.1
562.854	31997.58
563.217	32112.6
563.579	32175.88
563.941	32532.7
564.304	32628.29
564.666	32848.63
565.028	32838.46
565.39	33012.01
565.753	33124.33
566.115	33334.49
566.477	33437.31
566.839	33504.66
567.201	33659
567.563	33786.46
567.925	33997.3
568.287	33947.81
568.648	34035.26
569.01	34358.87
569.372	34557.96
569.734	34391.64
570.095	34666.43
570.457	34738.75
570.819	34718.64
571.18	34845.41
571.542	35065.29
571.903	35054.22
572.265	35175.35
572.626	35285.85
572.987	35276.81
573.349	35437.49
573.71	35614.2
574.071	35669.12
574.432	35708.21
574.794	36000.41
575.155	35929.68
575.516	35904.14
575.877	36009.22
576.238	36126.28
576.599	36093.51
576.96	36263.68
577.32	36284.92
577.681	36342.1
578.042	36494.41
578.403	36538.93
578.763	36512.03
579.124	36637.45
579.485	36794.06
579.845	36860.5
580.206	36618.47
580.566	36669.09
580.927	36648.53
581.287	37018.01
581.648	36829.77
582.008	36817.79
582.368	36798.81
582.728	36932.36
583.089	36975.3
583.449	37097.33
583.809	36970.33
584.169	37036.54
584.529	36863.89
584.889	37178.46
585.249	36872.02
585.609	36849.43
585.969	37023.21
586.329	37121.96
586.688	37128.74
587.048	36979.37
587.408	37053.04
587.768	37046.94
588.127	36957.45
588.487	36896.2
588.846	37271.11
589.206	36906.83
589.565	37001.51
589.925	37184.11
590.284	37059.14
590.643	37084.45
591.003	37239.7
591.362	37305.23
591.721	37166.71
592.08	37210.32
592.44	37203.09
592.799	37266.36
593.158	37060.95
593.517	37200.6
593.876	37423.2
594.235	37004.45
594.593	37141.85
594.952	37258.91
595.311	37106.37
595.67	37290.09
596.029	37274.05
596.387	37313.6
596.746	37340.71
597.104	37323.99
597.463	37221.39
597.822	37377.55
598.18	37228.17
598.538	37306.59
598.897	37572.12
599.255	37213.94
599.613	37780.48
599.972	37512.46
600.33	37452.8
600.688	37504.1
601.046	37449.41
601.404	37648.28
601.762	37383.65
602.12	37787.71
602.478	37632.23
602.836	37756.3
603.194	37458
603.552	37568.5
603.91	37505.91
604.268	37637.43
604.625	37463.2
604.983	37730.99
605.341	37526.92
605.698	37779.8
606.056	37697.31
606.413	37766.24
606.771	37780.25
607.128	37979.57
607.485	37792.9
607.843	37808.95
608.2	37841.72
608.557	38003.07
608.914	37814.6
609.272	37998.55
609.629	38225.44
609.986	38253.01
610.343	38034.71
610.7	38410.74
611.057	38313.12
611.414	38165.1
611.771	38288.03
612.127	38373.45
612.484	38399.67
612.841	38533.45
613.198	38439.67
613.554	38413
613.911	38674.69
614.267	38440.12
614.624	38580
614.98	38565.31
615.337	38805.99
615.693	38676.5
616.05	38749.49
616.406	39017.51
616.762	38735.25
617.118	38767.12
617.475	38867.45
617.831	38872.88
618.187	38907.23
618.543	38959.2
618.899	39098.86
619.255	39048.46
619.611	39041.69
619.967	39174.11
620.323	39146.32
620.678	39074.9
621.034	38971.18
621.39	39036.26
621.746	39114.45
622.101	39554.89
622.457	39141.57
622.812	39290.94
623.168	39342.69
623.523	39330.49
623.879	39361.22
624.234	39074
624.589	39294.56
624.945	39313.99
625.3	39320.77
625.655	39319.19
626.01	39387.21
626.365	39313.09
626.72	39294.56
627.075	39239.19
627.43	39250.04
627.785	39091.4
628.14	39160.55
628.495	39204.84
628.85	39134.11
629.205	39135.24
629.559	39272.64
629.914	39061.57
630.269	39163.94
630.623	38994.68
630.978	38956.26
631.332	39041.01
631.687	39292.98
632.041	39038.07
632.396	38950.84
632.75	38925.98
633.104	38919.43
633.459	38748.36
633.813	38705.2
634.167	38771.64
634.521	38663.39
634.875	38827.91
635.229	38612.77
635.583	38574.8
635.937	38569.16
636.291	38455.71
636.645	38489.38
636.999	38270.41
637.352	38373.45
637.706	38175.27
638.06	38381.36
638.413	38239.67
638.767	38119.9
639.121	38147.47
639.474	37831.1
639.828	37883.52
640.181	38095.72
640.534	37956.74
640.888	37703.87
641.241	37656.19
641.594	37740.93
641.947	37799.46
642.301	37623.64
642.654	37628.84
643.007	37646.02
643.36	37647.15
643.713	37500.48
644.066	37741.38
644.419	37402.18
644.771	37202.41
645.124	36785.7
645.477	36636.55
645.83	36596.55
646.182	36366.28
646.535	36280.63
646.888	36343.9
647.24	36151.14
647.593	36458.02
647.945	36463.22
648.298	36099.16
648.65	35934.42
649.002	36034.31
649.355	36177.58
649.707	35956.57
650.059	36143.91
650.411	36595.42
650.763	36493.5
651.115	36843.55
651.467	36707.51
651.819	36782.54
652.171	36666.83
652.523	36581.64
652.875	36555.42
653.227	36478.36
653.578	36717.23
653.93	36515.42
654.282	36541.86
654.633	36356.78
654.985	36242.89
655.337	36371.92
655.688	36385.26
656.039	36346.39
656.391	36069.56
656.742	36139.84
657.094	36122.89
657.445	36350
657.796	35997.25
658.147	36032.95
658.498	36075.21
658.849	36084.7
659.2	36035.44
659.551	35930.81
659.902	35981.65
660.253	35916.8
660.604	35943.46
660.955	35797.25
661.306	35909.34
661.656	35675.9
662.007	35761.32
662.358	35796.12
662.708	35555.45
663.059	35665.28
663.409	35310.94
663.76	35559.97
664.11	35492.17
664.461	35476.81
664.811	35357.26
665.161	35303.93
665.511	35161.11
665.862	35129.25
666.212	35265.74
666.562	35122.24
666.912	35112.3
667.262	34976.26
667.612	34835.02
667.962	34917.5
668.312	34749.14
668.662	34880.66
669.011	34774.68
669.361	34575.14
669.711	34575.81
670.06	34493.1
670.41	34277.52
670.76	34365.2
671.109	34253.56
671.459	34184.64
671.808	34175.6
672.157	34134.02
672.507	33805.21
672.856	33909.16
673.205	33782.61
673.554	33932.67
673.904	33682.28
674.253	33878.21
674.602	33766.34
674.951	33209.52
675.3	33074.84
675.649	33515.73
675.998	33438.22
676.346	33435.73
676.695	33473.7
677.044	33212.46
677.393	33401.16
677.741	33391.89
678.09	33220.82
678.438	33237.77
678.787	33264.44
679.135	33454.49
679.484	32951.9
679.832	33168.85
680.181	33012.92
680.529	33110.54
680.877	33000.71
681.225	33036.19
681.573	33273.02
681.922	33024.67
682.27	33014.05
682.618	33066.48
682.966	32976.76
683.314	33042.3
683.661	33001.39
684.009	32852.47
684.357	32962.98
684.705	32902.19
685.053	33015.63
685.4	32902.41
685.748	32864.67
686.095	32881.85
686.443	32712.59
686.79	32693.15
687.138	32851.11
687.485	32728.18
687.832	32837.78
688.18	32851.34
688.527	32699.93
688.874	32678.91
689.221	32844.33
689.568	32797.56
689.915	32595.08
690.262	32699.03
690.609	32664.23
690.956	32472.82
691.303	32578.8
691.65	32497
691.997	32489.99
692.344	32359.83
692.69	32318.92
693.037	32253.39
693.383	32158.48
693.73	32282.77
694.077	32062.66
694.423	32082.77
694.769	32125.48
695.116	32036.22
695.462	32020.63
695.808	31963.45
696.155	31999.16
696.501	31776.79
696.847	31829.22
697.193	31503.13
697.539	31767.3
697.885	31395.33
698.231	31363.92
698.577	31425.61
698.923	31346.29
699.269	31193.53
699.614	31159.63
699.96	31017.49
700.306	31155.11
700.651	31032.86
700.997	30874.67
701.342	30805.29
701.688	30767.33
702.033	30746.76
702.379	30554
702.724	30626.99
703.069	30667.22
703.415	30293.89
703.76	30484.4
704.105	30290.28
704.45	30219.54
704.795	29956.73
705.14	29963.73
705.485	29952.88
705.83	29903.62
706.175	29893.23
706.52	29808.48
706.865	29556.06
707.209	29729.39
707.554	29627.7
707.899	29771.19
708.243	29468.15
708.588	29404.65
708.932	29219.34
709.277	29237.65
709.621	29280.81
709.966	29082.4
710.31	29168.05
710.654	28866.36
710.998	28857.55
711.342	28999.01
711.687	28837.43
712.031	28768.96
712.375	28689.42
712.719	28795.18
713.063	28581.62
713.407	28627.95
713.75	28509.76
714.094	28397.45
714.438	28482.19
714.782	28401.06
715.125	28203.78
715.469	28291.91
715.812	28159.94
716.156	27992.48
716.499	28078.13
716.843	28015.31
717.186	27843.56
717.53	27959.26
717.873	27914.52
718.216	27864.35
718.559	27822.55
718.902	27634.3
719.246	27712.49
719.589	27579.61
719.932	27486.51
720.275	27407.64
720.617	27392.73
720.96	27482.89
721.303	27372.84
721.646	27390.92
721.989	27158.16
722.331	27319.96
722.674	27184.37
723.016	27126.29
723.359	27101.66
723.701	27082.23
724.044	26958.16
724.386	26774.21
724.729	26905.51
725.071	26896.69
725.413	26868.67
725.755	26757.49
726.097	26625.74
726.439	26572.63
726.782	26759.3
727.124	26609.92
727.465	26555.46
727.807	26566.08
728.149	26482.02
728.491	26371.96
728.833	26479.98
729.175	26305.97
729.516	26260.1
729.858	26235.47
730.199	26320.44
730.541	26115.02
730.882	26143.72
731.224	26276.6
731.565	25962.48
731.906	25995.25
732.248	26078.18
732.589	25892.43
732.93	25732.43
733.271	25800.45
733.612	25870.96
733.953	25827.34
734.294	25585.09
734.635	25637.07
734.976	25689.04
735.317	25539.67
735.658	25452.66
735.999	25505.09
736.339	25516.62
736.68	25442.95
737.021	25460.12
737.361	25289.05
737.702	25501.48
738.042	25413.34
738.383	25209.05
738.723	25299.45
739.063	25248.15
739.404	25316.85
739.744	25161.15
740.084	25051.77
740.424	25047.03
740.764	25011.32
741.104	25155.95
741.444	24974.03
741.784	24859.91
742.124	24854.49
742.464	24809.97
742.804	24804.32
743.143	24750.76
743.483	24734.49
743.823	24593.03
744.162	24663.31
744.502	24708.5
744.841	24513.25
745.181	24545.8
745.52	24498.79
745.86	24582.18
746.199	24370.21
746.538	24405.69
746.877	24439.58
747.216	24322.3
747.556	24280.94
747.895	24313.71
748.234	24172.02
748.573	24056.32
748.911	24180.61
749.25	23939.94
749.589	24061.97
749.928	23989.2
750.267	23986.94
750.605	23824.91
750.944	23826.04
751.283	23753.95
751.621	23817.23
751.96	23676.21
752.298	23665.82
752.636	23600.51
752.975	23487.52
753.313	23471.93
753.651	23569.1
753.989	23366.39
754.327	23343.57
754.666	23254.3
