Data from White_paper_FLMS001491_092.txt Node
Date: Tue Feb 07 10:35:49 GMT 2017
User: dcchb
Spectrometer: FLMS00149
Trigger mode: 0
Integration Time (sec): 2.000000E-2
Scans to average: 10
Electric dark correction enabled: true
Nonlinearity correction enabled: false
Boxcar width: 0
XAxis mode: Wavelengths
Number of Pixels in Spectrum: 2048
>>>>>Begin Spectral Data<<<<<
341.393	-2.39
341.776	-2.39
342.16	-2.39
342.543	-36.28
342.927	-57.98
343.31	-64.53
343.693	-77.87
344.077	-65.89
344.46	-55.49
344.843	-54.14
345.226	-48.26
345.61	-23.18
345.993	-37.19
346.376	-12.33
346.759	6.65
347.142	29.25
347.525	71.96
347.908	66.09
348.291	63.6
348.674	84.84
349.057	116.48
349.44	129.81
349.823	143.6
350.206	153.09
350.588	226.31
350.971	232.64
351.354	243.93
351.737	259.08
352.119	267.89
352.502	290.71
352.884	313.08
353.267	306.08
353.65	312.63
354.032	325.51
354.414	324.16
354.797	335.46
355.179	343.82
355.562	353.31
355.944	362.58
356.326	351.28
356.709	363.25
357.091	361.67
357.473	379.3
357.855	387.89
358.238	355.57
358.62	365.06
359.002	349.92
359.384	360.09
359.766	358.73
360.148	339.98
360.53	358.28
360.912	362.12
361.294	355.34
361.676	373.42
362.057	363.03
362.439	377.49
362.821	388.11
363.203	353.08
363.584	361.67
363.966	368
364.348	365.96
364.729	355.8
365.111	346.53
365.493	343.82
365.874	357.38
366.256	373.87
366.637	357.6
367.019	350.82
367.4	347.89
367.781	367.77
368.163	355.12
368.544	357.38
368.925	354.67
369.306	379.75
369.688	355.12
370.069	347.21
370.45	357.83
370.831	372.74
371.212	360.32
371.593	361.9
371.974	360.99
372.355	369.35
372.736	354.44
373.117	374.1
373.498	380.2
373.879	370.48
374.26	337.72
374.641	364.84
375.021	369.35
375.402	368
375.783	373.42
376.163	384.72
376.544	380.65
376.925	356.02
377.305	386.76
377.686	391.5
378.066	374.55
378.447	408.22
378.827	386.08
379.208	387.66
379.588	396.7
379.968	404.38
380.349	373.65
380.729	397.15
381.109	401.44
381.489	403.48
381.87	429.69
382.25	404.61
382.63	407.32
383.01	414.33
383.39	419.97
383.77	417.04
384.15	430.6
384.53	423.82
384.91	438.73
385.29	424.04
385.67	430.37
386.049	462.69
386.429	446.41
386.809	455.23
387.189	459.97
387.568	434.21
387.948	458.39
388.328	467.88
388.707	465.85
389.087	474.44
389.466	482.8
389.846	480.31
390.225	481.67
390.605	474.44
390.984	493.65
391.363	500.2
391.743	500.65
392.122	491.39
392.501	506.98
392.881	516.7
393.26	521.89
393.639	534.32
394.018	536.13
394.397	535.45
394.776	535.23
395.155	526.41
395.534	530.93
395.913	530.48
396.292	568.45
396.671	556.02
397.05	560.31
397.429	581.78
397.808	592.85
398.186	577.03
398.565	574.77
398.944	591.72
399.323	595.34
399.701	593.76
400.08	595.11
400.458	625.39
400.837	624.04
401.215	646.41
401.594	646.41
401.972	652.29
402.351	659.29
402.729	654.77
403.107	666.07
403.486	709.68
403.864	705.39
404.242	706.07
404.62	723.02
404.999	750.36
405.377	724.83
405.755	746.75
406.133	765.28
406.511	799.85
406.889	790.59
407.267	827.2
407.645	839.4
408.023	849.57
408.401	889.57
408.779	884.14
409.156	918.27
409.534	931.15
409.912	949.23
410.29	995.78
410.667	990.81
411.045	1016.57
411.422	1026.51
411.8	1054.08
412.178	1081.88
412.555	1119.62
412.933	1130.92
413.31	1190.12
413.687	1199.16
414.065	1203.23
414.442	1254.53
414.819	1260.4
415.197	1307.86
415.574	1348.54
415.951	1365.03
416.328	1371.81
416.705	1377.46
417.082	1447.52
417.46	1453.39
417.837	1486.39
418.214	1525.26
418.591	1551.24
418.967	1564.13
419.344	1571.81
419.721	1585.82
420.098	1609.77
420.475	1623.56
420.852	1648.19
421.228	1709.66
421.605	1740.62
421.982	1747.62
422.358	1764.8
422.735	1829.66
423.111	1836.43
423.488	1827.85
423.864	1883.67
424.241	1913.27
424.617	1928.18
424.994	1976.77
425.37	1980.61
425.746	1981.06
426.123	2008.41
426.499	2031.01
426.875	2048.41
427.251	2111
427.627	2152.13
428.003	2146.03
428.379	2197.78
428.756	2228.29
429.132	2242.98
429.507	2266.93
429.883	2352.81
430.259	2396.65
430.635	2382.64
431.011	2431
431.387	2486.81
431.763	2531.11
432.138	2532.46
432.514	2605.91
432.89	2611.33
433.265	2691.33
433.641	2692.23
434.016	2770.42
434.392	2776.75
434.767	2831.66
435.143	2837.31
435.518	2871.21
435.894	2943.98
436.269	2898.78
436.644	2995.95
437.02	3004.77
437.395	3009.29
437.77	3095.38
438.145	3162.5
438.52	3206.57
438.895	3228.71
439.271	3235.49
439.646	3280.92
440.021	3299.9
440.395	3310.29
440.77	3318.88
441.145	3328.82
441.52	3412.44
441.895	3407.69
442.27	3466.9
442.645	3471.42
443.019	3523.17
443.394	3493.57
443.769	3551.87
444.143	3497.41
444.518	3624.64
444.892	3575.82
445.267	3636.61
445.641	3658.31
446.016	3698.31
446.39	3719.1
446.764	3737.85
447.139	3770.17
447.513	3765.88
447.887	3822.37
448.262	3844.52
448.636	3797.97
449.01	3881.8
449.384	3886.32
449.758	3931.07
450.132	4005.42
450.506	4032.08
450.88	4059.65
451.254	4025.3
451.628	4073.44
452.002	4083.38
452.376	4160.67
452.75	4234.79
453.123	4206.77
453.497	4285.86
453.871	4338.97
454.244	4414.67
454.618	4449.7
454.992	4479.76
455.365	4551.17
455.739	4634.55
456.112	4676.36
456.486	4665.74
456.859	4755.45
457.232	4878.16
457.606	4798.62
457.979	4944.15
458.352	5020.53
458.725	5043.13
459.099	5082
459.472	5206.97
459.845	5262.79
460.218	5325.61
460.591	5325.16
460.964	5366.06
461.337	5489.45
461.71	5574.87
462.083	5623.45
462.456	5641.31
462.829	5685.37
463.201	5778.03
463.574	5805.82
463.947	5905.71
464.32	6007.4
464.692	6050.11
465.065	6095.76
465.438	6226.38
465.81	6263.21
466.183	6376.88
466.555	6532.13
466.928	6555.63
467.3	6546.59
467.672	6638.12
468.045	6820.94
468.417	6849.41
468.789	6872.23
469.161	6959.01
469.534	7152
469.906	7235.16
470.278	7311.09
470.65	7377.31
471.022	7535.72
471.394	7682.38
471.766	7699.56
472.138	7847.12
472.51	7976.84
472.882	8159.88
473.253	8202.82
473.625	8331.63
473.997	8496.6
474.369	8603.04
474.74	8632.19
475.112	8823.14
475.484	8930.49
475.855	9106.3
476.227	9177.03
476.598	9411.15
476.97	9561.2
477.341	9776.11
477.713	9880.07
478.084	9968.88
478.455	10241.86
478.827	10265.59
479.198	10636.88
479.569	10549.88
479.94	10856.99
480.311	10998.45
480.682	11183.08
481.053	11459.23
481.424	11689.06
481.795	11697.64
482.166	11925.44
482.537	12123.62
482.908	12310.06
483.279	12454.91
483.65	12735.58
484.021	12938.29
484.391	13111.84
484.762	13182.13
485.133	13275.68
485.503	13520.2
485.874	13860.98
486.244	13865.27
486.615	14119.95
486.985	14356.11
487.356	14613.73
487.726	14662.31
488.097	14965.58
488.467	15018.69
488.837	15301.62
489.207	15519.69
489.578	15790.64
489.948	15880.36
490.318	16076.06
490.688	16103.18
491.058	16390.85
491.428	16634.69
491.798	16703.16
492.168	17044.85
492.538	17198.74
492.908	17300.21
493.278	17583.82
493.648	17571.16
494.017	17890.48
494.387	17968.44
494.757	18101.54
495.126	18385.6
495.496	18339.73
495.866	18500.63
496.235	18795.54
496.605	18870.79
496.974	18925.25
497.344	19209.31
497.713	19273.49
498.082	19424.22
498.452	19654.05
498.821	19668.73
499.19	19756.42
499.559	19928.84
499.928	20119.8
500.298	20274.14
500.667	20392.11
501.036	20362.28
501.405	20561.82
501.774	20608.6
502.143	20725.66
502.512	20939.89
502.88	21186.43
503.249	21102.82
503.618	21314.79
503.987	21392.76
504.356	21640.89
504.724	21679.75
505.093	21851.73
505.462	21907.77
505.83	22054.89
506.199	22205.84
506.567	22469.79
506.936	22574.87
507.304	22791.14
507.672	22799.73
508.041	22952.04
508.409	23078.81
508.777	23363.78
509.145	23476.54
509.514	23484.68
509.882	23688.29
510.25	23782.75
510.618	24000.82
510.986	24048.28
511.354	24314.04
511.722	24467.7
512.09	24705.89
512.458	24763.74
512.826	24926.9
513.193	25026.33
513.561	25133.45
513.929	25288.25
514.297	25606.66
514.664	25656.83
515.032	25824.5
515.4	26068.79
515.767	26123.03
516.135	26332.97
516.502	26286.41
516.869	26660.87
517.237	26795.78
517.604	26715.1
517.972	27106.05
518.339	27208.87
518.706	27299.95
519.073	27399.6
519.44	27578.58
519.808	27806.15
520.175	27925.01
520.542	28282.97
520.909	28464.66
521.276	28430.76
521.643	28798.21
522.009	28928.6
522.376	29183.29
522.743	29228.03
523.11	29604.29
523.477	29848.81
523.843	30115.47
524.21	30257.61
524.577	30516.36
524.943	30683.36
525.31	30770.59
525.676	31097.13
526.043	31331.93
526.409	31439.95
526.776	31759.04
527.142	31803.56
527.508	32004.91
527.874	32227.73
528.241	32389.3
528.607	32582.29
528.973	32979.34
529.339	32882.62
529.705	33256.85
530.071	33477.18
530.437	33551.99
530.803	33796.05
531.169	34029.71
531.535	33994.69
531.901	34066.55
532.267	34344.05
532.632	34491.17
532.998	34654.55
533.364	34892.06
533.73	34946.3
534.095	35197.14
534.461	35292.05
534.826	35573.4
535.192	35621.31
535.557	35911.7
535.923	35934.75
536.288	36001.19
536.653	36183.55
537.019	36140.39
537.384	36386.03
537.749	36642.75
538.114	36678
538.479	36734.73
538.845	37122.96
539.21	36909.86
539.575	37173.81
539.94	37324.32
540.305	37476.18
540.67	37403.41
541.034	37651.31
541.399	37904.64
541.764	37775.15
542.129	38014.01
542.494	38316.61
542.858	38383.72
543.223	38350.73
543.587	38714.79
543.952	38579.42
544.316	38831.62
544.681	38695.13
545.045	39136.02
545.41	39124.95
545.774	39365.62
546.138	39333.75
546.503	39543.92
546.867	39543.01
547.231	39898.03
547.595	39934.87
547.959	40028.88
548.324	40195.43
548.688	40297.12
549.052	40616.43
549.416	40524.91
549.779	40614.62
550.143	40710.44
550.507	40928.74
550.871	40982.98
551.235	40971.45
551.599	41267.94
551.962	41401.72
552.326	41536.41
552.689	41771.2
553.053	41681.71
553.417	41897.53
553.78	42254.81
554.143	42048.26
554.507	42371.64
554.87	42518.3
555.234	42841.91
555.597	42547.45
555.96	42833.1
556.323	43041.45
556.686	43145.63
557.05	43431.95
557.413	43593.75
557.776	43677.14
558.139	43886.18
558.502	43785.16
558.865	44001.88
559.228	44254.75
559.59	44399.84
559.953	44573.84
560.316	44916.66
560.679	44962.53
561.041	45112.13
561.404	45366.36
561.767	45471.22
562.129	45449.53
562.492	45841.38
562.854	45789.4
563.217	45922.73
563.579	45966.57
563.941	46270.07
564.304	46550.74
564.666	46725.2
565.028	46738.53
565.39	46812.2
565.753	47218.07
566.115	47243.83
566.477	47323.6
566.839	47410.38
567.201	47706.42
567.563	47882.46
567.925	48099.17
568.287	48080.19
568.648	48123.81
569.01	48536.9
569.372	48620.52
569.734	48580.52
570.095	48780.29
570.457	48999.26
570.819	49113.61
571.18	49116.77
571.542	49355.86
571.903	49360.16
572.265	49542.3
572.626	49648.51
572.987	49752.46
573.349	49780.03
573.71	49960.82
574.071	50032.46
574.432	50101.38
574.794	50351.32
575.155	50366.68
575.516	50341.37
575.877	50481.71
576.238	50538.66
576.599	50735.71
576.96	50767.13
577.32	50803.73
577.681	50939.78
578.042	51047.8
578.403	51071.07
578.763	51085.76
579.124	51128.7
579.485	51274.46
579.845	51464.06
580.206	51426.09
580.566	51472.19
580.927	51407.33
581.287	51576.82
581.648	51480.1
582.008	51756.93
582.368	51632.87
582.728	51683.49
583.089	51640.32
583.449	51678.06
583.809	51719.87
584.169	51901.56
584.529	51742.47
584.889	52094.1
585.249	51862.69
585.609	51873.09
585.969	52083.93
586.329	51872.18
586.688	52110.14
587.048	51992.18
587.408	51953.31
587.768	52057.71
588.127	52090.71
588.487	52071.95
588.846	52312.85
589.206	51998.73
589.565	51989.24
589.925	52198.5
590.284	52187.88
590.643	52233.53
591.003	52393.98
591.362	52356.91
591.721	52327.76
592.08	52279.18
592.44	52405.95
592.799	52407.53
593.158	52380.87
593.517	52373.64
593.876	52448.44
594.235	52343.81
594.593	52466.52
594.952	52428.32
595.311	52458.83
595.67	52522.33
596.029	52672.39
596.387	52740.86
596.746	52779.73
597.104	52643.23
597.463	52586.96
597.822	52803.46
598.18	52730.92
598.538	52677.13
598.897	52929.78
599.255	52621.77
599.613	53133.62
599.972	52837.81
600.33	52956.9
600.688	52697.02
601.046	52941.31
601.404	53089.78
601.762	52972.72
602.12	53118.93
602.478	53165.71
602.836	53118.25
603.194	52934.3
603.552	53086.16
603.91	52968.88
604.268	53141.53
604.625	53011.59
604.983	53150.79
605.341	53098.82
605.698	53279.15
606.056	53255.42
606.413	53228.53
606.771	53374.97
607.128	53328.87
607.485	53268.98
607.843	53263.78
608.2	53470.78
608.557	53544.23
608.914	53457.9
609.272	53547.39
609.629	53649.08
609.986	53657.22
610.343	53538.35
610.7	53787.84
611.057	53729.31
611.414	53720.49
611.771	53737.44
612.127	53811.57
612.484	53786.03
612.841	53951.67
613.198	53739.7
613.554	53778.8
613.911	54016.31
614.267	54010.66
614.624	53913.48
614.98	53987.38
615.337	54172.69
615.693	54086.13
616.05	54050.88
616.406	54144.89
616.762	54044.33
617.118	54081.84
617.475	53985.35
617.831	54174.27
618.187	54228.96
618.543	54121.39
618.899	54327.26
619.255	54320.25
619.611	54298.78
619.967	54421.04
620.323	54420.59
620.678	54357.31
621.034	54200.93
621.39	54301.27
621.746	54215.85
622.101	54569.96
622.457	54275.51
622.812	54337.88
623.168	54419.46
623.523	54413.36
623.879	54548.27
624.234	54305.56
624.589	54396.86
624.945	54493.58
625.3	54457.65
625.655	54449.29
626.01	54402.28
626.365	54399.35
626.72	54324.09
627.075	54421.94
627.43	54381.49
627.785	54376.97
628.14	54452.68
628.495	54489.51
628.85	54402.96
629.205	54397.99
629.559	54558.89
629.914	54381.04
630.269	54375.39
630.623	54360.93
630.978	54324.77
631.332	54389.4
631.687	54461.49
632.041	54289.52
632.396	54470.08
632.75	54256.07
633.104	54392.34
633.459	54215.4
633.813	54245.68
634.167	54240.25
634.521	54231.67
634.875	54234.61
635.229	54251.78
635.583	54087.04
635.937	54072.58
636.291	54095.17
636.645	54138.79
636.999	54074.84
637.352	54140.14
637.706	54018.57
638.06	54115.96
638.413	54011.11
638.767	53943.54
639.121	54017.44
639.474	53807.5
639.828	53926.14
640.181	53879.81
640.534	53922.75
640.888	53837.33
641.241	53774.05
641.594	53843.43
641.947	53938.57
642.301	53724.11
642.654	53740.15
643.007	53776.31
643.36	53734.05
643.713	53698.57
644.066	53887.5
644.419	53586.49
644.771	53446.15
645.124	53206.38
645.477	53136.1
645.83	52873.96
646.182	52828.54
646.535	52688.21
646.888	52887.52
647.24	52670.35
647.593	52870.57
647.945	52750.35
648.298	52635.33
648.65	52563.69
649.002	52497.02
649.355	52698.83
649.707	52636.23
650.059	52759.39
650.411	53062.21
650.763	53106.73
651.115	53439.82
651.467	53311.01
651.819	53329.09
652.171	53313.5
652.523	53170.68
652.875	53278.02
653.227	53064.01
653.578	53286.16
653.93	53171.36
654.282	53141.53
654.633	53020.85
654.985	53140.17
655.337	53104.69
655.688	53115.54
656.039	53157.12
656.391	53025.82
656.742	52982.21
657.094	52951.47
657.445	53098.36
657.796	53076.22
658.147	52991.93
658.498	53033.51
658.849	53035.54
659.2	52963.68
659.551	52895.66
659.902	53016.11
660.253	52908.09
660.604	52957.58
660.955	52789.9
661.306	52906.73
661.656	52903.79
662.007	52886.84
662.358	52883.91
662.708	52853.17
663.059	52916.67
663.409	52589.9
663.76	52883.68
664.11	52804.13
664.461	52895.66
664.811	52871.25
665.161	52786.06
665.511	52649.79
665.862	52772.95
666.212	52814.98
666.562	52838.71
666.912	52726.4
667.262	52670.13
667.612	52678.26
667.962	52609.56
668.312	52553.97
668.662	52735.89
669.011	52641.65
669.361	52623.12
669.711	52588.09
670.06	52481.88
670.41	52481.66
670.76	52473.97
671.109	52678.49
671.459	52468.78
671.808	52471.71
672.157	52483.24
672.507	52205.28
672.856	52299.97
673.205	52239.4
673.554	52403.69
673.904	52216.8
674.253	52458.61
674.602	52221.32
674.951	51819.3
675.3	51584.96
675.649	52143.81
675.998	52123.25
676.346	52139.29
676.695	52211.38
677.044	51927.55
677.393	52098.39
677.741	52206.18
678.09	51973.2
678.438	51877.15
678.787	51888.68
679.135	51877.15
679.484	51688.46
679.832	51763.48
680.181	51520.33
680.529	51647.33
680.877	51501.57
681.225	51548.35
681.573	51609.36
681.922	51397.39
682.27	51346.09
682.618	51210.05
682.966	51233.33
683.314	51126.89
683.661	51126.89
684.009	50960.11
684.357	50910.4
684.705	50749.27
685.053	50908.14
685.4	50829.04
685.748	50698.2
686.095	50652.78
686.443	50532.1
686.79	50414.14
687.138	50477.42
687.485	50473.12
687.832	50323.3
688.18	50357.87
688.527	50145.67
688.874	50232.68
689.221	49917.66
689.568	49902.06
689.915	49883.08
690.262	49793.14
690.609	49671.34
690.956	49561.96
691.303	49593.6
691.65	49378.69
691.997	49377.11
692.344	49116.1
692.69	49117.23
693.037	49048.07
693.383	48794.97
693.73	48972.14
694.077	48848.76
694.423	48651.93
694.769	48534.19
695.116	48569.22
695.462	48405.38
695.808	48312.5
696.155	48358.6
696.501	48150.7
696.847	48070.93
697.193	47716.58
697.539	47941.44
697.885	47565.85
698.231	47628.23
698.577	47422.58
698.923	47376.03
699.269	47237.27
699.614	47077.96
699.96	47023.04
700.306	47063.27
700.651	46892.65
700.997	46572.89
701.342	46704.18
701.688	46522.49
702.033	46608.14
702.379	46428.93
702.724	46317.98
703.069	46549.38
703.415	45946.91
703.76	46104.88
704.105	45827.59
704.45	45774.26
704.795	45592.57
705.14	45566.13
705.485	45524.33
705.83	45404.1
706.175	45450.43
706.52	45163.43
706.865	45152.13
707.209	45089.08
707.554	44919.82
707.899	44866.49
708.243	44689.77
708.588	44650.9
708.932	44597.8
709.277	44419.95
709.621	44494.52
709.966	44066.96
710.31	44344.24
710.654	43857.25
710.998	44029.22
711.342	43955.55
711.687	43807.99
712.031	43645.28
712.375	43651.83
712.719	43673.07
713.063	43562.12
713.407	43766.41
713.75	43500.65
714.094	43467.43
714.438	43206.65
714.782	43306.53
715.125	43131.85
715.469	43176.59
715.812	42971.17
716.156	42728.69
716.499	42750.16
716.843	42792.87
717.186	42562.37
717.53	42653.44
717.873	42729.37
718.216	42482.82
718.559	42399.89
718.902	42109.95
719.246	42293
719.589	42179.33
719.932	41902.05
720.275	41970.07
720.617	41962.61
720.96	41827.25
721.303	41881.94
721.646	41773.01
721.989	41603.07
722.331	41660.47
722.674	41534.83
723.016	41542.51
723.359	41466.35
723.701	41578.44
724.044	41173.71
724.386	41025.46
724.729	41252.57
725.071	41149.98
725.413	41054.39
725.755	40983.65
726.097	40876.99
726.439	40546.83
726.782	40724.23
727.124	40972.35
727.465	40585.92
727.807	40564.46
728.149	40577.11
728.491	40479.94
728.833	40489.2
729.175	40411.69
729.516	40279.49
729.858	40255.09
730.199	40251.47
730.541	40170.12
730.882	40082.66
731.224	40274.75
731.565	39978.03
731.906	39974.19
732.248	40077.92
732.589	39707.98
732.93	39670.69
733.271	39696.91
733.612	39711.82
733.953	39720.41
734.294	39524.71
734.635	39498.04
734.976	39601.77
735.317	39334.66
735.658	39247.43
735.999	39289.01
736.339	39173.76
736.68	39229.58
737.021	39135.34
737.361	38876.59
737.702	39155.23
738.042	38897.38
738.383	38891.73
738.723	38989.36
739.063	38925.86
739.404	38876.14
739.744	38759.76
740.084	38605.19
740.424	38710.04
740.764	38561.12
741.104	38652.64
741.444	38401.58
741.784	38287.68
742.124	38510.05
742.464	38317.74
742.804	38081.81
743.143	38204.29
743.483	38139.44
743.823	38063.96
744.162	37939.44
744.502	38029.61
744.841	37927.24
745.181	37994.13
745.52	37922.72
745.86	37982.83
746.199	37720.91
746.538	37775.15
746.877	37813.79
747.216	37705.55
747.556	37614.48
747.895	37561.6
748.234	37435.5
748.573	37352.11
748.911	37440.92
749.25	37258.1
749.589	37181.49
749.928	37234.83
750.267	37238.89
750.605	37208.61
750.944	37057.2
751.283	36847.49
751.621	36935.4
751.96	36749.64
752.298	36679.81
752.636	36737.89
