Data from White_reflection_standard_FLMS001491_016.txt Node
Date: Tue Feb 07 10:31:58 GMT 2017
User: dcchb
Spectrometer: FLMS00149
Trigger mode: 0
Integration Time (sec): 2.000000E-2
Scans to average: 10
Electric dark correction enabled: true
Nonlinearity correction enabled: false
Boxcar width: 0
XAxis mode: Wavelengths
Number of Pixels in Spectrum: 2048
>>>>>Begin Spectral Data<<<<<
341.393	-21.13
341.776	-21.13
342.16	-21.13
342.543	-52.99
342.927	-48.02
343.31	-66.33
343.693	-52.99
344.077	-76.27
344.46	-71.75
344.843	-55.03
345.226	-34.69
345.61	-36.04
345.993	-19.1
346.376	-8.47
346.759	13.9
347.142	42.15
347.525	43.05
347.908	52.09
348.291	64.74
348.674	100.9
349.057	103.84
349.44	127.57
349.823	149.04
350.206	182.71
350.588	235.36
350.971	272.42
351.354	282.37
351.737	280.56
352.119	310.16
352.502	302.7
352.884	321.91
353.267	328.92
353.65	337.73
354.032	356.71
354.414	339.77
354.797	363.95
355.179	363.72
355.562	371.85
355.944	398.75
356.326	377.73
356.709	381.12
357.091	410.95
357.473	421.57
357.855	406.88
358.238	412.53
358.62	414.79
359.002	420.21
359.384	434.45
359.766	405.75
360.148	392.42
360.53	406.66
360.912	401.91
361.294	439.2
361.676	411.18
362.057	435.13
362.439	411.85
362.821	423.15
363.203	405.53
363.584	434.68
363.966	411.4
364.348	421.8
364.729	433.55
365.111	420.67
365.493	437.62
365.874	402.36
366.256	396.03
366.637	405.75
367.019	410.5
367.4	431.51
367.781	415.7
368.163	423.15
368.544	427.45
368.925	418.41
369.306	436.49
369.688	412.53
370.069	415.92
370.45	435.13
370.831	429.25
371.212	424.73
371.593	449.14
371.974	459.54
372.355	463.38
372.736	446.65
373.117	459.54
373.498	457.28
373.879	453.89
374.26	443.04
374.641	444.17
375.021	441.46
375.402	477.84
375.783	489.82
376.163	518.97
376.544	506.31
376.925	482.81
377.305	488.24
377.686	489.37
378.066	508.57
378.447	501.57
378.827	522.59
379.208	498.63
379.588	520.1
379.968	511.29
380.349	540.66
380.729	551.74
381.109	566.65
381.489	528.91
381.87	540.44
382.25	559.65
382.63	558.06
383.01	588.12
383.39	580.21
383.77	556.48
384.15	587.67
384.53	592.41
384.91	588.12
385.29	609.14
385.67	602.58
386.049	614.56
386.429	617.95
386.809	629.02
387.189	627.22
387.568	656.37
387.948	633.32
388.328	648.23
388.707	642.81
389.087	651.85
389.466	697.27
389.846	686.2
390.225	701.11
390.605	691.85
390.984	682.35
391.363	704.95
391.743	715.35
392.122	722.58
392.501	735.46
392.881	735.91
393.26	760.32
393.639	765.97
394.018	751.05
394.397	770.94
394.776	753.77
395.155	789.92
395.534	792.86
395.913	803.71
396.292	830.15
396.671	830.6
397.05	844.84
397.429	862.01
397.808	859.53
398.186	843.93
398.565	858.85
398.944	867.89
399.323	884.38
399.701	890.71
400.08	896.36
400.458	919.86
400.837	900.2
401.215	919.64
401.594	942.69
401.972	930.03
402.351	972.97
402.729	959.86
403.107	973.19
403.486	970.03
403.864	1000.54
404.242	1022.68
404.62	1019.3
404.999	1029.92
405.377	1018.39
405.755	1057.94
406.133	1070.37
406.511	1105.17
406.889	1130.93
407.267	1087.32
407.645	1140.65
408.023	1137.48
408.401	1145.39
408.779	1170.48
409.156	1181.1
409.534	1180.42
409.912	1230.14
410.29	1231.72
410.667	1257.48
411.045	1262.9
411.422	1276.69
411.8	1292.06
412.178	1325.28
412.555	1337.7
412.933	1342.45
413.31	1383.58
413.687	1433.07
414.065	1424.93
414.442	1435.78
414.819	1469.9
415.197	1474.65
415.574	1477.36
415.951	1510.36
416.328	1504.48
416.705	1514.88
417.082	1516.91
417.46	1563.69
417.837	1586.29
418.214	1592.39
418.591	1638.04
418.967	1612.95
419.344	1641.43
419.721	1673.97
420.098	1661.31
420.475	1703.57
420.852	1723.46
421.228	1731.82
421.605	1745.6
421.982	1745.6
422.358	1769.78
422.735	1806.39
423.111	1779.28
423.488	1867.18
423.864	1861.31
424.241	1878.26
424.617	1886.62
424.994	1939.95
425.37	1924.81
425.746	1945.82
426.123	1973.39
426.499	1987.86
426.875	2063.56
427.251	2104.46
427.627	2112.37
428.003	2099.27
428.379	2184.91
428.756	2209.09
429.132	2193.28
429.507	2230.56
429.883	2279.38
430.259	2256.78
430.635	2336.77
431.011	2358.7
431.387	2393.04
431.763	2461.74
432.138	2431.01
432.514	2466.94
432.89	2511.23
433.265	2586.71
433.641	2608.41
434.016	2635.07
434.392	2657.67
434.767	2723.88
435.143	2753.26
435.518	2788.29
435.894	2751.45
436.269	2819.93
436.644	2857.89
437.02	2884.56
437.395	2898.12
437.77	2984.89
438.145	3007.27
438.52	3029.41
438.895	3068.05
439.271	3070.09
439.646	3144.21
440.021	3155.96
440.395	3134.49
440.77	3165.91
441.145	3193.48
441.52	3258.56
441.895	3295.85
442.27	3299.46
442.645	3314.83
443.019	3338.1
443.394	3360.7
443.769	3459.01
444.143	3419.23
444.518	3497.2
444.892	3471.21
445.267	3462.85
445.641	3511.43
446.016	3537.65
446.39	3565.44
446.764	3563.18
447.139	3618.55
447.513	3675.5
447.887	3671.43
448.262	3733.12
448.636	3734.48
449.01	3811.54
449.384	3779.9
449.758	3857.86
450.132	3868.26
450.506	3918.43
450.88	3963.62
451.254	3967.69
451.628	4007.01
452.002	4085.88
452.376	4107.8
452.75	4158.65
453.123	4202.04
453.497	4250.62
453.871	4250.17
454.244	4390.05
454.618	4392.31
454.992	4476.61
455.365	4467.34
455.739	4583.27
456.112	4650.61
456.486	4649.26
456.859	4703.49
457.232	4803.15
457.606	4809.7
457.979	4914.33
458.352	5054.67
458.725	4999.08
459.099	5089.24
459.472	5179.64
459.845	5251.5
460.218	5228.22
460.591	5337.37
460.964	5402.23
461.337	5464.38
461.71	5581.44
462.083	5625.5
462.456	5646.97
462.829	5644.03
463.201	5791.15
463.574	5778.49
463.947	5920.64
464.32	6004.02
464.692	6085.15
465.065	6142.32
465.438	6270
465.81	6319.95
466.183	6438.59
466.555	6532.14
466.928	6559.04
467.3	6583.44
467.672	6692.14
468.045	6869.76
468.417	6889.2
468.789	6933.26
469.161	7032.92
469.534	7131
469.906	7330.99
470.278	7404.66
470.65	7434.04
471.022	7609.63
471.394	7797.65
471.766	7824.99
472.138	7959.23
472.51	8142.27
472.882	8257.3
473.253	8286.67
473.625	8403.73
473.997	8664.07
474.369	8670.39
474.74	8761.46
475.112	8912.87
475.484	9135.47
475.855	9242.36
476.227	9345.63
476.598	9638.96
476.97	9650.25
477.341	9955.56
477.713	10065.39
478.084	10116.91
478.455	10395.55
478.827	10480.52
479.198	10846.61
479.569	10786.04
479.94	11177.22
480.311	11305.35
480.682	11520.04
481.053	11768.17
481.424	11933.58
481.795	12056.97
482.166	12246.12
482.537	12411.09
482.908	12709.61
483.279	12833.45
483.65	13065.08
484.021	13334.9
484.391	13455.8
484.762	13557.27
485.133	13709.81
485.503	13923.14
485.874	14257.14
486.244	14314.54
486.615	14651.71
486.985	14753.4
487.356	15024.58
487.726	15136.44
488.097	15527.61
488.467	15578.91
488.837	15903.42
489.207	16125.11
489.578	16308.84
489.948	16438.55
490.318	16657.08
490.688	16839.22
491.058	17097.52
491.428	17303.39
491.798	17433.78
492.168	17782.92
492.538	17858.63
492.908	18038.96
493.278	18258.84
493.648	18357.6
494.017	18634.43
494.387	18776.57
494.757	18994.42
495.126	19177.91
495.496	19301.3
495.866	19419.49
496.235	19620.39
496.605	19815.86
496.974	19794.39
497.344	20049.3
497.713	20186.25
498.082	20404.55
498.452	20613.36
498.821	20698.1
499.19	20768.83
499.559	21018.32
499.928	21215.6
500.298	21226.45
500.667	21481.36
501.036	21484.29
501.405	21805.64
501.774	21777.62
502.143	22060.32
502.512	22048.57
502.88	22270.71
503.249	22271.39
503.618	22607.43
503.987	22623.02
504.356	22837.48
504.724	23017.59
505.093	23079.96
505.462	23276.79
505.83	23321.76
506.199	23632.49
506.567	23857.11
506.936	23850.11
507.304	24169.87
507.672	24332.58
508.041	24430.21
508.409	24600.82
508.777	24881.49
509.145	24961.49
509.514	25089.4
509.882	25196.51
510.25	25323.97
510.618	25641.7
510.986	25684.41
511.354	26008.02
511.722	26238.75
512.09	26410.49
512.458	26395.13
512.826	26738.62
513.193	26747.88
513.561	26952.17
513.929	27188.1
514.297	27437.36
514.664	27544.7
515.032	27712.83
515.4	28034.18
515.767	28083.44
516.135	28262.19
516.502	28134.74
516.869	28627.38
517.237	28839.35
517.604	28770.43
517.972	29239.57
518.339	29324.99
518.706	29532.9
519.073	29691.76
519.44	29863.51
519.808	30211.75
520.175	30334.46
520.542	30680.21
520.909	30824.61
521.276	30863.26
521.643	31257.37
522.009	31468.44
522.376	31802.89
522.743	31920.63
523.11	32194.07
523.477	32425.25
523.843	32717.44
524.21	33033.14
524.577	33296.19
524.943	33396.52
525.31	33661.6
525.676	33899.56
526.043	34163.96
526.409	34266.56
526.776	34684.85
527.142	34864.96
527.508	35038.51
527.874	35264.27
528.241	35525.05
528.607	35468.56
528.973	35999.17
529.339	35918.26
529.705	36346.73
530.071	36578.36
530.437	36775.19
530.803	36976.09
531.169	37296.53
531.535	37259.25
531.901	37501.5
532.267	37603.42
532.632	37920.92
532.998	38056.29
533.364	38215.38
533.73	38232.78
534.095	38480.46
534.461	38834.12
534.826	38877.96
535.192	39208.12
535.557	39390.26
535.923	39340.1
536.288	39691.95
536.653	39780.08
537.019	39772.17
537.384	39968.78
537.749	40127.42
538.114	40248.77
538.479	40286.06
538.845	40605.82
539.21	40549.56
539.575	40723.11
539.94	40869.32
540.305	41172.82
540.67	41133.49
541.034	41245.81
541.399	41477.44
541.764	41612.58
542.129	41794.49
542.494	41825.91
542.858	41990.2
543.223	41989.52
543.587	42330.53
543.952	42272.22
544.316	42564.19
544.681	42518.09
545.045	42688.26
545.41	42969.6
545.774	43122.82
546.138	43116.04
546.503	43369.82
546.867	43384.51
547.231	43729.36
547.595	43756.25
547.959	43945.17
548.324	43956.02
548.688	44049.58
549.052	44240.76
549.416	44378.16
549.779	44423.35
550.143	44540.86
550.507	44832.83
550.871	44854.3
551.235	44895.43
551.599	45398.02
551.962	45399.6
552.326	45428.75
552.689	45723.2
553.053	45635.3
553.417	45732.24
553.78	46229.41
554.143	46241.38
554.507	46374.71
554.87	46509.17
555.234	46889.73
555.597	46685.89
555.96	46913.91
556.323	47096.95
556.686	47171.75
557.05	47416.72
557.413	47552.76
557.776	47665.75
558.139	47935.12
558.502	47985.74
558.865	48148.68
559.228	48549.12
559.59	48530.14
559.953	48658.49
560.316	48965.61
560.679	49032.27
561.041	49230.23
561.404	49439.94
561.767	49689.2
562.129	49580.28
562.492	49964.22
562.854	49786.37
563.217	50030.21
563.579	50140.04
563.941	50325.8
564.304	50517.88
564.666	50720.59
565.028	50855.95
565.39	50944.54
565.753	51156.73
566.115	51280.12
566.477	51432.88
566.839	51397.41
567.201	51640.11
567.563	51774.8
567.925	51945.41
568.287	52045.07
568.648	52083.72
569.01	52229.25
569.372	52385.4
569.734	52313.09
570.095	52624.04
570.457	52718.27
570.819	52778.39
571.18	52850.02
571.542	53003.47
571.903	52962.56
572.265	53159.85
572.626	53244.59
572.987	53300.41
573.349	53443.23
573.71	53402.1
574.071	53619.72
574.432	53666.72
574.794	53781.52
575.155	53778.36
575.516	53742.65
575.877	53954.63
576.238	53947.62
576.599	54122.76
576.96	54146.49
577.32	54178.12
577.681	54265.58
578.042	54317.1
578.403	54288.18
578.763	54360.04
579.124	54405.01
579.485	54496.31
579.845	54661.95
580.206	54576.98
580.566	54535.4
580.927	54569.75
581.287	54681.61
581.648	54573.37
582.008	54706.7
582.368	54661.05
582.728	54722.52
583.089	54725
583.449	54682.07
583.809	54769.29
584.169	54793.47
584.529	54772.01
584.889	54964.77
585.249	54728.17
585.609	54646.36
585.969	54851.78
586.329	54737.88
586.688	54825.79
587.048	54781.72
587.408	54883.42
587.768	54750.76
588.127	54769.07
588.487	54757.32
588.846	54958.22
589.206	54777.2
589.565	54776.53
589.925	54942.4
590.284	54804.77
590.643	54892.23
591.003	54954.83
591.362	55050.19
591.721	54946.24
592.08	54921.38
592.44	55123.18
592.799	54979.68
593.158	54935.39
593.517	55017.88
593.876	55033.69
594.235	55033.47
594.593	54926.13
594.952	55095.61
595.311	54979.01
595.67	55076.63
596.029	55164.76
596.387	55100.13
596.746	55160.7
597.104	55040.47
597.463	55068.72
597.822	55194.14
598.18	55134.93
598.538	55086.12
598.897	55325.89
599.255	55033.24
599.613	55441.14
599.972	55235.27
600.33	55414.02
600.688	55187.81
601.046	55378.09
601.404	55451.76
601.762	55395.04
602.12	55501.93
602.478	55463.06
602.836	55528.6
603.194	55408.6
603.552	55463.06
603.91	55428.26
604.268	55536.73
604.625	55356.85
604.983	55554.36
605.341	55461.48
605.698	55624.41
606.056	55647.92
606.413	55628.25
606.771	55807.23
607.128	55792.09
607.485	55650.4
607.843	55620.57
608.2	55804.07
608.557	55781.92
608.914	55748.7
609.272	55898.08
609.629	55932.43
609.986	56058.3
610.343	55970.62
610.7	56131.29
611.057	56046.77
611.414	55983.73
611.771	56014.01
612.127	56148.92
612.484	56146.89
612.841	56256.71
613.198	56175.59
613.554	56166.32
613.911	56302.81
614.267	56255.81
614.624	56252.42
614.98	56275.7
615.337	56388.69
615.693	56351.17
616.05	56296.71
616.406	56541.45
616.762	56392.98
617.118	56372.87
617.475	56376.48
617.831	56499.87
618.187	56531.73
618.543	56561.34
618.899	56570.15
619.255	56541
619.611	56487.89
619.967	56660.32
620.323	56622.8
620.678	56584.84
621.034	56518.4
621.39	56484.05
621.746	56508.91
622.101	56793.42
622.457	56522.24
622.812	56618.29
623.168	56704.61
623.523	56642.92
623.879	56651.96
624.234	56508.91
624.589	56615.8
624.945	56708.9
625.3	56688.34
625.655	56644.73
626.01	56693.99
626.365	56662.13
626.72	56637.04
627.075	56647.89
627.43	56562.47
627.785	56459.87
628.14	56627.78
628.495	56689.02
628.85	56584.84
629.205	56462.81
629.559	56606.08
629.914	56505.52
630.269	56482.47
630.623	56425.3
630.978	56328.8
631.332	56456.03
631.687	56490.15
632.041	56329.93
632.396	56414.9
632.75	56255.36
633.104	56353.89
633.459	56190.27
633.813	56270.27
634.167	56183.95
634.521	56144.63
634.875	56155.92
635.229	56120.9
635.583	55993.67
635.937	55993.44
636.291	55980.56
636.645	55957.29
636.999	55872.54
637.352	55945.53
637.706	55793.67
638.06	55879.55
638.413	55872.09
638.767	55732.43
639.121	55841.13
639.474	55626.9
639.828	55591.19
640.181	55730.63
640.534	55623.28
640.888	55566.11
641.241	55507.35
641.594	55488.82
641.947	55521.82
642.301	55398.43
642.654	55476.17
643.007	55422.16
643.36	55346
643.713	55343.97
644.066	55437.98
644.419	55227.81
644.771	54993.7
645.124	54768.62
645.477	54648.62
645.83	54547.15
646.182	54416.08
646.535	54395.74
646.888	54379.25
647.24	54176.54
647.593	54341.51
647.945	54342.86
648.298	54122.98
648.65	54078.92
649.002	54028.52
649.355	54115.07
649.707	53972.03
650.059	54160.04
650.411	54466.93
650.763	54475.29
651.115	54743.53
651.467	54634.83
651.819	54679.35
652.171	54581.5
652.523	54442.52
652.875	54549.19
653.227	54412.92
653.578	54554.61
653.93	54460.15
654.282	54275.07
654.633	54197.33
654.985	54265.8
655.337	54277.1
655.688	54285.01
656.039	54309.42
656.391	54096.32
656.742	54154.4
657.094	54143.55
657.445	54184.68
657.796	54099.48
658.147	54029.2
658.498	54073.95
658.849	54175.86
659.2	54005.7
659.551	53960.05
659.902	54025.59
660.253	53967.73
660.604	54001.4
660.955	53924.12
661.306	54025.81
661.656	53921.41
662.007	53910.11
662.358	53890
662.708	53892.03
663.059	53815.87
663.409	53669.21
663.76	53861.97
664.11	53798.02
664.461	53801.18
664.811	53713.05
665.161	53726.84
665.511	53699.72
665.862	53639.83
666.212	53744.69
666.562	53753.28
666.912	53640.74
667.262	53668.31
667.612	53646.39
667.962	53678.25
668.312	53563.68
668.662	53716.89
669.011	53560.51
669.361	53501.53
669.711	53472.15
670.06	53482.32
670.41	53428.31
670.76	53439.39
671.109	53429.44
671.459	53431.7
671.808	53381.53
672.157	53346.51
672.507	53199.39
672.856	53242.33
673.205	53311.93
673.554	53330.69
673.904	53171.37
674.253	53321.42
674.602	53201.43
674.951	52753.08
675.3	52592.85
675.649	53142.22
675.998	53005.5
676.346	53074.88
676.695	53053.41
677.044	52852.73
677.393	53048.89
677.741	52996.23
678.09	52870.59
678.438	52823.36
678.787	52878.72
679.135	52914.2
679.484	52587.66
679.832	52865.84
680.181	52596.7
680.529	52772.06
680.877	52492.52
681.225	52537.26
681.573	52697.94
681.922	52400.09
682.27	52412.75
682.618	52295.01
682.966	52224.28
683.314	52355.35
683.661	52243.94
684.009	52048.69
684.357	52103.83
684.705	51905.19
685.053	52001.68
685.4	51848.47
685.748	51840.33
686.095	51766.89
686.443	51671.97
686.79	51587.68
687.138	51635.59
687.485	51577.29
687.832	51431.3
688.18	51428.37
688.527	51216.85
688.874	51232.44
689.221	51135.04
689.568	50986.12
689.915	50883.97
690.262	50954.93
690.609	50773.02
690.956	50797.87
691.303	50730.98
691.65	50623.64
691.997	50521.95
692.344	50402.18
692.69	50247.38
693.037	50333.7
693.383	49916.31
693.73	50141.39
694.077	49840.38
694.423	49912.92
694.769	49806.04
695.116	49585.02
695.462	49576.21
695.808	49320.62
696.155	49436.33
696.501	49149.56
696.847	49235.88
697.193	49020.52
697.539	49112.04
697.885	48821.2
698.231	48691.04
698.577	48736.68
698.923	48672.05
699.269	48414.89
699.614	48305.51
699.96	48337.15
700.306	48160.43
700.651	48061.45
700.997	47902.58
701.342	47803.83
701.688	47858.06
702.033	47690.84
702.379	47595.7
702.724	47439.77
703.069	47613.32
703.415	47023.51
703.76	47066.9
704.105	47113.9
704.45	46960.01
704.795	46731.99
705.14	46664.65
705.485	46658.1
705.83	46473.47
706.175	46425.33
706.52	46393.92
706.865	46242.96
707.209	46218.56
707.554	46016.53
707.899	46029.64
708.243	45841.17
708.588	45835.97
708.932	45551.46
709.277	45338.13
709.621	45529.99
709.966	45275.08
710.31	45242.09
710.654	44943.34
710.998	45090
711.342	45020.4
711.687	44943.56
712.031	44815.88
712.375	44554.42
712.719	44606.4
713.063	44483.01
713.407	44688.66
713.75	44468.77
714.094	44470.58
714.438	44212.28
714.782	44285.28
715.125	43993.53
715.469	44227.65
715.812	43786.53
716.156	43600.1
716.499	43650.94
716.843	43729.13
717.186	43345.41
717.53	43666.08
717.873	43712.18
718.216	43408.24
718.559	43187.45
718.902	43003.5
719.246	43026.55
719.589	42913.11
719.932	42839.21
720.275	42970.28
720.617	42759.44
720.96	42636.73
721.303	42584.08
721.646	42532.55
721.989	42411.2
722.331	42473.12
722.674	42279.91
723.016	42411.2
723.359	42035.39
723.701	42318.32
724.044	41944.77
724.386	41768.05
724.729	42116.75
725.071	41817.09
725.413	41707.26
725.755	41669.98
726.097	41695.74
726.439	41304.34
726.782	41298.24
727.124	41474.28
727.465	41266.6
727.807	41286.49
728.149	41132.59
728.491	40978.92
728.833	41244
729.175	41035.42
729.516	40922.88
729.858	40820.96
730.199	40890.34
730.541	40823.45
730.882	40713.84
731.224	40625.94
731.565	40562.21
731.906	40537.58
732.248	40352.05
732.589	40317.47
732.93	40259.62
733.271	40287.64
733.612	40261.88
733.953	40287.19
734.294	40146.63
734.635	39946.18
734.976	40036.8
735.317	39693.98
735.658	39802.91
735.999	39818.95
736.339	39558.39
736.68	39825.05
737.021	39536.25
737.361	39268.23
737.702	39512.29
738.042	39394.78
738.383	39200.44
738.723	39334.67
739.063	39088.8
739.404	39130.38
739.744	38990.73
740.084	39046.54
740.424	38982.14
740.764	38720.68
741.104	38986.21
741.444	38666.21
741.784	38600.68
742.124	38664.18
742.464	38575.82
742.804	38411.08
743.143	38357.52
743.483	38305.09
743.823	38196.17
744.162	38143.29
744.502	38258.77
744.841	38038.43
745.181	38163.18
745.52	38096.74
745.86	38058.32
746.199	37938.55
746.538	37933.13
746.877	37877.99
747.216	37935.84
747.556	37654.04
747.895	37700.82
748.234	37503.08
748.573	37410.88
748.911	37470.31
749.25	37369.3
749.589	37193.49
749.928	37208.63
750.267	37210.66
750.605	37231.9
750.944	37059.03
751.283	36857.22
751.621	36958.69
751.96	36692.26
752.298	36746.27
