Data from White_paper_FLMS001491_052.txt Node
Date: Tue Feb 07 10:35:16 GMT 2017
User: dcchb
Spectrometer: FLMS00149
Trigger mode: 0
Integration Time (sec): 2.000000E-2
Scans to average: 10
Electric dark correction enabled: true
Nonlinearity correction enabled: false
Boxcar width: 0
XAxis mode: Wavelengths
Number of Pixels in Spectrum: 2048
>>>>>Begin Spectral Data<<<<<
341.393	-19.04
341.776	-19.04
342.16	-19.04
342.543	-69.89
342.927	-49.09
343.31	-85.48
343.693	-71.24
344.077	-64.46
344.46	-66.27
344.843	-51.58
345.226	-22.2
345.61	-35.54
345.993	-15.65
346.376	-0.06
346.759	18.93
347.142	16.44
347.525	50.79
347.908	55.54
348.291	71.35
348.674	83.56
349.057	115.87
349.44	111.8
349.823	111.13
350.206	183.44
350.588	222.99
350.971	242.42
351.354	241.29
351.737	267.73
352.119	276.55
352.502	283.33
352.884	300.27
353.267	312.03
353.65	308.86
354.032	328.97
354.414	331.91
354.797	342.99
355.179	338.24
355.562	330.33
355.944	358.13
356.326	357.9
356.709	368.52
357.091	375.75
357.473	365.81
357.855	368.97
358.238	366.94
358.62	378.01
359.002	379.14
359.384	375.75
359.766	361.06
360.148	375.53
360.53	376.66
360.912	359.71
361.294	336.21
361.676	364.91
362.057	368.52
362.439	368.07
362.821	382.31
363.203	383.44
363.584	397.45
363.966	370.78
364.348	380.27
364.729	369.43
365.111	372.14
365.493	371.01
365.874	347.28
366.256	356.54
366.637	358.58
367.019	336.21
367.4	377.11
367.781	380.27
368.163	359.48
368.544	356.54
368.925	359.26
369.306	343.44
369.688	361.06
370.069	370.56
370.45	378.92
370.831	354.96
371.212	375.75
371.593	371.91
371.974	375.07
372.355	362.19
372.736	374.17
373.117	380.5
373.498	373.27
373.879	385.24
374.26	368.75
374.641	354.96
375.021	373.94
375.402	406.94
375.783	384.34
376.163	387.73
376.544	380.72
376.925	384.34
377.305	391.57
377.686	382.98
378.066	408.07
378.447	398.13
378.827	376.2
379.208	409.2
379.588	401.06
379.968	424.57
380.349	407.84
380.729	421.63
381.109	404.9
381.489	418.92
381.87	404.23
382.25	432.25
382.63	439.25
383.01	436.32
383.39	436.09
383.77	455.75
384.15	455.52
384.53	450.78
384.91	468.18
385.29	451.01
385.67	450.33
386.049	470.89
386.429	475.19
386.809	463.43
387.189	460.04
387.568	454.85
387.948	462.08
388.328	485.35
388.707	495.75
389.087	470.21
389.466	481.96
389.846	491.46
390.225	490.55
390.605	497.78
390.984	503.89
391.363	516.99
391.743	496.88
392.122	518.57
392.501	565.58
392.881	550.21
393.26	531.68
393.639	559.48
394.018	560.83
394.397	550.89
394.776	549.31
395.155	590.66
395.534	563.09
395.913	583.43
396.292	573.04
396.671	598.35
397.05	604.9
397.429	603.32
397.808	586.82
398.186	617.1
398.565	625.92
398.944	639.93
399.323	615.29
399.701	622.07
400.08	630.44
400.458	665.91
400.837	664.56
401.215	678.8
401.594	682.86
401.972	670.43
402.351	686.71
402.729	702.52
403.107	723.77
403.486	712.69
403.864	729.87
404.242	737.78
404.62	758.79
404.999	755.18
405.377	760.38
405.755	786.82
406.133	813.71
406.511	797.66
406.889	850.54
407.267	873.82
407.645	885.8
408.023	928.51
408.401	911.11
408.779	945.46
409.156	974.83
409.534	1010.99
409.912	1007.6
410.29	1053.93
410.667	1050.99
411.045	1092.12
411.422	1106.81
411.8	1166.69
412.178	1170.31
412.555	1207.6
412.933	1213.47
413.31	1250.98
413.687	1278.55
414.065	1359.46
414.442	1344.77
414.819	1385.9
415.197	1396.97
415.574	1457.53
415.951	1450.75
416.328	1492.11
416.705	1491.2
417.082	1537.08
417.46	1553.12
417.837	1584.53
418.214	1611.43
418.591	1656.85
418.967	1645.78
419.344	1690.75
419.721	1702.05
420.098	1736.4
420.475	1759.9
420.852	1820.91
421.228	1831.99
421.605	1842.38
421.982	1869.72
422.358	1897.29
422.735	1945.43
423.111	1939.55
423.488	1962.83
423.864	1995.6
424.241	2024.98
424.617	2030.4
424.994	2084.18
425.37	2147.68
425.746	2099.32
426.123	2128.02
426.499	2173.67
426.875	2208.47
427.251	2264.06
427.627	2309.26
428.003	2318.98
428.379	2388.36
428.756	2379.54
429.132	2434.23
429.507	2467.9
429.883	2495.92
430.259	2553.55
430.635	2576.37
431.011	2566.66
431.387	2669.03
431.763	2709.48
432.138	2708.12
432.514	2770.04
432.89	2771.62
433.265	2873.54
433.641	2910.38
434.016	2914.9
434.392	2959.87
434.767	3031.05
435.143	3012.07
435.518	3094.1
435.894	3102.69
436.269	3205.51
436.644	3204.38
437.02	3217.26
437.395	3291.16
437.77	3304.72
438.145	3373.19
438.52	3410.93
438.895	3429.01
439.271	3478.5
439.646	3544.94
440.021	3534.99
440.395	3556.91
440.77	3536.8
441.145	3570.25
441.52	3691.15
441.895	3672.39
442.27	3678.49
442.645	3677.59
443.019	3723.24
443.394	3755.32
443.769	3797.81
444.143	3782.22
444.518	3858.83
444.892	3856.57
445.267	3904.25
445.641	3909.22
446.016	3971.82
446.39	3984.02
446.764	3959.16
447.139	4021.53
447.513	4036.45
447.887	4086.39
448.262	4034.41
448.636	4103.11
449.01	4145.82
449.384	4205.48
449.758	4196.9
450.132	4236.22
450.506	4290.68
450.88	4305.37
451.254	4343.11
451.628	4409.77
452.002	4460.39
452.376	4480.5
452.75	4460.84
453.123	4528.19
453.497	4591.46
453.871	4706.94
454.244	4746.49
454.618	4801.4
454.992	4838.91
455.365	4843.21
455.739	4965.69
456.112	5029.19
456.486	5034.61
456.859	5063.99
457.232	5161.16
457.606	5209.07
457.979	5204.1
458.352	5366.13
458.725	5414.26
459.099	5480.48
459.472	5562.96
459.845	5634.37
460.218	5666.24
460.591	5698.78
460.964	5743.07
461.337	5942.84
461.71	5955.27
462.083	6082.72
462.456	6038.2
462.829	6083.63
463.201	6209.95
463.574	6254.24
463.947	6307.35
464.32	6513.22
464.692	6529.26
465.065	6590.73
465.438	6688.58
465.81	6813.32
466.183	6814.23
466.555	6941.46
466.928	7051.51
467.3	7053.09
467.672	7172.86
468.045	7300.09
468.417	7352.52
468.789	7377.15
469.161	7479.29
469.534	7646.3
469.906	7798.83
470.278	7829.57
470.65	7983.46
471.022	8146.62
471.394	8195.66
471.766	8317.92
472.138	8450.79
472.51	8632.03
472.882	8722.2
473.253	8783.44
473.625	8958.35
473.997	9102.76
474.369	9218.46
474.74	9329.64
475.112	9446.47
475.484	9607.15
475.855	9798.1
476.227	9889.4
476.598	10116.51
476.97	10240.13
477.341	10478.09
477.713	10598.99
478.084	10674.01
478.455	10987.23
478.827	11071.74
479.198	11445.74
479.569	11404.39
479.94	11697.72
480.311	11781.33
480.682	12114.2
481.053	12306.74
481.424	12560.07
481.795	12599.84
482.166	12824.01
482.537	12915.54
482.908	13304.68
483.279	13397.78
483.65	13718
484.021	13873.7
484.391	14018.11
484.762	14136.97
485.133	14348.04
485.503	14586
485.874	14873
486.244	14938.76
486.615	15165.87
486.985	15385.3
487.356	15659.87
487.726	15791.17
488.097	16184.38
488.467	16099.18
488.837	16490.13
489.207	16774.42
489.578	16894.41
489.948	17139.15
490.318	17303.22
490.688	17357
491.058	17634.51
491.428	17894.84
491.798	18001.96
492.168	18330.31
492.538	18396.07
492.908	18655.27
493.278	18728.72
493.648	18918.09
494.017	19127.35
494.387	19275.82
494.757	19497.74
495.126	19654.79
495.496	19724.4
495.866	19911.96
496.235	20100.21
496.605	20216.36
496.974	20388.79
497.344	20594.88
497.713	20812.73
498.082	20882.11
498.452	21027.19
498.821	21169.78
499.19	21197.58
499.559	21478.7
499.928	21478.7
500.298	21809.77
500.667	21867.84
501.036	21950.33
501.405	22185.8
501.774	22208.63
502.143	22394.16
502.512	22468.73
502.88	22673.47
503.249	22775.84
503.618	22878.66
503.987	22947.81
504.356	23200.01
504.724	23315.71
505.093	23343.51
505.462	23530.85
505.83	23681.81
506.199	24004.51
506.567	24229.14
506.936	24102.36
507.304	24493.31
507.672	24565.63
508.041	24677.94
508.409	24834.77
508.777	25005.84
509.145	25307.07
509.514	25343.01
509.882	25357.02
510.25	25498.48
510.618	25713.62
510.986	25815.99
511.354	26040.61
511.722	26343.66
512.09	26428.18
512.458	26464.56
512.826	26707.94
513.193	26902.96
513.561	27012.57
513.929	27208.27
514.297	27392.9
514.664	27641.7
515.032	27664.98
515.4	27904.97
515.767	28113.78
516.135	28160.78
516.502	28084.4
516.869	28618.4
517.237	28720.54
517.604	28627.67
517.972	28938.84
518.339	29213.86
518.706	29272.39
519.073	29434.42
519.44	29728.65
519.808	29935.88
520.175	30094.75
520.542	30315.53
520.909	30498.12
521.276	30480.27
521.643	30958
522.009	31091.1
522.376	31267.37
522.743	31461.72
523.11	31738.09
523.477	31960.69
523.843	32090.63
524.21	32502.14
524.577	32757.05
524.943	32789.36
525.31	33117.04
525.676	33319.29
526.043	33435
526.409	33538.27
526.776	33961.31
527.142	34133.96
527.508	34309.1
527.874	34572.59
528.241	34766.04
528.607	34834.06
528.973	35116.76
529.339	35214.38
529.705	35529.18
530.071	35755.39
530.437	35870.86
530.803	36116.28
531.169	36320.57
531.535	36402.6
531.901	36471.98
532.267	36681.24
532.632	36907.45
532.998	37012.76
533.364	37201.9
533.73	37428.56
534.095	37637.15
534.461	37834.88
534.826	38056.12
535.192	38104.48
535.557	38449.78
535.923	38281.65
536.288	38569.1
536.653	38800.51
537.019	38617.23
537.384	38957.56
537.749	39082.76
538.114	39199.36
538.479	39198.69
538.845	39526.59
539.21	39419.25
539.575	39695.85
539.94	39821.27
540.305	40153.01
540.67	40074.37
541.034	40248.6
541.399	40406.11
541.764	40462.16
542.129	40688.37
542.494	40821.24
542.858	40965.42
543.223	40979.2
543.587	41306.2
543.952	41246.77
544.316	41396.82
544.681	41474.56
545.045	41703.03
545.41	41885.17
545.774	41937.6
546.138	42051.27
546.503	42239.06
546.867	42247.87
547.231	42611.93
547.595	42672.72
547.959	42719.27
548.324	42785.49
548.688	42914.3
549.052	43161.97
549.416	43187.06
549.779	43307.28
550.143	43327.62
550.507	43618.46
550.871	43882.41
551.235	43757.21
551.599	44177.76
551.962	44140.48
552.326	44308.83
552.689	44633.57
553.053	44428.38
553.417	44581.6
553.78	44979.78
554.143	44923.73
554.507	45168.02
554.87	45180.45
555.234	45676.26
555.597	45312.88
555.96	45666.09
556.323	45857.27
556.686	45855.69
557.05	46141.33
557.413	46202.8
557.776	46215.45
558.139	46643.46
558.502	46585.61
558.865	46826.06
559.228	47043.9
559.59	47182.21
559.953	47299.94
560.316	47645.92
560.679	47499.94
561.041	47909.19
561.404	47977.67
561.767	48169.07
562.129	48070.09
562.492	48530.42
562.854	48477.31
563.217	48586.69
563.579	48865.78
563.941	48979.22
564.304	49059.67
564.666	49302.15
565.028	49393.67
565.39	49487.23
565.753	49602.71
566.115	49783.95
566.477	49988.23
566.839	50122.47
567.201	50449.69
567.563	50369.69
567.925	50565.17
568.287	50592.06
568.648	50749.34
569.01	50992.5
569.372	51178.71
569.734	51082.22
570.095	51348.2
570.457	51415.54
570.819	51520.85
571.18	51457.12
571.542	51768.98
571.903	51795.42
572.265	51916.54
572.626	51880.39
572.987	52120.15
573.349	52125.58
573.71	52250.77
574.071	52361.28
574.432	52484.67
574.794	52746.58
575.155	52695.06
575.516	52617.77
575.877	52869.74
576.238	52866.35
576.599	52921.94
576.96	52989.06
577.32	53051.2
577.681	53235.38
578.042	53307.02
578.403	53307.92
578.763	53376.39
579.124	53394.7
579.485	53538.42
579.845	53613.22
580.206	53569.38
580.566	53621.36
580.927	53639.44
581.287	53748.36
581.648	53692.77
582.008	53889.37
582.368	53816.16
582.728	53958.3
583.089	53868.13
583.449	53963.5
583.809	53893.89
584.169	54038.3
584.529	53982.7
584.889	54128.24
585.249	53972.76
585.609	54025.87
585.969	54156.49
586.329	54013.89
586.688	54177.5
587.048	54110.16
587.408	54084.85
587.768	54199.2
588.127	54153.77
588.487	54125.75
588.846	54364.62
589.206	54171.17
589.565	54219.53
589.925	54375.01
590.284	54337.05
590.643	54313.77
591.003	54435.12
591.362	54488.91
591.721	54407.33
592.08	54472.41
592.44	54556.48
592.799	54566.42
593.158	54460.43
593.517	54469.7
593.876	54567.32
594.235	54554.44
594.593	54498.62
594.952	54668.11
595.311	54596.47
595.67	54588.79
596.029	54806.41
596.387	54706.08
596.746	54865.39
597.104	54733.65
597.463	54728.22
597.822	54843.7
598.18	54767.32
598.538	54738.17
598.897	54960.76
599.255	54677.38
599.613	55125.73
599.972	54954.2
600.33	54981.32
600.688	54846.41
601.046	55050.93
601.404	55116.69
601.762	55076.91
602.12	55214.76
602.478	55189.45
602.836	55120.3
603.194	55017.71
603.552	55145.84
603.91	55040.3
604.268	55229
604.625	55095.44
604.983	55240.07
605.341	55131.6
605.698	55271.71
606.056	55308.55
606.413	55321.88
606.771	55327.75
607.128	55428.99
607.485	55260.64
607.843	55340.64
608.2	55444.59
608.557	55537.01
608.914	55468.32
609.272	55531.82
609.629	55572.27
609.986	55604.13
610.343	55494.08
610.7	55761.64
611.057	55667.63
611.414	55658.37
611.771	55692.49
612.127	55829.21
612.484	55779.49
612.841	55910.34
613.198	55760.51
613.554	55730.91
613.911	55992.37
614.267	55931.13
614.624	55881.86
614.98	55972.48
615.337	56112.14
615.693	56027.17
616.05	55999.15
616.406	56093.61
616.762	56031.69
617.118	56025.14
617.475	55999.83
617.831	56158.69
618.187	56193.49
618.543	56143.1
618.899	56282.53
619.255	56282.53
619.611	56233.95
619.967	56264.45
620.323	56404.34
620.678	56193.27
621.034	56141.74
621.39	56197.56
621.746	56178.13
622.101	56477.78
622.457	56256.09
622.812	56336.09
623.168	56418.12
623.523	56436.2
623.879	56450.89
624.234	56297.22
624.589	56383.55
624.945	56429.87
625.3	56418.57
625.655	56390.33
626.01	56388.29
626.365	56344.68
626.72	56320.27
627.075	56360.95
627.43	56301.29
627.785	56300.84
628.14	56398.69
628.495	56343.77
628.85	56376.09
629.205	56272.59
629.559	56440.27
629.914	56314.62
630.269	56345.81
630.623	56312.81
630.978	56257.9
631.332	56378.8
631.687	56376.77
632.041	56289.31
632.396	56363.89
632.75	56149.2
633.104	56288.86
633.459	56222.19
633.813	56154.85
634.167	56161.86
634.521	56131.8
634.875	56178.58
635.229	56144
635.583	56028.75
635.937	56060.16
636.291	56013.84
636.645	56143.78
636.999	56023.78
637.352	56116.21
637.706	55989.43
638.06	56044.12
638.413	55904.91
638.767	55845.03
639.121	56010.22
639.474	55878.47
639.828	55944.91
640.181	55902.2
640.534	55890.23
640.888	55812.71
641.241	55708.08
641.594	55784.01
641.947	55858.81
642.301	55796.44
642.654	55832.37
643.007	55734.3
643.36	55732.26
643.713	55657.24
644.066	55751.25
644.419	55651.14
644.771	55407.98
645.124	55201.43
645.477	55093.41
645.83	55039.85
646.182	54885.51
646.535	54820.42
646.888	54884.83
647.24	54757.6
647.593	54916.01
647.945	54889.8
648.298	54711.73
648.65	54721.44
649.002	54643.7
649.355	54761.44
649.707	54729.35
650.059	54918.95
650.411	55211.15
650.763	55261.09
651.115	55467.41
651.467	55451.37
651.819	55319.84
652.171	55310.35
652.523	55293.18
652.875	55299.96
653.227	55154.65
653.578	55332.95
653.93	55248.66
654.282	55184.48
654.633	55102.22
654.985	55228.32
655.337	55210.92
655.688	55189.45
656.039	55205.5
656.391	55018.38
656.742	55048.67
657.094	55080.53
657.445	55136.35
657.796	55128.44
658.147	55052.06
658.498	55130.92
658.849	55079.85
659.2	55094.31
659.551	54918.73
659.902	55041.43
660.253	55033.07
660.604	54991.49
660.955	54918.95
661.306	55068.78
661.656	54960.53
662.007	54960.76
662.358	54940.19
662.708	54944.04
663.059	54905.84
663.409	54756.47
663.76	54937.48
664.11	54929.57
664.461	54912.62
664.811	54924.38
665.161	54916.47
665.511	54807.32
665.862	54834.66
666.212	54918.73
666.562	54872.85
666.912	54871.95
667.262	54768.9
667.612	54761.44
667.962	54866.07
668.312	54710.37
668.662	54864.49
669.011	54725.28
669.361	54680.31
669.711	54706.08
670.06	54579.07
670.41	54560.09
670.76	54560.99
671.109	54676.25
671.459	54594.44
671.808	54539.75
672.157	54627.89
672.507	54467.21
672.856	54417.5
673.205	54580.66
673.554	54476.93
673.904	54349.7
674.253	54559.41
674.602	54408.23
674.951	53942.25
675.3	53885.76
675.649	54314
675.998	54231.06
676.346	54275.13
676.695	54319.65
677.044	54121.23
677.393	54260.44
677.741	54209.37
678.09	54169.37
678.438	54062.25
678.787	54069.93
679.135	54071.29
679.484	53842.14
679.832	53994
680.181	53777.74
680.529	53891.18
680.877	53755.59
681.225	53737.97
681.573	53905.42
681.922	53569.61
682.27	53561.47
682.618	53568.48
682.966	53566.67
683.314	53606.44
683.661	53481.02
684.009	53337.52
684.357	53188.38
684.705	53152.44
685.053	53284.64
685.4	53181.37
685.748	53001.26
686.095	53009.4
686.443	52861.15
686.79	52839.23
687.138	52946.35
687.485	52767.37
687.832	52620.71
688.18	52743.19
688.527	52491.9
688.874	52446.02
689.221	52408.73
689.568	52410.99
689.915	52183.66
690.262	52223.43
690.609	52145.24
690.956	52006.49
691.303	52020.95
691.65	51828.19
691.997	51886.04
692.344	51622.09
692.69	51643.78
693.037	51700.96
693.383	51367.86
693.73	51484.24
694.077	51211.93
694.423	51305.49
694.769	51140.97
695.116	51022.1
695.462	51016.23
695.808	50853.97
696.155	51009
696.501	50533.98
696.847	50732.17
697.193	50379.64
697.539	50574.66
697.885	50298.28
698.231	50176.25
698.577	50213.31
698.923	50103.03
699.269	50007.44
699.614	49707.79
699.96	49763.83
700.306	49667.34
700.651	49493.11
700.997	49451.07
701.342	49436.84
701.688	49419.66
702.033	49355.48
702.379	49303.73
702.724	48985.77
703.069	49102.83
703.415	48782.39
703.76	48737.19
704.105	48804.08
704.45	48684.54
704.795	48403.42
705.14	48313.25
705.485	48358.9
705.83	48193.93
706.175	48178.79
706.52	48040.26
706.865	47934.73
707.209	47987.61
707.554	47815.41
707.899	47939.7
708.243	47670.1
708.588	47626.26
708.932	47260.62
709.277	47372.48
709.621	47350.34
709.966	47015.43
710.31	47154.41
710.654	46802.78
710.998	46817.92
711.342	46900.86
711.687	46698.38
712.031	46625.84
712.375	46523.24
712.719	46466.07
713.063	46379.97
713.407	46632.62
713.75	46375
714.094	46382
714.438	46104.27
714.782	46065.62
715.125	46011.62
715.469	46002.35
715.812	45848
716.156	45652.3
716.499	45650.49
716.843	45711.96
717.186	45446.66
717.53	45565.98
717.873	45510.84
718.216	45429.03
718.559	45215.48
718.902	45001.7
719.246	45100.68
719.589	45008.93
719.932	44719.9
720.275	44711.54
720.617	44829.05
720.96	44625.66
721.303	44698.2
721.646	44643.06
721.989	44312.9
722.331	44464.99
722.674	44373.24
723.016	44511.09
723.359	44281.04
723.701	44323.3
724.044	44037.88
724.386	43714.05
724.729	44059.35
725.071	43934.16
725.413	43886.7
725.755	43986.13
726.097	43526.26
726.439	43492.36
726.782	43472.47
727.124	43670.66
727.465	43456.2
727.807	43515.64
728.149	43296.88
728.491	43175.98
728.833	43212.14
729.175	43080.17
729.516	43024.8
729.858	42948.42
730.199	42970.57
730.541	42881.3
730.882	42914.52
731.224	42945.48
731.565	42656
731.906	42727.18
732.248	42760.85
732.589	42526.51
732.93	42386.17
733.271	42420.07
733.612	42518.83
733.953	42599.73
734.294	42424.82
734.635	42246.29
734.976	42382.56
735.317	42107.08
735.658	42105.05
735.999	41963.13
736.339	41886.98
736.68	42142.34
737.021	41954.77
737.361	41650.6
737.702	41858.05
738.042	41738.28
738.383	41630.49
738.723	41679.53
739.063	41685.85
739.404	41632.97
739.744	41583.71
740.084	41444.5
740.424	41272.76
740.764	41222.81
741.104	41301.46
741.444	41177.39
741.784	41030.96
742.124	41140.56
742.464	41091.07
742.804	40957.96
743.143	40965.87
743.483	41002.71
743.823	40740.12
744.162	40720.45
744.502	40824.86
744.841	40616.28
745.181	40591.87
745.52	40640.68
745.86	40619.21
746.199	40457.18
746.538	40498.77
746.877	40381.93
747.216	40394.36
747.556	40314.36
747.895	40328.83
748.234	40169.06
748.573	40060.59
748.911	39988.5
749.25	39938.1
749.589	39768.39
749.928	39824.89
750.267	39848.61
750.605	39812.91
750.944	39536.31
751.283	39453.82
751.621	39568.62
751.96	39449.53
752.298	39469.64
752.636	39484.33
752.975	39113.72
753.313	39013.83
