Data from White_reflection_standard_FLMS001491_048.txt Node
Date: Tue Feb 07 10:32:04 GMT 2017
User: dcchb
Spectrometer: FLMS00149
Trigger mode: 0
Integration Time (sec): 2.000000E-2
Scans to average: 10
Electric dark correction enabled: true
Nonlinearity correction enabled: false
Boxcar width: 0
XAxis mode: Wavelengths
Number of Pixels in Spectrum: 2048
>>>>>Begin Spectral Data<<<<<
341.393	7.51
341.776	7.51
342.16	7.51
342.543	-54.41
342.927	-65.93
343.31	-71.13
343.693	-76.33
344.077	-71.13
344.46	-51.92
344.843	-59.15
345.226	-30.45
345.61	-36.55
345.993	-26.38
346.376	-11.02
346.759	12.71
347.142	29.66
347.525	54.07
347.908	53.16
348.291	92.26
348.674	97.91
349.057	94.29
349.44	128.19
349.823	152.14
350.206	181.75
350.588	244.57
350.971	235.53
351.354	271.24
351.737	284.79
352.119	303.1
352.502	318.01
352.884	301.29
353.267	327.73
353.65	318.69
354.032	346.26
354.414	357.79
354.797	376.09
355.179	384.68
355.562	385.58
355.944	385.58
356.326	396.2
356.709	393.49
357.091	381.97
357.473	400.5
357.855	404.34
358.238	409.54
358.62	394.4
359.002	424.23
359.384	390.78
359.766	414.06
360.148	400.05
360.53	397.56
360.912	389.42
361.294	410.22
361.676	402.53
362.057	402.08
362.439	401.18
362.821	435.53
363.203	424.45
363.584	395.98
363.966	412.93
364.348	405.47
364.729	416.54
365.111	432.36
365.493	408.18
365.874	411.57
366.256	413.6
366.637	438.01
367.019	409.31
367.4	403.66
367.781	411.57
368.163	426.49
368.544	429.2
368.925	422.19
369.306	413.83
369.688	431.91
370.069	438.46
370.45	439.37
370.831	436.2
371.212	430.78
371.593	429.2
371.974	440.04
372.355	435.75
372.736	438.46
373.117	452.7
373.498	440.72
373.879	442.08
374.26	422.64
374.641	447.73
375.021	441.17
375.402	461.97
375.783	471.46
376.163	489.31
376.544	496.77
376.925	492.92
377.305	493.38
377.686	489.08
378.066	490.44
378.447	512.59
378.827	488.86
379.208	523.21
379.588	530.66
379.968	529.53
380.349	542.19
380.729	524.79
381.109	522.75
381.489	557.78
381.87	554.62
382.25	536.09
382.63	558.91
383.01	563.88
383.39	557.78
383.77	574.5
384.15	555.75
384.53	576.99
384.91	566.82
385.29	600.94
385.67	574.05
386.049	590.32
386.429	592.81
386.809	629.42
387.189	648.85
387.568	629.42
387.948	641.4
388.328	667.16
388.707	678.46
389.087	655.41
389.466	670.32
389.846	665.12
390.225	691.56
390.605	689.53
390.984	694.5
391.363	723.88
391.743	720.94
392.122	726.14
392.501	737.21
392.881	728.85
393.26	766.14
393.639	729.53
394.018	769.08
394.397	786.02
394.776	794.61
395.155	774.05
395.534	801.17
395.913	809.98
396.292	807.49
396.671	798.91
397.05	840.49
397.429	823.99
397.808	820.37
398.186	859.92
398.565	876.87
398.944	876.64
399.323	870.54
399.701	898.34
400.08	901.05
400.458	907.15
400.837	915.06
401.215	924.55
401.594	925.91
401.972	951.44
402.351	954.61
402.729	941.05
403.107	961.39
403.486	984.44
403.864	1004.1
404.242	1016.07
404.62	1040.93
404.999	1050.88
405.377	1023.08
405.755	1056.98
406.133	1066.92
406.511	1094.72
406.889	1091.1
407.267	1127.03
407.645	1120.25
408.023	1122.51
408.401	1150.76
408.779	1179.23
409.156	1157.99
409.534	1186.47
409.912	1235.96
410.29	1252.68
410.667	1241.38
411.045	1281.6
411.422	1280.93
411.8	1305.78
412.178	1296.07
412.555	1331.55
412.933	1366.8
413.31	1392.34
413.687	1395.05
414.065	1414.03
414.442	1428.04
414.819	1460.13
415.197	1444.31
415.574	1477.98
415.951	1500.81
416.328	1532.9
416.705	1520.24
417.082	1535.61
417.46	1559.11
417.837	1543.52
418.214	1593.91
418.591	1600.69
418.967	1618.77
419.344	1635.27
419.721	1659.45
420.098	1668.49
420.475	1684.53
420.852	1717.07
421.228	1724.3
421.605	1735.6
421.982	1761.59
422.358	1768.82
422.735	1794.81
423.111	1817.41
423.488	1869.39
423.864	1837.52
424.241	1856.73
424.617	1913.23
424.994	1909.38
425.37	1945.32
425.746	1960.68
426.123	2011.53
426.499	1957.97
426.875	2018.99
427.251	2059.44
427.627	2132.66
428.003	2113
428.379	2152.32
428.756	2192.09
429.132	2202.71
429.507	2255.59
429.883	2265.31
430.259	2340.11
430.635	2340.11
431.011	2335.81
431.387	2424.17
431.763	2432.31
432.138	2439.54
432.514	2483.16
432.89	2536.94
433.265	2570.84
433.641	2576.26
434.016	2654.9
434.392	2662.13
434.767	2729.93
435.143	2749.81
435.518	2767.89
435.894	2783.03
436.269	2825.29
436.644	2837.72
437.02	2932.63
437.395	2879.75
437.77	2973.31
438.145	3003.82
438.52	3052.18
438.895	3082.46
439.271	3096.92
439.646	3137.6
440.021	3169.69
440.395	3181.22
440.77	3161.78
441.145	3226.86
441.52	3251.27
441.895	3274.55
442.27	3319.74
442.645	3291.72
443.019	3363.13
443.394	3373.08
443.769	3399.74
444.143	3362.91
444.518	3489.68
444.892	3456.01
445.267	3472.51
445.641	3520.19
446.016	3535.78
446.39	3567.19
446.764	3608.32
447.139	3634.09
447.513	3628.44
447.887	3656.01
448.262	3707.08
448.636	3720.86
449.01	3820.75
449.384	3835.21
449.758	3829.56
450.132	3895.32
450.506	3949.11
450.88	3927.41
451.254	3936.22
451.628	4007.18
452.002	4062.77
452.376	4105.94
452.75	4131.93
453.123	4216.22
453.497	4258.25
453.871	4240.62
454.244	4354.07
454.618	4423.67
454.992	4487.17
455.365	4463.89
455.739	4617.56
456.112	4626.6
456.486	4681.29
456.859	4696.66
457.232	4788.86
457.606	4806.48
457.979	4904.56
458.352	4960.38
458.725	5048.06
459.099	5081.28
459.472	5148.62
459.845	5239.47
460.218	5243.53
460.591	5346.13
460.964	5352.23
461.337	5462.74
461.71	5543.41
462.083	5628.16
462.456	5674.03
462.829	5702.05
463.201	5845.1
463.574	5810.98
463.947	5941.14
464.32	6047.58
464.692	6107.92
465.065	6145.88
465.438	6209.16
465.81	6282.83
466.183	6374.13
466.555	6530.73
466.928	6551.07
467.3	6568.92
467.672	6666.77
468.045	6813.66
468.417	6867.22
468.789	6909.25
469.161	7055.01
469.534	7127.55
469.906	7302.69
470.278	7351.95
470.65	7479.86
471.022	7587.65
471.394	7738.61
471.766	7838.95
472.138	7894.99
472.51	8117.81
472.882	8212.27
473.253	8309.44
473.625	8439.38
473.997	8611.81
474.369	8668.76
474.74	8788.75
475.112	8892.25
475.484	9086.82
475.855	9268.06
476.227	9353.48
476.598	9583.53
476.97	9679.12
477.341	9885.45
477.713	10084.31
478.084	10131.99
478.455	10449.95
478.827	10428.93
479.198	10792.77
479.569	10833.9
479.94	11105.98
480.311	11215.58
480.682	11510.26
481.053	11762.91
481.424	11908.44
481.795	12031.15
482.166	12209
482.537	12461.65
482.908	12644.24
483.279	12825.26
483.65	13004.91
484.021	13264.57
484.391	13490.1
484.762	13563.99
485.133	13708.85
485.503	13925.57
485.874	14204.43
486.244	14308.38
486.615	14716.05
486.985	14787.24
487.356	15040.11
487.726	15133.44
488.097	15444.17
488.467	15570.49
488.837	15940.65
489.207	16122.8
489.578	16421.32
489.948	16487.98
490.318	16721.88
490.688	16810.91
491.058	17030.34
491.428	17230.56
491.798	17500.16
492.168	17770.66
492.538	17857.67
492.908	18026.7
493.278	18325.9
493.648	18370.42
494.017	18615.16
494.387	18813.35
494.757	18859.67
495.126	19179.89
495.496	19146.67
495.866	19403.61
496.235	19590.28
496.605	19836.15
496.974	19929.02
497.344	20148.45
497.713	20218.96
498.082	20367.88
498.452	20532.62
498.821	20741.66
499.19	20824.82
499.559	20988.66
499.928	21105.94
500.298	21186.39
500.667	21480.85
501.036	21453.5
501.405	21691.01
501.774	21886.71
502.143	21970.1
502.512	22087.39
502.88	22299.36
503.249	22402.86
503.618	22620.7
503.987	22679.91
504.356	22748.38
504.724	22919.91
505.093	23087.13
505.462	23276.73
505.83	23379.78
506.199	23472.43
506.567	23840.33
506.936	23879.88
507.304	24158.07
507.672	24201.45
508.041	24347.89
508.409	24539.52
508.777	24783.59
509.145	24959.4
509.514	24970.47
509.882	25234.65
510.25	25372.04
510.618	25640.96
510.986	25718.25
511.354	25947.62
511.722	26187.39
512.09	26371.34
512.458	26378.8
512.826	26744.21
513.193	26823.76
513.561	26892.46
513.929	27067.14
514.297	27431.43
514.664	27588.03
515.032	27646.56
515.4	27943.73
515.767	28056.72
516.135	28286.09
516.502	28252.42
516.869	28712.52
517.237	28975.57
517.604	28655.35
517.972	29270.25
518.339	29470.92
518.706	29434.99
519.073	29663.46
519.44	29857.58
519.808	30254.18
520.175	30298.02
520.542	30620.72
520.909	30851.22
521.276	30860.26
521.643	31415.5
522.009	31457.99
522.376	31637.87
522.743	31857.75
523.11	32199.89
523.477	32482.59
523.843	32580.44
524.21	33088.45
524.577	33178.39
524.943	33426.52
525.31	33691.15
525.676	34016.56
526.043	34152.83
526.409	34364.35
526.776	34722.76
527.142	34818.12
527.508	35030.77
527.874	35289.3
528.241	35539.01
528.607	35517.09
528.973	35905.1
529.339	36021.71
529.705	36431.41
530.071	36556.61
530.437	36825.53
530.803	37139.19
531.169	37276.14
531.535	37241.56
531.901	37402.91
532.267	37580.09
532.632	37921.55
532.998	38003.13
533.364	38152.05
533.73	38190.46
534.095	38612.37
534.461	38684.01
534.826	38961.52
535.192	39085.13
535.557	39319.47
535.923	39296.88
536.288	39660.03
536.653	39793.36
537.019	39759.69
537.384	39871.1
537.749	40135.95
538.114	40266.79
538.479	40294.82
538.845	40552.21
539.21	40540.91
539.575	40741.81
539.94	40986.32
540.305	41109.71
540.67	40976.83
541.034	41348.57
541.399	41382.25
541.764	41584.95
542.129	41870.14
542.494	41895.9
542.858	42058.16
543.223	42190.13
543.587	42373.63
543.952	42266.06
544.316	42421.54
544.681	42411.82
545.045	42744.7
545.41	42996.44
545.774	43032.15
546.138	43207.96
546.503	43289.09
546.867	43316.88
547.231	43806.59
547.595	43719.58
547.959	43760.04
548.324	43923.65
548.688	44049.52
549.052	44272.56
549.416	44271.43
549.779	44408.15
550.143	44549.85
550.507	44898.08
550.871	44979.66
551.235	44996.84
551.599	45263.5
551.962	45484.06
552.326	45527.45
552.689	45669.59
553.053	45548.24
553.417	45657.16
553.78	46295.56
554.143	46188.22
554.507	46318.61
554.87	46494.2
555.234	46943.23
555.597	46767.41
555.96	47005.15
556.323	47179.83
556.686	47214.18
557.05	47488.53
557.413	47526.72
557.776	47634.28
558.139	47787.5
558.502	48005.8
558.865	48114.72
559.228	48421.83
559.59	48533.7
559.953	48618.44
560.316	49078.99
560.679	48996.06
561.041	49321.25
561.404	49359.21
561.767	49671.07
562.129	49652.54
562.492	49976.82
562.854	50030.61
563.217	50042.36
563.579	50176.82
563.941	50456.36
564.304	50440.99
564.666	50816.12
565.028	50764.15
565.39	51018.15
565.753	51127.07
566.115	51275.32
566.477	51387.18
566.839	51519.61
567.201	51727.74
567.563	51761.41
567.925	51951.01
568.287	52030.33
568.648	51995.07
569.01	52295.18
569.372	52471.9
569.734	52326.14
570.095	52569.97
570.457	52776.3
570.819	52730.2
571.18	52802.96
571.542	53023.07
571.903	53034.14
572.265	53223.52
572.626	53213.35
572.987	53292.21
573.349	53395.26
573.71	53457.18
574.071	53647.01
574.432	53643.62
574.794	53832.54
575.155	53788.47
575.516	53806.55
575.877	53971.74
576.238	53952.76
576.599	54071.4
576.96	54149.37
577.32	54065.53
577.681	54315.24
578.042	54336.25
578.403	54295.8
578.763	54367.89
579.124	54374.9
579.485	54440.21
579.845	54585.97
580.206	54484.27
580.566	54570.83
580.927	54568.57
581.287	54687.43
581.648	54522.69
582.008	54702.35
582.368	54637.04
582.728	54749.13
583.089	54646.76
583.449	54689.92
583.809	54821.21
584.169	54800.65
584.529	54673.87
584.889	54898.5
585.249	54721.1
585.609	54740.54
585.969	54793.87
586.329	54811.04
586.688	54844.04
587.048	54846.3
587.408	54739.18
587.768	54792.97
588.127	54818.05
588.487	54747.54
588.846	54936.69
589.206	54782.12
589.565	54784.83
589.925	54970.81
590.284	54759.97
590.643	54858.28
591.003	54926.07
591.362	54958.16
591.721	54994.99
592.08	54877.03
592.44	54982.79
592.799	55053.98
593.158	54964.49
593.517	54981.44
593.876	55010.81
594.235	54964.94
594.593	54918.84
594.952	55077.48
595.311	54946.41
595.67	55036.8
596.029	55229.56
596.387	55270.69
596.746	55278.15
597.104	55153.63
597.463	55087.65
597.822	55233.18
598.18	55123.58
598.538	55079.96
598.897	55328.77
599.255	55043.81
599.613	55465.04
599.972	55285.16
600.33	55272.05
600.688	55214.2
601.046	55399.5
601.404	55407.87
601.762	55436.11
602.12	55519.95
602.478	55427.07
602.836	55497.13
603.194	55296.68
603.552	55381.65
603.91	55345.27
604.268	55497.58
604.625	55409.67
604.983	55625.71
605.341	55490.12
605.698	55621.42
606.056	55648.08
606.413	55577.8
606.771	55779.61
607.128	55795.43
607.485	55594.53
607.843	55682.89
608.2	55783
608.557	55858.02
608.914	55773.51
609.272	55954.97
609.629	56002.65
609.986	56084.68
610.343	55947.29
610.7	56057.79
611.057	56054.18
611.414	56072.03
611.771	56126.04
612.127	56180.5
612.484	56106.6
612.841	56192.25
613.198	56144.79
613.554	56156.55
613.911	56255.07
614.267	56292.81
614.624	56212.82
614.98	56326.71
615.337	56369.65
615.693	56278.35
616.05	56331.46
616.406	56475.86
616.762	56411.45
617.118	56346.82
617.475	56430.66
617.831	56424.56
618.187	56447.39
618.543	56556.31
618.899	56635.63
619.255	56595.18
619.611	56427.5
619.967	56619.36
620.323	56668.62
620.678	56577.33
621.034	56537.33
621.39	56502.75
621.746	56549.08
622.101	56772.12
622.457	56569.19
622.812	56634.73
623.168	56674.72
623.523	56676.98
623.879	56772.58
624.234	56535.52
624.589	56627.04
624.945	56566.25
625.3	56676.98
625.655	56639.92
626.01	56616.65
626.365	56616.87
626.72	56573.48
627.075	56624.1
627.43	56635.4
627.785	56552.24
628.14	56614.84
628.495	56604.9
628.85	56589.98
629.205	56455.97
629.559	56618.45
629.914	56486.03
630.269	56598.34
630.623	56442.64
630.978	56345.47
631.332	56456.2
631.687	56537.78
632.041	56324
632.396	56432.7
632.75	56327.84
633.104	56362.87
633.459	56194.96
633.813	56190.44
634.167	56250.33
634.521	56116.55
634.875	56097.79
635.229	56092.14
635.583	55982.31
635.937	55996.55
636.291	55980.73
636.645	55927.85
636.999	55890.79
637.352	55910.45
637.706	55770.34
638.06	55912.26
638.413	55834.07
638.767	55739.16
639.121	55797.69
639.474	55533.29
639.828	55649.89
640.181	55687.18
640.534	55687.86
640.888	55487.86
641.241	55475.21
641.594	55562.44
641.947	55599.5
642.301	55505.72
642.654	55448.99
643.007	55387.07
643.36	55368.54
643.713	55322.44
644.066	55377.36
644.419	55162.67
644.771	55046.74
645.124	54714.78
645.477	54728.33
645.83	54534.44
646.182	54388.23
646.535	54296.93
646.888	54346.42
647.24	54215.35
647.593	54397.95
647.945	54290.38
648.298	54132.87
648.65	54098.75
649.002	54000.9
649.355	54117.73
649.707	54052.87
650.059	54123.15
650.411	54566.76
650.763	54599.75
651.115	54847.2
651.467	54574.44
651.819	54649.24
652.171	54557.49
652.523	54514.78
652.875	54509.36
653.227	54386.42
653.578	54477.95
653.93	54406.99
654.282	54232.53
654.633	54254
654.985	54266.88
655.337	54250.61
655.688	54236.37
656.039	54288.57
656.391	54192.98
656.742	54161.57
657.094	54150.72
657.445	54247.44
657.796	54181.46
658.147	54069.37
658.498	54065.53
658.849	54117.96
659.2	54013.1
659.551	53993.44
659.902	54050.61
660.253	53946.66
660.604	53982.14
660.955	53922.93
661.306	53959.09
661.656	53953.21
662.007	53886.32
662.358	53852.88
662.708	53948.47
663.059	53760.45
663.409	53658.76
663.76	53816.04
664.11	53820.34
664.461	53828.47
664.811	53849.94
665.161	53774.69
665.511	53602.26
665.862	53694.01
666.212	53799.55
666.562	53763.39
666.912	53697.4
667.262	53570.85
667.612	53621.25
667.962	53694.46
668.312	53605.88
668.662	53715.48
669.011	53592.55
669.361	53574.24
669.711	53426.9
670.06	53447.69
670.41	53432.1
670.76	53362.5
671.109	53522.04
671.459	53426
671.808	53410.4
672.157	53422.15
672.507	53104.2
672.856	53256.06
673.205	53279.79
673.554	53392.55
673.904	53122.28
674.253	53318.2
674.602	53192.56
674.951	52668.05
675.3	52540.37
675.649	53136.06
675.998	53075.5
676.346	53118.43
676.695	53188.04
677.044	52864.66
677.393	52920.02
677.741	53040.7
678.09	52861.27
678.438	52877.54
678.787	52898.78
679.135	52844.54
679.484	52693.81
679.832	52811.32
680.181	52598
680.529	52725.22
680.877	52646.36
681.225	52606.58
681.573	52725.9
681.922	52453.82
682.27	52478
682.618	52382.86
682.966	52286.14
683.314	52387.83
683.661	52268.29
684.009	52034.85
684.357	51951.23
684.705	51996.66
685.053	52007.28
685.4	51952.14
685.748	51793.27
686.095	51713.05
686.443	51626.27
686.79	51616.78
687.138	51591.24
687.485	51521.64
687.832	51427.63
688.18	51410
688.527	51271.02
688.874	51291.82
689.221	51187.19
689.568	51102.89
689.915	50977.47
690.262	50984.03
690.609	50824.93
690.956	50743.36
691.303	50702.68
691.65	50535.22
691.997	50550.59
692.344	50358.05
692.69	50274.44
693.037	50259.53
693.383	49918.29
693.73	50133.88
694.077	49907.9
694.423	49924.39
694.769	49810.95
695.116	49661.35
695.462	49495.03
695.808	49492.54
696.155	49568.24
696.501	49293
696.847	49213.23
697.193	49092.55
697.539	49082.83
697.885	48781.82
698.231	48738.66
698.577	48762.62
698.923	48615.05
699.269	48454.83
699.614	48189.75
699.96	48223.2
700.306	48212.12
700.651	48007.83
700.997	47976.65
701.342	47873.6
701.688	47712.25
702.033	47601.29
702.379	47566.49
702.724	47513.16
703.069	47585.25
703.415	47167.4
703.76	47209.66
704.105	47121.98
704.45	46980.52
704.795	46705.95
705.14	46656.46
705.485	46599.74
705.83	46471.15
706.175	46539.62
706.52	46335.11
706.865	46145.74
707.209	46167.2
707.554	46024.16
707.899	45991.62
708.243	45821.45
708.588	45747.33
708.932	45580.78
709.277	45399.99
709.621	45479.76
709.966	45309.37
710.31	45314.35
710.654	44933.79
710.998	45063.73
711.342	44980.34
711.687	44937.63
712.031	44763.85
712.375	44584.42
712.719	44615.38
713.063	44570.86
713.407	44633.69
713.75	44385.1
714.094	44315.05
714.438	44169.74
714.782	44177.43
715.125	44096.98
715.469	44131.33
715.812	43861.95
716.156	43640.26
716.499	43656.31
716.843	43685.46
717.186	43430.78
717.53	43663.77
717.873	43571.57
718.216	43396.43
718.559	43271.46
718.902	42903.79
719.246	43025.59
719.589	42855.2
719.932	42792.15
720.275	42769.55
720.617	42793.96
720.96	42648.88
721.303	42695.21
721.646	42754.19
721.989	42337.7
722.331	42564.14
722.674	42333.18
723.016	42345.61
723.359	42229.91
723.701	42133.86
724.044	41988.11
724.386	41859.07
724.729	41946.75
725.071	41786.75
725.413	41744.04
725.755	41695.68
726.097	41649.58
726.439	41405.3
726.782	41423.37
727.124	41574.1
727.465	41386.99
727.807	41269.25
728.149	41110.61
728.491	41128.47
728.833	41093.89
729.175	40924.18
729.516	40925.31
729.858	40891.64
730.199	40848.47
730.541	40701.59
730.882	40689.38
731.224	40861.35
731.565	40380.01
731.906	40561.02
732.248	40544.53
732.589	40259.56
732.93	40223.41
733.271	40081.94
733.612	40240.58
733.953	40234.25
734.294	40081.49
734.635	39835.39
734.976	39982.51
735.317	39813.25
735.658	39774.6
735.999	39676.3
736.339	39582.29
736.68	39747.49
737.021	39465.01
737.361	39422.97
737.702	39566.25
738.042	39332.81
738.383	39321.28
738.723	39197.9
739.063	39135.52
739.404	39247.39
739.744	39072.93
740.084	38879.71
740.424	39039.93
740.764	38880.16
741.104	38932.37
741.444	38754.29
741.784	38675.2
742.124	38686.27
742.464	38542.32
742.804	38566.95
743.143	38335.09
743.483	38481.98
743.823	38368.77
744.162	38215.1
744.502	38224.81
744.841	38118.6
745.181	38183.46
745.52	38003.8
745.86	37979.17
746.199	37806.07
746.538	37894.88
746.877	37809.91
747.216	37954.09
747.556	37825.05
747.895	37799.74
748.234	37418.96
748.573	37328.57
748.911	37340.54
749.25	37329.92
749.589	37154.56
749.928	37266.42
750.267	37240.43
750.605	37161.11
750.944	37041.12
751.283	36903.72
751.621	37057.84
751.96	36752.54
752.298	36722.48
