Data from White_reflection_standard_FLMS001491_009.txt Node
Date: Tue Feb 07 10:31:57 GMT 2017
User: dcchb
Spectrometer: FLMS00149
Trigger mode: 0
Integration Time (sec): 2.000000E-2
Scans to average: 10
Electric dark correction enabled: true
Nonlinearity correction enabled: false
Boxcar width: 0
XAxis mode: Wavelengths
Number of Pixels in Spectrum: 2048
>>>>>Begin Spectral Data<<<<<
341.393	-6.62
341.776	-6.62
342.16	-6.62
342.543	-57.7
342.927	-72.84
343.31	-83.23
343.693	-70.8
344.077	-50.24
344.46	-80.52
344.843	-41.2
345.226	-50.69
345.61	-38.94
345.993	-14.53
346.376	6.26
346.759	13.71
347.142	26.14
347.525	55.07
347.908	79.25
348.291	65.69
348.674	87.84
349.057	96.2
349.44	137.1
349.823	143.88
350.206	160.83
350.588	233.14
350.971	256.65
351.354	264.78
351.737	279.24
352.119	279.24
352.502	290.09
352.884	308.62
353.267	317.44
353.65	333.03
354.032	340.26
354.414	335.74
354.797	352.01
355.179	368.06
355.562	367.83
355.944	377.77
356.326	380.48
356.709	385.23
357.091	379.81
357.473	410.54
357.855	397.66
358.238	410.31
358.62	412.57
359.002	410.54
359.384	393.37
359.766	410.77
360.148	403.08
360.53	387.26
360.912	403.53
361.294	414.38
361.676	392.46
362.057	419.35
362.439	421.16
362.821	413.7
363.203	408.05
363.584	408.73
363.966	406.7
364.348	413.48
364.729	410.99
365.111	417.77
365.493	388.85
365.874	396.53
366.256	418.22
366.637	410.09
367.019	385.68
367.4	397.43
367.781	418.68
368.163	413.03
368.544	391.56
368.925	427.26
369.306	423.42
369.688	423.42
370.069	425.45
370.45	432.91
370.831	441.95
371.212	432.91
371.593	437.88
371.974	447.15
372.355	421.84
372.736	473.14
373.117	449.64
373.498	452.12
373.879	438.56
374.26	461.39
374.641	433.36
375.021	417.55
375.402	442.86
375.783	462.74
376.163	510.2
376.544	512.23
376.925	477.66
377.305	491.22
377.686	497.09
378.066	481.05
378.447	513.36
378.827	522.4
379.208	501.61
379.588	511.33
379.968	509.75
380.349	517.66
380.729	515.85
381.109	539.58
381.489	553.36
381.87	539.12
382.25	545.23
382.63	538.22
383.01	551.55
383.39	544.77
383.77	544.1
384.15	571.21
384.53	574.83
384.91	576.86
385.29	587.94
385.67	593.81
386.049	598.56
386.429	606.24
386.809	632.23
387.189	612.34
387.568	610.76
387.948	627.94
388.328	652.12
388.707	652.79
389.087	650.76
389.466	661.61
389.846	657.09
390.225	664.54
390.605	670.42
390.984	693.92
391.363	704.77
391.743	699.57
392.122	718.55
392.501	735.96
392.881	737.31
393.26	734.6
393.639	776.86
394.018	734.83
394.397	768.27
394.776	773.02
395.155	809.85
395.534	809.63
395.913	816.63
396.292	800.59
396.671	822.51
397.05	801.72
397.429	828.61
397.808	851.88
398.186	858.44
398.565	838.55
398.944	855.73
399.323	870.19
399.701	883.07
400.08	923.52
400.458	901.83
400.837	917.87
401.215	935.27
401.594	934.82
401.972	947.02
402.351	928.94
402.729	958.77
403.107	960.13
403.486	1008.72
403.864	991.77
404.242	1008.04
404.62	1040.58
404.999	1051.43
405.377	1020.92
405.755	1036.29
406.133	1074.25
406.511	1092.1
406.889	1096.4
407.267	1087.58
407.645	1114.93
408.023	1107.02
408.401	1168.26
408.779	1153.8
409.156	1194.47
409.534	1203.97
409.912	1220.24
410.29	1253.46
410.667	1242.83
411.045	1272.66
411.422	1284.42
411.8	1273.34
412.178	1343.62
412.555	1333.68
412.933	1327.13
413.31	1377.52
413.687	1416.62
414.065	1426.56
414.442	1409.84
414.819	1441.02
415.197	1447.57
415.574	1484.41
415.951	1497.97
416.328	1530.51
416.705	1520.57
417.082	1527.12
417.46	1579.77
417.837	1543.84
418.214	1569.15
418.591	1591.98
418.967	1621.58
419.344	1633.33
419.721	1643.05
420.098	1679.21
420.475	1699.32
420.852	1704.74
421.228	1715.14
421.605	1746.78
421.982	1747.91
422.358	1833.1
422.735	1811.18
423.111	1791.97
423.488	1839.66
423.864	1868.35
424.241	1876.49
424.617	1911.97
424.994	1910.84
425.37	1913.78
425.746	1956.04
426.123	1986.54
426.499	1965.98
426.875	2047.79
427.251	2095.24
427.627	2073.55
428.003	2141.34
428.379	2158.29
428.756	2197.84
429.132	2202.58
429.507	2239.19
429.883	2274.67
430.259	2334.56
430.635	2323.48
431.011	2357.16
431.387	2394.22
431.763	2466.98
432.138	2439.87
432.514	2526.42
432.89	2527.32
433.265	2554.44
433.641	2606.64
434.016	2625.17
434.392	2659.97
434.767	2720.99
435.143	2722.57
435.518	2769.35
435.894	2821.55
436.269	2845.96
436.644	2877.82
437.02	2898.84
437.395	2902.68
437.77	2981.55
438.145	3002.79
438.52	3033.52
438.895	3047.31
439.271	3090.24
439.646	3158.26
440.021	3160.3
440.395	3174.54
440.77	3182.44
441.145	3203.69
441.52	3258.37
441.895	3243.01
442.27	3310.8
442.645	3309.9
443.019	3367.52
443.394	3399.39
443.769	3409.11
444.143	3386.28
444.518	3502.21
444.892	3446.62
445.267	3463.79
445.641	3511.93
446.016	3558.03
446.39	3562.77
446.764	3605.94
447.139	3595.99
447.513	3699.49
447.887	3725.48
448.262	3729.1
448.636	3727.06
449.01	3771.36
449.384	3814.97
449.758	3820.17
450.132	3877.34
450.506	3905.82
450.88	3957.34
451.254	3953.95
451.628	4024.23
452.002	4030.78
452.376	4118.47
452.75	4122.08
453.123	4167.5
453.497	4252.7
453.871	4268.52
454.244	4402.3
454.618	4385.8
454.992	4512.35
455.365	4498.34
455.739	4584.44
456.112	4611.11
456.486	4650.88
456.859	4697.66
457.232	4823.08
457.606	4791.22
457.979	4859.01
458.352	5006.13
458.725	5053.81
459.099	5058.1
459.472	5172.45
459.845	5196.18
460.218	5303.52
460.591	5331.31
460.964	5336.51
461.337	5487.92
461.71	5547.81
462.083	5596.17
462.456	5637.97
462.829	5676.39
463.201	5832.77
463.574	5836.84
463.947	5933.11
464.32	6018.53
464.692	6087.68
465.065	6175.36
465.438	6277.28
465.81	6274.34
466.183	6358.18
466.555	6512.3
466.928	6587.33
467.3	6567.21
467.672	6676.36
468.045	6884.27
468.417	6824.61
468.789	6939.63
469.161	7030.03
469.534	7155
469.906	7337.59
470.278	7362.22
470.65	7485.83
471.022	7596.79
471.394	7759.05
471.766	7848.76
472.138	7953.17
472.51	8071.58
472.882	8209.88
473.253	8276.77
473.625	8425.7
473.997	8607.61
474.369	8673.83
474.74	8768.96
475.112	8945.46
475.484	9087.37
475.855	9260.7
476.227	9307.26
476.598	9626.57
476.97	9710.63
477.341	9883.74
477.713	10030.4
478.084	10110.17
478.455	10432.2
478.827	10545.64
479.198	10844.16
479.569	10882.81
479.94	11128.22
480.311	11234.66
480.682	11480.08
481.053	11709
481.424	11904.7
481.795	12080.29
482.166	12183.11
482.537	12373.16
482.908	12647.96
483.279	12786.26
483.65	13053.6
484.021	13347.83
484.391	13418.11
484.762	13534.94
485.133	13720.02
485.503	13884.54
485.874	14260.12
486.244	14376.05
486.615	14646.1
486.985	14839.31
487.356	15077.95
487.726	15143.49
488.097	15461.22
488.467	15498.28
488.837	15898.95
489.207	16098.94
489.578	16323.79
489.948	16485.37
490.318	16747.06
490.688	16710.68
491.058	17026.37
491.428	17184.34
491.798	17410.77
492.168	17798.56
492.538	17881.95
492.908	18161.71
493.278	18265.44
493.648	18347.47
494.017	18595.37
494.387	18778.42
494.757	18861.35
495.126	19131.4
495.496	19251.85
495.866	19351.51
496.235	19619.75
496.605	19817.71
496.974	19839.63
497.344	20029.69
497.713	20219.28
498.082	20368.89
498.452	20548.99
498.821	20662.44
499.19	20725.71
499.559	21070.34
499.928	21081.41
500.298	21266.49
500.667	21471.68
501.036	21405.24
501.405	21726.36
501.774	21752.58
502.143	22056.98
502.512	22076.19
502.88	22207.71
503.249	22336.07
503.618	22484.54
503.987	22644.98
504.356	22835.26
504.724	22945.77
505.093	23103.5
505.462	23275.25
505.83	23404.74
506.199	23606.99
506.567	23815.35
506.936	23883.82
507.304	24213.3
507.672	24403.58
508.041	24433.64
508.409	24585.72
508.777	24841.31
509.145	24910.23
509.514	25045.82
509.882	25222.54
510.25	25411.69
510.618	25582.99
510.986	25717.67
511.354	25993.14
511.722	26157.66
512.09	26338.45
512.458	26374.6
512.826	26781.37
513.193	26721.26
513.561	26896.17
513.929	27232.43
514.297	27353.79
514.664	27601.92
515.032	27675.13
515.4	27892.3
515.767	28072.64
516.135	28207.32
516.502	28164.16
516.869	28766.4
517.237	28901.09
517.604	28838.95
517.972	29097.24
518.339	29293.85
518.706	29480.06
519.073	29739.94
519.44	29849.77
519.808	30343.31
520.175	30219.93
520.542	30588.5
520.909	30886.35
521.276	30925.22
521.643	31172.44
522.009	31503.28
522.376	31693.33
522.743	31881.35
523.11	32237.95
523.477	32609.02
523.843	32746.86
524.21	32970.14
524.577	33356.57
524.943	33360.41
525.31	33567.86
525.676	34004.01
526.043	34179.37
526.409	34307.28
526.776	34753.14
527.142	34747.94
527.508	35025
527.874	35345.44
528.241	35440.81
528.607	35568.94
528.973	35929.15
529.339	36000.56
529.705	36346.54
530.071	36585.18
530.437	36862.01
530.803	37070.37
531.169	37307.2
531.535	37091.38
531.901	37409.57
532.267	37591.71
532.632	37822.66
532.998	37939.95
533.364	38165.93
533.73	38312.82
534.095	38701.28
534.461	38696.77
534.826	39054.04
535.192	39134.27
535.557	39267.6
535.923	39376.75
536.288	39522.51
536.653	39745.55
537.019	39590.53
537.384	40005.43
537.749	40081.81
538.114	40237.74
538.479	40318.87
538.845	40437.96
539.21	40534.68
539.575	40661.69
539.94	40780.1
540.305	41123.14
540.67	41085.4
541.034	41268.67
541.399	41432.29
541.764	41625.73
542.129	41795.21
542.494	41821.88
542.858	42077.92
543.223	42126.28
543.587	42239.27
543.952	42383
544.316	42442.66
544.681	42553.61
545.045	42827.28
545.41	43051.23
545.774	43003.54
546.138	43101.62
546.503	43411.44
546.867	43315.4
547.231	43714.94
547.595	43638.78
547.959	44001.94
548.324	43934.59
548.688	44041.48
549.052	44311.53
549.416	44344.07
549.779	44349.27
550.143	44703.84
550.507	44791.07
550.871	44877.62
551.235	44955.81
551.599	45274.9
551.962	45361.45
552.326	45582.91
552.689	45834.43
553.053	45720.76
553.417	45810.93
553.78	46285.04
554.143	46099.96
554.507	46466.5
554.87	46423.57
555.234	46997.56
555.597	46631.02
555.96	46894.97
556.323	46993.95
556.686	47066.26
557.05	47435.52
557.413	47521.84
557.776	47561.16
558.139	47871.67
558.502	48051.1
558.865	48200.7
559.228	48427.81
559.59	48474.81
559.953	48673.68
560.316	48999.54
560.679	49035.02
561.041	49324.28
561.404	49358.86
561.767	49673.65
562.129	49519.53
562.492	49887.66
562.854	49931.5
563.217	49950.25
563.579	50095.34
563.941	50372.84
564.304	50502.56
564.666	50746.17
565.028	50769.67
565.39	50987.52
565.753	51020.06
566.115	51272.25
566.477	51381.63
566.839	51526.26
567.201	51748.4
567.563	51733.03
567.925	51923.31
568.287	51935.29
568.648	52082.4
569.01	52254.6
569.372	52389.51
569.734	52399
570.095	52661.6
570.457	52728.94
570.819	52754.93
571.18	52856.39
571.542	53016.16
571.903	53028.82
572.265	53112.21
572.626	53212.09
572.987	53276.72
573.349	53274.91
573.71	53540.67
574.071	53608.46
574.432	53705.64
574.794	53930.26
575.155	53851.39
575.516	53732.53
575.877	53910.6
576.238	53879.87
576.599	54097.04
576.96	54144.95
577.32	54126.87
577.681	54271.27
578.042	54279.41
578.403	54273.76
578.763	54367.09
579.124	54354.21
579.485	54523.92
579.845	54483.92
580.206	54511.94
580.566	54579.51
580.927	54579.06
581.287	54673.75
581.648	54617.7
582.008	54689.11
582.368	54694.08
582.728	54736.57
583.089	54607.99
583.449	54667.64
583.809	54753.07
584.169	54841.88
584.529	54757.13
584.889	54922.1
585.249	54775.21
585.609	54768.43
585.969	54855.66
586.329	54739.28
586.688	54847.75
587.048	54815.44
587.408	54761.2
587.768	54787.42
588.127	54801.2
588.487	54728.89
588.846	54977.69
589.206	54783.57
589.565	54748.55
589.925	54932.95
590.284	54744.25
590.643	54940.86
591.003	54956
591.362	54959.16
591.721	54918.03
592.08	54970.01
592.44	54928.65
592.799	55000.52
593.158	54904.93
593.517	54930.46
593.876	55024.02
594.235	54923.91
594.593	55057.24
594.952	55045.71
595.311	54981.31
595.67	55096.56
596.029	55221.3
596.387	55266.5
596.746	55234.64
597.104	55071.02
597.463	55083
597.822	55233.73
598.18	55124.36
598.538	55078.93
598.897	55254.07
599.255	55048.65
599.613	55404.35
599.972	55328.19
600.33	55369.55
600.688	55245.71
601.046	55353.5
601.404	55480.96
601.762	55324.12
602.12	55528.86
602.478	55444.57
602.836	55490.9
603.194	55270.79
603.552	55456.1
603.91	55436.44
604.268	55482.76
604.625	55450
604.983	55517.79
605.341	55509.88
605.698	55638.69
606.056	55582.2
606.413	55623.33
606.771	55764.34
607.128	55760.95
607.485	55597.11
607.843	55612.93
608.2	55766.6
608.557	55841.62
608.914	55714.62
609.272	55919.14
609.629	55900.15
609.986	56002.07
610.343	55913.26
610.7	56110.09
611.057	56056.31
611.414	56013.6
611.771	56101.73
612.127	56137.21
612.484	56105.35
612.841	56306.25
613.198	56082.07
613.554	56161.39
613.911	56362.52
614.267	56270.54
614.624	56254.27
614.98	56189.41
615.337	56460.82
615.693	56364.55
616.05	56300.6
616.406	56524.54
616.762	56357.32
617.118	56349.86
617.475	56340.37
617.831	56451.33
618.187	56477.99
618.543	56501.72
618.899	56603.19
619.255	56538.1
619.611	56572.23
619.967	56594.15
620.323	56620.36
620.678	56556.86
621.034	56497.88
621.39	56518.22
621.746	56416.3
622.101	56780.36
622.457	56522.96
622.812	56581.49
623.168	56640.25
623.523	56638.89
623.879	56729.74
624.234	56574.71
624.589	56582.85
624.945	56609.06
625.3	56671.21
625.655	56619.01
626.01	56673.47
626.365	56667.37
626.72	56574.26
627.075	56639.8
627.43	56579.23
627.785	56587.82
628.14	56578.78
628.495	56604.99
628.85	56543.98
629.205	56491.55
629.559	56655.16
629.914	56462.63
630.269	56448.84
630.623	56411.33
630.978	56360.03
631.332	56472.34
631.687	56523.19
632.041	56342.4
632.396	56391.67
632.75	56286.36
633.104	56347.6
633.459	56244.78
633.813	56207.49
634.167	56192.58
634.521	56142.18
634.875	56194.84
635.229	56139.92
635.583	55974.05
635.937	56045.01
636.291	55985.8
636.645	55988.06
636.999	55930.66
637.352	55904.9
637.706	55757.11
638.06	55791.23
638.413	55808.41
638.767	55755.3
639.121	55770.67
639.474	55612.7
639.828	55621.97
640.181	55662.87
640.534	55621.52
640.888	55581.97
641.241	55407.74
641.594	55440.96
641.947	55534.74
642.301	55464.69
642.654	55436.21
643.007	55387.17
643.36	55359.83
643.713	55305.82
644.066	55395.08
644.419	55182.21
644.771	54981.08
645.124	54760.52
645.477	54696.8
645.83	54488.21
646.182	54414.54
646.535	54327.99
646.888	54344.94
647.24	54136.36
647.593	54338.84
647.945	54291.61
648.298	54123.48
648.65	54059.3
649.002	54035.8
649.355	54149.69
649.707	53972.97
650.059	54096.13
650.411	54468.78
650.763	54491.38
651.115	54821.54
651.467	54639.17
651.819	54617.02
652.171	54587.87
652.523	54456.58
652.875	54571.15
653.227	54380.42
653.578	54583.13
653.93	54443.02
654.282	54314.43
654.633	54262.46
654.985	54280.76
655.337	54306.3
655.688	54250.25
656.039	54322.79
656.391	54095.91
656.742	54099.3
657.094	54170.26
657.445	54236.7
657.796	54118.96
658.147	54024.27
658.498	54094.33
658.849	54095.68
659.2	54063.59
659.551	53942.47
659.902	53998.06
660.253	53936.14
660.604	54044.38
660.955	53864.73
661.306	54025.18
661.656	53886.2
662.007	53958.28
662.358	53930.49
662.708	53896.82
663.059	53849.36
663.409	53640.1
663.76	53897.27
664.11	53780.89
664.461	53815.46
664.811	53810.72
665.161	53762.36
665.511	53618.63
665.862	53706.54
666.212	53673.09
666.562	53791.28
666.912	53635.58
667.262	53643.72
667.612	53667.22
667.962	53606.66
668.312	53581.57
668.662	53680.33
669.011	53586.77
669.361	53495.92
669.711	53462.03
670.06	53461.8
670.41	53404.85
670.76	53307.91
671.109	53390.39
671.459	53355.36
671.808	53316.72
672.157	53377.06
672.507	53224.52
672.856	53183.62
673.205	53292.31
673.554	53353.33
673.904	53275.59
674.253	53250.05
674.602	53183.62
674.951	52848.71
675.3	52517.19
675.649	53093.67
675.998	53093.45
676.346	53052.09
676.695	53120.79
677.044	52904.08
677.393	53043.51
677.741	53043.73
678.09	52947.46
678.438	52899.78
678.787	52867.69
679.135	52885.54
679.484	52614.82
679.832	52876.96
680.181	52606.23
680.529	52668.15
680.877	52542.05
681.225	52593.35
681.573	52606.23
681.922	52462.96
682.27	52319.23
682.618	52400.59
682.966	52202.62
683.314	52317.2
683.661	52298.89
684.009	52120.82
684.357	51976.42
684.705	51853.93
685.053	52008.51
685.4	51920.6
685.748	51752.24
686.095	51771.22
686.443	51569.87
686.79	51619.36
687.138	51606.03
687.485	51619.59
687.832	51486.03
688.18	51496.88
688.527	51243.33
688.874	51218.24
689.221	51231.12
689.568	51046.72
689.915	51068.19
690.262	50901.19
690.609	50846.5
690.956	50740.97
691.303	50655.77
691.65	50539.62
691.997	50508.88
692.344	50305.73
692.69	50397.93
693.037	50284.93
693.383	50014.89
693.73	50096.24
694.077	49813.76
694.423	49847.21
694.769	49739.41
695.116	49655.12
695.462	49638.4
695.808	49489.48
696.155	49513.43
696.501	49243.15
696.847	49195.47
697.193	48927.46
697.539	48975.36
697.885	48700.57
698.231	48738.53
698.577	48772.43
698.923	48612.44
699.269	48453.34
699.614	48259.23
699.96	48310.3
700.306	48153.01
700.651	48087.93
700.997	47859.69
701.342	47944.66
701.688	47797.77
702.033	47649.75
702.379	47653.59
702.724	47376.31
703.069	47605.91
703.415	47081.18
703.76	47138.8
704.105	47085.47
704.45	46991.91
704.795	46741.53
705.14	46729.77
705.485	46618.82
705.83	46546.05
706.175	46333.17
706.52	46362.1
706.865	46210.24
707.209	46143.12
707.554	45998.95
707.899	46107.42
708.243	45839.63
708.588	45808.89
708.932	45472.18
709.277	45553.08
709.621	45579.07
709.966	45255.69
710.31	45330.04
710.654	44977.28
710.998	45067.9
711.342	45104.05
711.687	44981.57
712.031	44670.17
712.375	44655.03
712.719	44683.95
713.063	44558.08
713.407	44605.99
713.75	44301.82
714.094	44381.59
714.438	44227.92
714.782	44259.78
715.125	43946.57
715.469	44054.59
715.812	43842.62
716.156	43702.06
716.499	43627.03
716.843	43627.26
717.186	43482.85
717.53	43503.42
717.873	43450.31
718.216	43388.85
718.559	43318.34
718.902	42967.39
719.246	43025.92
719.589	42965.13
719.932	42852.36
720.275	42723.1
720.617	42732.37
720.96	42652.14
721.303	42702.31
721.646	42527.4
721.989	42362.43
722.331	42489.66
722.674	42310.91
723.016	42212.83
723.359	42261.87
723.701	42242.89
724.044	41978.49
724.386	41839.51
724.729	42109.56
725.071	41895.55
725.413	41745.05
725.755	41760.19
726.097	41540.76
726.439	41319.75
726.782	41395
727.124	41472.51
727.465	41362.68
727.807	41360.2
728.149	41191.16
728.491	41070.49
728.833	41121.11
729.175	41036.82
729.516	40969.7
729.858	40799.53
730.199	40800.21
730.541	40713.44
730.882	40720.67
731.224	40856.93
731.565	40514.8
731.906	40527.45
732.248	40549.37
732.589	40324.52
732.93	40198.19
733.271	40319.32
733.612	40262.83
733.953	40326.1
734.294	40029.61
734.635	39908.03
734.976	40004.3
735.317	39795.49
735.658	39753.69
735.999	39723.86
736.339	39583.97
736.68	39700.35
737.021	39594.82
737.361	39373.58
737.702	39695.38
738.042	39270.31
738.383	39233.47
738.723	39381.27
739.063	39101.5
739.404	39184.66
739.744	39052.69
740.084	38854.05
740.424	38891.79
740.764	38892.47
741.104	38884.56
741.444	38746.03
741.784	38561.18
742.124	38646.14
742.464	38648.86
742.804	38476.66
743.143	38430.33
743.483	38415.87
743.823	38220.85
744.162	38226.72
744.502	38265.82
744.841	37962.55
745.181	38183.33
745.52	38026.05
745.86	38161.64
746.199	37901.76
746.538	37999.16
746.877	37898.59
747.216	37796
747.556	37750.12
747.895	37702.44
748.234	37440.98
748.573	37611.82
748.911	37494.76
749.25	37355.78
749.589	37148.56
749.928	37219.74
750.267	37368.89
750.605	37175.68
750.944	37093.42
751.283	36718.96
751.621	36831.28
751.96	36798.96
752.298	36722.35
