Data from white_wall_FLMS001491_043.txt Node
Date: Tue Feb 07 11:04:34 GMT 2017
User: dcchb
Spectrometer: FLMS00149
Trigger mode: 0
Integration Time (sec): 2.000000E-2
Scans to average: 10
Electric dark correction enabled: true
Nonlinearity correction enabled: false
Boxcar width: 0
XAxis mode: Wavelengths
Number of Pixels in Spectrum: 2048
>>>>>Begin Spectral Data<<<<<
341.393	-34.98
341.776	-34.98
342.16	-34.98
342.543	-58.04
342.927	-64.14
343.31	-82.44
343.693	-57.58
344.077	-73.18
344.46	-62.78
344.843	-33.63
345.226	-34.53
345.61	-36.11
345.993	-18.49
346.376	-2.44
346.759	6.82
347.142	33.49
347.525	31
347.908	62.64
348.291	73.03
348.674	82.53
349.057	111.68
349.44	104.9
349.823	147.38
350.206	158.23
350.588	212.69
350.971	229.19
351.354	226.7
351.737	231.22
352.119	253.14
352.502	271.22
352.884	292.24
353.267	290.2
353.65	293.14
354.032	305.57
354.414	301.73
354.797	314.61
355.179	316.87
355.562	326.36
355.944	335.85
356.326	341.5
356.709	331.11
357.091	337.66
357.473	334.72
357.855	347.83
358.238	346.93
358.62	348.96
359.002	364.1
359.384	343.08
359.766	359.13
360.148	349.86
360.53	351.67
360.912	332.91
361.294	324.55
361.676	343.08
362.057	343.76
362.439	365.46
362.821	339.69
363.203	340.6
363.584	336.3
363.966	340.15
364.348	334.04
364.729	339.24
365.111	316.19
365.493	345.8
365.874	334.95
366.256	327.27
366.637	296.76
367.019	344.67
367.4	329.53
367.781	344.21
368.163	318
368.544	349.64
368.925	302.41
369.306	341.28
369.688	316.42
370.069	340.82
370.45	350.77
370.831	335.17
371.212	339.69
371.593	329.07
371.974	320.26
372.355	322.75
372.736	323.42
373.117	326.14
373.498	330.43
373.879	334.5
374.26	352.8
374.641	321.62
375.021	332.01
375.402	346.47
375.783	348.51
376.163	351.67
376.544	344.89
376.925	331.11
377.305	336.53
377.686	346.47
378.066	340.15
378.447	335.4
378.827	347.6
379.208	345.57
379.588	348.28
379.968	366.59
380.349	359.35
380.729	348.73
381.109	352.35
381.489	381.05
381.87	367.94
382.25	358.68
382.63	364.33
383.01	380.82
383.39	374.5
383.77	384.21
384.15	376.3
384.53	376.76
384.91	384.89
385.29	389.86
385.67	372.69
386.049	377.66
386.429	403.65
386.809	413.82
387.189	412.01
387.568	402.74
387.948	377.66
388.328	407.26
388.707	416.98
389.087	405
389.466	419.69
389.846	419.47
390.225	427.83
390.605	437.54
390.984	445.68
391.363	431.9
391.743	442.97
392.122	460.14
392.501	451.56
392.881	445.23
393.26	446.36
393.639	480.93
394.018	475.96
394.397	475.06
394.776	500.14
395.155	480.93
395.534	503.98
395.913	515.28
396.292	497.2
396.671	515.06
397.05	537.66
397.429	534.94
397.808	558.9
398.186	534.49
398.565	546.24
398.944	539.92
399.323	560.03
399.701	582.17
400.08	583.98
400.458	596.64
400.837	622.62
401.215	588.95
401.594	631.66
401.972	640.48
402.351	638.22
402.729	666.47
403.107	667.37
403.486	723.19
403.864	685.67
404.242	677.31
404.62	681.61
404.999	701.72
405.377	738.33
405.755	736.97
406.133	759.8
406.511	759.34
406.889	781.94
407.267	820.36
407.645	799.8
408.023	820.59
408.401	816.07
408.779	832.56
409.156	871.21
409.534	899.91
409.912	901.04
410.29	901.49
410.667	925.22
411.045	923.41
411.422	944.42
411.8	952.33
412.178	985.55
412.555	1003.41
412.933	1014.25
413.31	1009.96
413.687	1035.04
414.065	1056.06
414.442	1050.18
414.819	1090.86
415.197	1107.58
415.574	1107.36
415.951	1148.26
416.328	1118.43
416.705	1143.74
417.082	1142.39
417.46	1190.52
417.837	1190.75
418.214	1209.73
418.591	1191.88
418.967	1204.98
419.344	1213.34
419.721	1259.22
420.098	1280.91
420.475	1251.76
420.852	1267.13
421.228	1280.46
421.605	1301.7
421.982	1336.05
422.358	1320.46
422.735	1382.6
423.111	1316.84
423.488	1373.11
423.864	1414.47
424.241	1406.11
424.617	1421.02
424.994	1433.9
425.37	1441.36
425.746	1460.12
426.123	1486.1
426.499	1497.4
426.875	1518.65
427.251	1545.09
427.627	1548.48
428.003	1584.63
428.379	1598.19
428.756	1632.09
429.132	1647.23
429.507	1654.69
429.883	1691.98
430.259	1699.66
430.635	1743.5
431.011	1739.66
431.387	1791.41
431.763	1815.81
432.138	1807.68
432.514	1864.63
432.89	1871.18
433.265	1913.21
433.641	1929.94
434.016	1955.92
434.392	1988.92
434.767	2004.51
435.143	1975.81
435.518	2025.98
435.894	2038.86
436.269	2098.97
436.644	2105.52
437.02	2141.91
437.395	2144.84
437.77	2185.75
438.145	2211.28
438.52	2223.71
438.895	2229.81
439.271	2224.39
439.646	2289.25
440.021	2326.31
440.395	2320.21
440.77	2306.42
441.145	2365.4
441.52	2411.96
441.895	2399.3
442.27	2439.98
442.645	2438.17
443.019	2505.74
443.394	2479.53
443.769	2517.94
444.143	2498.96
444.518	2516.81
444.892	2536.92
445.267	2564.95
445.641	2574.21
446.016	2614.89
446.39	2642.91
446.764	2638.84
447.139	2650.59
447.513	2666.64
447.887	2738.5
448.262	2745.51
448.636	2734.43
449.01	2780.99
449.384	2819.18
449.758	2818.95
450.132	2875.22
450.506	2887.65
450.88	2914.77
451.254	2911.38
451.628	2930.36
452.002	2976.01
452.376	3019.17
452.75	3032.51
453.123	3054.43
453.497	3137.59
453.871	3134.42
454.244	3242.67
454.618	3230.47
454.992	3283.57
455.365	3279.5
455.739	3362.89
456.112	3413.96
456.486	3409.67
456.859	3466.17
457.232	3532.15
457.606	3524.92
457.979	3581.42
458.352	3686.05
458.725	3704.58
459.099	3737.8
459.472	3824.57
459.845	3810.34
460.218	3880.84
460.591	3949.54
460.964	3928.53
461.337	4069.77
461.71	4084.45
462.083	4133.94
462.456	4165.13
462.829	4184.11
463.201	4282.87
463.574	4316.09
463.947	4340.27
464.32	4420.94
464.692	4479.92
465.065	4509.98
465.438	4596.76
465.81	4651.22
466.183	4726.25
466.555	4832.68
466.928	4840.82
467.3	4821.16
467.672	4926.69
468.045	5068.38
468.417	5057.31
468.789	5102.96
469.161	5163.97
469.534	5297.08
469.906	5397.64
470.278	5400.35
470.65	5472.44
471.022	5615.49
471.394	5716.73
471.766	5801.47
472.138	5849.15
472.51	5939.55
472.882	6034.46
473.253	6129.82
473.625	6210.5
473.997	6305.41
474.369	6349.03
474.74	6443.71
475.112	6587.21
475.484	6725.29
475.855	6831.05
476.227	6866.53
476.598	7069.01
476.97	7092.74
477.341	7315.33
477.713	7400.75
478.084	7470.58
478.455	7684.36
478.827	7725.94
479.198	8003.45
479.569	7966.84
479.94	8247.51
480.311	8298.13
480.682	8463.55
481.053	8719.59
481.424	8855.4
481.795	8903.09
482.166	9090.65
482.537	9143.3
482.908	9346.24
483.279	9475.27
483.65	9741.48
484.021	9894.02
484.391	9960.91
484.762	10090.85
485.133	10240.68
485.503	10288.59
485.874	10657.39
486.244	10645.64
486.615	10917.04
486.985	11102.8
487.356	11276.58
487.726	11308.22
488.097	11564.94
488.467	11606.06
488.837	11899.84
489.207	12042.89
489.578	12226.61
489.948	12355.2
490.318	12466.16
490.688	12541.63
491.058	12765.13
491.428	12936.65
491.798	13143.43
492.168	13368.73
492.538	13387.94
492.908	13648.05
493.278	13683.75
493.648	13782.73
494.017	13933.91
494.387	14057.98
494.757	14235.83
495.126	14360.12
495.496	14447.57
495.866	14600.11
496.235	14728.92
496.605	14869.71
496.974	15060.89
497.344	15143.82
497.713	15337.49
498.082	15284.84
498.452	15563.25
498.821	15575.23
499.19	15765.05
499.559	15851.83
499.928	15925.27
500.298	16124.14
500.667	16280.97
501.036	16278.26
501.405	16432.15
501.774	16492.94
502.143	16685.93
502.512	16781.07
502.88	16951.69
503.249	17091.12
503.618	17102.87
503.987	17267.84
504.356	17413.37
504.724	17472.13
505.093	17562.74
505.462	17657.88
505.83	17808.39
506.199	17940.59
506.567	18245.89
506.936	18167.25
507.304	18481.59
507.672	18509.61
508.041	18644.75
508.409	18812.88
508.777	18915.93
509.145	19105.98
509.514	19078.18
509.882	19308.91
510.25	19490.6
510.618	19512.3
510.986	19718.85
511.354	19915.22
511.722	20074.54
512.09	20301.2
512.458	20273.41
512.826	20390.92
513.193	20517.24
513.561	20672.04
513.929	20889.44
514.297	21011.92
514.664	21184.57
515.032	21359.48
515.4	21466.6
515.767	21550.44
516.135	21761.05
516.502	21729.19
516.869	22043.76
517.237	22202.62
517.604	22207.37
517.972	22488.26
518.339	22661.14
518.706	22631.54
519.073	22986.56
519.44	22947.91
519.808	23279.88
520.175	23299.99
520.542	23715.8
520.909	23742.24
521.276	23795.12
521.643	24026.08
522.009	24260.65
522.376	24456.57
522.743	24572.96
523.11	24784.93
523.477	25072.38
523.843	25111.47
524.21	25433.27
524.577	25576.32
524.943	25716.2
525.31	25858.35
525.676	26078.9
526.043	26188.05
526.409	26341.27
526.776	26597.54
527.142	26715.05
527.508	26946
527.874	27122.27
528.241	27261.92
528.607	27339.44
528.973	27635.47
529.339	27740.1
529.705	27929.48
530.071	28144.84
530.437	28171.73
530.803	28457.6
531.169	28519.07
531.535	28580.31
531.901	28663.92
532.267	28892.62
532.632	29111.59
532.998	29233.17
533.364	29450.79
533.73	29507.06
534.095	29722.2
534.461	29829.09
534.826	29947.05
535.192	30142.53
535.557	30312.92
535.923	30198.57
536.288	30416.42
536.653	30676.98
537.019	30591.55
537.384	30845.78
537.749	31013.69
538.114	30994.48
538.479	31130.07
538.845	31297.07
539.21	31262.5
539.575	31534.58
539.94	31689.83
540.305	31729.6
540.67	31753.11
541.034	31915.81
541.399	31933.67
541.764	32259.08
542.129	32378.4
542.494	32468.79
542.858	32613.2
543.223	32561.45
543.587	32696.81
543.952	32864.49
544.316	32924.37
544.681	33039.85
545.045	33099.51
545.41	33424.25
545.774	33493.85
546.138	33548.76
546.503	33649.33
546.867	33591.02
547.231	33928.19
547.595	34200.73
547.959	34288.41
548.324	34257.9
548.688	34526.82
549.052	34552.81
549.416	34778.56
549.779	34673.71
550.143	34813.82
550.507	35110.08
550.871	35181.26
551.235	35350.53
551.599	35501.71
551.962	35611.76
552.326	35766.33
552.689	35993.22
553.053	35922.26
553.417	36080
553.78	36568.8
554.143	36454.68
554.507	36737.61
554.87	36791.84
555.234	37278.84
555.597	37035
555.96	37194.09
556.323	37378.27
556.686	37619.62
557.05	37870.23
557.413	37948.42
557.776	37985.03
558.139	38408.75
558.502	38407.39
558.865	38635.86
559.228	38898.68
559.59	38999.92
559.953	39144.1
560.316	39543.41
560.679	39481.72
561.041	39669.51
561.404	40002.15
561.767	40078.31
562.129	39952.89
562.492	40430.62
562.854	40523.5
563.217	40503.61
563.579	40758.74
563.941	41024.5
564.304	41152.86
564.666	41457.26
565.028	41361.21
565.39	41605.05
565.753	41812.5
566.115	41922.33
566.477	42085.94
566.839	42135.43
567.201	42407.06
567.563	42442.32
567.925	42845.24
568.287	42857.9
568.648	42836.43
569.01	43061.73
569.372	43493.14
569.734	43331.33
570.095	43704.2
570.457	43734.03
570.819	43800.92
571.18	43943.07
571.542	44010.64
571.903	44279.33
572.265	44383.28
572.626	44509.83
572.987	44618.98
573.349	44767.9
573.71	44864.4
574.071	44951.85
574.432	44990.05
574.794	45355.01
575.155	45282.69
575.516	45192.75
575.877	45469.36
576.238	45538.96
576.599	45670.25
576.96	45635.9
577.32	45629.35
577.681	45755.22
578.042	45953.86
578.403	45941.43
578.763	45979.4
579.124	45935.78
579.485	46258.71
579.845	46165.83
580.206	46157.92
580.566	46074.99
580.927	46244.02
581.287	46488.76
581.648	46305.94
582.008	46592.94
582.368	46408.99
582.728	46380.07
583.089	46380.74
583.449	46462.32
583.809	46518.14
584.169	46630.68
584.529	46550.91
584.889	46829.32
585.249	46517.24
585.609	46463.45
585.969	46688.76
586.329	46612.38
586.688	46734.63
587.048	46654.63
587.408	46698.93
587.768	46701.87
588.127	46657.12
588.487	46539.61
588.846	46872.48
589.206	46593.17
589.565	46677.23
589.925	46833.61
590.284	46725.82
590.643	46816.44
591.003	46981.18
591.362	47012.14
591.721	46880.84
592.08	46890.56
592.44	46981.41
592.799	46866.83
593.158	46780.73
593.517	46844.23
593.876	46970.56
594.235	46901.63
594.593	47087.17
594.952	47085.13
595.311	46862.31
595.67	47164.68
596.029	47223.43
596.387	47231.12
596.746	47281.74
597.104	47166.03
597.463	47173.27
597.822	47161.29
598.18	47095.08
598.538	47168.52
598.897	47238.8
599.255	46988.86
599.613	47580.03
599.972	47309.31
600.33	47453.71
600.688	47278.35
601.046	47324
601.404	47538.91
601.762	47516.31
602.12	47607.15
602.478	47625.68
602.836	47745.91
603.194	47522.86
603.552	47590.43
603.91	47511.56
604.268	47599.24
604.625	47595.18
604.983	47787.71
605.341	47750.65
605.698	47849.86
606.056	47884.88
606.413	47894.15
606.771	48044.65
607.128	48048.95
607.485	47837.2
607.843	47959.46
608.2	48246.68
608.557	48353.35
608.914	48150.87
609.272	48220.47
609.629	48398.09
609.986	48448.26
610.343	48242.84
610.7	48542.49
611.057	48413.01
611.414	48551.08
611.771	48566.22
612.127	48665.43
612.484	48629.05
612.841	48797.4
613.198	48559.22
613.554	48595.15
613.911	48830.85
614.267	48879.44
614.624	48793.34
614.98	48954.69
615.337	49023.84
615.693	49021.35
616.05	48923.28
616.406	49167.11
616.762	49147.45
617.118	49018.87
617.475	49159.88
617.831	49275.13
618.187	49308.35
618.543	49253.66
618.899	49365.52
619.255	49209.14
619.611	49331.4
619.967	49509.48
620.323	49465.18
620.678	49411.4
621.034	49347.9
621.39	49290.5
621.746	49224.96
622.101	49673.54
622.457	49430.83
622.812	49543.6
623.168	49625.18
623.523	49640.55
623.879	49574.56
624.234	49287.79
624.589	49488.01
624.945	49621.11
625.3	49679.19
625.655	49526.2
626.01	49597.16
626.365	49640.55
626.72	49568.91
627.075	49558.29
627.43	49520.1
627.785	49542.47
628.14	49572.3
628.495	49666.99
628.85	49538.85
629.205	49308.35
629.559	49544.73
629.914	49463.37
630.269	49430.83
630.623	49299.99
630.978	49198.3
631.332	49386.31
631.687	49465.63
632.041	49335.92
632.396	49353.09
632.75	49194.23
633.104	49317.16
633.459	49072.42
633.813	49082.14
634.167	49192.2
634.521	48970.28
634.875	49097.96
635.229	49046.21
635.583	48829.27
635.937	48846.67
636.291	48870.17
636.645	48799.21
636.999	48739.1
637.352	48779.55
637.706	48470.18
638.06	48784.3
638.413	48664.3
638.767	48519.67
639.121	48607.35
639.474	48402.16
639.828	48373.23
640.181	48491.65
640.534	48556.73
640.888	48289.17
641.241	48206.23
641.594	48295.72
641.947	48313.12
642.301	48299.34
642.654	48187.25
643.007	48067.48
643.36	48141.6
643.713	48121.71
644.066	48181.6
644.419	47888.27
644.771	47785.45
645.124	47366.71
645.477	47258.01
645.83	46943.44
646.182	46909.09
646.535	46808.08
646.888	46874.06
647.24	46569.67
647.593	46879.71
647.945	46770.34
648.298	46463
648.65	46397.47
649.002	46317.24
649.355	46466.39
649.707	46314.76
650.059	46539.84
650.411	46876.1
650.763	46895.31
651.115	47387.72
651.467	47226.37
651.819	47228.86
652.171	47013.27
652.523	47013.5
652.875	47102.08
653.227	46762.88
653.578	47165.36
653.93	46981.63
654.282	46842.43
654.633	46814.86
654.985	46859.38
655.337	46793.16
655.688	46854.63
656.039	46917.68
656.391	46527.63
656.742	46670.68
657.094	46566.28
657.445	46829.09
657.796	46624.13
658.147	46581.64
658.498	46530.12
658.849	46666.84
659.2	46537.12
659.551	46439.95
659.902	46572.15
660.253	46505.49
660.604	46355.66
660.955	46228.43
661.306	46337.81
661.656	46324.02
662.007	46244.25
662.358	46271.14
662.708	46341.2
663.059	46141.2
663.409	46045.39
663.76	46275.89
664.11	46321.76
664.461	46304.81
664.811	46208.32
665.161	46263.23
665.511	45991.15
665.862	46102.33
666.212	46300.97
666.562	46244.93
666.912	46073.63
667.262	45990.02
667.612	45917.25
667.962	46005.61
668.312	45935.33
668.662	46249.45
669.011	46113.18
669.361	45996.57
669.711	45978.04
670.06	45840.87
670.41	45724.94
670.76	45740.76
671.109	45897.82
671.459	45726.52
671.808	45718.84
672.157	45843.36
672.507	45470.71
672.856	45478.39
673.205	45606.07
673.554	45602.23
673.904	45428.23
674.253	45610.82
674.602	45406.08
674.951	44946.66
675.3	44695.82
675.649	45318.85
675.998	45238.63
676.346	45146.88
676.695	45467.77
677.044	45001.57
677.393	45115.01
677.741	45231.62
678.09	45061.46
678.438	44935.36
678.787	45037.05
679.135	44972.65
679.484	44731.75
679.832	44888.13
680.181	44652.88
680.529	44850.39
680.877	44645.2
681.225	44658.76
681.573	44796.15
681.922	44545.99
682.27	44422.83
682.618	44514.8
682.966	44345.32
683.314	44335.15
683.661	44227.13
684.009	44063.06
684.357	43798.44
684.705	43948.04
685.053	43846.8
685.4	43750.98
685.748	43708.95
686.095	43619.91
686.443	43469.41
686.79	43360.48
687.138	43385.79
687.485	43362.29
687.832	43259.24
688.18	43245.23
688.527	43080.27
688.874	43115.74
689.221	42882.53
689.568	42863.32
689.915	42734.74
690.262	42683.44
690.609	42541.75
690.956	42506.5
691.303	42410.9
691.65	42222.44
691.997	42205.71
692.344	41924.14
692.69	42059.28
693.037	42057.69
693.383	41675.78
693.73	41790.13
694.077	41585.84
694.423	41598.5
694.769	41398.73
695.116	41302.01
695.462	41302.91
695.808	41051.17
696.155	41114.89
696.501	41022.01
696.847	40903.15
697.193	40557.62
697.539	40682.36
697.885	40432.65
698.231	40345.42
698.577	40318.53
698.923	40258.87
699.269	40225.2
699.614	39876.73
699.96	39912.21
700.306	39952.89
700.651	39737.53
700.997	39596.52
701.342	39544.54
701.688	39580.92
702.033	39242.85
702.379	39306.58
702.724	39064.33
703.069	39301.16
703.415	38755.18
703.76	38791.34
704.105	38873.82
704.45	38722.87
704.795	38598.35
705.14	38503.66
705.485	38338.47
705.83	38164.24
706.175	38271.58
706.52	38041.75
706.865	37932.15
707.209	38084.69
707.554	37876.11
707.899	38041.3
708.243	37690.35
708.588	37633.63
708.932	37308.67
709.277	37368.78
709.621	37519.73
709.966	37297.82
710.31	37434.99
710.654	37012.85
710.998	37130.82
711.342	36998.84
711.687	36849.02
712.031	36779.41
712.375	36768.79
712.719	36883.14
713.063	36585.52
713.407	36626.65
713.75	36532.64
714.094	36383.94
714.438	36336.04
714.782	36393.44
715.125	36085.65
715.469	36263.72
715.812	35957.29
716.156	35875.48
716.499	35786.22
716.843	35962.26
717.186	35741.02
717.53	35837.29
717.873	35778.31
718.216	35747.13
718.559	35541.03
718.902	35383.52
719.246	35298.78
719.589	35368.83
719.932	35196.86
720.275	35202.05
720.617	35244.77
720.96	35165.9
721.303	35082.28
721.646	35065.34
721.989	34791.9
722.331	34956.86
722.674	34717.32
723.016	34932.01
723.359	34815.4
723.701	34811.33
724.044	34500.15
724.386	34366.14
724.729	34553.03
725.071	34427.16
725.413	34293.83
725.755	34360.95
726.097	34170.67
726.439	33975.87
726.782	34113.04
727.124	34207.05
727.465	33957.57
727.807	34047.51
728.149	33888.19
728.491	33839.83
728.833	33774.52
729.175	33726.16
729.516	33532.49
729.858	33577.69
730.199	33584.24
730.541	33401.65
730.882	33385.38
731.224	33487.07
731.565	33334.08
731.906	33259.73
732.248	33292.95
732.589	33023.58
732.93	33007.54
733.271	33010.25
733.612	33063.35
733.953	33033.98
734.294	32878.05
734.635	32885.73
734.976	32876.24
735.317	32674.44
735.658	32740.2
735.999	32675.12
736.339	32661.78
736.68	32697.26
737.021	32608.45
737.361	32412.98
737.702	32638.73
738.042	32492.52
738.383	32448.68
738.723	32359.87
739.063	32277.39
739.404	32189.48
739.744	32301.34
740.084	32053.44
740.424	32034.45
740.764	32080.33
741.104	32139.31
741.444	31984.51
741.784	31867.45
742.124	31816.15
742.464	31828.36
742.804	31853.44
743.143	31661.13
743.483	31666.1
743.823	31491.64
744.162	31496.62
744.502	31528.48
744.841	31302.5
745.181	31439.44
745.52	31246.45
745.86	31274.7
746.199	31093.01
746.538	31106.12
746.877	31206.23
747.216	31255.49
747.556	31057.08
747.895	31078.1
748.234	30869.74
748.573	31064.54
748.911	30822.96
749.25	30828.61
749.589	30696.18
749.928	30535.96
750.267	30729.63
750.605	30509.07
750.944	30461.16
751.283	30385.01
751.621	30513.59
751.96	30352.46
752.298	30265.24
752.636	30278.79
752.975	30115.86
753.313	30052.36
