Data from white_steel_sheet_FLMS001491_007.txt Node
Date: Tue Feb 07 10:57:19 GMT 2017
User: dcchb
Spectrometer: FLMS00149
Trigger mode: 0
Integration Time (sec): 2.000000E-2
Scans to average: 10
Electric dark correction enabled: true
Nonlinearity correction enabled: false
Boxcar width: 0
XAxis mode: Wavelengths
Number of Pixels in Spectrum: 2048
>>>>>Begin Spectral Data<<<<<
341.393	-11.84
341.776	-11.84
342.16	-11.84
342.543	-76.24
342.927	-63.13
343.31	-79.18
343.693	-65.17
344.077	-76.01
344.46	-53.19
344.843	-43.25
345.226	-46.41
345.61	-37.15
345.993	-12.74
346.376	-12.74
346.759	17.77
347.142	41.04
347.525	40.59
347.908	54.38
348.291	85.11
348.674	96.86
349.057	90.08
349.44	139.35
349.823	153.58
350.206	152.68
350.588	181.15
350.971	220.7
351.354	239.23
351.737	250.08
352.119	263.64
352.502	282.17
352.884	288.5
353.267	285.78
353.65	320.13
354.032	313.81
354.414	321.49
354.797	331.43
355.179	322.84
355.562	338.44
355.944	358.78
356.326	339.79
356.709	355.84
357.091	369.85
357.473	345.22
357.855	342.51
358.238	360.81
358.62	343.64
359.002	330.98
359.384	368.04
359.766	352.22
360.148	362.17
360.53	358.32
360.912	361.49
361.294	324.88
361.676	337.99
362.057	342.96
362.439	342.96
362.821	354.71
363.203	344.31
363.584	341.6
363.966	335.95
364.348	308.83
364.729	324.65
365.111	356.29
365.493	342.28
365.874	318.1
366.256	323.3
366.637	340.25
367.019	325.56
367.4	324.65
367.781	337.53
368.163	326.23
368.544	333.92
368.925	341.83
369.306	333.69
369.688	305.22
370.069	320.36
370.45	323.07
370.831	345.67
371.212	331.21
371.593	319.45
371.974	321.71
372.355	336.4
372.736	351.77
373.117	341.83
373.498	345.22
373.879	343.86
374.26	334.6
374.641	338.89
375.021	357.65
375.402	352.67
375.783	321.26
376.163	369.62
376.544	353.58
376.925	325.56
377.305	341.38
377.686	367.14
378.066	368.95
378.447	352.22
378.827	355.84
379.208	345.44
379.588	339.79
379.968	357.87
380.349	359.68
380.729	373.01
381.109	367.59
381.489	364.43
381.87	364.43
382.25	392.45
382.63	381.37
383.01	372.79
383.39	364.88
383.77	385.89
384.15	384.54
384.53	386.57
384.91	382.28
385.29	398.32
385.67	386.12
386.049	394.03
386.429	389.06
386.809	402.16
387.189	378.21
387.568	421.15
387.948	416.85
388.328	407.36
388.707	410.07
389.087	417.31
389.466	440.81
389.846	411.88
390.225	426.57
390.605	403.97
390.984	426.34
391.363	445.33
391.743	436.97
392.122	459.11
392.501	431.99
392.881	436.97
393.26	450.07
393.639	462.95
394.018	454.14
394.397	456.85
394.776	477.42
395.155	459.34
395.534	490.3
395.913	507.02
396.292	490.07
396.671	511.77
397.05	499.56
397.429	517.42
397.808	522.39
398.186	503.86
398.565	525.33
398.944	539.34
399.323	548.6
399.701	562.39
400.08	560.35
400.458	587.24
400.837	573.23
401.215	562.61
401.594	580.69
401.972	595.83
402.351	573.91
402.729	593.8
403.107	618.2
403.486	629.73
403.864	661.14
404.242	640.12
404.62	637.64
404.999	640.58
405.377	643.74
405.755	696.17
406.133	678.09
406.511	689.84
406.889	694.81
407.267	700.24
407.645	723.06
408.023	740.23
408.401	770.29
408.779	732.78
409.156	760.12
409.534	782.72
409.912	789.27
410.29	801.7
410.667	823.85
411.045	816.62
411.422	849.38
411.8	855.71
412.178	850.51
412.555	858.42
412.933	898.65
413.31	885.54
413.687	932.32
414.065	914.92
414.442	933.22
414.819	955.82
415.197	945.88
415.574	1004.18
415.951	980.91
416.328	981.36
416.705	1015.48
417.082	1002.15
417.46	1025.88
417.837	1061.81
418.214	1034.92
418.591	1043.96
418.967	1064.29
419.344	1060
419.721	1101.58
420.098	1071.75
420.475	1090.06
420.852	1119.89
421.228	1161.47
421.605	1150.85
421.982	1165.76
422.358	1186.78
422.735	1157.17
423.111	1187.68
423.488	1208.7
423.864	1222.48
424.241	1237.62
424.617	1243.95
424.994	1253.22
425.37	1250.96
425.746	1250.28
426.123	1281.46
426.499	1308.13
426.875	1340.44
427.251	1341.12
427.627	1358.75
428.003	1367.79
428.379	1404.85
428.756	1397.62
429.132	1437.84
429.507	1449.14
429.883	1450.5
430.259	1493.44
430.635	1508.58
431.011	1521.68
431.387	1518.75
431.763	1557.61
432.138	1563.49
432.514	1604.17
432.89	1615.24
433.265	1638.74
433.641	1696.37
434.016	1663.6
434.392	1695.92
434.767	1720.77
435.143	1741.11
435.518	1748.12
435.894	1776.59
436.269	1786.76
436.644	1825.4
437.02	1835.8
437.395	1852.97
437.77	1890.49
438.145	1894.55
438.52	1928.9
438.895	1932.75
439.271	1954.44
439.646	1972.74
440.021	2001.44
440.395	2022.69
440.77	2005.29
441.145	2043.03
441.52	2039.41
441.895	2066.3
442.27	2111.95
442.645	2113.98
443.019	2154.43
443.394	2159.63
443.769	2142.46
444.143	2147.43
444.518	2182.91
444.892	2210.93
445.267	2189.69
445.641	2251.38
446.016	2245.73
446.39	2284.15
446.764	2299.52
447.139	2311.94
447.513	2340.87
447.887	2355.11
448.262	2344.71
448.636	2337.48
449.01	2389.91
449.384	2424.71
449.758	2433.3
450.132	2483.01
450.506	2520.75
450.88	2517.36
451.254	2509.23
451.628	2542.45
452.002	2556.23
452.376	2595.78
452.75	2640.52
453.123	2645.95
453.497	2678.49
453.871	2681.2
454.244	2771.82
454.618	2735.66
454.992	2827.19
455.365	2843.46
455.739	2894.98
456.112	2879.84
456.486	2946.5
456.859	2969.1
457.232	3023.56
457.606	3008.65
457.979	3118.48
458.352	3134.75
458.725	3171.13
459.099	3197.57
459.472	3215.2
459.845	3240.96
460.218	3322.77
460.591	3350.11
460.964	3328.19
461.337	3442.31
461.71	3486.38
462.083	3529.31
462.456	3499.26
462.829	3555.75
463.201	3602.98
463.574	3623.1
463.947	3713.49
464.32	3745.13
464.692	3799.59
465.065	3779.7
465.438	3856.09
465.81	3906.48
466.183	3966.14
466.555	4029.19
466.928	4100.82
467.3	4068.51
467.672	4129.52
468.045	4262.63
468.417	4230.76
468.789	4287.49
469.161	4346.47
469.534	4391.44
469.906	4499.91
470.278	4536.29
470.65	4595.05
471.022	4680.7
471.394	4767.7
471.766	4807.47
472.138	4836.4
472.51	4956.85
472.882	5020.12
473.253	5043.17
473.625	5113.23
473.997	5271.42
474.369	5319.32
474.74	5304.18
475.112	5470.51
475.484	5536.72
475.855	5597.51
476.227	5677.51
476.598	5838.86
476.97	5872.53
477.341	5984.62
477.713	6052.86
478.084	6154.33
478.455	6317.04
478.827	6315.91
479.198	6510.48
479.569	6561.55
479.94	6726.52
480.311	6805.39
480.682	6873.63
481.053	7054.87
481.424	7168.77
481.795	7214.19
482.166	7383.68
482.537	7512.94
482.908	7657.34
483.279	7720.62
483.65	7941.4
484.021	8036.77
484.391	8069.76
484.762	8229.08
485.133	8249.87
485.503	8417.55
485.874	8519.24
486.244	8690.53
486.615	8819.8
486.985	8914.94
487.356	9056.4
487.726	9129.17
488.097	9377.97
488.467	9443.06
488.837	9577.29
489.207	9707
489.578	9893.44
489.948	9929.82
490.318	10073.55
490.688	10072.19
491.058	10306.76
491.428	10360.09
491.798	10546.98
492.168	10716.7
492.538	10767.32
492.908	10889.8
493.278	11041.66
493.648	11094.54
494.017	11231.26
494.387	11348.32
494.757	11347.87
495.126	11587.18
495.496	11616.56
495.866	11718.7
496.235	11874.18
496.605	12036.43
496.974	11995.31
497.344	12107.62
497.713	12246.6
498.082	12339.03
498.452	12452.02
498.821	12463.09
499.19	12594.39
499.559	12687.04
499.928	12830.09
500.298	12899.92
500.667	12986.69
501.036	13018.56
501.405	13182.39
501.774	13259.23
502.143	13384.2
502.512	13451.99
502.88	13520.69
503.249	13555.04
503.618	13693.79
503.987	13715.94
504.356	13884.75
504.724	14010.85
505.093	14004.52
505.462	14134.91
505.83	14268.92
506.199	14330.16
506.567	14568.57
506.936	14495.35
507.304	14682.02
507.672	14786.87
508.041	14813.09
508.409	14944.16
508.777	15185.05
509.145	15162.91
509.514	15194.09
509.882	15456.23
510.25	15470.69
510.618	15601.99
510.986	15746.62
511.354	15816.45
511.722	15892.38
512.09	16165.82
512.458	16133.5
512.826	16320.16
513.193	16380.28
513.561	16453.95
513.929	16676.54
514.297	16805.12
514.664	16981.84
515.032	16988.85
515.4	17082.63
515.767	17262.74
516.135	17296.18
516.502	17316.97
516.869	17644.2
517.237	17680.81
517.604	17663.63
517.972	17994.47
518.339	18111.53
518.706	18121.7
519.073	18134.35
519.44	18460.9
519.808	18593.1
520.175	18587.68
520.542	18861.11
520.909	18976.82
521.276	18984.05
521.643	19206.64
522.009	19414.77
522.376	19564.6
522.743	19604.37
523.11	19929.33
523.477	20066.73
523.843	20071.03
524.21	20332.04
524.577	20463.78
524.943	20647.51
525.31	20717.11
525.676	21012.7
526.043	21159.13
526.409	21237.77
526.776	21508.73
527.142	21539.01
527.508	21671.66
527.874	21909.85
528.241	21992.11
528.607	22031.2
528.973	22300.8
529.339	22209.05
529.705	22557.74
530.071	22645.2
530.437	22759.32
530.803	22971.97
531.169	23087.44
531.535	23091.29
531.901	23210.83
532.267	23364.27
532.632	23582.35
532.998	23618.5
533.364	23720.42
533.73	23846.29
534.095	24065.72
534.461	24098.72
534.826	24273.85
535.192	24449.22
535.557	24472.04
535.923	24576.22
536.288	24599.72
536.653	24766.95
537.019	24707.97
537.384	24933.5
537.749	25080.39
538.114	25110.67
538.479	25199.03
538.845	25249.65
539.21	25232.92
539.575	25486.02
539.94	25529.87
540.305	25698
540.67	25705.68
541.034	25850.99
541.399	26006.92
541.764	25934.15
542.129	26118.32
542.494	26251.43
542.858	26211.2
543.223	26268.83
543.587	26476.06
543.952	26530.74
544.316	26800.57
544.681	26584.75
545.045	26910.62
545.41	26990.17
545.774	27058.86
546.138	27038.3
546.503	27175.47
546.867	27182.25
547.231	27435.8
547.595	27530.04
547.959	27555.35
548.324	27680.54
548.688	27766.42
549.052	27911.72
549.416	27918.96
549.779	27881.44
550.143	27908.56
550.507	28264.03
550.871	28244.14
551.235	28325.95
551.599	28471.03
551.962	28515.78
552.326	28715.32
552.689	28833.28
553.053	28707.63
553.417	28906.95
553.78	29188.75
554.143	29178.58
554.507	29216.77
554.87	29407.5
555.234	29607.95
555.597	29588.97
555.96	29641.85
556.323	29875.51
556.686	29840.49
557.05	30092.91
557.413	30186.92
557.776	30263.3
558.139	30525.21
558.502	30472.11
558.865	30529.96
559.228	30920.91
559.59	30921.14
559.953	31014.24
560.316	31290.17
560.679	31180.79
561.041	31513.44
561.404	31609.48
561.767	31789.14
562.129	31728.8
562.492	32122.23
562.854	32029.81
563.217	32169.92
563.579	32226.64
563.941	32458.95
564.304	32601.09
564.666	32770.35
565.028	32903.46
565.39	32952.27
565.753	33197.91
566.115	33197.01
566.477	33438.13
566.839	33523.1
567.201	33652.59
567.563	33677.9
567.925	33879.48
568.287	33962.41
568.648	33990.21
569.01	34250.09
569.372	34440.82
569.734	34221.84
570.095	34588.16
570.457	34824.54
570.819	34827.7
571.18	34725.33
571.542	34975.27
571.903	34968.26
572.265	35158.31
572.626	35248.71
572.987	35305.88
573.349	35536.16
573.71	35521.24
574.071	35599.21
574.432	35706.1
574.794	36014.11
575.155	35875.58
575.516	35861.8
575.877	35954.9
576.238	36130.72
576.599	36241.67
576.96	36170.72
577.32	36172.75
577.681	36372.07
578.042	36399.86
578.403	36441.44
578.763	36567.77
579.124	36498.62
579.485	36620.65
579.845	36704.49
580.206	36539.97
580.566	36676.92
580.927	36732.51
581.287	36851.83
581.648	36695
582.008	36894.76
582.368	36858.16
582.728	36869.68
583.089	36842.56
583.449	36854.77
583.809	37014.54
584.169	36943.8
584.529	36807.31
584.889	37167.98
585.249	36829.23
585.609	36800.53
585.969	37073.74
586.329	36900.87
586.688	37073.74
587.048	36951.03
587.408	36765.73
587.768	36993.07
588.127	36946.51
588.487	36902.67
588.846	37343.57
589.206	36870.36
589.565	36930.92
589.925	37123.46
590.284	37010.47
590.643	37064.93
591.003	37217.24
591.362	37251.14
591.721	37158.49
592.08	37148.32
592.44	37284.81
592.799	37232.61
593.158	37010.69
593.517	37018.15
593.876	37184.7
594.235	37036
594.593	37181.99
594.952	37224.93
595.311	36985.16
595.67	37109.67
596.029	37405.94
596.387	37281.19
596.746	37421.98
597.104	37228.09
597.463	37237.13
597.822	37440.74
598.18	37206.62
598.538	37205.04
598.897	37434.64
599.255	37212.27
599.613	37753.5
599.972	37527.29
600.33	37464.47
600.688	37184.02
601.046	37415.65
601.404	37607.97
601.762	37443
602.12	37643.67
602.478	37552.15
602.836	37500.85
603.194	37400.29
603.552	37518.02
603.91	37345.15
604.268	37489.55
604.625	37397.8
604.983	37597.8
605.341	37449.1
605.698	37619.49
606.056	37765.48
606.413	37761.63
606.771	37709.88
607.128	37840.5
607.485	37640.73
607.843	37800.5
608.2	37810.9
608.557	37875.98
608.914	37806.83
609.272	38019.93
609.629	37967.73
609.986	38169.53
610.343	38024.45
610.7	38238.91
611.057	38225.12
611.414	38214.73
611.771	38238.68
612.127	38296.08
612.484	38350.09
612.841	38460.82
613.198	38380.6
613.554	38365.69
613.911	38472.58
614.267	38512.57
614.624	38418.34
614.98	38500.6
615.337	38781.49
615.693	38633.25
616.05	38624.66
616.406	38809.06
616.762	38774.94
617.118	38772
617.475	38638.9
617.831	38877.31
618.187	38883.41
618.543	38906.91
618.899	39186.68
619.255	39061.04
619.611	39054.48
619.967	39058.78
620.323	39406.56
620.678	39075.72
621.034	38976.07
621.39	39071.2
621.746	38924.99
622.101	39296.06
622.457	39054.48
622.812	39238.66
623.168	39323.18
623.523	39275.94
623.879	39333.34
624.234	39061.49
624.589	39196.85
624.945	39305.55
625.3	39231.2
625.655	39391.65
626.01	39361.37
626.365	39367.02
626.72	39319.79
627.075	39205.66
627.43	39044.99
627.785	39132.9
628.14	39172.9
628.495	39235.49
628.85	39150.07
629.205	38948.04
629.559	39118.66
629.914	38959.79
630.269	39101.71
630.623	38964.31
630.978	38930.42
631.332	38947.59
631.687	39120.02
632.041	38818.33
632.396	39037.08
632.75	38956.41
633.104	38869.63
633.459	38627.15
633.813	38686.58
634.167	38546.02
634.521	38569.75
634.875	38744.43
635.229	38549.18
635.583	38471.45
635.937	38640.48
636.291	38291.11
636.645	38393.93
636.999	38191.23
637.352	38403.65
637.706	38103.77
638.06	38280.49
638.413	38187.61
638.767	38013.83
639.121	38149.87
639.474	37853.61
639.828	37851.12
640.181	37967.28
640.534	37955.53
640.888	37782.2
641.241	37586.72
641.594	37677.12
641.947	37652.26
642.301	37599.38
642.654	37633.73
643.007	37527.06
643.36	37567.97
643.713	37563.22
644.066	37711.01
644.419	37361.87
644.771	37086.4
645.124	36850.02
645.477	36657.48
645.83	36545.62
646.182	36365.51
646.535	36176.14
646.888	36300.43
647.24	36202.35
647.593	36351.95
647.945	36264.72
648.298	36120.77
648.65	36061.57
649.002	35966.43
649.355	36005.75
649.707	35883.04
650.059	35993.09
650.411	36490.26
650.763	36483.48
651.115	37054.53
651.467	36656.13
651.819	36758.27
652.171	36680.53
652.523	36618.16
652.875	36642.57
653.227	36495.45
653.578	36667.2
653.93	36462.69
654.282	36330.71
654.633	36382.91
654.985	36377.72
655.337	36372.74
655.688	36317.15
656.039	36442.57
656.391	36165.07
656.742	36174.78
657.094	36070.61
657.445	36247.1
657.796	36158.96
658.147	36146.31
658.498	36098.63
658.849	36095.46
659.2	36021.57
659.551	35898.63
659.902	36064.73
660.253	35800.56
660.604	35853.89
660.955	35715.36
661.306	35728.92
661.656	35716.04
662.007	35732.54
662.358	35697.96
662.708	35777.05
663.059	35598.53
663.409	35334.81
663.76	35527.34
664.11	35505.2
664.461	35484.18
664.811	35396.95
665.161	35440.57
665.511	35177.3
665.862	35221.36
666.212	35368.7
666.562	35196.96
666.912	35131.65
667.262	34847.59
667.612	34838.32
667.962	34839.68
668.312	34785.89
668.662	34882.16
669.011	34749.96
669.361	34670.64
669.711	34430.65
670.06	34456.64
670.41	34270.2
670.76	34222.52
671.109	34289.41
671.459	34139.36
671.808	34223.87
672.157	34132.58
672.507	33923.77
672.856	33822.75
673.205	33813.26
673.554	33862.3
673.904	33674.51
674.253	33856.88
674.602	33758.35
674.951	33214.86
675.3	33023.91
675.649	33546.6
675.998	33456.89
676.346	33400.62
676.695	33595.64
677.044	33316.55
677.393	33332.82
677.741	33337.8
678.09	33214.41
678.438	33211.02
678.787	33198.14
679.135	33314.52
679.484	33144.35
679.832	33318.36
680.181	33051.25
680.529	33073.17
680.877	32940.74
681.225	32961.76
681.573	33297.57
681.922	33054.64
682.27	33108.2
682.618	33031.36
682.966	33034.53
683.314	32971.93
683.661	32987.3
684.009	32872.05
684.357	32972.83
684.705	32834.53
685.053	33013.28
685.4	32897.81
685.748	32785.49
686.095	32824.59
686.443	32789.11
686.79	32857.13
687.138	32801.09
687.485	32937.35
687.832	32694.42
688.18	32921.31
688.527	32792.05
688.874	32799.5
689.221	32775.78
689.568	32628.66
689.915	32737.13
690.262	32538.27
690.609	32573.3
690.956	32410.59
691.303	32553.86
691.65	32375.34
691.997	32537.36
692.344	32392.28
692.69	32242.46
693.037	32198.39
693.383	32109.58
693.73	32243.81
694.077	32073.87
694.423	32058.51
694.769	32047.89
695.116	31972.41
695.462	32075
695.808	31869.81
696.155	31906.19
696.501	31777.84
696.847	31708.91
697.193	31644.05
697.539	31649.25
697.885	31484.06
698.231	31403.16
698.577	31511.63
698.923	31345.76
699.269	31208.13
699.614	31196.16
699.96	31181.69
700.306	31172.88
700.651	30990.29
700.997	30813.79
701.342	30730.41
701.688	30866.22
702.033	30752.55
702.379	30703.97
702.724	30696.74
703.069	30725.66
703.415	30357.08
703.76	30335.61
704.105	30283.64
704.45	30327.71
704.795	30179.46
705.14	30115.51
705.485	30082.51
705.83	29885.68
706.175	29925.68
706.52	29713.03
706.865	29618.35
707.209	29641.62
707.554	29617.67
707.899	29685.46
708.243	29555.07
708.588	29405.7
708.932	29298.58
709.277	29238.24
709.621	29303.78
709.966	29145.59
710.31	29155.76
710.654	28853.62
710.998	29056.55
711.342	28967.29
711.687	28857.46
712.031	28824.92
712.375	28704.92
712.719	28726.84
713.063	28563.46
713.407	28640.07
713.75	28518.94
714.094	28420.64
714.438	28370.47
714.782	28313.97
715.125	28232.39
715.469	28342.9
715.812	28037.37
716.156	28033.53
716.499	28126.63
716.843	28050.7
717.186	27880.54
717.53	27952.4
717.873	27888.22
718.216	27957.6
718.559	27701.79
718.902	27604.16
719.246	27714.67
719.589	27629.25
719.932	27476.48
720.275	27474.45
720.617	27410.04
720.96	27471.06
721.303	27499.31
721.646	27389.93
721.989	27197.17
722.331	27130.28
722.674	27163.72
723.016	27127.79
723.359	27196.94
723.701	27167.56
724.044	26950.85
724.386	26850.96
724.729	26916.5
725.071	26841.92
725.413	26862.71
725.755	26770.96
726.097	26728.93
726.439	26658.88
726.782	26490.29
727.124	26636.28
727.465	26543.17
727.807	26546.79
728.149	26463.85
728.491	26417.75
728.833	26452.1
729.175	26319.9
729.516	26279.45
729.858	26227.7
730.199	26290.52
730.541	26168.94
730.882	26091.66
731.224	26196.97
731.565	25966.01
731.906	25921.72
732.248	25938.89
732.589	25880.82
732.93	25771.89
733.271	25718.56
733.612	25894.38
733.953	25780.48
734.294	25702.74
734.635	25585.68
734.976	25778.22
735.317	25606.47
735.658	25538.9
735.999	25539.81
736.339	25454.39
736.68	25564.21
737.021	25471.34
737.361	25322.87
737.702	25393.15
738.042	25362.19
738.383	25314.5
738.723	25369.64
739.063	25139.59
739.404	25181.17
739.744	25050.56
740.084	25077.9
740.424	25115.87
740.764	24968.98
741.104	25113.83
741.444	24973.72
741.784	24823.67
742.124	24937.11
742.464	24878.36
742.804	24795.2
743.143	24781.86
743.483	24819.38
743.823	24701.86
744.162	24539.38
744.502	24601.08
744.841	24602.66
745.181	24537.35
745.52	24490.8
745.86	24548.2
746.199	24424.58
746.538	24413.51
746.877	24303.91
747.216	24268.2
747.556	24390.01
747.895	24287.41
748.234	24124.7
748.573	24114.31
748.911	24139.62
749.25	23958.83
749.589	23960.87
749.928	23999.28
750.267	23913.86
750.605	23894.2
750.944	23889.23
751.283	23671.38
751.621	23812.85
751.96	23680.2
752.298	23672.74
752.636	23643.81
752.975	23592.97
753.313	23529.92
753.651	23454.89
