Data from whiteboard_FLMS001491_00034.txt Node
Date: Wed Feb 08 11:26:16 GMT 2017
User: dcchb
Spectrometer: FLMS00149
Trigger mode: 0
Integration Time (sec): 2.000000E-2
Scans to average: 10
Electric dark correction enabled: true
Nonlinearity correction enabled: false
Boxcar width: 0
XAxis mode: Wavelengths
Number of Pixels in Spectrum: 2048
>>>>>Begin Spectral Data<<<<<
341.393	-26.76
341.776	-26.76
342.16	-26.76
342.543	-88.68
342.927	-80.77
343.31	-75.13
343.693	-75.58
344.077	-49.14
344.46	-63.15
344.843	-56.59
345.226	-41.23
345.61	-20.66
345.993	-25.18
346.376	1.71
346.759	11.88
347.142	22.27
347.525	37.19
347.908	55.27
348.291	82.61
348.674	83.06
349.057	112.67
349.44	136.85
349.823	143.85
350.206	179.56
350.588	218.2
350.971	243.06
351.354	247.8
351.737	275.83
352.119	281.48
352.502	290.51
352.884	317.86
353.267	318.08
353.65	324.19
354.032	340.23
354.414	334.13
354.797	336.16
355.179	354.69
355.562	354.24
355.944	349.04
356.326	375.94
356.709	361.25
357.091	382.49
357.473	406.67
357.855	395.37
358.238	392.89
358.62	383.17
359.002	373.68
359.384	402.38
359.766	374.13
360.148	388.82
360.53	396.73
360.912	357.18
361.294	396.73
361.676	400.34
362.057	385.65
362.439	380.68
362.821	391.98
363.203	367.58
363.584	383.17
363.966	394.69
364.348	359.44
364.729	371.87
365.111	373
365.493	397.63
365.874	386.33
366.256	350.85
366.637	378.65
367.019	376.84
367.4	374.13
367.781	375.03
368.163	377.74
368.544	388.82
368.925	371.64
369.306	390.63
369.688	372.55
370.069	384.07
370.45	398.99
370.831	384.75
371.212	381.13
371.593	380
371.974	400.57
372.355	400.34
372.736	420.23
373.117	425.65
373.498	389.95
373.879	405.54
374.26	401.25
374.641	378.65
375.021	389.5
375.402	398.53
375.783	428.59
376.163	421.13
376.544	442.38
376.925	422.26
377.305	426.33
377.686	424.52
378.066	434.24
378.447	435.37
378.827	442.15
379.208	439.66
379.588	443.96
379.968	445.99
380.349	454.58
380.729	448.93
381.109	439.21
381.489	464.3
381.87	470.85
382.25	462.49
382.63	464.07
383.01	488.48
383.39	448.02
383.77	500.68
384.15	491.41
384.53	504.75
384.91	479.89
385.29	518.31
385.67	509.49
386.049	494.13
386.429	519.44
386.809	525.54
387.189	522.83
387.568	516.5
387.948	523.28
388.328	526.67
388.707	528.25
389.087	531.86
389.466	555.82
389.846	560.56
390.225	556.95
390.605	581.81
390.984	584.52
391.363	575.71
391.743	600.11
392.122	621.81
392.501	626.1
392.881	624.29
393.26	621.81
393.639	621.58
394.018	648.25
394.397	638.3
394.776	662.26
395.155	662.26
395.534	663.61
395.913	678.08
396.292	681.47
396.671	695.25
397.05	710.84
397.429	711.75
397.808	706.1
398.186	728.7
398.565	763.5
398.944	758.98
399.323	758.3
399.701	783.38
400.08	789.26
400.458	827.22
400.837	814.57
401.215	817.28
401.594	797.62
401.972	853.66
402.351	862.25
402.729	862.03
403.107	883.04
403.486	896.6
403.864	895.7
404.242	910.16
404.62	935.7
404.999	959.88
405.377	938.41
405.755	966.2
406.133	1000.1
406.511	1016.6
406.889	1033.77
407.267	1067.44
407.645	1069.03
408.023	1054.79
408.401	1093.66
408.779	1150.38
409.156	1141.57
409.534	1183.15
409.912	1188.8
410.29	1249.36
410.667	1257.5
411.045	1277.38
411.422	1287.1
411.8	1286.19
412.178	1300.88
412.555	1353.99
412.933	1354.67
413.31	1380.66
413.687	1399.41
414.065	1419.75
414.442	1432.63
414.819	1517.6
415.197	1504.72
415.574	1561.89
415.951	1548.33
416.328	1568
416.705	1577.71
417.082	1626.07
417.46	1640.54
417.837	1684.83
418.214	1697.48
418.591	1703.13
418.967	1683.7
419.344	1724.15
419.721	1755.56
420.098	1756.47
420.475	1802.34
420.852	1810.93
421.228	1848.67
421.605	1856.8
421.982	1869
422.358	1938.38
422.735	1948.32
423.111	1934.99
423.488	2000.3
423.864	2007.08
424.241	2035.1
424.617	2072.61
424.994	2098.83
425.37	2116
425.746	2098.15
426.123	2131.37
426.499	2157.13
426.875	2231.03
427.251	2246.85
427.627	2274.64
428.003	2304.93
428.379	2357.81
428.756	2341.99
429.132	2401.87
429.507	2436.9
429.883	2494.98
430.259	2558.7
430.635	2535.65
431.011	2569.1
431.387	2662.43
431.763	2674.63
432.138	2699.49
432.514	2749.89
432.89	2719.83
433.265	2871.69
433.641	2874.4
434.016	2898.58
434.392	2938.58
434.767	3001.4
435.143	3028.97
435.518	3058.58
435.894	3098.12
436.269	3168.41
436.644	3172.47
437.02	3232.81
437.395	3240.72
437.77	3284.79
438.145	3336.54
438.52	3403.65
438.895	3414.27
439.271	3437.1
439.646	3529.53
440.021	3500.15
440.395	3556.64
440.77	3576.53
441.145	3608.39
441.52	3637.77
441.895	3666.02
442.27	3714.83
442.645	3684.78
443.019	3752.12
443.394	3760.93
443.769	3821.5
444.143	3815.39
444.518	3870.31
444.892	3889.97
445.267	3938.78
445.641	4018.78
446.016	3977.42
446.39	4032.56
446.764	4069.17
447.139	4056.97
447.513	4106.69
447.887	4093.58
448.262	4131.77
448.636	4186.23
449.01	4268.72
449.384	4305.1
449.758	4312.33
450.132	4366.79
450.506	4439.78
450.88	4453.57
451.254	4444.76
451.628	4594.13
452.002	4601.14
452.376	4691.3
452.75	4659.21
453.123	4732.21
453.497	4818.31
453.871	4850.62
454.244	4950.05
454.618	5000.22
454.992	5044.51
455.365	5035.25
455.739	5187.11
456.112	5225.53
456.486	5320.67
456.859	5360.66
457.232	5472.98
457.606	5480.66
457.979	5584.39
458.352	5671.62
458.725	5719.52
459.099	5764.04
459.472	5903.7
459.845	5946.19
460.218	6036.58
460.591	6105.28
460.964	6096.92
461.337	6301.66
461.71	6399.73
462.083	6475.44
462.456	6460.75
462.829	6495.78
463.201	6720.63
463.574	6692.83
463.947	6794.52
464.32	6995.2
464.692	7048.98
465.065	7126.49
465.438	7202.65
465.81	7296.88
466.183	7402.19
466.555	7585.01
466.928	7620.27
467.3	7672.69
467.672	7759.92
468.045	7929.41
468.417	7995.17
468.789	8067.94
469.161	8190.65
469.534	8346.12
469.906	8495.27
470.278	8594.25
470.65	8691.2
471.022	8828.37
471.394	8978.42
471.766	9101.36
472.138	9192.43
472.51	9391.52
472.882	9595.13
473.253	9608.91
473.625	9789.47
473.997	10029.69
474.369	10093.2
474.74	10201.67
475.112	10382.68
475.484	10594.2
475.855	10740.41
476.227	10871.93
476.598	11182.66
476.97	11282.99
477.341	11589.2
477.713	11681.18
478.084	11820.83
478.455	12151.9
478.827	12275.96
479.198	12765.22
479.569	12673.01
479.94	13078.65
480.311	13190.29
480.682	13514.57
481.053	13755.25
481.424	14022.36
481.795	14151.62
482.166	14330.6
482.537	14640.19
482.908	15020.07
483.279	15129.9
483.65	15361.98
484.021	15679.94
484.391	15778.24
484.762	15981.85
485.133	16105.01
485.503	16380.04
485.874	16743.42
486.244	16907.93
486.615	17207.58
486.985	17469.27
487.356	17819.32
487.726	17849.83
488.097	18344.73
488.467	18380.66
488.837	18719.86
489.207	19003.24
489.578	19172.28
489.948	19396.23
490.318	19623.79
490.688	19805.03
491.058	20061.52
491.428	20349.87
491.798	20585.57
492.168	20948.5
492.538	21094.26
492.908	21360.92
493.278	21729.27
493.648	21758.2
494.017	22090.62
494.387	22302.37
494.757	22540.33
495.126	22813.31
495.496	22894.44
495.866	22984.16
496.235	23302.34
496.605	23490.81
496.974	23726.73
497.344	23883.11
497.713	24097.57
498.082	24319.49
498.452	24456.21
498.821	24588.63
499.19	24667.28
499.559	24958.57
499.928	25083.08
500.298	25211.22
500.667	25478.55
501.036	25607.14
501.405	25758.09
501.774	25804.87
502.143	26128.25
502.512	26188.59
502.88	26438.3
503.249	26550.16
503.618	26677.17
503.987	26908.12
504.356	27009.81
504.724	27188.11
505.093	27256.13
505.462	27530.02
505.83	27828.1
506.199	28068.54
506.567	28271.25
506.936	28306.28
507.304	28863.1
507.672	28854.96
508.041	29000.72
508.409	29268.96
508.777	29648.16
509.145	29687.03
509.514	29854.03
509.882	30096.74
510.25	30133.8
510.618	30492.43
510.986	30670.96
511.354	30836.38
511.722	31144.39
512.09	31420.77
512.458	31486.08
512.826	31723.13
513.193	31955.22
513.561	32119.28
513.929	32385.04
514.297	32706.16
514.664	32947.28
515.032	32933.72
515.4	33189.99
515.767	33393.15
516.135	33674.27
516.502	33452.13
516.869	34049.63
517.237	34137.08
517.604	34070.19
517.972	34586.79
518.339	34710.63
518.706	34909.94
519.073	35095.7
519.44	35281.46
519.808	35524.62
520.175	35821.78
520.542	36266.29
520.909	36358.95
521.276	36438.49
521.643	36912.38
522.009	37327.51
522.376	37467.16
522.743	37715.52
523.11	38119.12
523.477	38459.68
523.843	38786
524.21	39224.41
524.577	39428.47
524.943	39613.1
525.31	39980.32
525.676	40310.03
526.043	40582.56
526.409	40793.4
526.776	41150.91
527.142	41253.05
527.508	41592.03
527.874	41916.99
528.241	42204.67
528.607	42161.5
528.973	42480.59
529.339	42537.31
529.705	43134.81
530.071	43246.67
530.437	43346.11
530.803	43781.35
531.169	43952.87
531.535	43879.88
531.901	44091.17
532.267	44175.69
532.632	44591.05
532.998	44603.02
533.364	44809.34
533.73	44876.69
534.095	45171.14
534.461	45300.4
534.826	45502.21
535.192	45691.13
535.557	45905.13
535.923	45899.26
536.288	46103.77
536.653	46228.29
537.019	46252.7
537.384	46490.43
537.749	46709.41
538.114	46800.03
538.479	46962.06
538.845	47030.3
539.21	47122.05
539.575	47473
539.94	47493.57
540.305	47859.89
540.67	47837.97
541.034	48063.5
541.399	48198.41
541.764	48394.56
542.129	48666.64
542.494	48643.37
542.858	48925.17
543.223	49088.55
543.587	49237.48
543.952	49222.79
544.316	49425.49
544.681	49419.62
545.045	49555.66
545.41	49918.36
545.774	49943.22
546.138	49961.53
546.503	50060.73
546.867	50241.29
547.231	50500.49
547.595	50426.37
547.959	50453.72
548.324	50573.71
548.688	50527.16
549.052	50722.18
549.416	50796.31
549.779	50811.45
550.143	51008.5
550.507	51042.85
550.871	51202.62
551.235	51183.41
551.599	51397.19
551.962	51350.64
552.326	51453.69
552.689	51676.28
553.053	51590.64
553.417	51671.99
553.78	52026.33
554.143	51918.99
554.507	52073.11
554.87	52132.99
555.234	52476.49
555.597	52285.08
555.96	52524.17
556.323	52680.1
556.686	52636.26
557.05	53055.68
557.413	53111.5
557.776	53222.46
558.139	53386.29
558.502	53407.99
558.865	53625.84
559.228	53854.3
559.59	53942.89
559.953	54033.06
560.316	54339.72
560.679	54366.16
561.041	54645.24
561.404	54698.12
561.767	54902.64
562.129	54875.52
562.492	55200.03
562.854	55183.99
563.217	55150.77
563.579	55392.34
563.941	55572.9
564.304	55690.41
564.666	55831.2
565.028	55865.55
565.39	56004.53
565.753	56113.68
566.115	56230.96
566.477	56256.5
566.839	56361.13
567.201	56491.3
567.563	56518.87
567.925	56678.64
568.287	56722.03
568.648	56711.4
569.01	56754.34
569.372	56968.35
569.734	56896.03
570.095	56988.01
570.457	57072.07
570.819	57129.47
571.18	57172.64
571.542	57230.71
571.903	57269.58
572.265	57415.79
572.626	57385.06
572.987	57422.8
573.349	57557.71
573.71	57606.52
574.071	57713.86
574.432	57713.41
574.794	57938.94
575.155	57917.47
575.516	57797.48
575.877	58009
576.238	58044.7
576.599	58121.76
576.96	58166.73
577.32	58135.32
577.681	58357.46
578.042	58420.96
578.403	58368.76
578.763	58484.47
579.124	58558.59
579.485	58666.38
579.845	58807.39
580.206	58738.24
580.566	58796.77
580.927	58759.03
581.287	58966.94
581.648	58924.91
582.008	59044.22
582.368	59021.4
582.728	59029.54
583.089	59057.11
583.449	59071.79
583.809	59048.29
584.169	59205.35
584.529	59051.23
584.889	59308.62
585.249	59046.71
585.609	59075.64
585.969	59229.76
586.329	59144.33
586.688	59201.51
587.048	59205.35
587.408	59087.39
587.768	59132.13
588.127	59066.6
588.487	59030.89
588.846	59229.98
589.206	59052.81
589.565	58977.11
589.925	59084
590.284	59029.99
590.643	59023.21
591.003	59040.38
591.362	59134.84
591.721	59119.02
592.08	59073.6
592.44	59080.16
592.799	59084
593.158	59056.43
593.517	59103.88
593.876	59172.81
594.235	59057.33
594.593	59012.81
594.952	59162.19
595.311	59108.4
595.67	59138.91
596.029	59224.56
596.387	59265.24
596.746	59275.86
597.104	59201.28
597.463	59144.11
597.822	59290.09
598.18	59234.73
598.538	59170.77
598.897	59367.61
599.255	59277.44
599.613	59616.86
599.972	59453.03
600.33	59505.68
600.688	59407.83
601.046	59516.98
601.404	59663.64
601.762	59592.23
602.12	59736.18
602.478	59688.95
602.836	59714.72
603.194	59717.65
603.552	59745.22
603.91	59723.98
604.268	59814.37
604.625	59765.11
604.983	59863.86
605.341	59682.4
605.698	59852.11
606.056	59870.87
606.413	59873.58
606.771	60008.04
607.128	59946.12
607.485	59855.95
607.843	59896.63
608.2	60011.88
608.557	60117.42
608.914	60041.49
609.272	60090.3
609.629	60151.09
609.986	60175.95
610.343	60095.5
610.7	60222.05
611.057	60102.73
611.414	60185.66
611.771	60094.37
612.127	60175.95
612.484	60189.96
612.841	60247.13
613.198	60140.69
613.554	60137.3
613.911	60257.98
614.267	60209.39
614.624	60119.9
614.98	60260.69
615.337	60261.37
615.693	60323.51
616.05	60241.71
616.406	60344.3
616.762	60249.39
617.118	60252.1
617.475	60273.8
617.831	60350.63
618.187	60397.64
618.543	60381.14
618.899	60546.56
619.255	60471.31
619.611	60430.63
619.967	60586.33
620.323	60620
620.678	60523.51
621.034	60503.62
621.39	60533.68
621.746	60498.65
622.101	60740.9
622.457	60560.79
622.812	60651.41
623.168	60715.59
623.523	60724.41
623.879	60758.98
624.234	60658.42
624.589	60778.87
624.945	60787.46
625.3	60881.01
625.655	60882.82
626.01	60820
626.365	60841.01
626.72	60913.33
627.075	60894.57
627.43	60831.07
627.785	60784.29
628.14	60824.97
628.495	60846.44
628.85	60837.62
629.205	60780.22
629.559	60830.39
629.914	60671.3
630.269	60700.68
630.623	60694.35
630.978	60601.25
631.332	60684.41
631.687	60669.49
632.041	60572.09
632.396	60578.87
632.75	60431.31
633.104	60546.33
633.459	60438.99
633.813	60412.78
634.167	60393.12
634.521	60312.67
634.875	60336.39
635.229	60178.66
635.583	60102.05
635.937	60171.88
636.291	60045.78
636.645	60099.11
636.999	60030.87
637.352	60037.42
637.706	59812.57
638.06	59937.76
638.413	59857.31
638.767	59840.59
639.121	59790.87
639.474	59675.62
639.828	59676.75
640.181	59662.74
640.534	59652.57
640.888	59562.18
641.241	59440.82
641.594	59504.78
641.947	59644.43
642.301	59513.59
642.654	59565.79
643.007	59542.52
643.36	59518.79
643.713	59511.1
644.066	59557.21
644.419	59450.77
644.771	59253.48
645.124	59080.16
645.477	59057.33
645.83	58901.86
646.182	58854.62
646.535	58710.67
646.888	58854.4
647.24	58641.07
647.593	58825.25
647.945	58796.32
648.298	58691.24
648.65	58658.47
649.002	58592.26
649.355	58792.48
649.707	58814.17
650.059	58944.79
650.411	59176.2
650.763	59139.36
651.115	59405.12
651.467	59291.45
651.819	59305.23
652.171	59210.32
652.523	59250.77
652.875	59227.95
653.227	59089.19
653.578	59271.56
653.93	59212.36
654.282	59051.46
654.633	59119.25
654.985	59130.32
655.337	59085.13
655.688	59065.69
656.039	59181.17
656.391	58880.16
656.742	58941.4
657.094	58854.85
657.445	58962.64
657.796	58874.29
658.147	58749.54
658.498	58733.05
658.849	58804
659.2	58681.75
659.551	58589.1
659.902	58646.04
660.253	58564.24
660.604	58577.8
660.955	58439.49
661.306	58531.7
661.656	58383.22
662.007	58415.77
662.358	58434.52
662.708	58346.16
663.059	58381.42
663.409	58098.03
663.76	58296.45
664.11	58275.21
664.461	58235.66
664.811	58287.63
665.161	58216
665.511	58127.41
665.862	58136.23
666.212	58130.8
666.562	58123.8
666.912	57995.21
667.262	57983.24
667.612	58074.08
667.962	58039.96
668.312	57946.85
668.662	58036.34
669.011	58034.08
669.361	57938.94
669.711	58010.81
670.06	57964.48
670.41	57956.8
670.76	57903.92
671.109	57966.96
671.459	57923.35
671.808	57923.35
672.157	57944.37
672.507	57909.56
672.856	57902.56
673.205	57956.12
673.554	58067.98
673.904	57972.39
674.253	58130.35
674.602	58024.14
674.951	57653.75
675.3	57533.76
675.649	57955.44
675.998	57958.83
676.346	57981.88
676.695	58049.9
677.044	57931.71
677.393	57965.16
677.741	58057.58
678.09	57985.95
678.438	57900.53
678.787	57973.29
679.135	57914.31
679.484	57821.66
679.832	57896.68
680.181	57769
680.529	57797.7
680.877	57742.56
681.225	57707.08
681.573	57797.48
681.922	57589.12
682.27	57511.16
682.618	57547.77
682.966	57473.19
683.314	57578.05
683.661	57414.44
684.009	57265.51
684.357	57226.87
684.705	57084.05
685.053	57149.13
685.4	57058.74
685.748	56954.79
686.095	56942.13
686.443	56845.64
686.79	56787.79
687.138	56774.23
687.485	56740.78
687.832	56626.89
688.18	56582.37
688.527	56383.96
688.874	56431.86
689.221	56331.3
689.568	56218.76
689.915	56122.95
690.262	56113
690.609	55981.93
690.956	55859.22
691.303	55796.85
691.65	55614.48
691.997	55647.25
692.344	55485.9
692.69	55438.67
693.037	55453.36
693.383	55171.78
693.73	55264.44
694.077	55073.48
694.423	55016.08
694.769	54974.95
695.116	54894.73
695.462	54797.1
695.808	54642.76
696.155	54809.08
696.501	54507.62
696.847	54487.28
697.193	54312.37
697.539	54467.4
697.885	54329.77
698.231	54144.92
698.577	54099.04
698.923	54132.04
699.269	53963.23
699.614	54008.42
699.96	53975.43
700.306	53911.25
700.651	53748.09
700.997	53762.1
701.342	53732.95
701.688	53664.7
702.033	53601.43
702.379	53501.09
702.724	53465.39
703.069	53544.48
703.415	53239.18
703.76	53299.97
704.105	53339.29
704.45	53179.97
704.795	53091.39
705.14	53031.28
705.485	53034.66
705.83	52877.83
706.175	53026.76
706.52	52980.88
706.865	52834.22
707.209	52822.24
707.554	52756.71
707.899	52739.76
708.243	52563.94
708.588	52570.72
708.932	52463.38
709.277	52307
709.621	52402.82
709.966	52151.3
710.31	52226.32
710.654	51922.15
710.998	52022.26
711.342	51909.04
711.687	51897.75
712.031	51771.65
712.375	51620.46
712.719	51680.12
713.063	51573.91
713.407	51624.53
713.75	51434.93
714.094	51344.09
714.438	51140.03
714.782	51187.03
715.125	50853.71
715.469	51049.41
715.812	50879.69
716.156	50670.89
716.499	50756.31
716.843	50784.33
717.186	50405.13
717.53	50623.88
717.873	50560.61
718.216	50358.58
718.559	50232.03
718.902	49950.68
719.246	50055.08
719.589	49930.57
719.932	49783.22
720.275	49684.7
720.617	49657.58
720.96	49542.55
721.303	49604.25
721.646	49522.44
721.989	49105.95
722.331	49198.38
722.674	49299.4
723.016	49175.33
723.359	49044.04
723.701	49027.09
724.044	48705.74
724.386	48498.96
724.729	48595.23
725.071	48422.13
725.413	48410.38
725.755	48390.04
726.097	48254.9
726.439	48101.91
726.782	48004.29
727.124	48110.27
727.465	47933.78
727.807	47852.88
728.149	47769.49
728.491	47731.3
728.833	47762.71
729.175	47586.9
729.516	47487.92
729.858	47309.84
730.199	47493.12
730.541	47353.46
730.882	47253.12
731.224	47416.73
731.565	47195.95
731.906	47137.19
732.248	47180.36
732.589	46986.46
732.93	46911.66
733.271	46963.64
733.612	47031.88
733.953	47005.9
734.294	46876.63
734.635	46782.85
734.976	46847.48
735.317	46692.01
735.658	46701.5
735.999	46568.62
736.339	46449.08
736.68	46661.73
737.021	46595.96
737.361	46251.79
737.702	46525.01
738.042	46368.63
738.383	46359.59
738.723	46400.49
739.063	46242.98
739.404	46495.18
739.744	46290.66
740.084	46057.22
740.424	46094.96
740.764	46054.96
741.104	46268.74
741.444	45938.35
741.784	45932.93
742.124	46022.65
742.464	45859.26
742.804	45803.67
743.143	45627.18
743.483	45783.1
743.823	45416.33
744.162	45571.13
744.502	45573.17
744.841	45389.67
745.181	45573.62
745.52	45441.87
745.86	45315.09
746.199	45041.65
746.538	45224.47
746.877	45296.34
747.216	45184.25
747.556	45045.5
747.895	44934.99
748.234	44878.04
748.573	44738.16
748.911	44717.14
749.25	44474.21
749.589	44385.4
749.928	44454.78
750.267	44445.29
750.605	44228.79
750.944	44175.24
751.283	44069.7
751.621	44113.54
751.96	43654.57
752.298	43733.89
752.636	43677.62
752.975	43561.02
