Data from White_reflection_standard_FLMS001491_089.txt Node
Date: Tue Feb 07 10:32:13 GMT 2017
User: dcchb
Spectrometer: FLMS00149
Trigger mode: 0
Integration Time (sec): 2.000000E-2
Scans to average: 10
Electric dark correction enabled: true
Nonlinearity correction enabled: false
Boxcar width: 0
XAxis mode: Wavelengths
Number of Pixels in Spectrum: 2048
>>>>>Begin Spectral Data<<<<<
341.393	-14.49
341.776	-14.49
342.16	-14.49
342.543	-59.69
342.927	-52.46
343.31	-54.49
343.693	-67.15
344.077	-55.85
344.46	-73.25
344.843	-56.07
345.226	-35.73
345.61	-43.64
345.993	-14.27
346.376	-13.81
346.759	15.11
347.142	14.43
347.525	30.48
347.908	50.82
348.291	92.62
348.674	103.47
349.057	107.31
349.44	119.74
349.823	131.04
350.206	157.03
350.588	234.54
350.971	242.68
351.354	277.48
351.737	277.25
352.119	284.94
352.502	331.94
352.884	318.83
353.267	331.04
353.65	326.06
354.032	343.69
354.414	359.06
354.797	365.39
355.179	350.25
355.562	364.93
355.944	380.53
356.326	381.43
356.709	364.26
357.091	400.64
357.473	400.41
357.855	394.09
358.238	417.59
358.62	386.85
359.002	410.36
359.384	425.27
359.766	382.11
360.148	394.31
360.53	406.06
360.912	406.51
361.294	415.33
361.676	415.78
362.057	430.24
362.439	406.29
362.821	409
363.203	409
363.584	416.91
363.966	436.57
364.348	410.58
364.729	428.44
365.111	394.76
365.493	412.84
365.874	418.49
366.256	415.33
366.637	413.29
367.019	439.28
367.4	407.19
367.781	409
368.163	411.03
368.544	416.01
368.925	414.2
369.306	420.3
369.688	436.8
370.069	433.18
370.45	430.47
370.831	430.24
371.212	451.49
371.593	443.8
371.974	450.36
372.355	448.32
372.736	453.97
373.117	448.1
373.498	450.81
373.879	456
374.26	443.8
374.641	443.58
375.021	443.35
375.402	485.83
375.783	488.55
376.163	496
376.544	497.81
376.925	480.64
377.305	483.8
377.686	493.29
378.066	495.78
378.447	495.33
378.827	501.43
379.208	508.66
379.588	529.9
379.968	533.07
380.349	544.36
380.729	526.96
381.109	516.79
381.489	569.45
381.87	527.64
382.25	549.79
382.63	551.14
383.01	558.15
383.39	579.39
383.77	568.54
384.15	561.99
384.53	555.66
384.91	583.23
385.29	606.28
385.67	606.96
386.049	601.09
386.429	619.39
386.809	616.68
387.189	630.01
387.568	640.18
387.948	642.89
388.328	660.75
388.707	660.29
389.087	678.6
389.466	699.61
389.846	679.95
390.225	691.25
390.605	690.58
390.984	703.46
391.363	727.86
391.743	727.41
392.122	713.85
392.501	730.12
392.881	740.07
393.26	753.62
393.639	750.23
394.018	761.76
394.397	779.39
394.776	806.73
395.155	802.89
395.534	797.24
395.913	823.9
396.292	831.14
396.671	807.18
397.05	840.85
397.429	837.92
397.808	841.98
398.186	870.23
398.565	866.84
398.944	867.29
399.323	891.25
399.701	906.16
400.08	893.73
400.458	902.55
400.837	932.38
401.215	898.48
401.594	933.28
401.972	925.82
402.351	932.38
402.729	947.74
403.107	994.3
403.486	996.1
403.864	1003.11
404.242	1014.18
404.62	1032.49
404.999	1003.79
405.377	1019.83
405.755	1040.85
406.133	1074.29
406.511	1099.15
406.889	1111.81
407.267	1120.85
407.645	1150
408.023	1149.32
408.401	1164.01
408.779	1154.29
409.156	1180.51
409.534	1213.27
409.912	1207.17
410.29	1258.92
410.667	1268.64
411.045	1270.9
411.422	1284.68
411.8	1302.99
412.178	1313.61
412.555	1327.85
412.933	1377.34
413.31	1394.06
413.687	1402.19
414.065	1403.55
414.442	1418.69
414.819	1464.11
415.197	1432.7
415.574	1489.2
415.951	1479.48
416.328	1516.77
416.705	1515.64
417.082	1544.56
417.46	1555.64
417.837	1584.11
418.214	1620.72
418.591	1612.81
418.967	1621.4
419.344	1632.02
419.721	1673.6
420.098	1645.13
420.475	1691
420.852	1696.88
421.228	1704.56
421.605	1728.74
421.982	1777.78
422.358	1782.52
422.735	1830.21
423.111	1807.38
423.488	1859.13
423.864	1864.33
424.241	1872.46
424.617	1885.12
424.994	1918.34
425.37	1941.16
425.746	1972.35
426.123	1995.63
426.499	2056.19
426.875	2015.51
427.251	2108.16
427.627	2120.14
428.003	2094.61
428.379	2169.18
428.756	2183.19
429.132	2207.6
429.507	2218.44
429.883	2274.94
430.259	2295.96
430.635	2294.37
431.011	2375.28
431.387	2420.93
431.763	2463.41
432.138	2506.35
432.514	2506.12
432.89	2527.59
433.265	2562.84
433.641	2579.79
434.016	2610.98
434.392	2698.21
434.767	2704.31
435.143	2691.2
435.518	2772.78
435.894	2798.77
436.269	2836.51
436.644	2882.61
437.02	2943.85
437.395	2923.74
437.77	2952.66
438.145	3022.72
438.52	2989.95
438.895	3037.18
439.271	3062.04
439.646	3148.59
440.021	3172.77
440.395	3181.81
440.77	3137.74
441.145	3189.94
441.52	3257.29
441.895	3238.3
442.27	3269.26
442.645	3313.1
443.019	3363.73
443.394	3389.04
443.769	3408.24
444.143	3391.07
444.518	3463.61
444.892	3471.52
445.267	3489.15
445.641	3559.2
446.016	3577.73
446.39	3574.79
446.764	3608.69
447.139	3634.23
447.513	3670.84
447.887	3678.52
448.262	3707.9
448.636	3703.83
449.01	3783.38
449.384	3824.5
449.758	3844.84
450.132	3903.82
450.506	3917.83
450.88	3960.77
451.254	3975.69
451.628	4031.05
452.002	4073.31
452.376	4112.63
452.75	4165.29
453.123	4162.57
453.497	4253.87
453.871	4268.11
454.244	4366.41
454.618	4395.11
454.992	4488.67
455.365	4435.56
455.739	4595.78
456.112	4576.8
456.486	4689.11
456.859	4681.88
457.232	4814.76
457.606	4859.05
457.979	4878.94
458.352	5024.25
458.725	5061.76
459.099	5033.74
459.472	5141.98
459.845	5212.72
460.218	5292.49
460.591	5286.61
460.964	5372.49
461.337	5515.98
461.71	5566.15
462.083	5629.88
462.456	5660.84
462.829	5682.76
463.201	5802.31
463.574	5793.27
463.947	5885.47
464.32	6014.28
464.692	6060.38
465.065	6171.79
465.438	6279.81
465.81	6312.57
466.183	6404.32
466.555	6503.98
466.928	6579.46
467.3	6582.62
467.672	6723.18
468.045	6847.25
468.417	6875.5
468.789	6950.3
469.161	7069.84
469.534	7186
469.906	7338.31
470.278	7369.5
470.65	7460.34
471.022	7660.79
471.394	7760.9
471.766	7770.61
472.138	7957.05
472.51	8081.57
472.882	8237.95
473.253	8268.91
473.625	8458.73
473.997	8585.96
474.369	8653.98
474.74	8704.38
475.112	8941.88
475.484	9082.44
475.855	9265.72
476.227	9324.25
476.598	9629.1
476.97	9649.21
477.341	9870.22
477.713	10089.2
478.084	10125.13
478.455	10420.49
478.827	10480.15
479.198	10854.15
479.569	10789.29
479.94	11098.21
480.311	11242.84
480.682	11514.92
481.053	11692.32
481.424	11960.34
481.795	11998.98
482.166	12212.08
482.537	12354
482.908	12728.9
483.279	12819.3
483.65	13014.32
484.021	13278.72
484.391	13389.45
484.762	13525.27
485.133	13713.28
485.503	13981.98
485.874	14251.8
486.244	14259.94
486.615	14600.94
486.985	14715.97
487.356	15131.78
487.726	15210.87
488.097	15546.46
488.467	15586
488.837	16011.08
489.207	16119.1
489.578	16323.38
489.948	16520.67
490.318	16700.55
490.688	16887.66
491.058	17028.22
491.428	17310.93
491.798	17461.66
492.168	17858.26
492.538	17790.92
492.908	18086.5
493.278	18276.33
493.648	18404.91
494.017	18609.43
494.387	18771.68
494.757	18845.8
495.126	19146.13
495.496	19221.16
495.866	19352.91
496.235	19606.01
496.605	19727.81
496.974	19832.9
497.344	20019.78
497.713	20155.15
498.082	20395.59
498.452	20687.11
498.821	20645.53
499.19	20723.04
499.559	21041.9
499.928	21241.45
500.298	21231.28
500.667	21453.42
501.036	21470.82
501.405	21673.98
501.774	21776.35
502.143	21918.49
502.512	22068.09
502.88	22294.75
503.249	22370.23
503.618	22590.79
503.987	22549.89
504.356	22738.58
504.724	22975.19
505.093	23128.86
505.462	23177.44
505.83	23455.4
506.199	23678.45
506.567	23875.73
506.936	23883.64
507.304	24178.55
507.672	24346.9
508.041	24397.3
508.409	24638.65
508.777	24813.1
509.145	25006.09
509.514	25109.14
509.882	25309.81
510.25	25427.33
510.618	25575.34
510.986	25610.15
511.354	25938.95
511.722	26081.77
512.09	26349.79
512.458	26399.28
512.826	26609.22
513.193	26754.97
513.561	26917.68
513.929	27165.59
514.297	27366.48
514.664	27648.51
515.032	27718.34
515.4	27995.39
515.767	28022.96
516.135	28341.6
516.502	28217.99
516.869	28785.43
517.237	28788.82
517.604	28879.66
517.972	29256.6
518.339	29492.53
518.706	29519.87
519.073	29646.42
519.44	29855.46
519.808	30279.63
520.175	30206.86
520.542	30696.79
520.909	30759.84
521.276	30854.53
521.643	31335.64
522.009	31446.38
522.376	31655.18
522.743	31818.34
523.11	32315.51
523.477	32542.17
523.843	32681.82
524.21	33030.52
524.577	33193.45
524.943	33349.15
525.31	33638.18
525.676	33982.36
526.043	34104.61
526.409	34315.91
526.776	34661.89
527.142	34825.5
527.508	35160.18
527.874	35239.27
528.241	35405.14
528.607	35558.58
528.973	36029.98
529.339	35922.19
529.705	36413.25
530.071	36564.43
530.437	36840.81
530.803	37051.65
531.169	37171.42
531.535	37170.29
531.901	37376.39
532.267	37611.64
532.632	37906.77
532.998	37930.5
533.364	38219.76
533.73	38322.35
534.095	38752.63
534.461	38704.26
534.826	39092.96
535.192	38944.48
535.557	39472.38
535.923	39318.49
536.288	39567.97
536.653	39758.7
537.019	39701.3
537.384	40005.25
537.749	40157.56
538.114	40232.36
538.479	40353.04
538.845	40485.91
539.21	40581.96
539.575	40836.41
539.94	40794.61
540.305	41153.24
540.67	41017.42
541.034	41260.81
541.399	41341.48
541.764	41635.71
542.129	41754.35
542.494	41806.78
542.858	42088.36
543.223	41972.43
543.587	42304.17
543.952	42243.38
544.316	42470.49
544.681	42480.89
545.045	42653.77
545.41	42992.97
545.774	43042.23
546.138	43209.23
546.503	43220.76
546.867	43344.14
547.231	43848.99
547.595	43781.19
547.959	43949.1
548.324	43889.89
548.688	44061.86
549.052	44272.03
549.416	44332.59
549.779	44407.84
550.143	44594.96
550.507	44768.29
550.871	44871.33
551.235	44900.71
551.599	45337.31
551.962	45425.22
552.326	45549.51
552.689	45673.35
553.053	45626.34
553.417	45751.99
553.78	46370.73
554.143	46064.75
554.507	46260
554.87	46559.65
555.234	46906.54
555.597	46669.48
555.96	46773.66
556.323	47137.94
556.686	47256.58
557.05	47493.19
557.413	47462.45
557.776	47694.31
558.139	47977.69
558.502	47975.21
558.865	48233.51
559.228	48439.15
559.59	48516.21
559.953	48728.41
560.316	49119.81
560.679	49091.79
561.041	49199.58
561.404	49391.22
561.767	49687.7
562.129	49517.77
562.492	49937.64
562.854	49991.43
563.217	50059.45
563.579	50178.99
563.941	50359.1
564.304	50518.87
564.666	50769.26
565.028	50786.43
565.39	50910.72
565.753	51161.34
566.115	51334.67
566.477	51393.65
566.839	51439.52
567.201	51645.62
567.563	51728.78
567.925	51923.13
568.287	52068.21
568.648	52055.33
569.01	52265.04
569.372	52454.41
569.734	52336.45
570.095	52584.8
570.457	52708.19
570.819	52785.93
571.18	52810.11
571.542	52920.61
571.903	53019.82
572.265	53231.34
572.626	53211.23
572.987	53243.54
573.349	53395.18
573.71	53567.15
574.071	53495.51
574.432	53587.04
574.794	53888.05
575.155	53856.63
575.516	53728.05
575.877	53983.64
576.238	53935.28
576.599	54044.88
576.96	54178.66
577.32	54117.64
577.681	54239
578.042	54300.24
578.403	54277.19
578.763	54286.68
579.124	54442.16
579.485	54507.92
579.845	54526.22
580.206	54421.14
580.566	54494.81
580.927	54499.33
581.287	54734.13
581.648	54566.9
582.008	54742.71
582.368	54563.28
582.728	54707.23
583.089	54699.1
583.449	54765.54
583.809	54685.31
584.169	54754.69
584.529	54745.2
584.889	55048.24
585.249	54780.23
585.609	54733.67
585.969	54920.11
586.329	54689.61
586.688	54881.92
587.048	54795.82
587.408	54739.55
587.768	54831.98
588.127	54783.39
588.487	54747.46
588.846	54908.13
589.206	54759.44
589.565	54767.12
589.925	54897.29
590.284	54840.11
590.643	54914.01
591.003	54901.81
591.362	54937.51
591.721	54961.92
592.08	54856.83
592.44	54938.19
592.799	55019.99
593.158	54936.61
593.517	54954.68
593.876	54994.01
594.235	54928.02
594.593	54989.26
594.952	55039.43
595.311	55035.13
595.67	55004.85
596.029	55143.15
596.387	55214.57
596.746	55246.2
597.104	55101.8
597.463	55151.29
597.822	55227.9
598.18	55134.57
598.538	55071.52
598.897	55261.34
599.255	55062.7
599.613	55429.02
599.972	55194.68
600.33	55284.62
600.688	55250.72
601.046	55288.24
601.404	55371.4
601.762	55360.55
602.12	55479.19
602.478	55522.81
602.836	55503.37
603.194	55406.42
603.552	55478.96
603.91	55344.73
604.268	55556.93
604.625	55492.3
604.983	55593.31
605.341	55458.4
605.698	55638.96
606.056	55699.98
606.413	55618.17
606.771	55702.91
607.128	55794.21
607.485	55627.44
607.843	55586.08
608.2	55842.12
608.557	55863.14
608.914	55843.48
609.272	55921.21
609.629	55986.75
609.986	56037.14
610.343	55890.93
610.7	56073.98
611.057	56073.98
611.414	56074.43
611.771	56054.09
612.127	56116.01
612.484	56180.42
612.841	56274.2
613.198	56120.08
613.554	56185.39
613.911	56291.37
614.267	56231.94
614.624	56246.85
614.98	56226.52
615.337	56385.61
615.693	56359.85
616.05	56313.07
616.406	56521.2
616.762	56355.33
617.118	56402.1
617.475	56419.05
617.831	56517.13
618.187	56389.45
618.543	56501.08
618.899	56542.44
619.255	56584.7
619.611	56542.67
619.967	56611.82
620.323	56654.53
620.678	56516.45
621.034	56483.46
621.39	56481.65
621.746	56474.42
622.101	56762.55
622.457	56469.45
622.812	56604.36
623.168	56639.84
623.523	56659.27
623.879	56721.87
624.234	56500.18
624.589	56623.57
624.945	56652.49
625.3	56692.72
625.655	56641.65
626.01	56664.7
626.365	56584.02
626.72	56644.36
627.075	56597.81
627.43	56642.55
627.785	56481.88
628.14	56611.14
628.495	56605.94
628.85	56571.14
629.205	56435.78
629.559	56686.39
629.914	56417.7
630.269	56518.71
630.623	56398.71
630.978	56323.69
631.332	56497.02
631.687	56523.23
632.041	56331.15
632.396	56471.26
632.75	56337.25
633.104	56350.13
633.459	56209.57
633.813	56244.82
634.167	56134.77
634.521	56178.38
634.875	56122.79
635.229	56073.75
635.583	55983.36
635.937	55971.61
636.291	55985.84
636.645	56047.09
636.999	55942.91
637.352	55988.1
637.706	55785.85
638.06	55857.71
638.413	55849.58
638.767	55708.79
639.121	55815.45
639.474	55636.7
639.828	55601
640.181	55673.54
640.534	55647.1
640.888	55597.61
641.241	55507.66
641.594	55516.03
641.947	55542.24
642.301	55423.6
642.654	55476.03
643.007	55463.82
643.36	55360.1
643.713	55299.53
644.066	55391.28
644.419	55107.68
644.771	55027
645.124	54737.52
645.477	54683.73
645.83	54537.97
646.182	54366.23
646.535	54409.16
646.888	54358.09
647.24	54144.99
647.593	54377.07
647.945	54231.77
648.298	54155.84
648.65	54132.11
649.002	53993.58
649.355	54116.51
649.707	53979.8
650.059	54160.81
650.411	54471.08
650.763	54459.78
651.115	54784.75
651.467	54581.36
651.819	54579.55
652.171	54566.45
652.523	54509.27
652.875	54504.53
653.227	54359.22
653.578	54566.67
653.93	54434.02
654.282	54292.1
654.633	54256.62
654.985	54340.92
655.337	54338.43
655.688	54306.57
656.039	54260.69
656.391	54092.56
656.742	54183.41
657.094	54121.49
657.445	54285.55
657.796	54121.03
658.147	54138.89
658.498	53997.2
658.849	54186.8
659.2	54059.12
659.551	53967.82
659.902	54054.14
660.253	53994.26
660.604	53947.93
660.955	53940.02
661.306	53951.55
661.656	53912.23
662.007	53841.95
662.358	53884.66
662.708	53908.61
663.059	53780.93
663.409	53771.89
663.76	53947.71
664.11	53825.45
664.461	53832.91
664.811	53705.68
665.161	53715.62
665.511	53703.87
665.862	53654.83
666.212	53818.22
666.562	53730.76
666.912	53727.15
667.262	53620.71
667.612	53582.07
667.962	53698.67
668.312	53538.9
668.662	53694.15
669.011	53570.77
669.361	53511.33
669.711	53534.84
670.06	53475.63
670.41	53392.92
670.76	53335.07
671.109	53459.58
671.459	53353.82
671.808	53291.9
672.157	53317.89
672.507	53168.07
672.856	53295.75
673.205	53190.21
673.554	53317.67
673.904	53171.91
674.253	53342.98
674.602	53183.21
674.951	52678.36
675.3	52658.93
675.649	53079.25
675.998	53044
676.346	53078.8
676.695	53109.08
677.044	52909.77
677.393	53056.43
677.741	52998.13
678.09	52938.69
678.438	52870.9
678.787	52895.53
679.135	52888.3
679.484	52616.67
679.832	52863.89
680.181	52608.31
680.529	52692.6
680.877	52642.88
681.225	52553.17
681.573	52808.53
681.922	52455.99
682.27	52387.97
682.618	52428.88
682.966	52310.23
683.314	52364.24
683.661	52273.4
684.009	52087.19
684.357	52030.24
684.705	51898.72
685.053	51967.19
685.4	51948.66
685.748	51776.69
686.095	51810.81
686.443	51698.5
686.79	51537.37
687.138	51627.77
687.485	51615.34
687.832	51447.43
688.18	51593.64
688.527	51296.7
688.874	51274.1
689.221	51176.25
689.568	51080.89
689.915	50938.07
690.262	50953.21
690.609	50899.65
690.956	50710.28
691.303	50642.71
691.65	50604.06
691.997	50504.86
692.344	50347.12
692.69	50303.96
693.037	50332.89
693.383	49987.81
693.73	50168.14
694.077	49930.18
694.423	49927.02
694.769	49767.7
695.116	49694.48
695.462	49552.57
695.808	49444.32
696.155	49390.31
696.501	49207.49
696.847	49167.72
697.193	48886.14
697.539	49114.39
697.885	48907.39
698.231	48666.26
698.577	48682.99
698.923	48613.38
699.269	48368.87
699.614	48346.95
699.96	48265.82
700.306	48184.47
700.651	48156.67
700.997	47768.66
701.342	47808.66
701.688	47637.59
702.033	47688.89
702.379	47668.77
702.724	47502.68
703.069	47531.6
703.415	47112.63
703.76	47150.37
704.105	47204.83
704.45	46923.94
704.795	46841.9
705.14	46641.91
705.485	46724.62
705.83	46635.36
706.175	46519.2
706.52	46309.49
706.865	46193.56
707.209	46166.67
707.554	45988.82
707.899	46093.68
708.243	45863.62
708.588	45811.2
708.932	45614.82
709.277	45542.96
709.621	45506.8
709.966	45288.05
710.31	45402.39
710.654	44956.08
710.998	44994.27
711.342	45066.58
711.687	44778.46
712.031	44727.61
712.375	44592.47
712.719	44656.2
713.063	44529.42
713.407	44695.75
713.75	44381.4
714.094	44253.05
714.438	44233.16
714.782	44147.51
715.125	44055.54
715.469	44100.51
715.812	43773.96
716.156	43733.96
716.499	43591.82
716.843	43759.5
717.186	43479.28
717.53	43598.83
717.873	43512.95
718.216	43467.08
718.559	43236.8
718.902	42920.43
719.246	43008.56
719.589	42964.27
719.932	42860.77
720.275	42688.79
720.617	42716.81
720.96	42692.41
721.303	42649.25
721.646	42653.09
721.989	42261.23
722.331	42605.63
722.674	42123.16
723.016	42263.04
723.359	42242.7
723.701	42306.88
724.044	41981.92
724.386	41789.61
724.729	42023.5
725.071	41842.26
725.413	41825.54
725.755	41811.75
726.097	41558.65
726.439	41419.45
726.782	41506.9
727.124	41621.93
727.465	41376.06
727.807	41226.23
728.149	41186.01
728.491	40965.45
728.833	41182.84
729.175	40949.86
729.516	40854.49
729.858	40943.3
730.199	40850.65
730.541	40710.31
730.882	40815.62
731.224	40724.1
731.565	40515.06
731.906	40569.53
732.248	40579.7
732.589	40300.83
732.93	40272.59
733.271	40188.07
733.612	40240.5
733.953	40236.88
734.294	40036.21
734.635	39988.98
734.976	39997.11
735.317	39806.38
735.658	39737.01
735.999	39654.3
736.339	39473.74
736.68	39621.3
737.021	39600.51
737.361	39457.47
737.702	39618.59
738.042	39333.63
738.383	39311.71
738.723	39292.5
739.063	39284.81
739.404	39196
739.744	39162.56
740.084	39013.64
740.424	39054.31
740.764	38860.64
741.104	38888.21
741.444	38749.24
741.784	38620.88
742.124	38740.42
742.464	38747.65
742.804	38542.91
743.143	38471.5
743.483	38465.63
743.823	38245.29
744.162	38211.85
744.502	38253.88
744.841	38046.43
745.181	38195.58
745.52	38130.27
745.86	38042.59
746.199	38028.12
746.538	37875.13
746.877	37981.8
747.216	37891.18
747.556	37774.8
747.895	37755.59
748.234	37398.76
748.573	37465.88
748.911	37549.27
749.25	37444.64
749.589	37305.66
749.928	37269.27
750.267	37337.52
750.605	37018.66
750.944	37038.55
751.283	36824.54
751.621	36973.24
751.96	36702.96
752.298	36744.32
752.636	36688.27
