Data from white_wall_FLMS001491_001.txt Node
Date: Tue Feb 07 11:03:11 GMT 2017
User: dcchb
Spectrometer: FLMS00149
Trigger mode: 0
Integration Time (sec): 2.000000E-2
Scans to average: 10
Electric dark correction enabled: true
Nonlinearity correction enabled: false
Boxcar width: 0
XAxis mode: Wavelengths
Number of Pixels in Spectrum: 2048
>>>>>Begin Spectral Data<<<<<
341.393	-11.5
341.776	-11.5
342.16	-11.5
342.543	-56.47
342.927	-77.03
343.31	-80.87
343.693	-75
344.077	-52.63
344.46	-79.52
344.843	-51.27
345.226	-43.36
345.61	-30.48
345.993	-17.82
346.376	10.88
346.759	8.84
347.142	26.92
347.525	42.74
347.908	43.87
348.291	81.38
348.674	103.3
349.057	113.02
349.44	138.33
349.823	143.98
350.206	160.48
350.588	227.14
350.971	238.44
351.354	260.81
351.737	261.26
352.119	263.52
352.502	282.05
352.884	296.97
353.267	302.17
353.65	330.19
354.032	327.93
354.414	310.98
354.797	343.07
355.179	342.17
355.562	352.11
355.944	344.65
356.326	362.28
356.709	341.49
357.091	348.04
357.473	351.66
357.855	357.98
358.238	352.56
358.62	358.89
359.002	365.44
359.384	353.47
359.766	350.75
360.148	359.11
360.53	365.89
360.912	342.62
361.294	355.27
361.676	352.34
362.057	373.58
362.439	356.86
362.821	350.98
363.203	348.27
363.584	356.86
363.966	349.4
364.348	337.87
364.729	339.68
365.111	339.23
365.493	356.4
365.874	336.52
366.256	356.4
366.637	344.88
367.019	346.69
367.4	329.29
367.781	343.52
368.163	350.75
368.544	361.6
368.925	343.3
369.306	359.79
369.688	343.75
370.069	347.59
370.45	337.87
370.831	336.52
371.212	347.59
371.593	333.13
371.974	350.3
372.355	346.91
372.736	343.97
373.117	340.36
373.498	335.16
373.879	332.67
374.26	356.63
374.641	355.73
375.021	346.46
375.402	361.37
375.783	359.34
376.163	346.69
376.544	354.82
376.925	354.14
377.305	358.66
377.686	376.06
378.066	363.63
378.447	368.61
378.827	374.03
379.208	360.7
379.588	381.04
379.968	365.89
380.349	381.71
380.729	381.71
381.109	377.87
381.489	386.01
381.87	392.79
382.25	393.24
382.63	398.66
383.01	367.25
383.39	391.2
383.77	413.8
384.15	399.57
384.53	409.28
384.91	395.72
385.29	402.96
385.67	397.98
386.049	421.26
386.429	419.45
386.809	399.57
387.189	424.65
387.568	419.68
387.948	436.4
388.328	429.85
388.707	429.62
389.087	454.03
389.466	435.5
389.846	444.99
390.225	454.03
390.605	464.65
390.984	477.76
391.363	472.56
391.743	494.25
392.122	500.13
392.501	479.34
392.881	517.08
393.26	518.88
393.639	506.91
394.018	518.43
394.397	542.61
394.776	527.7
395.155	562.95
395.534	556.17
395.913	557.98
396.292	560.69
396.671	566.57
397.05	592.56
397.429	581.26
397.808	615.83
398.186	602.5
398.565	645.44
398.944	621.71
399.323	645.21
399.701	630.07
400.08	658.32
400.458	680.46
400.837	690.63
401.215	702.16
401.594	697.64
401.972	724.98
402.351	743.96
402.729	727.92
403.107	745.32
403.486	754.58
403.864	759.78
404.242	805.43
404.62	806.79
404.999	809.95
405.377	831.87
405.755	845.88
406.133	875.03
406.511	882.72
406.889	894.02
407.267	927.01
407.645	928.59
408.023	903.51
408.401	967.23
408.779	990.74
409.156	1023.28
409.534	1007.91
409.912	1015.59
410.29	1051.75
410.667	1055.14
411.045	1083.39
411.422	1129.49
411.8	1101.69
412.178	1163.16
412.555	1134.46
412.933	1184.86
413.31	1192.77
413.687	1217.85
414.065	1235.93
414.442	1244.74
414.819	1262.14
415.197	1272.09
415.574	1308.02
415.951	1315.93
416.328	1341.01
416.705	1326.1
417.082	1342.59
417.46	1374
417.837	1387.11
418.214	1426.43
418.591	1404.74
418.967	1437.5
419.344	1429.6
419.721	1458.52
420.098	1483.38
420.475	1490.38
420.852	1495.58
421.228	1549.37
421.605	1536.03
421.982	1559.08
422.358	1566.09
422.735	1618.52
423.111	1602.25
423.488	1633.88
423.864	1667.33
424.241	1684.5
424.617	1715.46
424.994	1706.65
425.37	1736.48
425.746	1737.38
426.123	1770.38
426.499	1776.03
426.875	1795.24
427.251	1837.49
427.627	1884.72
428.003	1876.14
428.379	1902.58
428.756	1893.54
429.132	1959.75
429.507	1992.74
429.883	2013.99
430.259	2089.24
430.635	2046.53
431.011	2083.82
431.387	2142.57
431.763	2169.91
432.138	2183.93
432.514	2243.13
432.89	2210.82
433.265	2263.47
433.641	2330.36
434.016	2330.59
434.392	2348.44
434.767	2391.6
435.143	2429.79
435.518	2421.89
435.894	2452.17
436.269	2489
436.644	2569.45
437.02	2551.15
437.395	2589.79
437.77	2617.13
438.145	2627.08
438.52	2683.12
438.895	2706.85
439.271	2709.79
439.646	2802.67
440.021	2799.95
440.395	2792.95
440.77	2802.44
441.145	2847.64
441.52	2878.6
441.895	2919.27
442.27	2935.09
442.645	2983.45
443.019	3014.86
443.394	2995.88
443.769	3039.72
444.143	2994.75
444.518	3098.7
444.892	3052.38
445.267	3114.07
445.641	3139.83
446.016	3167.18
446.39	3191.81
446.764	3222.32
447.139	3218.7
447.513	3238.81
447.887	3235.42
448.262	3310.22
448.636	3287.17
449.01	3350.22
449.384	3361.07
449.758	3420.28
450.132	3474.06
450.506	3490.33
450.88	3513.61
451.254	3529.2
451.628	3593.83
452.002	3592.02
452.376	3652.14
452.75	3691.91
453.123	3714.28
453.497	3781.17
453.871	3773.04
454.244	3902.75
454.618	3888.74
454.992	3964.9
455.365	3973.71
455.739	4071.79
456.112	4088.96
456.486	4161.95
456.859	4194.27
457.232	4309.07
457.606	4264.1
457.979	4355.85
458.352	4450.98
458.725	4459.12
459.099	4523.07
459.472	4667.48
459.845	4642.17
460.218	4702.96
460.591	4776.4
460.964	4743.86
461.337	4883.29
461.71	4969.16
462.083	4978.2
462.456	5078.76
462.829	5087.8
463.201	5153.57
463.574	5215.26
463.947	5279.44
464.32	5374.58
464.692	5438.76
465.065	5480.56
465.438	5566.44
465.81	5669.03
466.183	5719.43
466.555	5814.11
466.928	5910.61
467.3	5904.51
467.672	6022.02
468.045	6168
468.417	6128.23
468.789	6209.58
469.161	6328
469.534	6452.74
469.906	6569.57
470.278	6598.5
470.65	6699.29
471.022	6846.63
471.394	6967.08
471.766	7018.15
472.138	7183.12
472.51	7265.83
472.882	7411.58
473.253	7474.63
473.625	7641.64
473.997	7809.31
474.369	7814.74
474.74	7925.24
475.112	8047.05
475.484	8189.87
475.855	8340.15
476.227	8384.21
476.598	8695.39
476.97	8824.2
477.341	9016.29
477.713	9025.33
478.084	9183.74
478.455	9455.37
478.827	9540.79
479.198	9750.28
479.569	9798.87
479.94	10158.18
480.311	10256.71
480.682	10512.29
481.053	10614.66
481.424	10834.09
481.795	10972.62
482.166	11109.34
482.537	11265.49
482.908	11450.35
483.279	11641.76
483.65	11830.23
484.021	12175.98
484.391	12251.46
484.762	12379.59
485.133	12555.18
485.503	12746.13
485.874	13032
486.244	13074.71
486.615	13445.78
486.985	13547.92
487.356	13738.65
487.726	13917.85
488.097	14184.06
488.467	14351.06
488.837	14628.12
489.207	14746.76
489.578	14987.88
489.948	15062.91
490.318	15372.51
490.688	15429
491.058	15751.93
491.428	15895.2
491.798	16026.05
492.168	16451.8
492.538	16536.09
492.908	16620.38
493.278	16871.45
493.648	16920.49
494.017	17157.77
494.387	17354.37
494.757	17462.17
495.126	17701.94
495.496	17794.36
495.866	18028.71
496.235	18090.17
496.605	18275.71
496.974	18461.69
497.344	18712.76
497.713	18714.11
498.082	18866.88
498.452	19104.84
498.821	19265.51
499.19	19336.69
499.559	19531.94
499.928	19645.61
500.298	19762.9
500.667	20014.87
501.036	19990.92
501.405	20302.55
501.774	20310.23
502.143	20551.35
502.512	20581.41
502.88	20843.1
503.249	20915.64
503.618	21087.16
503.987	21209.64
504.356	21379.81
504.724	21487.37
505.093	21584.55
505.462	21722.62
505.83	21966.46
506.199	22095.04
506.567	22444.86
506.936	22445.99
507.304	22805.98
507.672	22775.93
508.041	22931.4
508.409	23201.23
508.777	23296.82
509.145	23440.32
509.514	23503.59
509.882	23732.96
510.25	23862.9
510.618	24059.51
510.986	24188.77
511.354	24496.56
511.722	24691.36
512.09	24923.67
512.458	24837.34
512.826	25210.44
513.193	25261.96
513.561	25304.9
513.929	25661.73
514.297	25829.18
514.664	26049.06
515.032	26233.91
515.4	26415.15
515.767	26482.27
516.135	26671.87
516.502	26661.7
516.869	27023.27
517.237	27263.94
517.604	27234.11
517.972	27498.06
518.339	27720.43
518.706	27849.69
519.073	28122
519.44	28293.97
519.808	28547.53
520.175	28552.05
520.542	29011.69
520.909	29107.29
521.276	29167.85
521.643	29489.65
522.009	29731
522.376	29898
522.743	30128.28
523.11	30486.91
523.477	30623.63
523.843	30838.31
524.21	31176.61
524.577	31396.04
524.943	31373.67
525.31	31656.6
525.676	31983.59
526.043	32193.76
526.409	32399.63
526.776	32750.81
527.142	32827.87
527.508	32785.15
527.874	33368.19
528.241	33464.69
528.607	33526.38
528.973	33907.16
529.339	33979.47
529.705	34179.24
530.071	34457.43
530.437	34633.92
530.803	34759.34
531.169	35109.84
531.535	35167.24
531.901	35201.81
532.267	35544.86
532.632	35702.59
532.998	35898.52
533.364	36093.54
533.73	36168.57
534.095	36414.66
534.461	36607.88
534.826	36609.46
535.192	36841.09
535.557	37166.51
535.923	37152.95
536.288	37315.66
536.653	37423.23
537.019	37378.25
537.384	37784.8
537.749	37860.05
538.114	38014.62
538.479	38007.62
538.845	38246.93
539.21	38351.79
539.575	38473.14
539.94	38598.34
540.305	38971.43
540.67	38810.99
541.034	39041.94
541.399	39161.03
541.764	39266.79
542.129	39626.1
542.494	39553.34
542.858	39806.67
543.223	39789.94
543.587	40227.67
543.952	40197.16
544.316	40339.31
544.681	40313.54
545.045	40603.03
545.41	40772.29
545.774	40833.53
546.138	40948.1
546.503	41174.54
546.867	41145.61
547.231	41543.34
547.595	41638.71
547.959	41808.42
548.324	41925.25
548.688	42014.52
549.052	42229.65
549.416	42335.86
549.779	42384.68
550.143	42625.12
550.507	42952.12
550.871	43038.67
551.235	43016.98
551.599	43321.83
551.962	43484.53
552.326	43537.19
552.689	43812.66
553.053	43699.22
553.417	43894.02
553.78	44509.37
554.143	44246.32
554.507	44537.16
554.87	44719.98
555.234	45249.01
555.597	44977.83
555.96	45304.83
556.323	45455.56
556.686	45470.7
557.05	45882.66
557.413	45978.71
557.776	46032.26
558.139	46293.05
558.502	46439.71
558.865	46523.55
559.228	46846.71
559.59	47029.3
559.953	47086.02
560.316	47500.25
560.679	47611.43
561.041	47822.5
561.404	47987.24
561.767	48319.89
562.129	48114.24
562.492	48649.14
562.854	48580.9
563.217	48630.84
563.579	48782.02
563.941	49050.04
564.304	49187.44
564.666	49454.32
565.028	49523.02
565.39	49636.46
565.753	49861.09
566.115	49996.45
566.477	50171.82
566.839	50261.76
567.201	50422.21
567.563	50423.34
567.925	50612.71
568.287	50701.52
568.648	50830.33
569.01	51014.96
569.372	51195.29
569.734	51277.55
570.095	51379.24
570.457	51591.21
570.819	51566.36
571.18	51568.39
571.542	51784.43
571.903	51834.15
572.265	51841.15
572.626	52082.95
572.987	52174.25
573.349	52228.49
573.71	52379.22
574.071	52396.62
574.432	52498.31
574.794	52703.05
575.155	52751.18
575.516	52667.34
575.877	52852.65
576.238	52911.18
576.599	53023.04
576.96	52977.62
577.32	52970.16
577.681	53107.56
578.042	53279.98
578.403	53194.11
578.763	53257.84
579.124	53273.43
579.485	53451.5
579.845	53486.31
580.206	53449.7
580.566	53446.08
580.927	53467.32
581.287	53532.63
581.648	53526.53
582.008	53595.46
582.368	53532.18
582.728	53640.43
583.089	53606.53
583.449	53621.67
583.809	53661.89
584.169	53739.18
584.529	53679.97
584.889	53877.71
585.249	53669.8
585.609	53580.54
585.969	53852.17
586.329	53742.57
586.688	53778.73
587.048	53814.43
587.408	53684.72
587.768	53738.05
588.127	53849.01
588.487	53724.27
588.846	53900.53
589.206	53825.28
589.565	53792.96
589.925	53891.72
590.284	53793.87
590.643	53937.59
591.003	54014.65
591.362	54023.92
591.721	53962.23
592.08	54058.04
592.44	54040.64
592.799	54031.83
593.158	53899.85
593.517	53961.1
593.876	54023.24
594.235	53839.52
594.593	54034.99
594.952	54076.12
595.311	53976.91
595.67	54063.69
596.029	54237.92
596.387	54079.74
596.746	54211.71
597.104	54058.04
597.463	54050.58
597.822	54237.47
598.18	54161.09
598.538	54085.39
598.897	54291.48
599.255	54001.32
599.613	54432.27
599.972	54265.27
600.33	54292.84
600.688	54248.09
601.046	54376
601.404	54434.3
601.762	54397.24
602.12	54489.22
602.478	54486.96
602.836	54450.12
603.194	54340.29
603.552	54441.76
603.91	54443.79
604.268	54507.3
604.625	54490.12
604.983	54576.67
605.341	54543.45
605.698	54559.5
606.056	54592.49
606.413	54612.38
606.771	54670.91
607.128	54768.08
607.485	54661.87
607.843	54758.81
608.2	54825.25
608.557	54914.97
608.914	54764.24
609.272	55007.85
609.629	55002.42
609.986	55087.17
610.343	54953.84
610.7	55176.88
611.057	55034.74
611.414	55085.59
611.771	55041.29
612.127	55255.75
612.484	55229.76
612.841	55204.9
613.198	55181.85
613.554	55212.36
613.911	55382.53
614.267	55276.54
614.624	55309.99
614.98	55425.24
615.337	55563.54
615.693	55457.78
616.05	55541.39
616.406	55630.66
616.762	55555.18
617.118	55558.34
617.475	55614.16
617.831	55653.48
618.187	55669.75
618.543	55714.27
618.899	55778.9
619.255	55789.52
619.611	55710.2
619.967	55897.32
620.323	55898.67
620.678	55731.9
621.034	55749.75
621.39	55770.54
621.746	55739.13
622.101	56014.15
622.457	55758.11
622.812	55812.12
623.168	55936.64
623.523	55929.41
623.879	55933.92
624.234	55883.53
624.589	55842.85
624.945	55950.87
625.3	56031.32
625.655	55932.34
626.01	56036.75
626.365	55949.52
626.72	55885.79
627.075	55941.16
627.43	55880.59
627.785	55870.65
628.14	55899.35
628.495	55896.41
628.85	55895.73
629.205	55712.24
629.559	55932.12
629.914	55756.3
630.269	55809.86
630.623	55754.27
630.978	55644.44
631.332	55797.88
631.687	55808.05
632.041	55668.4
632.396	55702.74
632.75	55606.02
633.104	55716.98
633.459	55533.94
633.813	55594.95
634.167	55476.54
634.521	55553.37
634.875	55599.24
635.229	55527.83
635.583	55435.18
635.937	55353.38
636.291	55388.4
636.645	55396.76
636.999	55327.84
637.352	55430.44
637.706	55218.24
638.06	55295.75
638.413	55154.96
638.767	55128.75
639.121	55149.54
639.474	55064.34
639.828	55029.09
640.181	55044.68
640.534	55089.2
640.888	54975.08
641.241	54862.99
641.594	54934.4
641.947	55048.07
642.301	54839.26
642.654	54896.89
643.007	54862.54
643.36	54882.88
643.713	54767.4
644.066	54873.39
644.419	54632.26
644.771	54454.87
645.124	54199.28
645.477	54155.44
645.83	53955.22
646.182	53850.14
646.535	53807.43
646.888	53845.17
647.24	53601.1
647.593	53823.47
647.945	53741.89
648.298	53596.36
648.65	53577.15
649.002	53417.38
649.355	53559.98
649.707	53558.62
650.059	53595.23
650.411	53909.57
650.763	54077.48
651.115	54394.3
651.467	54207.19
651.819	54128.77
652.171	54161.99
652.523	54023.69
652.875	54161.99
653.227	53991.83
653.578	54237.02
653.93	54050.36
654.282	54017.14
654.633	53846.52
654.985	53962.9
655.337	53829.35
655.688	53855.11
656.039	53993.41
656.391	53694.89
656.742	53791.61
657.094	53800.87
657.445	53883.36
657.796	53732.63
658.147	53656.24
658.498	53712.97
658.849	53739.18
659.2	53720.88
659.551	53617.83
659.902	53784.83
660.253	53614.89
660.604	53751.61
660.955	53570.37
661.306	53686.75
661.656	53613.08
662.007	53596.36
662.358	53524.04
662.708	53581.22
663.059	53537.83
663.409	53350.94
663.76	53563.14
664.11	53547.32
664.461	53504.84
664.811	53507.32
665.161	53441.33
665.511	53337.61
665.862	53477.49
666.212	53418.28
666.562	53433.43
666.912	53408.79
667.262	53347.55
667.612	53345.52
667.962	53365.63
668.312	53238.4
668.662	53448.34
669.011	53324.73
669.361	53245.41
669.711	53250.83
670.06	53198.18
670.41	53142.81
670.76	53079.08
671.109	53243.83
671.459	53151.17
671.808	53096.49
672.157	53155.92
672.507	53046.54
672.856	53000.44
673.205	53011.52
673.554	53120.44
673.904	52985.3
674.253	52915.7
674.602	52879.99
674.951	52480.23
675.3	52301.25
675.649	52752.77
675.998	52607.68
676.346	52704.86
676.695	52827.34
677.044	52540.34
677.393	52668.47
677.741	52661.24
678.09	52617.85
678.438	52583.96
678.787	52536.5
679.135	52548.48
679.484	52317.97
679.832	52392.55
680.181	52215.83
680.529	52398.88
680.877	52420.12
681.225	52258.32
681.573	52371.31
681.922	52029.39
682.27	52012.67
682.618	52086.12
682.966	51990.75
683.314	51965.44
683.661	51856.29
684.009	51767.71
684.357	51788.95
684.705	51736.97
685.053	51688.39
685.4	51598.9
685.748	51514.38
686.095	51445.91
686.443	51229.42
686.79	51265.35
687.138	51251.34
687.485	51265.8
687.832	51120.94
688.18	51131.79
688.527	50965.92
688.874	50901.74
689.221	50866.49
689.568	50735.19
689.915	50593.73
690.262	50742.2
690.609	50484.35
690.956	50454.97
691.303	50410.23
691.65	50122.33
691.997	50159.39
692.344	49945.38
692.69	49961.43
693.037	49942.44
693.383	49674.43
693.73	49755.33
694.077	49539.74
694.423	49509.69
694.769	49293.42
695.116	49367.09
695.462	49238.73
695.808	49169.58
696.155	49235.57
696.501	48809.59
696.847	48787.45
697.193	48629.48
697.539	48817.95
697.885	48557.4
698.231	48376.16
698.577	48335.48
698.923	48460
699.269	48205.77
699.614	47932.78
699.96	47945.66
700.306	47935.94
700.651	47777.76
700.997	47744.08
701.342	47571.21
701.688	47473.13
702.033	47297.09
702.379	47390.87
702.724	47341.16
703.069	47303.87
703.415	46858.01
703.76	46872.02
704.105	46872.24
704.45	46747.5
704.795	46645.58
705.14	46342.09
705.485	46349.54
705.83	46167.18
706.175	46244.46
706.52	45944.36
706.865	45870.01
707.209	45921.53
707.554	45702.33
707.899	45847.41
708.243	45624.59
708.588	45609.68
708.932	45343.92
709.277	45290.14
709.621	45340.76
709.966	45094.89
710.31	45285.17
710.654	44952.97
710.998	44979.64
711.342	44939.41
711.687	44956.13
712.031	44657.61
712.375	44505.98
712.719	44591.85
713.063	44557.27
713.407	44551.4
713.75	44305.76
714.094	44285.19
714.438	44092.65
714.782	44286.55
715.125	44042.49
715.469	44019.21
715.812	43947.8
716.156	43660.35
716.499	43696.05
716.843	43785.09
717.186	43559.56
717.53	43520.69
717.873	43661.25
718.216	43439.79
718.559	43277.08
718.902	42929.97
719.246	43110.76
719.589	42991.67
719.932	42717.1
720.275	42967.94
720.617	42873.48
720.96	42712.35
721.303	42860.37
721.646	42771.78
721.989	42414.28
722.331	42655.86
722.674	42481.17
723.016	42560.49
723.359	42327.28
723.701	42602.07
724.044	42118.24
724.386	41950.11
724.729	42068.98
725.071	41902.2
725.413	41950.56
725.755	41839.83
726.097	41684.36
726.439	41513.96
726.782	41588.09
727.124	41663.79
727.465	41410.92
727.807	41429.45
728.149	41316.68
728.491	41275.55
728.833	41326.85
729.175	41231.94
729.516	41205.05
729.858	40918.5
730.199	41049.8
730.541	40911.27
730.882	40776.36
731.224	40930.25
731.565	40679.86
731.906	40671.73
732.248	40794.66
732.589	40560.32
732.93	40537.27
733.271	40534.56
733.612	40674.66
733.953	40402.58
734.294	40304.05
734.635	40070.61
734.976	40323.04
735.317	40095.7
735.658	40129.59
735.999	40147
736.339	40039.2
736.68	40009.6
737.021	39859.32
737.361	39722.6
737.702	39902.26
738.042	39822.71
738.383	39631.3
738.723	39794.01
739.063	39550.17
739.404	39521.47
739.744	39323.29
740.084	39230.86
740.424	39271.54
740.764	39253.91
741.104	39373.46
741.444	39084.65
741.784	38927.82
742.124	39016.18
742.464	39029.96
742.804	38864.54
743.143	38862.06
743.483	38864.32
743.823	38570.31
744.162	38580.93
744.502	38695.73
744.841	38363.99
745.181	38555.17
745.52	38340.26
745.86	38412.13
746.199	38333.71
746.538	38275.63
746.877	38258.46
747.216	38253.71
747.556	38041.29
747.895	38018.46
748.234	37869.09
748.573	37741.18
748.911	37789.09
749.25	37787.74
749.589	37643.11
749.928	37682.2
750.267	37598.59
750.605	37357.69
750.944	37331.25
751.283	37250.12
751.621	37367.63
751.96	37247.41
752.298	37186.17
752.636	37139.39
752.975	36862.11
