Data from white_poster_card_FLMS001491_00075.txt Node
Date: Wed Feb 08 11:51:59 GMT 2017
User: dcchb
Spectrometer: FLMS00149
Trigger mode: 0
Integration Time (sec): 2.000000E-2
Scans to average: 10
Electric dark correction enabled: true
Nonlinearity correction enabled: false
Boxcar width: 0
XAxis mode: Wavelengths
Number of Pixels in Spectrum: 2048
>>>>>Begin Spectral Data<<<<<
341.393	-33.77
341.776	-33.77
342.16	-33.77
342.543	-78.74
342.927	-76.03
343.31	-50.04
343.693	-57.05
344.077	-83.71
344.46	-76.48
344.843	-41
345.226	-44.84
345.61	-18.63
345.993	-17.05
346.376	-3.04
346.759	-8.69
347.142	20.24
347.525	37.87
347.908	56.85
348.291	83.29
348.674	99.79
349.057	102.5
349.44	125.32
349.823	146.34
350.206	169.84
350.588	191.31
350.971	216.17
351.354	203.29
351.737	232.66
352.119	235.83
352.502	264.3
352.884	277.63
353.267	269.95
353.65	284.64
354.032	311.76
354.414	310.85
354.797	305.66
355.179	336.16
355.562	311.53
355.944	322.83
356.326	330.29
356.709	354.92
357.091	337.52
357.473	341.14
357.855	364.64
358.238	367.35
358.62	342.49
359.002	328.48
359.384	349.04
359.766	339.78
360.148	359.89
360.53	343.17
360.912	341.59
361.294	335.49
361.676	349.95
362.057	347.91
362.439	337.75
362.821	330.51
363.203	348.59
363.584	316.73
363.966	321.47
364.348	339.78
364.729	323.06
365.111	317.63
365.493	338.65
365.874	314.92
366.256	346.78
366.637	314.47
367.019	317.63
367.4	322.6
367.781	324.64
368.163	318.54
368.544	316.95
368.925	319.89
369.306	311.76
369.688	319.89
370.069	303.17
370.45	308.14
370.831	322.6
371.212	332.55
371.593	326.45
371.974	318.31
372.355	318.08
372.736	329.61
373.117	343.85
373.498	319.67
373.879	340.46
374.26	310.4
374.641	325.99
375.021	315.6
375.402	327.12
375.783	336.84
376.163	322.38
376.544	344.75
376.925	344.98
377.305	327.35
377.686	313.11
378.066	338.65
378.447	335.26
378.827	343.85
379.208	335.71
379.588	342.94
379.968	321.47
380.349	349.5
380.729	360.12
381.109	351.53
381.489	353.11
381.87	358.99
382.25	324.41
382.63	336.62
383.01	349.72
383.39	361.02
383.77	334.36
384.15	359.21
384.53	361.47
384.91	331.64
385.29	360.12
385.67	353.79
386.049	382.26
386.429	371.87
386.809	374.81
387.189	387.24
387.568	381.59
387.948	382.26
388.328	381.59
388.707	376.16
389.087	339.78
389.466	380.68
389.846	388.14
390.225	404.64
390.605	392.66
390.984	396.95
391.363	391.98
391.743	391.76
392.122	416.16
392.501	423.39
392.881	429.72
393.26	394.02
393.639	412.55
394.018	400.34
394.397	434.69
394.776	419.78
395.155	413.22
395.534	423.84
395.913	427.69
396.292	448.93
396.671	443.51
397.05	442.38
397.429	441.02
397.808	438.31
398.186	437.63
398.565	437.18
398.944	460.68
399.323	453
399.701	468.14
400.08	456.84
400.458	458.87
400.837	477.4
401.215	473.11
401.594	485.76
401.972	476.27
402.351	475.82
402.729	469.04
403.107	484.86
403.486	485.99
403.864	487.12
404.242	495.48
404.62	508.81
404.999	507.23
405.377	510.85
405.755	504.97
406.133	535.71
406.511	541.58
406.889	539.32
407.267	528.93
407.645	557.17
408.023	555.59
408.401	586.78
408.779	569.83
409.156	597.63
409.534	605.08
409.912	594.46
410.29	620.68
410.667	629.94
411.045	628.13
411.422	644.86
411.8	666.32
412.178	659.32
412.555	707
412.933	704.74
413.31	743.16
413.687	731.63
414.065	740.9
414.442	740.22
414.819	767.79
415.197	798.98
415.574	779.99
415.951	822.7
416.328	841.01
416.705	841.01
417.082	870.84
417.46	892.53
417.837	898.63
418.214	884.17
418.591	930.95
418.967	957.16
419.344	968.24
419.721	956.03
420.098	980.44
420.475	1009.14
420.852	1014.34
421.228	1005.07
421.605	1033.77
421.982	1051.4
422.358	1076.48
422.735	1093.43
423.111	1075.13
423.488	1092.53
423.864	1125.75
424.241	1162.58
424.617	1162.36
424.994	1161
425.37	1205.07
425.746	1242.35
426.123	1214.11
426.499	1277.83
426.875	1280.32
427.251	1282.81
427.627	1277.61
428.003	1313.09
428.379	1318.06
428.756	1333.88
429.132	1357.61
429.507	1376.36
429.883	1422.01
430.259	1475.12
430.635	1441.22
431.011	1469.69
431.387	1489.35
431.763	1551.27
432.138	1551.27
432.514	1572.52
432.89	1583.36
433.265	1622.46
433.641	1598.05
434.016	1639.63
434.392	1676.47
434.767	1693.42
435.143	1687.54
435.518	1714.21
435.894	1756.47
436.269	1782.23
436.644	1798.27
437.02	1794.43
437.395	1821.55
437.77	1855.22
438.145	1884.6
438.52	1880.53
438.895	1939.51
439.271	1953.97
439.646	1958.95
440.021	1997.36
440.395	1984.26
440.77	1975.89
441.145	1998.04
441.52	2054.76
441.895	2047.98
442.27	2063.35
442.645	2030.36
443.019	2103.8
443.394	2107.42
443.769	2115.78
444.143	2096.34
444.518	2131.6
444.892	2125.04
445.267	2179.73
445.641	2196.45
446.016	2197.81
446.39	2176.34
446.764	2189
447.139	2233.74
447.513	2248.2
447.887	2264.93
448.262	2268.77
448.636	2270.58
449.01	2285.72
449.384	2318.26
449.758	2333.85
450.132	2367.52
450.506	2371.59
450.88	2360.97
451.254	2397.35
451.628	2437.13
452.002	2461.31
452.376	2472.38
452.75	2474.64
453.123	2527.07
453.497	2571.81
453.871	2556.44
454.244	2600.96
454.618	2664.46
454.992	2652.26
455.365	2699.72
455.739	2716.21
456.112	2762.31
456.486	2774.29
456.859	2807.74
457.232	2819.26
457.606	2853.39
457.979	2899.26
458.352	2949.88
458.725	2999.14
459.099	3002.76
459.472	3039.82
459.845	3052.48
460.218	3080.5
460.591	3131.12
460.964	3174.05
461.337	3227.61
461.71	3252.7
462.083	3322.3
462.456	3327.5
462.829	3363.43
463.201	3365.69
463.574	3416.08
463.947	3455.86
464.32	3528.17
464.692	3547.38
465.065	3557.55
465.438	3610.65
465.81	3717.77
466.183	3730.2
466.555	3788.28
466.928	3843.19
467.3	3859.23
467.672	3889.52
468.045	3983.07
468.417	3965.9
468.789	3967.71
469.161	4029.63
469.534	4111.66
469.906	4204.08
470.278	4291.77
470.65	4284.08
471.022	4338.77
471.394	4422.38
471.766	4492.89
472.138	4554.13
472.51	4626.45
472.882	4687.46
473.253	4748.25
473.625	4774.69
473.997	4854.46
474.369	4929.49
474.74	4991.41
475.112	5059.88
475.484	5127.68
475.855	5232.31
476.227	5296.71
476.598	5400.89
476.97	5442.92
477.341	5599.3
477.713	5627.1
478.084	5684.72
478.455	5825.28
478.827	5838.17
479.198	6024.6
479.569	6079.29
479.94	6207.65
480.311	6235.44
480.682	6413.07
481.053	6524.25
481.424	6626.39
481.795	6699.84
482.166	6836.11
482.537	6918.59
482.908	7031.35
483.279	7104.57
483.65	7212.14
484.021	7414.85
484.391	7439.25
484.762	7480.61
485.133	7624.11
485.503	7727.83
485.874	7900.94
486.244	7952.23
486.615	8102.74
486.985	8121.72
487.356	8382.96
487.726	8419.11
488.097	8535.5
488.467	8614.59
488.837	8771.42
489.207	8901.59
489.578	9027.01
489.948	9137.51
490.318	9201.92
490.688	9292.09
491.058	9389.26
491.428	9534.57
491.798	9651.4
492.168	9787.89
492.538	9870.15
492.908	10000.09
493.278	10164.15
493.648	10121.44
494.017	10255.9
494.387	10396.46
494.757	10414.77
495.126	10591.49
495.496	10691.15
495.866	10697.92
496.235	10837.81
496.605	10904.7
496.974	11049.78
497.344	11095.65
497.713	11199.38
498.082	11244.35
498.452	11465.14
498.821	11482.76
499.19	11459.49
499.559	11572.03
499.928	11648.41
500.298	11838.69
500.667	11931.56
501.036	11866.48
501.405	12041.84
501.774	12071.9
502.143	12088.62
502.512	12221.05
502.88	12423.08
503.249	12384.43
503.618	12456.97
503.987	12553.02
504.356	12615.16
504.724	12725.22
505.093	12802.5
505.462	12911.88
505.83	12986.23
506.199	13050.18
506.567	13216.05
506.936	13279.55
507.304	13412.88
507.672	13429.83
508.041	13559.09
508.409	13609.94
508.777	13786.88
509.145	13965.86
509.514	13892.64
509.882	14006.99
510.25	14076.14
510.618	14270.03
510.986	14156.82
511.354	14406.08
511.722	14573.98
512.09	14648.78
512.458	14636.13
512.826	14704.83
513.193	14900.75
513.561	15023.91
513.929	15139.62
514.297	15276.34
514.664	15388.88
515.032	15361.31
515.4	15577.12
515.767	15627.06
516.135	15734.4
516.502	15685.82
516.869	16006.71
517.237	16055.07
517.604	16032.7
517.972	16248.97
518.339	16309.08
518.706	16393.59
519.073	16559.24
519.44	16690.54
519.808	16821.83
520.175	16852.57
520.542	17142.5
520.909	17197.87
521.276	17172.1
521.643	17420.46
522.009	17566.44
522.376	17764.41
522.743	17762.37
523.11	18045.3
523.477	18151.51
523.843	18253.88
524.21	18428.12
524.577	18593.08
524.943	18638.06
525.31	18785.62
525.676	18956.01
526.043	19107.65
526.409	19149.23
526.776	19402.55
527.142	19482.1
527.508	19562.78
527.874	19768.19
528.241	19891.36
528.607	20038.7
528.973	20133.61
529.339	20175.19
529.705	20444.56
530.071	20564.11
530.437	20682.52
530.803	20766.13
531.169	20941.05
531.535	20909.86
531.901	21003.42
532.267	21122.96
532.632	21343.52
532.998	21341.26
533.364	21465.55
533.73	21582.16
534.095	21809.95
534.461	21817.86
534.826	21963.17
535.192	21993.22
535.557	22170.17
535.923	22214.46
536.288	22263.95
536.653	22372.65
537.019	22378.75
537.384	22499.65
537.749	22718.4
538.114	22699.19
538.479	22841.11
538.845	22888.11
539.21	22864.38
539.575	23047.88
539.94	23171.27
540.305	23329.23
540.67	23326.07
541.034	23445.39
541.399	23455.1
541.764	23578.04
542.129	23618.26
542.494	23728.32
542.858	23792.72
543.223	23890.12
543.587	24010.8
543.952	23984.36
544.316	24088.31
544.681	24164.24
545.045	24247.17
545.41	24407.17
545.774	24446.26
546.138	24500.05
546.503	24509.31
546.867	24569.42
547.231	24862.3
547.595	24819.36
547.959	24934.16
548.324	24986.14
548.688	25042.63
549.052	25197.2
549.416	25273.13
549.779	25336.86
550.143	25392.45
550.507	25555.16
550.871	25740.24
551.235	25709.28
551.599	25912.44
551.962	25982.95
552.326	25957.41
552.689	26124.19
553.053	26102.04
553.417	26135.03
553.78	26519.43
554.143	26360.56
554.507	26669.48
554.87	26686.88
555.234	26964.39
555.597	26814.56
555.96	26981.34
556.323	27083.03
556.686	27139.98
557.05	27405.28
557.413	27411.16
557.776	27570.25
558.139	27752.84
558.502	27787.19
558.865	27851.6
559.228	28099.5
559.59	28297.24
559.953	28365.26
560.316	28505.37
560.679	28636.66
561.041	28763.21
561.404	28784.23
561.767	29085.92
562.129	28982.64
562.492	29288.4
562.854	29254.95
563.217	29454.04
563.579	29567.49
563.941	29780.59
564.304	29736.29
564.666	29939
565.028	30097.64
565.39	30180.8
565.753	30317.3
566.115	30244.98
566.477	30456.5
566.839	30692.65
567.201	30802.26
567.563	30889.26
567.925	31020.33
568.287	31104.62
568.648	31162.47
569.01	31344.39
569.372	31583.7
569.734	31391.17
570.095	31669.35
570.457	31847.43
570.819	31864.83
571.18	31918.61
571.542	32169.22
571.903	32139.62
572.265	32282.22
572.626	32234.99
572.987	32244.7
573.349	32575.54
573.71	32602.89
574.071	32740.28
574.432	32853.73
574.794	33006.72
575.155	33095.53
575.516	32963.33
575.877	33153.83
576.238	33121.74
576.599	33309.08
576.96	33326.03
577.32	33401.96
577.681	33481.05
578.042	33597.66
578.403	33618.23
578.763	33688.05
579.124	33680.6
579.485	33897.31
579.845	33962.85
580.206	33845.56
580.566	33926.01
580.927	33853.7
581.287	34094.37
581.648	33912.23
582.008	34058.89
582.368	34054.37
582.728	34093.24
583.089	33974.15
583.449	34072.9
583.809	34177.76
584.169	34217.76
584.529	34143.18
584.889	34409.39
585.249	34164.43
585.609	34105.9
585.969	34324.42
586.329	34285.33
586.688	34245.78
587.048	34191.77
587.408	34212.11
587.768	34163.97
588.127	34275.61
588.487	34340.92
588.846	34414.59
589.206	34223.86
589.565	34223.86
589.925	34379.11
590.284	34293.01
590.643	34452.55
591.003	34489.62
591.362	34416.17
591.721	34329.39
592.08	34515.15
592.44	34475.15
592.799	34474.25
593.158	34381.82
593.517	34498.66
593.876	34592.89
594.235	34362.16
594.593	34471.54
594.952	34617.97
595.311	34448.71
595.67	34555.83
596.029	34695.26
596.387	34866.33
596.746	34794.24
597.104	34669.5
597.463	34678.31
597.822	34829.04
598.18	34687.8
598.538	34718.54
598.897	35013.9
599.255	34631.53
599.613	35216.83
599.972	34918.08
600.33	34963.28
600.688	34859.78
601.046	34958.98
601.404	35001.47
601.762	34953.78
602.12	35253.44
602.478	35212.99
602.836	35159.43
603.194	35003.95
603.552	35102.03
603.91	35121.24
604.268	35179.09
604.625	35152.2
604.983	35269.48
605.341	35154.23
605.698	35361.23
606.056	35388.12
606.413	35348.58
606.771	35444.39
607.128	35474.9
607.485	35367.33
607.843	35321.91
608.2	35514.45
608.557	35556.48
608.914	35526.88
609.272	35655.23
609.629	35825.4
609.986	35910.6
610.343	35672.64
610.7	36078.95
611.057	35872.86
611.414	35864.49
611.771	36010.03
612.127	36008.22
612.484	36124.6
612.841	36070.82
613.198	36104.71
613.554	36091.83
613.911	36264.48
614.267	36253.86
614.624	36182.9
614.98	36282.34
615.337	36440.75
615.693	36288.21
616.05	36308.32
616.406	36642.33
616.762	36333.64
617.118	36372.05
617.475	36428.32
617.831	36652.95
618.187	36588.54
618.543	36529.56
618.899	36777.92
619.255	36708.31
619.611	36715.55
619.967	36739.5
620.323	36898.14
620.678	36656.34
621.034	36610.69
621.39	36712.83
621.746	36562.78
622.101	36961.64
622.457	36699.73
622.812	36745.83
623.168	36777.01
623.523	36768.2
623.879	36759.84
624.234	36598.71
624.589	36761.65
624.945	36892.49
625.3	36846.16
625.655	36772.95
626.01	36855.43
626.365	36858.59
626.72	36862.89
627.075	36704.02
627.43	36619.28
627.785	36697.24
628.14	36752.38
628.495	36822.89
628.85	36726.17
629.205	36625.38
629.559	36800.29
629.914	36534.31
630.269	36666.51
630.623	36607.3
630.978	36407.31
631.332	36568.21
631.687	36625.83
632.041	36402.79
632.396	36550.58
632.75	36454.76
633.104	36428.55
633.459	36212.73
633.813	36266.97
634.167	36179.51
634.521	36114.21
634.875	36224.03
635.229	36190.36
635.583	36000.54
635.937	35895
636.291	35924.15
636.645	36049.12
636.999	35810.03
637.352	35965.51
637.706	35700.88
638.06	35929.35
638.413	35832.18
638.767	35626.99
639.121	35708.11
639.474	35469.25
639.828	35446.65
640.181	35791.05
640.534	35640.77
640.888	35506.76
641.241	35299.99
641.594	35447.33
641.947	35552.86
642.301	35272.65
642.654	35352.64
643.007	35356.26
643.36	35212.76
643.713	35160.56
644.066	35299.76
644.419	34952.88
644.771	34894.8
645.124	34435.83
645.477	34469.28
645.83	34170.75
646.182	34003.98
646.535	34010.98
646.888	33996.97
647.24	33876.52
647.593	34013.47
647.945	33986.13
648.298	33813.93
648.65	33657.32
649.002	33672.46
649.355	33832.68
649.707	33688.96
650.059	33839.69
650.411	34051.66
650.763	34245.78
651.115	34565.09
651.467	34392.22
651.819	34322.61
652.171	34229.96
652.523	34158.1
652.875	34250.53
653.227	33931.66
653.578	34285.1
653.93	34208.95
654.282	33929.4
654.633	33852.34
654.985	34028.38
655.337	33975.28
655.688	33980.02
656.039	34020.93
656.391	33844.43
656.742	33919.91
657.094	33832.01
657.445	33884.21
657.796	33808.28
658.147	33733.93
658.498	33766.7
658.849	33857.09
659.2	33679.69
659.551	33504.56
659.902	33709.98
660.253	33669.07
660.604	33759.24
660.955	33546.14
661.306	33565.12
661.656	33562.41
662.007	33589.53
662.358	33580.71
662.708	33580.26
663.059	33520.6
663.409	33339.36
663.76	33552.69
664.11	33551.79
664.461	33475.18
664.811	33458.91
665.161	33366.26
665.511	33359.48
665.862	33438.12
666.212	33475.18
666.562	33477.44
666.912	33397.44
667.262	33298.91
667.612	33350.21
667.962	33247.16
668.312	33322.64
668.662	33389.08
669.011	33242.87
669.361	33157.67
669.711	33148.41
670.06	33127.84
670.41	33145.92
670.76	33088.07
671.109	33216.65
671.459	33198.58
671.808	32965.81
672.157	33099.82
672.507	32914.52
672.856	32963.78
673.205	32948.64
673.554	32951.35
673.904	32855.53
674.253	33032.7
674.602	32869.09
674.951	32355.66
675.3	32182.33
675.649	32807.4
675.998	32787.51
676.346	32867.74
676.695	32917.68
677.044	32619.16
677.393	32741.41
677.741	32731.92
678.09	32634.07
678.438	32502.32
678.787	32555.2
679.135	32576.9
679.484	32374.42
679.832	32637.01
680.181	32386.17
680.529	32423.68
680.877	32351.37
681.225	32334.64
681.573	32488.31
681.922	32209.68
682.27	32102.11
682.618	32122.45
682.966	32010.13
683.314	32087.87
683.661	31945.95
684.009	31749.35
684.357	31688.56
684.705	31719.52
685.053	31753.87
685.4	31685.85
685.748	31511.39
686.095	31552.52
686.443	31406.98
686.79	31271.17
687.138	31419.64
687.485	31328.79
687.832	31242.92
688.18	31117.73
688.527	30999.31
688.874	30954.12
689.221	30868.24
689.568	30853.55
689.915	30671.41
690.262	30859.43
690.609	30614.01
690.956	30547.57
691.303	30465.31
691.65	30443.39
691.997	30269.61
692.344	30147.81
692.69	30028.04
693.037	30216.51
693.383	29932.9
693.73	30066.23
694.077	29789.85
694.423	29823.07
694.769	29811.55
695.116	29637.99
695.462	29645.45
695.808	29449.52
696.155	29572.91
696.501	29287.27
696.847	29369.52
697.193	29160.04
697.539	29175.41
697.885	28988.74
698.231	28904
698.577	28832.14
698.923	28924.79
699.269	28772.25
699.614	28568.64
699.96	28435.54
700.306	28519.38
700.651	28318.03
700.997	28380.85
701.342	28245.26
701.688	28332.26
702.033	28160.52
702.379	28103.79
702.724	28040.75
703.069	28101.76
703.415	27732.51
703.76	27850.47
704.105	27909
704.45	27785.39
704.795	27543.36
705.14	27491.83
705.485	27431.72
705.83	27325.06
706.175	27444.83
706.52	27320.54
706.865	27135.68
707.209	27123.26
707.554	27022.69
707.899	27080.09
708.243	26903.83
708.588	26915.8
708.932	26757.84
709.277	26631.29
709.621	26720.33
709.966	26488.24
710.31	26613.44
710.654	26425.87
710.998	26491.63
711.342	26331.41
711.687	26342.94
712.031	26200.79
712.375	26193.79
712.719	26223.84
713.063	26112.43
713.407	26113.56
713.75	26002.83
714.094	26082.38
714.438	25854.59
714.782	25907.24
715.125	25721.71
715.469	25929.61
715.812	25599.45
716.156	25598.1
716.499	25547.25
716.843	25650.3
717.186	25431.32
717.53	25500.02
717.873	25581.83
718.216	25446.24
718.559	25246.92
718.902	25259.8
719.246	25185
719.589	25102.29
719.932	25027.72
720.275	25142.97
720.617	24965.8
720.96	24949.53
721.303	24987.72
721.646	24933.26
721.989	24758.57
722.331	24868.17
722.674	24637.9
723.016	24704.79
723.359	24656.43
723.701	24613.27
724.044	24485.13
724.386	24387.73
724.729	24457.56
725.071	24406.27
725.413	24336.21
725.755	24346.38
726.097	24194.97
726.439	24167.63
726.782	24157.91
727.124	24218.93
727.465	24112.94
727.807	24012.83
728.149	23944.58
728.491	23980.74
728.833	24054.64
729.175	23929.22
729.516	23833.62
729.858	23778.94
730.199	23792.95
730.541	23806.73
730.882	23679.5
731.224	23745.04
731.565	23543.24
731.906	23571.94
732.248	23619.39
732.589	23607.64
732.93	23444.71
733.271	23464.14
733.612	23407.87
733.953	23399.96
734.294	23364.71
734.635	23225.96
734.976	23268.89
735.317	23183.92
735.658	23176.24
735.999	23209.91
736.339	23106.86
736.68	23145.06
737.021	22965.4
737.361	22986.42
737.702	23070.71
738.042	22889.92
738.383	22818.28
738.723	22911.39
739.063	22811.05
739.404	22905.06
739.744	22728.8
740.084	22665.75
740.424	22651.28
740.764	22595.24
741.104	22608.57
741.444	22573.77
741.784	22424.17
742.124	22497.16
742.464	22432.31
742.804	22393.89
743.143	22404.28
743.483	22313.66
743.823	22186.66
744.162	22290.84
744.502	22254.68
744.841	22169.49
745.181	22223.27
745.52	22168.36
745.86	22124.52
746.199	22069.6
746.538	22130.62
746.877	22096.95
747.216	22080.22
747.556	21918.19
747.895	21953
748.234	21875.71
748.573	21822.38
748.911	21796.62
749.25	21647.47
749.589	21595.49
749.928	21653.57
750.267	21583.51
750.605	21590.97
750.944	21528.15
751.283	21381.26
751.621	21444.76
751.96	21421.03
752.298	21317.31
752.636	21390.3
752.975	21152.34
753.313	21126.35
753.651	21257.65
