Data from whiteboard_FLMS001491_00055.txt Node
Date: Wed Feb 08 11:27:06 GMT 2017
User: dcchb
Spectrometer: FLMS00149
Trigger mode: 0
Integration Time (sec): 2.000000E-2
Scans to average: 10
Electric dark correction enabled: true
Nonlinearity correction enabled: false
Boxcar width: 0
XAxis mode: Wavelengths
Number of Pixels in Spectrum: 2048
>>>>>Begin Spectral Data<<<<<
341.393	-14.46
341.776	-14.46
342.16	-14.46
342.543	-73.67
342.927	-67.34
343.31	-72.54
343.693	-70.28
344.077	-53.33
344.46	-77.74
344.843	-42.94
345.226	-28.02
345.61	-25.99
345.993	-15.59
346.376	-11.98
346.759	16.72
347.142	23.28
347.525	37.29
347.908	34.8
348.291	82.94
348.674	89.04
349.057	114.35
349.44	150.28
349.823	143.5
350.206	172.88
350.588	214.23
350.971	224.17
351.354	233.21
351.737	278.18
352.119	271.41
352.502	279.77
352.884	300.33
353.267	310.73
353.65	328.13
354.032	312.53
354.414	325.19
354.797	323.38
355.179	351.86
355.562	370.16
355.944	367.9
356.326	348.47
356.709	360.67
357.091	370.84
357.473	371.97
357.855	369.71
358.238	378.52
358.62	377.62
359.002	376.71
359.384	392.08
359.766	364.96
360.148	346.88
360.53	371.74
360.912	354.79
361.294	371.06
361.676	371.52
362.057	374.23
362.439	360.22
362.821	375.58
363.203	371.29
363.584	389.59
363.966	358.63
364.348	354.11
364.729	354.57
365.111	379.2
365.493	379.88
365.874	376.94
366.256	370.61
366.637	349.37
367.019	364.06
367.4	348.69
367.781	367.9
368.163	367
368.544	373.78
368.925	352.53
369.306	358.63
369.688	377.62
370.069	348.69
370.45	365.19
370.831	355.24
371.212	383.72
371.593	372.19
371.974	387.33
372.355	365.87
372.736	378.3
373.117	387.11
373.498	361.35
373.879	381.46
374.26	385.3
374.641	365.19
375.021	369.03
375.402	378.07
375.783	404.74
376.163	422.59
376.544	388.01
376.925	390.27
377.305	410.38
377.686	383.49
378.066	382.14
378.447	403.83
378.827	424.62
379.208	427.79
379.588	425.07
379.968	416.03
380.349	396.83
380.729	421.46
381.109	422.36
381.489	430.05
381.87	427.56
382.25	434.79
382.63	442.93
383.01	446.32
383.39	428.24
383.77	450.16
384.15	422.81
384.53	452.19
384.91	435.69
385.29	446.09
385.67	459.65
386.049	452.42
386.429	475.47
386.809	456.71
387.189	462.36
387.568	503.04
387.948	500.78
388.328	498.07
388.707	510.04
389.087	484.96
389.466	509.82
389.846	519.53
390.225	534.9
390.605	520.44
390.984	532.19
391.363	556.14
391.743	552.08
392.122	540.55
392.501	571.28
392.881	559.53
393.26	561.79
393.639	582.81
394.018	586.88
394.397	589.82
394.776	609.7
395.155	624.84
395.534	613.32
395.913	603.37
396.292	612.19
396.671	622.81
397.05	651.96
397.429	674.33
397.808	653.99
398.186	688.8
398.565	693.09
398.944	699.42
399.323	697.38
399.701	699.19
400.08	719.08
400.458	730.15
400.837	748.68
401.215	761.79
401.594	764.73
401.972	783.48
402.351	774.89
402.729	790.49
403.107	841.33
403.486	838.4
403.864	855.57
404.242	835.23
404.62	889.92
404.999	851.96
405.377	873.88
405.755	893.31
406.133	917.04
406.511	933.08
406.889	948.45
407.267	989.13
407.645	1003.36
408.023	1052.85
408.401	1028
408.779	1042.01
409.156	1085.85
409.534	1114.32
409.912	1107.99
410.29	1117.26
410.667	1160.65
411.045	1160.2
411.422	1211.72
411.8	1227.31
412.178	1249.23
412.555	1274.77
412.933	1307.54
413.31	1315.67
413.687	1339.85
414.065	1344.82
414.442	1369
414.819	1417.36
415.197	1438.61
415.574	1446.52
415.951	1451.94
416.328	1504.14
416.705	1489.68
417.082	1525.16
417.46	1518.15
417.837	1539.39
418.214	1586.4
418.591	1603.8
418.967	1606.51
419.344	1644.48
419.721	1654.65
420.098	1691.03
420.475	1703.46
420.852	1716.34
421.228	1695.55
421.605	1772.16
421.982	1790.24
422.358	1790.46
422.735	1825.04
423.111	1837.92
423.488	1884.47
423.864	1860.06
424.241	1903
424.617	1919.95
424.994	1970.34
425.37	2002.66
425.746	1999.04
426.123	1994.07
426.499	2048.53
426.875	2053.05
427.251	2119.04
427.627	2146.16
428.003	2147.51
428.379	2203.33
428.756	2211.24
429.132	2247.4
429.507	2300.96
429.883	2317.68
430.259	2378.92
430.635	2371.92
431.011	2433.83
431.387	2500.05
431.763	2490.33
432.138	2535.75
432.514	2569.42
432.89	2605.36
433.265	2635.41
433.641	2693.49
434.016	2682.42
434.392	2772.13
434.767	2836.31
435.143	2818.23
435.518	2832.69
435.894	2912.92
436.269	2976.64
436.644	2969.64
437.02	3000.15
437.395	3008.73
437.77	3090.09
438.145	3120.6
438.52	3129.86
438.895	3144.32
439.271	3179.13
439.646	3256.41
440.021	3300.25
440.395	3314.49
440.77	3298.22
441.145	3356.97
441.52	3388.16
441.895	3389.06
442.27	3426.58
442.645	3435.16
443.019	3516.29
443.394	3515.61
443.769	3548.83
444.143	3493.47
444.518	3623.18
444.892	3610.3
445.267	3627.02
445.641	3671.32
446.016	3709.96
446.39	3704.54
446.764	3753.12
447.139	3769.84
447.513	3802.61
447.887	3799.67
448.262	3809.62
448.636	3910.18
449.01	3973
449.384	3983.4
449.758	3996.28
450.132	4034.7
450.506	4108.82
450.88	4153.56
451.254	4132.55
451.628	4209.15
452.002	4220.23
452.376	4244.63
452.75	4338.87
453.123	4371.41
453.497	4466.55
453.871	4507.23
454.244	4601.23
454.618	4584.06
454.992	4667
455.365	4679.42
455.739	4779.54
456.112	4866.76
456.486	4901.57
456.859	4913.77
457.232	5039.64
457.606	4980.89
457.979	5096.59
458.352	5200.99
458.725	5295.45
459.099	5282.57
459.472	5437.82
459.845	5434.89
460.218	5468.56
460.591	5578.16
460.964	5618.84
461.337	5713.07
461.71	5844.82
462.083	5956.23
462.456	5910.13
462.829	5918.49
463.201	6096.79
463.574	6127.75
463.947	6160.52
464.32	6338.36
464.692	6394.18
465.065	6421.07
465.438	6469.66
465.81	6669.88
466.183	6706.49
466.555	6838.69
466.928	6917.78
467.3	6937.9
467.672	7000.95
468.045	7223.09
468.417	7247.49
468.789	7341.5
469.161	7462.85
469.534	7559.12
469.906	7696.07
470.278	7782.17
470.65	7886.8
471.022	8011.99
471.394	8191.42
471.766	8220.12
472.138	8344.87
472.51	8571.75
472.882	8664.4
473.253	8830.73
473.625	8900.78
473.997	9101.68
474.369	9153.43
474.74	9252.41
475.112	9422.8
475.484	9544.61
475.855	9719.07
476.227	9871.15
476.598	10133.97
476.97	10180.3
477.341	10388.65
477.713	10623.22
478.084	10719.94
478.455	11050.33
478.827	11098.92
479.198	11362.41
479.569	11399.7
479.94	11658.22
480.311	11892.34
480.682	12107.03
481.053	12369.84
481.424	12604.87
481.795	12657.29
482.166	12918.3
482.537	13071.75
482.908	13358.29
483.279	13471.06
483.65	13692.52
484.021	14120.08
484.391	14163.7
484.762	14348.55
485.133	14425.16
485.503	14586.74
485.874	14912.83
486.244	15100.62
486.615	15459.93
486.985	15564.56
487.356	15929.75
487.726	16009.97
488.097	16393.47
488.467	16420.59
488.837	16861.03
489.207	16929.05
489.578	17184.41
489.948	17407.68
490.318	17614.68
490.688	17680.44
491.058	18017.61
491.428	18263.93
491.798	18454.88
492.168	18841.76
492.538	18853.06
492.908	19108.88
493.278	19467.96
493.648	19586.38
494.017	19743.44
494.387	19941.85
494.757	20018.91
495.126	20268.85
495.496	20338.67
495.866	20526.01
496.235	20784.99
496.605	21013.68
496.974	21007.81
497.344	21321.47
497.713	21334.58
498.082	21610.51
498.452	21759.43
498.821	21854.11
499.19	21956.26
499.559	22239.19
499.928	22283.48
500.298	22507.2
500.667	22670.82
501.036	22671.04
501.405	22901.32
501.774	22995.78
502.143	23203.46
502.512	23415.66
502.88	23590.34
503.249	23493.85
503.618	23678.93
503.987	23835.31
504.356	24090.67
504.724	24152.81
505.093	24351
505.462	24418.34
505.83	24736.52
506.199	24806.81
506.567	25285.66
506.936	24990.76
507.304	25436.17
507.672	25514.13
508.041	25702.38
508.409	25998.86
508.777	26129.48
509.145	26375.58
509.514	26449.47
509.882	26652.86
510.25	26718.85
510.618	26922.68
510.986	27050.81
511.354	27391.6
511.722	27569.22
512.09	27813.96
512.458	27880.62
512.826	28210.11
513.193	28293.95
513.561	28339.59
513.929	28581.62
514.297	28940.03
514.664	29077.65
515.032	29224.77
515.4	29384.31
515.767	29600.8
516.135	29937.97
516.502	29660.69
516.869	30267
517.237	30378.18
517.604	30403.72
517.972	30824.95
518.339	30983.82
518.706	31059.97
519.073	31362.57
519.44	31573.18
519.808	31934.75
520.175	31978.14
520.542	32385.14
520.909	32474.17
521.276	32467.39
521.643	32849.08
522.009	32970.88
522.376	33360.25
522.743	33514.6
523.11	33943.51
523.477	34171.76
523.843	34392.54
524.21	34597.06
524.577	34883.38
524.943	35150.26
525.31	35312.07
525.676	35677.71
526.043	35653.98
526.409	35923.12
526.776	36394.52
527.142	36550.23
527.508	36725.81
527.874	36909.99
528.241	37149.31
528.607	37280.15
528.973	37614.6
529.339	37585.23
529.705	37986.57
530.071	38271.54
530.437	38376.62
530.803	38715.59
531.169	38786.32
531.535	38726.89
531.901	39106.54
532.267	39239.19
532.632	39496.59
532.998	39661.56
533.364	39867.43
533.73	39827.43
534.095	40223.35
534.461	40249.34
534.826	40546.28
535.192	40777.68
535.557	40972.93
535.923	41072.59
536.288	41392.13
536.653	41404.79
537.019	41338.57
537.384	41562.97
537.749	41941.95
538.114	42014.04
538.479	42194.6
538.845	42397.98
539.21	42242.05
539.575	42505.55
539.94	42649.27
540.305	42949.38
540.67	42870.29
541.034	43145.98
541.399	43425.3
541.764	43446.54
542.129	43721.34
542.494	43923.36
542.858	44055.56
543.223	44002.68
543.587	44474.76
543.952	44400.87
544.316	44565.38
544.681	44655.32
545.045	44808.09
545.41	44942.55
545.774	45137.57
546.138	45235.65
546.503	45425.92
546.867	45462.76
547.231	45809.64
547.595	45917.89
547.959	45949.53
548.324	45998.34
548.688	46091.44
549.052	46204.89
549.416	46294.38
549.779	46256.41
550.143	46440.81
550.507	46753.12
550.871	46718.09
551.235	46822.5
551.599	47088.03
551.962	47085.77
552.326	47163.51
552.689	47470.62
553.053	47248.48
553.417	47421.8
553.78	47958.06
554.143	47741.57
554.507	47958.74
554.87	48102.01
555.234	48360.76
555.597	48203.7
555.96	48507.2
556.323	48618.61
556.686	48707.42
557.05	48852.05
557.413	49034.64
557.776	49046.39
558.139	49360.96
558.502	49280.51
558.865	49414.07
559.228	49714.17
559.59	49773.61
559.953	49932.02
560.316	50202.75
560.679	50303.99
561.041	50509.41
561.404	50638.44
561.767	50894.26
562.129	50757.99
562.492	51151.2
562.854	51146.9
563.217	51272.32
563.579	51437.29
563.941	51614.24
564.304	51629.15
564.666	51947.79
565.028	51952.98
565.39	52105.52
565.753	52285.63
566.115	52395.01
566.477	52508.45
566.839	52600.42
567.201	52851.27
567.563	52959.51
567.925	53155.21
568.287	53166.96
568.648	53271.14
569.01	53436.56
569.372	53533.51
569.734	53580.96
570.095	53762.2
570.457	53822.09
570.819	53869.32
571.18	53927.62
571.542	54152.7
571.903	54160.84
572.265	54257.78
572.626	54354.95
572.987	54406.03
573.349	54512.01
573.71	54648.73
574.071	54712.69
574.432	54755.85
574.794	54991.32
575.155	54918.1
575.516	54885.79
575.877	55084.43
576.238	55077.65
576.599	55226.8
576.96	55301.37
577.32	55240.13
577.681	55343.4
578.042	55430.63
578.403	55356.51
578.763	55452.1
579.124	55442.16
579.485	55523.74
579.845	55567.35
580.206	55592.44
580.566	55567.13
580.927	55606
581.287	55691.87
581.648	55534.36
582.008	55697.74
582.368	55720.79
582.728	55787.91
583.089	55715.82
583.449	55743.85
583.809	55723.28
584.169	55740.91
584.529	55694.13
584.889	55931.64
585.249	55708.14
585.609	55700.68
585.969	55800.11
586.329	55762.38
586.688	55748.82
587.048	55695.48
587.408	55652.32
587.768	55718.31
588.127	55730.74
588.487	55664.53
588.846	55829.27
589.206	55586.34
589.565	55659.33
589.925	55750.85
590.284	55620.23
590.643	55704.75
591.003	55734.58
591.362	55843.96
591.721	55769.83
592.08	55767.35
592.44	55849.83
592.799	55857.97
593.158	55845.09
593.517	55730.29
593.876	55899.1
594.235	55774.35
594.593	55866.78
594.952	55895.25
595.311	55808.93
595.67	55898.87
596.029	55974.57
596.387	55980.9
596.746	56095.02
597.104	55956.27
597.463	55996.49
597.822	56127.56
598.18	56056.83
598.538	56115.81
598.897	56259.31
599.255	56101.12
599.613	56528.23
599.972	56249.14
600.33	56376.37
600.688	56271.97
601.046	56376.82
601.404	56470.15
601.762	56384.96
602.12	56633.31
602.478	56595.57
602.836	56527.55
603.194	56391.51
603.552	56522.36
603.91	56391.96
604.268	56569.13
604.625	56527.78
604.983	56651.39
605.341	56546.08
605.698	56652.07
606.056	56698.4
606.413	56729.81
606.771	56836.25
607.128	56765.06
607.485	56623.37
607.843	56719.19
608.2	56878.96
608.557	56974.32
608.914	56801.44
609.272	56978.61
609.629	56942.23
609.986	56984.49
610.343	56834.44
610.7	57051.38
611.057	56968.9
611.414	56927.32
611.771	57032.62
612.127	57102.68
612.484	57065.17
612.841	57148.78
613.198	57036.24
613.554	57076.01
613.911	57193.07
614.267	57116.92
614.624	57102
614.98	57193.3
615.337	57219.06
615.693	57209.8
616.05	57170.93
616.406	57294.09
616.762	57171.38
617.118	57130.02
617.475	57116.24
617.831	57156.01
618.187	57253.18
618.543	57206.86
618.899	57308.1
619.255	57326.18
619.611	57246.63
619.967	57330.02
620.323	57412.73
620.678	57224.26
621.034	57206.18
621.39	57239.62
621.746	57104.04
622.101	57397.59
622.457	57151.72
622.812	57160.3
623.168	57266.29
623.523	57251.15
623.879	57274.65
624.234	57181.32
624.589	57222.9
624.945	57244.82
625.3	57226.29
625.655	57188.55
626.01	57265.61
626.365	57292.28
626.72	57216.35
627.075	57150.36
627.43	57148.78
627.785	57143.13
628.14	57188.78
628.495	57136.35
628.85	57079.18
629.205	57047.54
629.559	57156.46
629.914	57054.09
630.269	57068.1
630.623	57002.57
630.978	56989.91
631.332	57093.64
631.687	57095.9
632.041	57048.44
632.396	57036.92
632.75	56994.66
633.104	57030.59
633.459	56893.42
633.813	56947.66
634.167	56885.28
634.521	56914.89
634.875	56917.83
635.229	56915.79
635.583	56788.11
635.937	56822.01
636.291	56860.2
636.645	56849.8
636.999	56780.65
637.352	56864.27
637.706	56736.81
638.06	56864.72
638.413	56742.24
638.767	56675.57
639.121	56664.95
639.474	56601.22
639.828	56613.43
640.181	56606.65
640.534	56618.62
640.888	56500.89
641.241	56404.17
641.594	56486.65
641.947	56560.09
642.301	56457.05
642.654	56544.05
643.007	56474.22
643.36	56539.3
643.713	56445.97
644.066	56486.2
644.419	56254.57
644.771	56156.04
645.124	55892.32
645.477	55737.29
645.83	55568.71
646.182	55479.22
646.535	55337.53
646.888	55456.62
647.24	55261.37
647.593	55370.52
647.945	55295.27
648.298	55174.82
648.65	55174.14
649.002	55038.1
649.355	55124.88
649.707	55026.35
650.059	55146.57
650.411	55452.1
650.763	55494.59
651.115	55769.38
651.467	55584.08
651.819	55535.49
652.171	55499.11
652.523	55435.15
652.875	55473.34
653.227	55388.6
653.578	55536.39
653.93	55405.55
654.282	55273.8
654.633	55166.91
654.985	55214.37
655.337	55183.63
655.688	55207.14
656.039	55228.15
656.391	55025.22
656.742	55021.38
657.094	55060.02
657.445	55116.74
657.796	55025.45
658.147	54969.85
658.498	54948.61
658.849	54908.84
659.2	54955.84
659.551	54853.47
659.902	54899.8
660.253	54845.79
660.604	54907.26
660.955	54737.77
661.306	54842.85
661.656	54667.49
662.007	54788.16
662.358	54723.76
662.708	54682.86
663.059	54644.21
663.409	54558.57
663.76	54716.53
664.11	54634.72
664.461	54707.71
664.811	54588.85
665.161	54602.18
665.511	54488.51
665.862	54542.07
666.212	54545.01
666.562	54517.89
666.912	54535.97
667.262	54447.16
667.612	54444.22
667.962	54430.89
668.312	54330.77
668.662	54469.3
669.011	54382.98
669.361	54286.71
669.711	54335.52
670.06	54248.74
670.41	54228.63
670.76	54164.68
671.109	54308.85
671.459	54213.04
671.808	54129.65
672.157	54130.1
672.507	53929.2
672.856	53983.67
673.205	53943.44
673.554	54089.2
673.904	53953.61
674.253	54168.07
674.602	53979.37
674.951	53682.43
675.3	53432.72
675.649	53814.86
675.998	53829.77
676.346	53802.65
676.695	53872.48
677.044	53672.94
677.393	53830.9
677.741	53795.65
678.09	53736.67
678.438	53676.33
678.787	53726.95
679.135	53720.85
679.484	53521.08
679.832	53672.49
680.181	53477.01
680.529	53560.63
680.877	53525.37
681.225	53546.16
681.573	53611.92
681.922	53307.98
682.27	53241.09
682.618	53301.2
682.966	53234.31
683.314	53329.22
683.661	53169.68
684.009	53108.89
684.357	53101.65
684.705	53106.85
685.053	53110.69
685.4	53024.59
685.748	52921.55
686.095	52940.53
686.443	52828.89
686.79	52841.55
687.138	52910.02
687.485	52797.03
687.832	52698.95
688.18	52763.13
688.527	52538.96
688.874	52493.99
689.221	52406.53
689.568	52456.47
689.915	52331.73
690.262	52285.86
690.609	52136.03
690.956	52059.2
691.303	52020.33
691.65	51958.18
691.997	51837.96
692.344	51749.6
692.69	51732.43
693.037	51663.05
693.383	51342.38
693.73	51480
694.077	51156.62
694.423	51200.91
694.769	51160.91
695.116	51003.63
695.462	50942.62
695.808	50729.51
696.155	50833.92
696.501	50539.46
696.847	50499.01
697.193	50135.4
697.539	50230.09
697.885	50132.02
698.231	49998.23
698.577	49899.7
698.923	49906.71
699.269	49530.22
699.614	49417.23
699.96	49274.64
700.306	49335.88
700.651	48996.68
700.997	48888.21
701.342	48840.52
701.688	48738.83
702.033	48644.6
702.379	48557.37
702.724	48397.15
703.069	48553.07
703.415	47963.26
703.76	47930.72
704.105	47883.03
704.45	47883.94
704.795	47568.24
705.14	47486.89
705.485	47369.6
705.83	47141.59
706.175	47265.2
706.52	47058.42
706.865	47035.83
707.209	46900.69
707.554	46749.73
707.899	46891.87
708.243	46640.36
708.588	46615.27
708.932	46259.12
709.277	46149.52
709.621	46184.1
709.966	45953.37
710.31	46194.04
710.654	45620.72
710.998	45871.11
711.342	45718.12
711.687	45496.43
712.031	45352.25
712.375	45340.28
712.719	45256.44
713.063	45287.4
713.407	45346.6
713.75	45015.09
714.094	45075.65
714.438	44911.36
714.782	44906.62
715.125	44704.81
715.469	44743
715.812	44662.78
716.156	44448.32
716.499	44346.4
716.843	44493.29
717.186	44236.13
717.53	44448.32
717.873	44319.06
718.216	44279.29
718.559	44030.03
718.902	43812.63
719.246	44062.57
719.589	43763.37
719.932	43756.59
720.275	43738.96
720.617	43606.76
720.96	43592.98
721.303	43560.89
721.646	43689.47
721.989	43415.81
722.331	43433.43
722.674	43385.3
723.016	43289.94
723.359	43329.26
723.701	43173.33
724.044	43004.29
724.386	42840.46
724.729	43110.05
725.071	42839.78
725.413	42718.65
725.755	42673.91
726.097	42640.46
726.439	42389.17
726.782	42488.6
727.124	42584.19
727.465	42353.69
727.807	42382.16
728.149	42205.67
728.491	42227.59
728.833	42136.29
729.175	42070.76
729.516	42033.25
729.858	41915.73
730.199	41920.25
730.541	41828.28
730.882	41670.54
731.224	41834.38
731.565	41633.71
731.906	41501.51
732.248	41582.18
732.589	41537.44
732.93	41398.46
733.271	41441.62
733.612	41400.04
733.953	41237.79
734.294	41087.28
734.635	41063.1
734.976	41133.16
735.317	40920.73
735.658	40791.02
735.999	40848.19
736.339	40799.38
736.68	40878.25
737.021	40595.99
737.361	40468.54
737.702	40656.11
738.042	40543.79
738.383	40421.31
738.723	40578.82
739.063	40336.34
739.404	40299.96
739.744	40187.87
740.084	40054.99
740.424	40194.65
740.764	39964.15
741.104	40067.2
741.444	39896.13
741.784	39589.47
742.124	39803.02
742.464	39716.24
742.804	39721.22
743.143	39497.72
743.483	39619.98
743.823	39340.21
744.162	39245.52
744.502	39235.13
744.841	39159.2
745.181	39200.1
745.52	39083.04
745.86	39121.01
746.199	38974.79
746.538	38901.58
746.877	39028.35
747.216	38853.22
747.556	38687.57
747.895	38595.14
748.234	38486.67
748.573	38427.92
748.911	38311.08
749.25	38266.56
749.589	38096.4
749.928	38119.22
750.267	38063.86
750.605	38037.64
750.944	37872.9
751.283	37667.71
751.621	37777.54
751.96	37465.91
752.298	37453.25
752.636	37487.15
