Data from white_wall_FLMS001491_006.txt Node
Date: Tue Feb 07 11:03:12 GMT 2017
User: dcchb
Spectrometer: FLMS00149
Trigger mode: 0
Integration Time (sec): 2.000000E-2
Scans to average: 10
Electric dark correction enabled: true
Nonlinearity correction enabled: false
Boxcar width: 0
XAxis mode: Wavelengths
Number of Pixels in Spectrum: 2048
>>>>>Begin Spectral Data<<<<<
341.393	-13.74
341.776	-13.74
342.16	-13.74
342.543	-54.42
342.927	-73.18
343.31	-81.31
343.693	-70.01
344.077	-66.17
344.46	-70.69
344.843	-38.6
345.226	-43.8
345.61	-29.56
345.993	-34.53
346.376	5.24
346.759	20.83
347.142	34.62
347.525	36.65
347.908	64
348.291	76.88
348.674	82.3
349.057	114.16
349.44	129.08
349.823	135.86
350.206	172.69
350.588	210.66
350.971	241.39
351.354	255.63
351.737	256.76
352.119	273.71
352.502	252.01
352.884	275.52
353.267	276.42
353.65	303.54
354.032	291.11
354.414	330.88
354.797	310.32
355.179	336.08
355.562	329.53
355.944	346.93
356.326	351.9
356.709	363.2
357.091	358
357.473	367.49
357.855	361.39
358.238	359.13
358.62	355.97
359.002	343.76
359.384	377.21
359.766	355.51
360.148	358
360.53	331.56
360.912	353.48
361.294	372.69
361.676	350.32
362.057	355.29
362.439	364.55
362.821	362.74
363.203	338.11
363.584	345.12
363.966	358
364.348	370.65
364.729	333.14
365.111	346.02
365.493	355.51
365.874	337.43
366.256	325.01
366.637	336.53
367.019	342.86
367.4	354.84
367.781	331.79
368.163	347.6
368.544	317.55
368.925	339.92
369.306	344.67
369.688	357.77
370.069	313.03
370.45	327.27
370.831	346.7
371.212	329.75
371.593	343.54
371.974	317.77
372.355	330.66
372.736	347.6
373.117	355.51
373.498	348.73
373.879	343.31
374.26	340.6
374.641	343.76
375.021	363.42
375.402	367.94
375.783	337.66
376.163	358.68
376.544	379.02
376.925	369.07
377.305	382.41
377.686	364.55
378.066	352.12
378.447	359.58
378.827	358.68
379.208	375.4
379.588	349.86
379.968	364.78
380.349	381.95
380.729	368.39
381.109	367.04
381.489	380.37
381.87	382.41
382.25	379.02
382.63	381.5
383.01	360.26
383.39	396.19
383.77	394.38
384.15	407.04
384.53	419.24
384.91	411.11
385.29	402.52
385.67	404.78
386.049	395.96
386.429	386.7
386.809	391.22
387.189	415.85
387.568	430.54
387.948	427.83
388.328	422.4
388.707	446.81
389.087	447.94
389.466	451.56
389.846	442.29
390.225	457.88
390.605	453.59
390.984	462.63
391.363	480.48
391.743	482.74
392.122	469.41
392.501	477.09
392.881	520.71
393.26	499.46
393.639	509.41
394.018	521.61
394.397	517.77
394.776	536.53
395.155	553.25
395.534	547.82
395.913	524.32
396.292	554.6
396.671	562.51
397.05	590.31
397.429	581.04
397.808	591.44
398.186	600.7
398.565	594.83
398.944	630.31
399.323	633.25
399.701	643.64
400.08	650.65
400.458	671.21
400.837	682.28
401.215	694.26
401.594	694.49
401.972	726.12
402.351	729.97
402.729	732.45
403.107	731.77
403.486	766.58
403.864	783.52
404.242	768.84
404.62	808.61
404.999	805.22
405.377	817.65
405.755	836.86
406.133	844.31
406.511	871.88
406.889	865.33
407.267	902.17
407.645	924.31
408.023	948.27
408.401	986.68
408.779	1000.24
409.156	1003.63
409.534	995.5
409.912	1033.01
410.29	1045.44
410.667	1032.33
411.045	1081.14
411.422	1077.3
411.8	1113.69
412.178	1129.5
412.555	1144.87
412.933	1164.76
413.31	1200.91
413.687	1228.48
414.065	1216.06
414.442	1243.63
414.819	1278.65
415.197	1262.83
415.574	1294.92
415.951	1334.24
416.328	1320.91
416.705	1327.47
417.082	1352.78
417.46	1375.6
417.837	1395.94
418.214	1388.25
418.591	1431.64
418.967	1418.08
419.344	1452.89
419.721	1477.74
420.098	1455.37
420.475	1492.88
420.852	1503.51
421.228	1515.48
421.605	1558.42
421.982	1560.68
422.358	1572.66
422.735	1616.05
423.111	1561.13
423.488	1611.53
423.864	1625.99
424.241	1690.85
424.617	1678.42
424.994	1677.74
425.37	1711.18
425.746	1739.66
426.123	1756.15
426.499	1761.58
426.875	1795.7
427.251	1838.64
427.627	1859.43
428.003	1854
428.379	1913.44
428.756	1936.94
429.132	1941.23
429.507	1958.86
429.883	1981.01
430.259	2044.96
430.635	2043.6
431.011	2082.47
431.387	2133.32
431.763	2147.33
432.138	2160.44
432.514	2193.88
432.89	2217.39
433.265	2216.71
433.641	2273.43
434.016	2308.46
434.392	2352.75
434.767	2373.54
435.143	2383.26
435.518	2388.45
435.894	2469.81
436.269	2501.67
436.644	2559.3
437.02	2529.92
437.395	2569.92
437.77	2579.18
438.145	2682.23
438.52	2673.19
438.895	2675.45
439.271	2660.09
439.646	2755.45
440.021	2769.91
440.395	2818.73
440.77	2774.21
441.145	2798.61
441.52	2872.51
441.895	2880.87
442.27	2924.03
442.645	2906.18
443.019	2974.2
443.394	2989.57
443.769	3021.43
444.143	3002.45
444.518	3049
444.892	3050.81
445.267	3074.76
445.641	3125.38
446.016	3112.28
446.39	3155.67
446.764	3177.59
447.139	3140.75
447.513	3233.86
447.887	3227.08
448.262	3251.93
448.636	3297.58
449.01	3324.93
449.384	3398.15
449.758	3396.11
450.132	3456.67
450.506	3471.36
450.88	3482.66
451.254	3484.02
451.628	3564.69
452.002	3591.81
452.376	3661.64
452.75	3682.43
453.123	3690.34
453.497	3795.65
453.871	3775.31
454.244	3862.54
454.618	3900.05
454.992	3962.2
455.365	3958.36
455.739	4072.7
456.112	4109.09
456.486	4129.2
456.859	4164.45
457.232	4272.25
457.606	4247.84
457.979	4286.03
458.352	4380.72
458.725	4454.16
459.099	4511.34
459.472	4533.03
459.845	4611.67
460.218	4679.47
460.591	4710.88
460.964	4732.35
461.337	4854.6
461.71	4938.9
462.083	4999.91
462.456	5040.36
462.829	5024.09
463.201	5166.23
463.574	5199
463.947	5211.2
464.32	5380.69
464.692	5429.96
465.065	5456.62
465.438	5555.15
465.81	5633.57
466.183	5690.74
466.555	5775.26
466.928	5845.09
467.3	5927.8
467.672	5965.08
468.045	6123.5
468.417	6121.92
468.789	6157.39
469.161	6283.72
469.534	6365.3
469.906	6509.02
470.278	6563.94
470.65	6684.61
471.022	6787.89
471.394	6921.89
471.766	7012.29
472.138	7104.94
472.51	7240.3
472.882	7346.74
473.253	7445.72
473.625	7532.95
473.997	7770.91
474.369	7782.44
474.74	7868.76
475.112	7993.5
475.484	8192.14
475.855	8294.97
476.227	8359.6
476.598	8581.29
476.97	8740.38
477.341	8913.93
477.713	9026.92
478.084	9143.76
478.455	9427.14
478.827	9388.04
479.198	9705.55
479.569	9773.34
479.94	10031.42
480.311	10155.48
480.682	10428.47
481.053	10568.35
481.424	10742.36
481.795	10828.46
482.166	10982.58
482.537	11255.79
482.908	11465.96
483.279	11544.37
483.65	11811.03
484.021	11990.24
484.391	12107.75
484.762	12252.38
485.133	12457.79
485.503	12624.57
485.874	12923.54
486.244	13086.93
486.615	13296.19
486.985	13469.07
487.356	13686.01
487.726	13790.87
488.097	14086.23
488.467	14159.44
488.837	14525.99
489.207	14677.17
489.578	14912.42
489.948	14997.16
490.318	15245.52
490.688	15360.09
491.058	15521.67
491.428	15824.26
491.798	15885.5
492.168	16377.01
492.538	16370.01
492.908	16561.19
493.278	16811.58
493.648	16859.49
494.017	17064.45
494.387	17237.56
494.757	17378.57
495.126	17612.23
495.496	17720.93
495.866	17828.05
496.235	18023.75
496.605	18214.93
496.974	18335.15
497.344	18510.06
497.713	18687.46
498.082	18745.99
498.452	19004.51
498.821	19052.42
499.19	19144.62
499.559	19402.24
499.928	19523.82
500.298	19678.4
500.667	19746.19
501.036	19914.1
501.405	20139.85
501.774	20084.03
502.143	20405.16
502.512	20397.47
502.88	20706.16
503.249	20697.8
503.618	21034.29
503.987	21086.27
504.356	21173.5
504.724	21318.35
505.093	21487.84
505.462	21557.44
505.83	21703.2
506.199	21926.25
506.567	22309.06
506.936	22319.23
507.304	22525.55
507.672	22598.32
508.041	22722.61
508.409	23060.23
508.777	23136.61
509.145	23357.39
509.514	23437.17
509.882	23554.9
510.25	23691.85
510.618	23852.97
510.986	24057.94
511.354	24294.32
511.722	24551.71
512.09	24798.03
512.458	24779.73
512.826	25104.24
513.193	25139.95
513.561	25172.49
513.929	25459.94
514.297	25764.34
514.664	25986.25
515.032	26044.1
515.4	26319.35
515.767	26331.1
516.135	26562.28
516.502	26497.42
516.869	26962.5
517.237	26997.07
517.604	27139.67
517.972	27383.96
518.339	27663.5
518.706	27600.22
519.073	27915.69
519.44	28048.12
519.808	28383.02
520.175	28354.33
520.542	28846.29
520.909	28944.59
521.276	28994.31
521.643	29336.22
522.009	29570.79
522.376	29795.19
522.743	29960.16
523.11	30245.8
523.477	30526.7
523.843	30661.38
524.21	30939.57
524.577	31269.73
524.943	31328.94
525.31	31550.85
525.676	31816.15
526.043	32110.16
526.409	32236.26
526.776	32510.37
527.142	32548.57
527.508	32776.58
527.874	33131.37
528.241	33246.85
528.607	33385.38
528.973	33663.56
529.339	33648.42
529.705	34000.05
530.071	34200.05
530.437	34457.89
530.803	34763.2
531.169	34837.32
531.535	34866.7
531.901	35126.58
532.267	35249.74
532.632	35503.29
532.998	35578.32
533.364	35926.56
533.73	36056.5
534.095	36204.06
534.461	36286.77
534.826	36512.53
535.192	36594.33
535.557	36970.6
535.923	36781.9
536.288	37196.35
536.653	37155.68
537.019	37225.96
537.384	37355.67
537.749	37621.2
538.114	37722.44
538.479	37827.3
538.845	38232.94
539.21	38169.89
539.575	38231.58
539.94	38337.57
540.305	38667.73
540.67	38624.79
541.034	38789.3
541.399	38996.76
541.764	39119.47
542.129	39245.79
542.494	39240.14
542.858	39595.84
543.223	39618.21
543.587	39855.27
543.952	39918.99
544.316	40193.79
544.681	39956.28
545.045	40259.55
545.41	40432.65
545.774	40708.12
546.138	40713.77
546.503	40824.96
546.867	41022.47
547.231	41292.06
547.595	41311.27
547.959	41456.81
548.324	41616.8
548.688	41795.55
549.052	41857.7
549.416	42044.13
549.779	42321.87
550.143	42290
550.507	42581.75
550.871	42742.87
551.235	42809.76
551.599	43047.95
551.962	43161.39
552.326	43168.4
552.689	43501.5
553.053	43511.44
553.417	43688.16
553.78	44220.57
554.143	44142.61
554.507	44360.01
554.87	44404.52
555.234	44867.79
555.597	44726.1
555.96	45032.53
556.323	45105.52
556.686	45155.24
557.05	45420.32
557.413	45719.74
557.776	45731.04
558.139	46173.07
558.502	46134.2
558.865	46361.08
559.228	46645.14
559.59	46776.89
559.953	46715.65
560.316	47256.43
560.679	47360.83
561.041	47504.1
561.404	47752.01
561.767	47889.4
562.129	47822.74
562.492	48328.94
562.854	48392.89
563.217	48444.64
563.579	48548.37
563.941	48853.22
564.304	49006.66
564.666	49174.12
565.028	49343.38
565.39	49406.65
565.753	49522.81
566.115	49858.39
566.477	49824.72
566.839	49975.68
567.201	50343.8
567.563	50215.67
567.925	50476.23
568.287	50552.61
568.648	50627.86
569.01	50784.92
569.372	51012.71
569.734	50906.5
570.095	51088.87
570.457	51253.16
570.819	51398.46
571.18	51381.29
571.542	51594.39
571.903	51586.26
572.265	51672.58
572.626	51856.98
572.987	51809.08
573.349	52062.85
573.71	52136.75
574.071	52211.32
574.432	52359.34
574.794	52587.13
575.155	52500.81
575.516	52431.21
575.877	52601.37
576.238	52614.25
576.599	52850.18
576.96	52776.06
577.32	52790.52
577.681	52992.77
578.042	52996.84
578.403	52988.93
578.763	53051.53
579.124	53124.07
579.485	53206.78
579.845	53268.47
580.206	53195.25
580.566	53234.35
580.927	53201.36
581.287	53336.72
581.648	53299.88
582.008	53454.91
582.368	53362.71
582.728	53447
583.089	53399.09
583.449	53420.11
583.809	53443.83
584.169	53465.76
584.529	53423.27
584.889	53691.06
585.249	53483.83
585.609	53367.45
585.969	53664.39
586.329	53479.77
586.688	53646.09
587.048	53642.25
587.408	53489.26
587.768	53538.52
588.127	53578.52
588.487	53500.1
588.846	53787.33
589.206	53643.38
589.565	53639.76
589.925	53778.97
590.284	53588.92
590.643	53664.85
591.003	53755.24
591.362	53787.55
591.721	53792.53
592.08	53754.34
592.44	53852.64
592.799	53815.12
593.158	53820.1
593.517	53734
593.876	53803.37
594.235	53783.03
594.593	53871.85
594.952	53849.93
595.311	53774.9
595.67	53819.64
596.029	53983.26
596.387	53991.39
596.746	53980.77
597.104	53881.34
597.463	53911.39
597.822	54003.82
598.18	53930.15
598.538	53928.79
598.897	54040.88
599.255	53879.98
599.613	54293.53
599.972	54079.98
600.33	54117.49
600.688	54004.95
601.046	54218.96
601.404	54323.36
601.762	54188.45
602.12	54356.58
602.478	54328.56
602.836	54301.89
603.194	54207.88
603.552	54287.2
603.91	54137.83
604.268	54330.82
604.625	54265.51
604.983	54379.4
605.341	54176.24
605.698	54395
606.056	54454.66
606.413	54389.8
606.771	54535.11
607.128	54531.49
607.485	54507.08
607.843	54571.04
608.2	54667.31
608.557	54706.63
608.914	54636.12
609.272	54844.02
609.629	54835.66
609.986	54891.48
610.343	54804.7
610.7	54989.78
611.057	54855.55
611.414	54832.72
611.771	54890.35
612.127	55017.8
612.484	54967.18
612.841	55130.57
613.198	55035.88
613.554	54972.38
613.911	55240.85
614.267	55175.77
614.624	55128.54
614.98	55205.37
615.337	55368.3
615.693	55294.18
616.05	55287.85
616.406	55428.87
616.762	55381.19
617.118	55403.78
617.475	55340.73
617.831	55447.17
618.187	55474.74
618.543	55423.22
618.899	55613.27
619.255	55494.63
619.611	55579.6
619.967	55615.76
620.323	55702.31
620.678	55697.79
621.034	55521.75
621.39	55554.06
621.746	55508.19
622.101	55820.27
622.457	55618.24
622.812	55733.94
623.168	55742.76
623.523	55711.8
623.879	55801.74
624.234	55663.66
624.589	55767.39
624.945	55759.71
625.3	55803.77
625.655	55741.85
626.01	55744.11
626.365	55762.87
626.72	55758.35
627.075	55708.41
627.43	55675.87
627.785	55735.75
628.14	55759.25
628.495	55713.15
628.85	55639.71
629.205	55585.47
629.559	55776.88
629.914	55679.71
630.269	55632.03
630.623	55540.05
630.978	55534.63
631.332	55530.33
631.687	55601.29
632.041	55518.58
632.396	55625.7
632.75	55440.84
633.104	55481.97
633.459	55331.69
633.813	55378.25
634.167	55384.12
634.521	55377.8
634.875	55407.4
635.229	55329.89
635.583	55258.25
635.937	55224.58
636.291	55244.01
636.645	55210.12
636.999	55128.31
637.352	55199.04
637.706	54986.39
638.06	55157.46
638.413	55014.64
638.767	54987.52
639.121	55027.3
639.474	54863.91
639.828	54862.1
640.181	54975.32
640.534	54917.02
640.888	54835.66
641.241	54738.72
641.594	54740.07
641.947	54764.03
642.301	54645.84
642.654	54635.22
643.007	54690.58
643.36	54597.25
643.713	54575.56
644.066	54644.03
644.419	54446.75
644.771	54299.63
645.124	54012.86
645.477	53907.33
645.83	53726.31
646.182	53606.77
646.535	53496.71
646.888	53642.47
647.24	53528.35
647.593	53598.86
647.945	53514.12
648.298	53372.42
648.65	53418.52
649.002	53321.8
649.355	53437.51
649.707	53351.18
650.059	53474.12
650.411	53802.47
650.763	53778.29
651.115	54107.77
651.467	54037.04
651.819	53943.03
652.171	53929.02
652.523	53909.81
652.875	53906.65
653.227	53777.39
653.578	53980.77
653.93	53886.76
654.282	53748.46
654.633	53661.68
654.985	53707.33
655.337	53616.26
655.688	53639.76
656.039	53776.71
656.391	53504.17
656.742	53590.27
657.094	53569.71
657.445	53675.47
657.796	53610.38
658.147	53536.04
658.498	53502.36
658.849	53567
659.2	53600.89
659.551	53476.38
659.902	53533.78
660.253	53426.66
660.604	53503.49
660.955	53402.25
661.306	53492.87
661.656	53481.12
662.007	53445.42
662.358	53413.78
662.708	53407.45
663.059	53366.55
663.409	53110.74
663.76	53314.57
664.11	53302.14
664.461	53253.11
664.811	53310.28
665.161	53328.36
665.511	53161.36
665.862	53207.46
666.212	53257.85
666.562	53265.99
666.912	53218.3
667.262	53170.4
667.612	53186.67
667.962	53195.71
668.312	53118.65
668.662	53138.53
669.011	53170.85
669.361	52998.65
669.711	53044.3
670.06	52900.35
670.41	52925.66
670.76	52904.64
671.109	53024.86
671.459	52949.38
671.808	52868.03
672.157	52966.33
672.507	52737.41
672.856	52676.62
673.205	52754.81
673.554	52845.43
673.904	52719.56
674.253	52876.62
674.602	52690.18
674.951	52225.34
675.3	52099.24
675.649	52583.97
675.998	52466.69
676.346	52482.96
676.695	52573.58
677.044	52341.49
677.393	52452.67
677.741	52434.14
678.09	52447.25
678.438	52268.95
678.787	52313.47
679.135	52373.13
679.484	52162.74
679.832	52266.92
680.181	52031.67
680.529	52114.6
680.877	52153.7
681.225	51971.11
681.573	52246.8
681.922	52031.89
682.27	51847.94
682.618	51906.7
682.966	51759.59
683.314	51798
683.661	51743.31
684.009	51449.99
684.357	51483.89
684.705	51462.64
685.053	51483.89
685.4	51407.28
685.748	51192.37
686.095	51141.97
686.443	51065.82
686.79	51035.54
687.138	51047.29
687.485	50968.19
687.832	50873.96
688.18	50918.25
688.527	50687.3
688.874	50801.87
689.221	50655.66
689.568	50482.1
689.915	50418.38
690.262	50518.71
690.609	50313.97
690.956	50236.69
691.303	50237.59
691.65	50000.54
691.997	49944.94
692.344	49723.48
692.69	49672.86
693.037	49698.4
693.383	49446.88
693.73	49591.73
694.077	49259.09
694.423	49290.05
694.769	49176.83
695.116	49089.83
695.462	49073.33
695.808	48862.26
696.155	48927.8
696.501	48652.1
696.847	48634.7
697.193	48353.12
697.539	48509.28
697.885	48095.5
698.231	48240.13
698.577	48127.59
698.923	48123.52
699.269	47906.35
699.614	47719.69
699.96	47627.49
700.306	47753.81
700.651	47432.69
700.997	47419.81
701.342	47156.54
701.688	47303.21
702.033	47102.53
702.379	47037.9
702.724	46875.42
703.069	47048.97
703.415	46605.82
703.76	46536.9
704.105	46521.76
704.45	46479.5
704.795	46313.63
705.14	46181.88
705.485	46158.38
705.83	45857.37
706.175	45909.12
706.52	45851.04
706.865	45676.36
707.209	45618.96
707.554	45609.92
707.899	45588.22
708.243	45383.71
708.588	45374.89
708.932	45083.38
709.277	45183.26
709.621	45216.03
709.966	44776.94
710.31	44775.14
710.654	44671.18
710.998	44756.38
711.342	44764.06
711.687	44541.47
712.031	44470.96
712.375	44294.92
712.719	44278.65
713.063	44297.86
713.407	44347.58
713.75	44079.56
714.094	44087.92
714.438	43896.97
714.782	43890.87
715.125	43629.86
715.469	43758.44
715.812	43614.94
716.156	43433.48
716.499	43503.53
716.843	43267.83
717.186	43063.09
717.53	43295.63
717.873	43301.05
718.216	43123.2
718.559	43016.99
718.902	42661.29
719.246	42764.12
719.589	42636.89
719.932	42546.27
720.275	42582.65
720.617	42537.68
720.96	42536.1
721.303	42485.93
721.646	42444.8
721.989	42083.91
722.331	42266.73
722.674	42335.43
723.016	42160.06
723.359	42093.62
723.701	42118.48
724.044	41847.98
724.386	41623.81
724.729	41884.82
725.071	41697.03
725.413	41654.77
725.755	41629.23
726.097	41414.77
726.439	41207.32
726.782	41265.62
727.124	41472.85
727.465	41107.44
727.807	41127.77
728.149	41064.95
728.491	40891.4
728.833	41011.85
729.175	40871.51
729.516	40814.11
729.858	40817.05
730.199	40899.31
730.541	40821.34
730.882	40585.64
731.224	40633.1
731.565	40566.43
731.906	40552.42
732.248	40505.64
732.589	40294.58
732.93	40219.78
733.271	40202.15
733.612	40194.47
733.953	40290.51
734.294	40032.66
734.635	40008.26
734.976	40027.92
735.317	39953.34
735.658	39808.04
735.999	39764.87
736.339	39633.12
736.68	39823.18
737.021	39559.68
737.361	39515.84
737.702	39669.73
738.042	39566.91
738.383	39426.35
738.723	39537.99
739.063	39240.59
739.404	39386.8
739.744	39181.39
740.084	39046.02
740.424	39114.04
740.764	38985.46
741.104	39134.15
741.444	38889.64
741.784	38711.34
742.124	38837.89
742.464	38769.64
742.804	38792.02
743.143	38554.51
743.483	38618.69
743.823	38364.46
744.162	38337.34
744.502	38391.35
744.841	38121.75
745.181	38370.33
745.52	38065.93
745.86	38315.42
746.199	38089.21
746.538	38042.43
746.877	38121.75
747.216	37920.4
747.556	37823.45
747.895	37739.84
748.234	37672.95
748.573	37508.66
748.911	37515.67
749.25	37534.2
749.589	37302.34
749.928	37374.65
750.267	37417.14
750.605	37292.62
750.944	37153.42
751.283	36987.09
751.621	37110.25
751.96	36985.74
752.298	36914.33
752.636	36866.87
752.975	36669.36
753.313	36502.36
