Data from White_paper_FLMS001491_012.txt Node
Date: Tue Feb 07 10:34:43 GMT 2017
User: dcchb
Spectrometer: FLMS00149
Trigger mode: 0
Integration Time (sec): 2.000000E-2
Scans to average: 10
Electric dark correction enabled: true
Nonlinearity correction enabled: false
Boxcar width: 0
XAxis mode: Wavelengths
Number of Pixels in Spectrum: 2048
>>>>>Begin Spectral Data<<<<<
341.393	4.28
341.776	4.28
342.16	4.28
342.543	-50.41
342.927	-64.19
343.31	-68.71
343.693	-67.58
344.077	-71.65
344.46	-56.51
344.843	-44.53
345.226	-57.19
345.61	-20.58
345.993	-19.22
346.376	-14.48
346.759	5.64
347.142	31.4
347.525	49.7
347.908	56.03
348.291	82.92
348.674	76.14
349.057	118.63
349.44	145.07
349.823	137.16
350.206	175.8
350.588	234.33
350.971	228.23
351.354	246.99
351.737	256.93
352.119	276.59
352.502	297.15
352.884	315.01
353.267	304.16
353.65	318.62
354.032	338.73
354.414	351.16
354.797	328.34
355.179	351.62
355.562	344.84
355.944	360.65
356.326	368.11
356.709	380.99
357.091	357.72
357.473	368.56
357.855	370.37
358.238	363.82
358.62	370.37
359.002	372.63
359.384	380.31
359.766	361.78
360.148	368.34
360.53	376.47
360.912	366.08
361.294	376.25
361.676	325.85
362.057	368.56
362.439	359.52
362.821	357.04
363.203	347.77
363.584	375.8
363.966	357.94
364.348	371.28
364.729	355.46
365.111	355.23
365.493	360.43
365.874	359.3
366.256	347.77
366.637	348.23
367.019	365.63
367.4	362.91
367.781	357.26
368.163	371.95
368.544	374.44
368.925	377.15
369.306	367.21
369.688	363.14
370.069	362.01
370.45	364.5
370.831	362.46
371.212	367.89
371.593	347.1
371.974	357.49
372.355	362.01
372.736	365.63
373.117	364.27
373.498	352.52
373.879	363.37
374.26	364.95
374.641	371.28
375.021	389.58
375.402	368.79
375.783	359.52
376.163	404.04
376.544	380.09
376.925	400.2
377.305	395.91
377.686	378.06
378.066	383.25
378.447	381.67
378.827	365.63
379.208	410.6
379.588	412.63
379.968	398.85
380.349	417.15
380.729	393.65
381.109	406.75
381.489	390.03
381.87	398.62
382.25	426.64
382.63	416.92
383.01	413.31
383.39	426.19
383.77	426.42
384.15	429.81
384.53	437.04
384.91	433.42
385.29	433.42
385.67	443.36
386.049	436.36
386.429	454.44
386.809	447.21
387.189	465.28
387.568	456.7
387.948	464.38
388.328	461.67
388.707	473.87
389.087	465.06
389.466	474.32
389.846	480.43
390.225	490.82
390.605	498.05
390.984	493.31
391.363	492.85
391.743	532.4
392.122	523.81
392.501	507.32
392.881	515.23
393.26	521.78
393.639	535.11
394.018	514.77
394.397	548.45
394.776	533.08
395.155	557.49
395.534	545.51
395.913	547.32
396.292	561.78
396.671	565.85
397.05	562.68
397.429	577.82
397.808	544.6
398.186	595.9
398.565	590.7
398.944	594.09
399.323	600.42
399.701	599.97
400.08	612.85
400.458	608.11
400.837	634.55
401.215	644.04
401.594	651.04
401.972	662.34
402.351	643.13
402.729	691.04
403.107	670.93
403.486	697.59
403.864	708.44
404.242	737.82
404.62	732.4
404.999	732.17
405.377	765.16
405.755	754.54
406.133	773.3
406.511	784.82
406.889	800.19
407.267	829.57
407.645	842.9
408.023	867.99
408.401	907.31
408.779	919.28
409.156	943.92
409.534	945.5
409.912	967.64
410.29	1009.45
410.667	1026.85
411.045	1045.16
411.422	1078.38
411.8	1108.88
412.178	1101.2
412.555	1158.37
412.933	1186.4
413.31	1224.13
413.687	1236.79
414.065	1253.29
414.442	1267.75
414.819	1319.95
415.197	1308.43
415.574	1384.58
415.951	1391.81
416.328	1415.54
416.705	1476.56
417.082	1478.37
417.46	1491.02
417.837	1548.65
418.214	1571.92
418.591	1590.9
418.967	1617.12
419.344	1631.36
419.721	1681.52
420.098	1716.32
420.475	1739.15
420.852	1748.19
421.228	1775.53
421.605	1788.87
421.982	1804.91
422.358	1851.69
422.735	1864.57
423.111	1888.75
423.488	1957.9
423.864	1923.78
424.241	2004.45
424.617	1974.62
424.994	2026.37
425.37	2029.09
425.746	2080.84
426.123	2108.63
426.499	2141.4
426.875	2145.47
427.251	2218.91
427.627	2223.43
428.003	2246.93
428.379	2322.41
428.756	2314.28
429.132	2324.67
429.507	2450.54
429.883	2448.28
430.259	2484.21
430.635	2495.51
431.011	2526.25
431.387	2598.11
431.763	2652.12
432.138	2680.14
432.514	2722.17
432.89	2724.43
433.265	2787.71
433.641	2835.84
434.016	2868.16
434.392	2934.6
434.767	2966.46
435.143	2898.44
435.518	3029.51
435.894	3035.61
436.269	3104.76
436.644	3154.71
437.02	3178.66
437.395	3206.68
437.77	3253.46
438.145	3286.45
438.52	3305.21
438.895	3348.37
439.271	3404.42
439.646	3412.78
440.021	3441.93
440.395	3508.37
440.77	3438.77
441.145	3515.83
441.52	3573.23
441.895	3545.43
442.27	3613.45
442.645	3582.26
443.019	3613.9
443.394	3665.43
443.769	3715.59
444.143	3708.36
444.518	3758.31
444.892	3762.6
445.267	3788.59
445.641	3826.55
446.016	3865.42
446.39	3837.85
446.764	3881.01
447.139	3847.57
447.513	3938.41
447.887	3983.61
448.262	3941.58
448.636	3970.95
449.01	4067
449.384	4092.31
449.758	4129.82
450.132	4180.21
450.506	4174.79
450.88	4186.99
451.254	4206.65
451.628	4285.97
452.002	4348.8
452.376	4380.89
452.75	4418.63
453.123	4400.32
453.497	4463.82
453.871	4492.98
454.244	4624.27
454.618	4604.61
454.992	4698.85
455.365	4749.47
455.739	4793.31
456.112	4847.77
456.486	4867.65
456.859	4923.7
457.232	5037.82
457.606	4995.79
457.979	5065.84
458.352	5187.87
458.725	5260.64
459.099	5321.2
459.472	5425.61
459.845	5432.61
460.218	5541.54
460.591	5482.1
460.964	5581.99
461.337	5656.33
461.71	5784.01
462.083	5914.63
462.456	5857.23
462.829	5918.25
463.201	5984.69
463.574	6027.85
463.947	6146.94
464.32	6236.43
464.692	6305.58
465.065	6380.16
465.438	6470.55
465.81	6553.71
466.183	6640.94
466.555	6826.02
466.928	6800.71
467.3	6784.44
467.672	6927.71
468.045	7082.96
468.417	7098.33
468.789	7174.03
469.161	7289.06
469.534	7458.32
469.906	7604.31
470.278	7642.27
470.65	7666.9
471.022	7924.3
471.394	7977.63
471.766	8039.77
472.138	8160.22
472.51	8327.45
472.882	8423.04
473.253	8552.53
473.625	8696.71
473.997	8866.19
474.369	8888.34
474.74	9005.62
475.112	9210.37
475.484	9398.38
475.855	9489.91
476.227	9594.08
476.598	9791.59
476.97	9907.07
477.341	10143.45
477.713	10311.81
478.084	10279.94
478.455	10580.27
478.827	10702.3
479.198	10989.08
479.569	11041.5
479.94	11271.55
480.311	11451.44
480.682	11686.01
481.053	11980.24
481.424	12039.9
481.795	12197.63
482.166	12420.22
482.537	12513.1
482.908	12888.46
483.279	12901.57
483.65	13218.85
484.021	13424.94
484.391	13582.91
484.762	13650.25
485.133	13767.31
485.503	14028.77
485.874	14313.28
486.244	14424.92
486.615	14647.96
486.985	14835.3
487.356	15131.34
487.726	15264.44
488.097	15512.57
488.467	15636.18
488.837	15928.15
489.207	16085.44
489.578	16302.83
489.948	16485.43
490.318	16710.73
490.688	16737.62
491.058	17005.41
491.428	17242.02
491.798	17371.51
492.168	17657.37
492.538	17729.92
492.908	18039.51
493.278	18207.19
493.648	18260.07
494.017	18411.71
494.387	18548.65
494.757	18829.77
495.126	19098.24
495.496	19009.66
495.866	19259.14
496.235	19367.39
496.605	19542.52
496.974	19630.88
497.344	19904.32
497.713	20018.89
498.082	20095.28
498.452	20326.01
498.821	20446
499.19	20540.69
499.559	20726.9
499.928	20838.08
500.298	20936.16
500.667	21074.46
501.036	21073.78
501.405	21422.47
501.774	21309.26
502.143	21626.76
502.512	21611.85
502.88	21884.83
503.249	21952.4
503.618	22080.76
503.987	22119.18
504.356	22388.32
504.724	22452.73
505.093	22597.58
505.462	22685.04
505.83	22951.7
506.199	23097.46
506.567	23355.76
506.936	23321.86
507.304	23668.29
507.672	23687.95
508.041	23788.06
508.409	23967.72
508.777	24160.71
509.145	24193.93
509.514	24294.49
509.882	24586.23
510.25	24585.33
510.618	24740.58
510.986	24819.45
511.354	25043.62
511.722	25398.87
512.09	25525.42
512.458	25501.91
512.826	25786.43
513.193	25894.67
513.561	25934.45
513.929	26255.11
514.297	26438.61
514.664	26615.78
515.032	26659.62
515.4	26941.2
515.767	26982.78
516.135	27199.5
516.502	27050.8
516.869	27596.55
517.237	27588.41
517.604	27543.67
517.972	27920.38
518.339	28186.82
518.706	28213.48
519.073	28331.44
519.44	28539.35
519.808	28904.31
520.175	28940.24
520.542	29100.69
520.909	29410.51
521.276	29518.76
521.643	29583.84
522.009	29935.47
522.376	30084.84
522.743	30175.24
523.11	30578.16
523.477	30845.28
523.843	30962.34
524.21	31301.08
524.577	31502.66
524.943	31679.15
525.31	31887.28
525.676	32087.5
526.043	32203.66
526.409	32562.29
526.776	32691.1
527.142	32799.8
527.508	33059.46
527.874	33356.62
528.241	33397.98
528.607	33581.48
528.973	33971.97
529.339	33879.32
529.705	34172.19
530.071	34444.05
530.437	34577.83
530.803	34797.94
531.169	34965.85
531.535	35065.5
531.901	35148.67
532.267	35324.48
532.632	35573.51
532.998	35666.84
533.364	35938.02
533.73	36007.17
534.095	36259.6
534.461	36265.47
534.826	36487.39
535.192	36768.74
535.557	36954.04
535.923	37000.37
536.288	37014.83
536.653	37351.32
537.019	37238.55
537.384	37527.59
537.749	37724.64
538.114	37585.66
538.479	37640.8
538.845	38005.99
539.21	38015.94
539.575	38310.84
539.94	38301.35
540.305	38551.97
540.67	38539.09
541.034	38730.94
541.399	38735.46
541.764	39045.51
542.129	39262.46
542.494	39281.44
542.858	39500.19
543.223	39614.09
543.587	39825.61
543.952	39847.98
544.316	39857.69
544.681	39927.52
545.045	40270.57
545.41	40325.93
545.774	40494.29
546.138	40492.48
546.503	40567.73
546.867	40668.52
547.231	41072.35
547.595	41126.81
547.959	41277.32
548.324	41283.42
548.688	41346.7
549.052	41427.82
549.416	41704.2
549.779	41681.38
550.143	41830.3
550.507	42199.1
550.871	42317.07
551.235	42258.31
551.599	42608.13
551.962	42645.87
552.326	42733.78
552.689	42955.47
553.053	42818.3
553.417	43071.4
553.78	43479.97
554.143	43329.92
554.507	43464.15
554.87	43680.87
555.234	44157.47
555.597	43709.57
555.96	43972.61
556.323	44247.41
556.686	44400.85
557.05	44585.93
557.413	44774.85
557.776	44803.1
558.139	45011.01
558.502	45051.91
558.865	45220.27
559.228	45399.47
559.59	45673.36
559.953	45611.22
560.316	46110.41
560.679	46027.02
561.041	46318.54
561.404	46320.58
561.767	46590.17
562.129	46656.84
562.492	47071.29
562.854	46992.42
563.217	47082.59
563.579	47217.73
563.941	47448.46
564.304	47625.85
564.666	47880.99
565.028	47824.27
565.39	48134.31
565.753	48210.7
566.115	48395.78
566.477	48557.35
566.839	48627.86
567.201	48872.15
567.563	48986.72
567.925	49193.72
568.287	49208.64
568.648	49358.01
569.01	49528.18
569.372	49712.13
569.734	49582.86
570.095	49919.35
570.457	50014.49
570.819	50122.96
571.18	50149.18
571.542	50418.55
571.903	50399.11
572.265	50642.72
572.626	50715.71
572.987	50703.96
573.349	50840.23
573.71	51088.59
574.071	51130.62
574.432	51256.94
574.794	51529.48
575.155	51355.92
575.516	51480.21
575.877	51601.34
576.238	51657.16
576.599	51669.36
576.96	51837.27
577.32	51900.54
577.681	51935.12
578.042	52126.75
578.403	52157.26
578.763	52100.31
579.124	52251.95
579.485	52292.85
579.845	52392.28
580.206	52422.11
580.566	52361.77
580.927	52483.35
581.287	52631.82
581.648	52544.14
582.008	52759.28
582.368	52648.55
582.728	52680.86
583.089	52641.99
583.449	52693.74
583.809	52791.82
584.169	52924.47
584.529	52814.64
584.889	53066.61
585.249	52833.17
585.609	52835.21
585.969	52999.04
586.329	52893.51
586.688	53012.6
587.048	53046.27
587.408	53059.83
587.768	53062.55
588.127	53073.17
588.487	53101.19
588.846	53223.67
589.206	52986.16
589.565	53033.39
589.925	53198.81
590.284	53070.23
590.643	53146.84
591.003	53277.46
591.362	53359.49
591.721	53229.55
592.08	53329.21
592.44	53373.27
592.799	53314.29
593.158	53273.16
593.517	53361.07
593.876	53444.68
594.235	53411.24
594.593	53422.99
594.952	53470.44
595.311	53382.99
595.67	53516.54
596.029	53511.12
596.387	53692.81
596.746	53679.7
597.104	53565.36
597.463	53607.16
597.822	53639.25
598.18	53597.67
598.538	53654.62
598.897	53806.48
599.255	53584.11
599.613	53953.37
599.972	53817.55
600.33	53783.66
600.688	53814.84
601.046	53903.65
601.404	54052.8
601.762	53911.11
602.12	54128.05
602.478	54162.18
602.836	54106.59
603.194	53912.01
603.552	53997.66
603.91	53905.46
604.268	54145.68
604.625	54028.4
604.983	54160.82
605.341	54033.14
605.698	54211.22
606.056	54246.92
606.413	54091.22
606.771	54228.16
607.128	54380.48
607.485	54211.44
607.843	54274.94
608.2	54439.46
608.557	54373.92
608.914	54346.81
609.272	54552.9
609.629	54587.48
609.986	54669.51
610.343	54488.04
610.7	54751.31
611.057	54572.56
611.414	54615.95
611.771	54696.85
612.127	54751.99
612.484	54732.56
612.841	54860.01
613.198	54773.23
613.554	54686.68
613.911	54893.23
614.267	54790.64
614.624	54868.83
614.98	54874.25
615.337	54994.7
615.693	54949.73
616.05	54871.09
616.406	55046.45
616.762	54867.7
617.118	54963.06
617.475	54953.8
617.831	55089.16
618.187	55108.37
618.543	55082.15
618.899	55239.44
619.255	55241.02
619.611	55188.82
619.967	55257.29
620.323	55270.85
620.678	55165.54
621.034	55208.93
621.39	55216.84
621.746	55112.89
622.101	55390.85
622.457	55183.17
622.812	55270.85
623.168	55289.15
623.523	55335.03
623.879	55367.57
624.234	55187.01
624.589	55391.75
624.945	55356.95
625.3	55348.14
625.655	55338.64
626.01	55365.54
626.365	55341.81
626.72	55304.07
627.075	55256.16
627.43	55339.1
627.785	55243.05
628.14	55359.89
628.495	55335.71
628.85	55287.57
629.205	55225.43
629.559	55399.43
629.914	55323.05
630.269	55264.75
630.623	55254.35
630.978	55208.93
631.332	55373.45
631.687	55408.25
632.041	55178.65
632.396	55259.32
632.75	55162.6
633.104	55224.52
633.459	55130.51
633.813	55064.75
634.167	55073.79
634.521	55120.57
634.875	55163.28
635.229	55104.53
635.583	54995.6
635.937	54996.73
636.291	54998.99
636.645	55048.71
636.999	54959.67
637.352	54985.66
637.706	54910.86
638.06	55058.43
638.413	54878.99
638.767	54839.9
639.121	54926.68
639.474	54777.53
639.828	54875.38
640.181	54877.86
640.534	54802.39
640.888	54800.58
641.241	54645.33
641.594	54750.41
641.947	54837.19
642.301	54640.81
642.654	54792.22
643.007	54710.86
643.36	54704.31
643.713	54671.77
644.066	54770.3
644.419	54552.9
644.771	54377.77
645.124	54103.65
645.477	54024.33
645.83	53990.2
646.182	53836.31
646.535	53710.66
646.888	53809.87
647.24	53634.51
647.593	53794.96
647.945	53725.58
648.298	53662.76
648.65	53628.63
649.002	53531.91
649.355	53690.33
649.707	53654.62
650.059	53701.62
650.411	54116.3
650.763	54118.11
651.115	54490.53
651.467	54199.92
651.819	54400.14
652.171	54154.04
652.523	54167.38
652.875	54229.52
653.227	54129.41
653.578	54286.69
653.93	54203.08
654.282	54136.42
654.633	54004.89
654.985	54120.37
655.337	54132.57
655.688	54120.37
656.039	54204.44
656.391	53995.4
656.742	53916.99
657.094	53984.56
657.445	54064.78
657.796	54014.16
658.147	53984.78
658.498	53965.8
658.849	54020.03
659.2	53886.48
659.551	53824.56
659.902	54005.57
660.253	53990.43
660.604	54011.45
660.955	53907.49
661.306	53922.18
661.656	53846.48
662.007	53933.26
662.358	53817.55
662.708	53858.91
663.059	53852.36
663.409	53581.18
663.76	53940.26
664.11	53810.32
664.461	53800.61
664.811	53823.43
665.161	53762.41
665.511	53685.81
665.862	53729.42
666.212	53822.75
666.562	53837.67
666.912	53692.81
667.262	53588.86
667.612	53661.4
667.962	53656.88
668.312	53562.19
668.662	53729.19
669.011	53700.27
669.361	53586.37
669.711	53567.39
670.06	53535.53
670.41	53478.13
670.76	53422.31
671.109	53572.36
671.459	53472.48
671.808	53328.75
672.157	53543.21
672.507	53207.85
672.856	53314.74
673.205	53224.8
673.554	53372.59
673.904	53192.94
674.253	53438.58
674.602	53332.37
674.951	52842.21
675.3	52665.72
675.649	53152.26
675.998	53073.39
676.346	53165.59
676.695	53171.92
677.044	52915.43
677.393	53098.25
677.741	53048.31
678.09	52962.44
678.438	52811.7
678.787	52910.91
679.135	52930.35
679.484	52653.52
679.832	52685.38
680.181	52597.7
680.529	52690.13
680.877	52587.76
681.225	52623.46
681.573	52671.82
681.922	52452.84
682.27	52388.66
682.618	52511.6
682.966	52376.46
683.314	52344.15
683.661	52379.85
684.009	52068.22
684.357	52047.2
684.705	51921.11
685.053	52007.66
685.4	51931.5
685.748	51814.67
686.095	51810.15
686.443	51645.18
686.79	51654.22
687.138	51599.08
687.485	51519.99
687.832	51478.86
688.18	51477.05
688.527	51296.72
688.874	51292.65
689.221	51170.39
689.568	51122.48
689.915	50969.27
690.262	50936.73
690.609	50851.08
690.956	50784.41
691.303	50685.43
691.65	50621.93
691.997	50503.97
692.344	50337.19
692.69	50304.65
693.037	50333.58
693.383	50006.58
693.73	50115.73
694.077	49892.23
694.423	49981.95
694.769	49788.51
695.116	49662.86
695.462	49683.65
695.808	49510.55
696.155	49559.81
696.501	49271.91
696.847	49221.97
697.193	48976.55
697.539	49162.31
697.885	48784.69
698.231	48784.92
698.577	48835.31
698.923	48628.76
699.269	48539.73
699.614	48312.61
699.96	48278.72
700.306	48366.62
700.651	48086.86
700.997	47939.74
701.342	47848.22
701.688	47886.86
702.033	47774.32
702.379	47652.97
702.724	47635.12
703.069	47673.31
703.415	47125.53
703.76	47295.92
704.105	47235.35
704.45	47146.09
704.795	46922.37
705.14	46837.4
705.485	46663.84
705.83	46632.88
706.175	46811.64
706.52	46593.56
706.865	46457.75
707.209	46379.56
707.554	46157.19
707.899	46186.34
708.243	46139.56
708.588	46079.23
708.932	45886.24
709.277	45799.23
709.621	45775.05
709.966	45547.71
710.31	45550.43
710.654	45289.87
710.998	45382.3
711.342	45347.27
711.687	45175.75
712.031	45004.68
712.375	45007.84
712.719	44958.13
713.063	44936.66
713.407	45147.95
713.75	44758.13
714.094	44803.55
714.438	44535.99
714.782	44629.32
715.125	44244.47
715.469	44335.77
715.812	44272.27
716.156	44017.59
716.499	44070.24
716.843	44171.93
717.186	43877.7
717.53	43992.95
717.873	44042.44
718.216	43802.45
718.559	43765.16
718.902	43306.19
719.246	43481.55
719.589	43374.89
719.932	43292.41
720.275	43262.35
720.617	43191.84
720.96	43093.09
721.303	42977.16
721.646	43131.28
721.989	42824.17
722.331	43028.46
722.674	43034.33
723.016	42814.68
723.359	42674.57
723.701	42890.61
724.044	42447.91
724.386	42335.6
724.729	42591.63
725.071	42400.68
725.413	42350.28
725.755	42279.78
726.097	42276.39
726.439	42017.86
726.782	41938.32
727.124	42162.72
727.465	42070.52
727.807	41848.83
728.149	41732.67
728.491	41753.01
728.833	41730.87
729.175	41635.95
729.516	41646.8
729.858	41529.52
730.199	41486.13
730.541	41351.21
730.882	41436.64
731.224	41453.36
731.565	41250.65
731.906	41307.37
732.248	41297.21
732.589	41053.14
732.93	40944.67
733.271	40956.65
733.612	41072.35
733.953	41082.52
734.294	40838.46
734.635	40751.68
734.976	40819.48
735.317	40640.27
735.658	40576.32
735.999	40461.07
736.339	40359.6
736.68	40567.96
737.021	40349.21
737.361	40282.54
737.702	40402.77
738.042	40355.53
738.383	40144.24
738.723	40212.49
739.063	39988.76
739.404	40096.56
739.744	40077.35
740.084	39805.04
740.424	39938.14
740.764	39769.56
741.104	39850.46
741.444	39673.52
741.784	39647.53
742.124	39618.61
742.464	39774.76
742.804	39460.87
743.143	39438.5
743.483	39566.4
743.823	39196.7
744.162	39279.18
744.502	39375.9
744.841	39103.82
745.181	39243.93
745.52	39064.27
745.86	39155.11
746.199	39145.62
746.538	38932.97
746.877	39152.63
747.216	38861.79
747.556	38736.82
747.895	38721
748.234	38702.25
748.573	38572.3
748.911	38548.35
749.25	38535.92
749.589	38360.56
749.928	38441.91
750.267	38464.51
750.605	38368.02
750.944	38172.09
751.283	38102.71
751.621	38062.49
751.96	38027.23
752.298	37894.36
