Data from white_poster_card_FLMS001491_00032.txt Node
Date: Wed Feb 08 11:51:25 GMT 2017
User: dcchb
Spectrometer: FLMS00149
Trigger mode: 0
Integration Time (sec): 2.000000E-2
Scans to average: 10
Electric dark correction enabled: true
Nonlinearity correction enabled: false
Boxcar width: 0
XAxis mode: Wavelengths
Number of Pixels in Spectrum: 2048
>>>>>Begin Spectral Data<<<<<
341.393	-15.75
341.776	-15.75
342.16	-15.75
342.543	-54.62
342.927	-72.7
343.31	-83.32
343.693	-74.28
344.077	-59.59
344.46	-46.71
344.843	-37.44
345.226	-41.51
345.61	-35.86
345.993	-27.05
346.376	-13.94
346.759	2.56
347.142	13.18
347.525	59.28
347.908	43.91
348.291	96.34
348.674	90.01
349.057	114.42
349.44	117.36
349.823	132.95
350.206	179.95
350.588	201.87
350.971	206.39
351.354	227.41
351.737	249.78
352.119	249.56
352.502	256.56
352.884	279.61
353.267	258.14
353.65	309.44
354.032	302.66
354.414	308.99
354.797	322.1
355.179	348.76
355.562	308.99
355.944	337.46
356.326	340.4
356.709	343.34
357.091	328.88
357.473	350.57
357.855	330.46
358.238	337.46
358.62	344.69
359.002	349.21
359.384	360.74
359.766	338.37
360.148	325.71
360.53	355.77
360.912	347.18
361.294	335.66
361.676	341.08
362.057	351.47
362.439	344.69
362.821	339.95
363.203	359.61
363.584	313.96
363.966	329.78
364.348	327.52
364.729	337.69
365.111	331.59
365.493	368.2
365.874	332.72
366.256	323.68
366.637	316.22
367.019	325.26
367.4	328.65
367.781	331.36
368.163	287.29
368.544	323.9
368.925	320.29
369.306	335.43
369.688	291.36
370.069	321.87
370.45	322.32
370.831	327.07
371.212	309.67
371.593	301.31
371.974	308.99
372.355	325.94
372.736	315.32
373.117	351.25
373.498	353.73
373.879	308.54
374.26	320.29
374.641	334.07
375.021	347.41
375.402	314.64
375.783	352.38
376.163	357.12
376.544	340.17
376.925	334.98
377.305	348.08
377.686	338.14
378.066	370.91
378.447	345.82
378.827	307.63
379.208	329.33
379.588	355.99
379.968	320.06
380.349	336.11
380.729	361.42
381.109	365.94
381.489	333.17
381.87	323.23
382.25	349.67
382.63	340.85
383.01	336.33
383.39	355.54
383.77	359.38
384.15	334.07
384.53	367.52
384.91	367.07
385.29	366.61
385.67	361.87
386.049	386.05
386.429	358.93
386.809	407.97
387.189	360.74
387.568	379.95
387.948	375.65
388.328	369.78
388.707	404.35
389.087	395.77
389.466	392.83
389.846	380.17
390.225	393.73
390.605	377.69
390.984	387.18
391.363	400.74
391.743	382.21
392.122	394.41
392.501	393.51
392.881	402.32
393.26	395.77
393.639	413.39
394.018	430.34
394.397	404.35
394.776	402.55
395.155	411.59
395.534	404.35
395.913	420.85
396.292	420.85
396.671	422.88
397.05	404.35
397.429	425.37
397.808	428.76
398.186	425.37
398.565	432.15
398.944	438.03
399.323	443.45
399.701	433.51
400.08	424.24
400.458	449.1
400.837	483.45
401.215	463.79
401.594	441.87
401.972	475.76
402.351	456.78
402.729	464.47
403.107	472.15
403.486	488.19
403.864	463.56
404.242	500.4
404.62	475.99
404.999	483.45
405.377	502.2
405.755	478.93
406.133	520.06
406.511	508.53
406.889	521.41
407.267	489.1
407.645	508.76
408.023	545.82
408.401	542.88
408.779	540.62
409.156	565.93
409.534	578.59
409.912	571.58
410.29	592.82
410.667	594.86
411.045	596.44
411.422	605.93
411.8	647.74
412.178	645.25
412.555	674.4
412.933	668.75
413.31	685.02
413.687	699.04
414.065	696.1
414.442	724.35
414.819	732.03
415.197	722.09
415.574	766.15
415.951	780.62
416.328	781.74
416.705	798.92
417.082	799.15
417.46	801.41
417.837	831.91
418.214	838.01
418.591	875.08
418.967	863.55
419.344	901.97
419.721	903.32
420.098	912.36
420.475	926.83
420.852	933.83
421.228	943.77
421.605	963.44
421.982	980.84
422.358	969.54
422.735	1012.7
423.111	995.98
423.488	1022.87
423.864	1090.66
424.241	1042.76
424.617	1095.41
424.994	1085.24
425.37	1118.91
425.746	1093.83
426.123	1112.13
426.499	1146.03
426.875	1168.63
427.251	1198.91
427.627	1175.63
428.003	1204.56
428.379	1224.22
428.756	1255.86
429.132	1268.29
429.507	1283.65
429.883	1338.11
430.259	1306.93
430.635	1308.74
431.011	1372.01
431.387	1385.34
431.763	1396.87
432.138	1402.97
432.514	1419.24
432.89	1445
433.265	1466.47
433.641	1507.83
434.016	1498.79
434.392	1522.29
434.767	1562.29
435.143	1557.09
435.518	1588.5
435.894	1600.48
436.269	1609.52
436.644	1665.34
437.02	1658.33
437.395	1694.72
437.77	1693.13
438.145	1706.92
438.52	1733.81
438.895	1736.97
439.271	1734.94
439.646	1801.15
440.021	1803.64
440.395	1808.38
440.77	1822.62
441.145	1820.14
441.52	1845.9
441.895	1833.47
442.27	1880.02
442.645	1869.4
443.019	1902.39
443.394	1894.48
443.769	1929.06
444.143	1914.6
444.518	1945.1
444.892	1970.87
445.267	1976.74
445.641	1993.24
446.016	2007.7
446.39	2046.57
446.764	1990.98
447.139	2061.71
447.513	2043.63
447.887	2056.29
448.262	2049.28
448.636	2065.1
449.01	2087.7
449.384	2128.83
449.758	2144.87
450.132	2165.21
450.506	2155.95
450.88	2209.5
451.254	2186.68
451.628	2193.69
452.002	2266
452.376	2278.2
452.75	2261.03
453.123	2287.92
453.497	2322.27
453.871	2344.87
454.244	2371.99
454.618	2400.01
454.992	2437.29
455.365	2465.54
455.739	2497.18
456.112	2528.37
456.486	2574.01
456.859	2546.44
457.232	2602.49
457.606	2596.39
457.979	2639.55
458.352	2699.66
458.725	2682.26
459.099	2729.72
459.472	2785.53
459.845	2770.62
460.218	2802.03
460.591	2860.56
460.964	2845.42
461.337	2932.42
461.71	2996.15
462.083	2974
462.456	3000.44
462.829	3022.59
463.201	3086.09
463.574	3113.89
463.947	3131.06
464.32	3202.25
464.692	3209.25
465.065	3221
465.438	3274.33
465.81	3341.9
466.183	3376.93
466.555	3430.26
466.928	3431.17
467.3	3439.08
467.672	3478.62
468.045	3602.69
468.417	3573.54
468.789	3630.03
469.161	3691.72
469.534	3731.95
469.906	3809.01
470.278	3801.55
470.65	3844.49
471.022	3910.93
471.394	4031.38
471.766	4065.27
472.138	4077.03
472.51	4146.18
472.882	4238.38
473.253	4244.25
473.625	4297.36
473.997	4402.67
474.369	4450.35
474.74	4477.92
475.112	4536
475.484	4619.61
475.855	4683.11
476.227	4735.77
476.598	4840.17
476.97	4897.34
477.341	5029.77
477.713	5055.76
478.084	5123.78
478.455	5252.59
478.827	5301.4
479.198	5366.26
479.569	5429.98
479.94	5616.19
480.311	5620.71
480.682	5710.88
481.053	5856.41
481.424	5957.2
481.795	6019.35
482.166	6120.59
482.537	6184.54
482.908	6357.87
483.279	6398.32
483.65	6498.88
484.021	6580.91
484.391	6749.05
484.762	6768.93
485.133	6826.33
485.503	6896.16
485.874	7001.24
486.244	7125.08
486.615	7256.6
486.985	7295.25
487.356	7432.19
487.726	7509.48
488.097	7721.9
488.467	7742.47
488.837	7849.36
489.207	7943.36
489.578	8110.14
489.948	8139.52
490.318	8283.24
490.688	8273.07
491.058	8462.45
491.428	8544.48
491.798	8664.25
492.168	8781.76
492.538	8805.49
492.908	8910.12
493.278	9030.57
493.648	9075.09
494.017	9213.61
494.387	9236.21
494.757	9419.48
495.126	9501.74
495.496	9443.44
495.866	9614.28
496.235	9683.66
496.605	9789.19
496.974	9842.75
497.344	9975.63
497.713	10056.76
498.082	10087.26
498.452	10228.73
498.821	10278.67
499.19	10313.02
499.559	10316.86
499.928	10497.87
500.298	10416.97
500.667	10607.25
501.036	10683.41
501.405	10810.18
501.774	10840.46
502.143	10938.99
502.512	10950.97
502.88	11060.34
503.249	11018.99
503.618	11193.45
503.987	11244.75
504.356	11307.8
504.724	11396.61
505.093	11425.31
505.462	11538.98
505.83	11526.32
506.199	11676.83
506.567	11854.9
506.936	11849.93
507.304	11985.29
507.672	12002.69
508.041	12132.86
508.409	12239.07
508.777	12247.88
509.145	12406.52
509.514	12400.42
509.882	12449.69
510.25	12610.36
510.618	12654.2
510.986	12675.9
511.354	12808.55
511.722	12975.1
512.09	13115.88
512.458	13115.43
512.826	13166.73
513.193	13318.14
513.561	13319.49
513.929	13434.07
514.297	13612.82
514.664	13749.54
515.032	13745.02
515.4	13909.76
515.767	13924.45
516.135	14059.14
516.502	14012.36
516.869	14288.51
517.237	14329.64
517.604	14281.5
517.972	14477.88
518.339	14690.08
518.706	14659.12
519.073	14713.81
519.44	14781.15
519.808	15045.78
520.175	15003.97
520.542	15254.58
520.909	15241.03
521.276	15402.15
521.643	15538.19
522.009	15718.98
522.376	15731.41
522.743	15922.82
523.11	16009.82
523.477	16231.73
523.843	16213.66
524.21	16473.08
524.577	16455.46
524.943	16664.04
525.31	16682.57
525.676	16979.96
526.043	16955.33
526.409	17129.11
526.776	17268.32
527.142	17331.82
527.508	17469.44
527.874	17618.59
528.241	17748.98
528.607	17772.26
528.973	18008.86
529.339	18077.56
529.705	18184.45
530.071	18268.52
530.437	18405.91
530.803	18557.55
531.169	18666.25
531.535	18706.25
531.901	18742.63
532.267	18881.16
532.632	18970.19
532.998	19072.11
533.364	19231.66
533.73	19223.97
534.095	19477.07
534.461	19542.83
534.826	19598.88
535.192	19664.86
535.557	19849.27
535.923	19777.4
536.288	19837.52
536.653	20009.26
537.019	20012.65
537.384	20106.89
537.749	20249.26
538.114	20229.6
538.479	20341.68
538.845	20486.31
539.21	20450.38
539.575	20433.43
539.94	20609.7
540.305	20794.1
540.67	20771.73
541.034	20701.22
541.399	20894.89
541.764	20969.01
542.129	21115.67
542.494	21210.81
542.858	21277.7
543.223	21315.22
543.587	21431.15
543.952	21426.63
544.316	21461.88
544.681	21587.53
545.045	21618.94
545.41	21685.15
545.774	21778.26
546.138	21895.31
546.503	21999.04
546.867	22036.1
547.231	22156.32
547.595	22171.47
547.959	22293.95
548.324	22331.23
548.688	22396.77
549.052	22438.8
549.416	22404.68
549.779	22570.78
550.143	22608.52
550.507	22860.26
550.871	22843.99
551.235	22869.53
551.599	23076.07
551.962	23108.62
552.326	23166.92
552.689	23450.98
553.053	23203.08
553.417	23325.78
553.78	23703.18
554.143	23621.14
554.507	23744.08
554.87	23746.34
555.234	23990.4
555.597	23933
555.96	24115.59
556.323	24197.63
556.686	24242.15
557.05	24433.78
557.413	24427
557.776	24520.33
558.139	24718.06
558.502	24852.98
558.865	24869.02
559.228	25040.32
559.59	25100.43
559.953	25043.93
560.316	25494.32
560.679	25439.4
561.041	25679.62
561.404	25715.55
561.767	25908.32
562.129	25825.61
562.492	26181.98
562.854	26093.4
563.217	26117.12
563.579	26125.26
563.941	26387.85
564.304	26467.17
564.666	26694.74
565.028	26808.63
565.39	26830.55
565.753	27065.12
566.115	27125.01
566.477	27117.1
566.839	27275.74
567.201	27517.77
567.563	27476.86
567.925	27691.32
568.287	27690.64
568.648	27727.03
569.01	27945.1
569.372	28059.9
569.734	28088.37
570.095	28338.99
570.457	28424.86
570.819	28439.55
571.18	28472.32
571.542	28562.94
571.903	28621.69
572.265	28732.87
572.626	28771.52
572.987	28968.57
573.349	29027.33
573.71	29105.75
574.071	29175.57
574.432	29373.08
574.794	29416.92
575.155	29290.83
575.516	29419.64
575.877	29512.06
576.238	29664.83
576.599	29663.47
576.96	29842.45
577.32	29712.06
577.681	30009.68
578.042	30053.52
578.403	30044.03
578.763	30031.6
579.124	30044.7
579.485	30248.77
579.845	30192.5
580.206	30194.08
580.566	30274.08
580.927	30293.51
581.287	30378.03
581.648	30290.8
582.008	30328.09
582.368	30390.91
582.728	30349.1
583.089	30440.17
583.449	30430.68
583.809	30574.18
584.169	30580.96
584.529	30394.3
584.889	30721.75
585.249	30588.64
585.609	30333.51
585.969	30598.81
586.329	30517.69
586.688	30614.41
587.048	30617.57
587.408	30555.88
587.768	30648.08
588.127	30500.96
588.487	30457.35
588.846	30590.9
589.206	30446.5
589.565	30676.55
589.925	30641.07
590.284	30609.89
590.643	30710.45
591.003	30797.23
591.362	30820.28
591.721	30735.76
592.08	30718.36
592.44	30895.08
592.799	30751.8
593.158	30761.97
593.517	30840.39
593.876	30780.5
594.235	30766.95
594.593	30834.51
594.952	30954.74
595.311	30778.02
595.67	30782.99
596.029	31073.38
596.387	31170.1
596.746	31203.32
597.104	31028.41
597.463	30883.1
597.822	31139.36
598.18	31036.54
598.538	30989.76
598.897	31144.11
599.255	30862.08
599.613	31282.19
599.972	31013.04
600.33	31248.06
600.688	31126.48
601.046	31209.19
601.404	31403.76
601.762	31227.72
602.12	31338.23
602.478	31532.57
602.836	31366.03
603.194	31229.53
603.552	31494.16
603.91	31222.3
604.268	31535.96
604.625	31311.56
604.983	31551.78
605.341	31388.4
605.698	31603.76
606.056	31605.79
606.413	31656.87
606.771	31641.27
607.128	31694.83
607.485	31601.27
607.843	31607.6
608.2	31831.78
608.557	31823.87
608.914	31650.99
609.272	31881.72
609.629	31912.68
609.986	32079.23
610.343	31759.01
610.7	32032.9
611.057	32058.44
611.414	32062.28
611.771	32114.71
612.127	32179.34
612.484	32163.07
612.841	32092.11
613.198	32162.39
613.554	32181.82
613.911	32414.59
614.267	32386.34
614.624	32267.02
614.98	32307.24
615.337	32489.84
615.693	32423.62
616.05	32399.44
616.406	32633.34
616.762	32362.84
617.118	32468.82
617.475	32480.12
617.831	32646.44
618.187	32618.87
618.543	32615.03
618.899	32780.45
619.255	32723.5
619.611	32696.84
619.967	32862.03
620.323	32945.87
620.678	32701.36
621.034	32627.46
621.39	32664.97
621.746	32790.17
622.101	33003.04
622.457	32742.26
622.812	32766.21
623.168	32929.15
623.523	32801.47
623.879	32948.58
624.234	32690.74
624.589	32832.2
624.945	32786.1
625.3	32911.97
625.655	32937.51
626.01	32994.23
626.365	32947
626.72	32854.35
627.075	32727.35
627.43	32774.58
627.785	32643.73
628.14	32802.15
628.495	32769.6
628.85	32721.7
629.205	32579.55
629.559	32738.64
629.914	32646.67
630.269	32561.25
630.623	32567.12
630.978	32407.81
631.332	32749.72
631.687	32650.06
632.041	32487.35
632.396	32554.47
632.75	32511.76
633.104	32512.21
633.459	32374.59
633.813	32425.43
634.167	32326.9
634.521	32196.06
634.875	32394.7
635.229	32352.21
635.583	32103.41
635.937	32119
636.291	32123.75
636.645	32231.54
636.999	31949.06
637.352	32224.76
637.706	31738.22
638.06	31936.41
638.413	31917.42
638.767	31882.62
639.121	31880.14
639.474	31632.69
639.828	31731.44
640.181	31710.65
640.534	31694.38
640.888	31685.34
641.241	31437.66
641.594	31378.45
641.947	31548.85
642.301	31489.19
642.654	31373.48
643.007	31423.65
643.36	31446.25
643.713	31205.35
644.066	31418.91
644.419	31176.65
644.771	30963.1
645.124	30674.97
645.477	30705.7
645.83	30480.4
646.182	30299.61
646.535	30200.41
646.888	30306.62
647.24	30096.68
647.593	30379.38
647.945	30262.55
648.298	30042.22
648.65	29915.89
649.002	29965.16
649.355	30071.37
649.707	29938.94
650.059	30139.17
650.411	30473.62
650.763	30476.33
651.115	30753.39
651.467	30607.85
651.819	30565.59
652.171	30395.66
652.523	30449.67
652.875	30477.69
653.227	30425.26
653.578	30598.81
653.93	30399.27
654.282	30268.43
654.633	30284.02
654.985	30195.66
655.337	30233.17
655.688	30331.48
656.039	30299.39
656.391	30040.41
656.742	30223.68
657.094	30185.94
657.445	30187.07
657.796	30030.69
658.147	30161.31
658.498	30082.67
658.849	30115.66
659.2	30010.35
659.551	29832.05
659.902	30128.09
660.253	29983.24
660.604	29961.77
660.955	29722.68
661.306	29876.57
661.656	29944.14
662.007	29857.59
662.358	29842.45
662.708	29817.59
663.059	29769.91
663.409	29618.95
663.76	29875.9
664.11	29820.3
664.461	29722.23
664.811	29838.61
665.161	29738.05
665.511	29637.03
665.862	29713.64
666.212	29708.89
666.562	29680.42
666.912	29680.87
667.262	29677.93
667.612	29569.01
667.962	29760.87
668.312	29524.94
668.662	29645.62
669.011	29706.63
669.361	29586.41
669.711	29577.15
670.06	29572.17
670.41	29355
670.76	29404.27
671.109	29469.13
671.459	29405.63
671.808	29466.87
672.157	29357.94
672.507	29221.9
672.856	29223.93
673.205	29239.08
673.554	29385.51
673.904	29231.39
674.253	29238.4
674.602	29217.38
674.951	28821.91
675.3	28642.48
675.649	29133.54
675.998	29184.39
676.346	29087.22
676.695	29221.68
677.044	28881.35
677.393	29032.08
677.741	29188.91
678.09	29045.86
678.438	28885.19
678.787	28963.15
679.135	28904.85
679.484	28697.17
679.832	28905.3
680.181	28736.49
680.529	28707.56
680.877	28705.98
681.225	28697.4
681.573	28805.19
681.922	28705.3
682.27	28416.72
682.618	28476.84
682.966	28384.41
683.314	28392.54
683.661	28416.27
684.009	28282.94
684.357	28079.56
684.705	28182.38
685.053	28184.87
685.4	28087.02
685.748	27981.03
686.095	27928.15
686.443	27964.99
686.79	27901.94
687.138	27947.58
687.485	27915.49
687.832	27693.81
688.18	27750.98
688.527	27657.42
688.874	27589.4
689.221	27349.63
689.568	27453.81
689.915	27382.18
690.262	27410.88
690.609	27319.35
690.956	27114.39
691.303	26949.19
691.65	27002.75
691.997	26943.54
692.344	26850.89
692.69	26852.47
693.037	26898.8
693.383	26581.52
693.73	26715.07
694.077	26566.38
694.423	26587.17
694.769	26565.93
695.116	26367.29
695.462	26369.55
695.808	26299.72
696.155	26283.45
696.501	26063.34
696.847	26167.74
697.193	25920.74
697.539	25915.32
697.885	25823.57
698.231	25687.98
698.577	25693.41
698.923	25668.1
699.269	25529.34
699.614	25409.8
699.96	25412.74
700.306	25390.59
700.651	25306.75
700.997	25314.89
701.342	25155.79
701.688	25130.26
702.033	25120.77
702.379	24971.84
702.724	24984.72
703.069	25008.68
703.415	24696.6
703.76	24767.78
704.105	24805.29
704.45	24628.35
704.795	24406.66
705.14	24442.82
705.485	24477.62
705.83	24322.82
706.175	24445.76
706.52	24259.55
706.865	24105.88
707.209	24170.73
707.554	24036.27
707.899	24049.83
708.243	23907.92
708.588	23895.04
708.932	23719.22
709.277	23773
709.621	23733.68
709.966	23462.28
710.31	23570.3
710.654	23447.36
710.998	23468.15
711.342	23487.59
711.687	23415.73
712.031	23305.9
712.375	23146.35
712.719	23178.9
713.063	23201.27
713.407	23310.64
713.75	23031.78
714.094	23085.11
714.438	23027.04
714.782	22921.5
715.125	22874.27
715.469	22946.13
715.812	22868.17
716.156	22606.48
716.499	22735.29
716.843	22836.08
717.186	22650.1
717.53	22627.72
717.873	22624.56
718.216	22577.56
718.559	22498.24
718.902	22361.29
719.246	22400.61
719.589	22375.3
719.932	22191.8
720.275	22121.75
720.617	22124.69
720.96	21983.67
721.303	22070.9
721.646	22077
721.989	21858.93
722.331	22034.07
722.674	21750.01
723.016	21945.93
723.359	21913.39
723.701	21933.96
724.044	21683.57
724.386	21564.48
724.729	21723.79
725.071	21646.73
725.413	21677.47
725.755	21670.46
726.097	21519.96
726.439	21496
726.782	21550.69
727.124	21564.93
727.465	21404.93
727.807	21350.24
728.149	21351.37
728.491	21270.92
728.833	21340.07
729.175	21227.08
729.516	21276.57
729.858	21170.59
730.199	21113.19
730.541	20942.8
730.882	21051.04
731.224	21113.41
731.565	20861.44
731.906	20956.13
732.248	20948.45
732.589	20780.54
732.93	20738.73
733.271	20751.84
733.612	20763.82
733.953	20709.13
734.294	20766.76
734.635	20616.93
734.976	20649.02
735.317	20553.65
735.658	20547.78
735.999	20496.25
736.339	20447.44
736.68	20573.31
737.021	20613.31
737.361	20354.11
737.702	20436.37
738.042	20296.03
738.383	20248.13
738.723	20307.33
739.063	20343.72
739.404	20358.18
739.744	20190.05
740.084	20104.63
740.424	20196.83
740.764	20165.19
741.104	20247
741.444	20032.09
741.784	20069.83
742.124	19998.41
742.464	19950.96
742.804	19892.88
743.143	19821.24
743.483	19779.21
743.823	19783.28
744.162	19749.61
744.502	19804.97
744.841	19744.18
745.181	19757.52
745.52	19588.03
745.86	19721.59
746.199	19721.13
746.538	19690.85
746.877	19626.67
747.216	19690.85
747.556	19608.37
747.895	19522.5
748.234	19431.2
748.573	19459.22
748.911	19384.42
749.25	19355.72
749.589	19278.89
749.928	19233.92
750.267	19381.26
750.605	19198.89
750.944	19169.06
751.283	19036.86
751.621	19085.22
751.96	18951.66
752.298	18934.26
752.636	18938.78
752.975	18846.81
753.313	18778.56
753.651	18889.97
753.989	18759.8
754.327	18632.12
