Data from White_reflection_standard_FLMS001491_026.txt Node
Date: Tue Feb 07 10:32:00 GMT 2017
User: dcchb
Spectrometer: FLMS00149
Trigger mode: 0
Integration Time (sec): 2.000000E-2
Scans to average: 10
Electric dark correction enabled: true
Nonlinearity correction enabled: false
Boxcar width: 0
XAxis mode: Wavelengths
Number of Pixels in Spectrum: 2048
>>>>>Begin Spectral Data<<<<<
341.393	-3.63
341.776	-3.63
342.16	-3.63
342.543	-61.03
342.927	-66
343.31	-63.74
343.693	-68.03
344.077	-52.89
344.46	-65.32
344.843	-51.31
345.226	-42.95
345.61	-41.59
345.993	-16.96
346.376	-4.99
346.759	13.32
347.142	31.4
347.525	30.95
347.908	77.27
348.291	67.1
348.674	88.12
349.057	99.64
349.44	114.11
349.823	138.51
350.206	178.51
350.588	249.92
350.971	250.37
351.354	260.54
351.737	283.59
352.119	289.47
352.502	304.61
352.884	308.9
353.267	321.79
353.65	359.3
354.032	318.85
354.414	352.07
354.797	353.42
355.179	374.44
355.562	368.79
355.944	400.65
356.326	387.55
356.709	385.96
357.091	385.74
357.473	389.81
357.855	393.2
358.238	400.2
358.62	386.64
359.002	383.48
359.384	413.76
359.766	399.3
360.148	408.34
360.53	401.11
360.912	393.87
361.294	400.43
361.676	406.53
362.057	416.25
362.439	425.29
362.821	418.05
363.203	411.27
363.584	422.57
363.966	417.15
364.348	399.3
364.729	407.66
365.111	407.66
365.493	390.03
365.874	424.38
366.256	405.85
366.637	417.15
367.019	421.22
367.4	421.44
367.781	406.3
368.163	427.09
368.544	415.79
368.925	418.05
369.306	437.04
369.688	437.26
370.069	422.12
370.45	432.29
370.831	432.06
371.212	453.53
371.593	430.26
371.974	469.58
372.355	462.8
372.736	436.36
373.117	452.86
373.498	438.84
373.879	453.99
374.26	450.14
374.641	449.24
375.021	426.19
375.402	460.09
375.783	494.21
376.163	502.57
376.544	498.5
376.925	501.44
377.305	475.91
377.686	491.27
378.066	511.84
378.447	490.82
378.827	518.16
379.208	511.84
379.588	511.38
379.968	532.18
380.349	508.9
380.729	512.29
381.109	539.41
381.489	558.62
381.87	552.74
382.25	558.16
382.63	560.88
383.01	568.56
383.39	562.46
383.77	560.88
384.15	547.09
384.53	590.25
384.91	607.43
385.29	594.77
385.67	599.74
386.049	602
386.429	600.65
386.809	619.63
387.189	641.1
387.568	619.63
387.948	648.33
388.328	648.56
388.707	651.04
389.087	661.21
389.466	672.51
389.846	691.49
390.225	684.94
390.605	679.06
390.984	719.51
391.363	696.01
391.743	728.78
392.122	724.94
392.501	728.33
392.881	756.8
393.26	765.16
393.639	754.99
394.018	754.77
394.397	787.76
394.776	775.11
395.155	767.88
395.534	785.73
395.913	802.22
396.292	792.06
396.671	830.02
397.05	838.16
397.429	854.88
397.808	830.25
398.186	859.85
398.565	840.42
398.944	887.87
399.323	850.58
399.701	920.87
400.08	889
400.458	929.68
400.837	915.44
401.215	925.16
401.594	918.38
401.972	932.84
402.351	948.89
402.729	953.18
403.107	962.45
403.486	991.6
403.864	985.5
404.242	1006.51
404.62	1010.81
404.999	992.5
405.377	1049.22
405.755	1047.64
406.133	1074.99
406.511	1093.29
406.889	1096.45
407.267	1092.61
407.645	1130.58
408.023	1130.8
408.401	1158.15
408.779	1162.44
409.156	1195.89
409.534	1168.77
409.912	1214.42
410.29	1251.7
410.667	1244.92
411.045	1286.73
411.422	1277.47
411.8	1279.27
412.178	1312.27
412.555	1342.55
412.933	1355.66
413.31	1356.56
413.687	1388.2
414.065	1410.34
414.442	1423
414.819	1445.15
415.197	1447.18
415.574	1495.09
415.951	1485.37
416.328	1516.78
416.705	1511.81
417.082	1522.43
417.46	1571.47
417.837	1587.06
418.214	1609.89
418.591	1626.84
418.967	1623.67
419.344	1627.51
419.721	1645.59
420.098	1667.29
420.475	1677.46
420.852	1698.47
421.228	1745.93
421.605	1751.35
421.982	1763.56
422.358	1791.58
422.735	1809.66
423.111	1820.05
423.488	1844.68
423.864	1841.07
424.241	1887.39
424.617	1920.84
424.994	1920.84
425.37	1911.35
425.746	1947.51
426.123	1954.96
426.499	2001.97
426.875	2058.46
427.251	2057.33
427.627	2112.47
428.003	2117.67
428.379	2162.41
428.756	2157.9
429.132	2204.22
429.507	2267.04
429.883	2295.29
430.259	2288.74
430.635	2329.87
431.011	2328.96
431.387	2382.75
431.763	2429.98
432.138	2443.09
432.514	2500.71
432.89	2505.91
433.265	2566.02
433.641	2580.71
434.016	2599.24
434.392	2663.64
434.767	2702.97
435.143	2731.89
435.518	2768.05
435.894	2769.4
436.269	2850.98
436.644	2867.03
437.02	2878.33
437.395	2935.73
437.77	2955.61
438.145	2988.38
438.52	3007.36
438.895	3068.38
439.271	3093.01
439.646	3127.59
440.021	3144.08
440.395	3180.69
440.77	3171.43
441.145	3236.51
441.52	3236.06
441.895	3274.93
442.27	3269.28
442.645	3318.32
443.019	3399.9
443.394	3352.89
443.769	3408.26
444.143	3371.65
444.518	3460.91
444.892	3492.78
445.267	3497.3
445.641	3519.67
446.016	3537.07
446.39	3544.53
446.764	3615.94
447.139	3600.57
447.513	3657.52
447.887	3721.47
448.262	3716.72
448.636	3755.82
449.01	3763.95
449.384	3816.16
449.758	3842.82
450.132	3870.17
450.506	3910.17
450.88	3969.15
451.254	3961.24
451.628	4011.18
452.002	4054.57
452.376	4081.91
452.75	4122.36
453.123	4168.46
453.497	4244.85
453.871	4278.29
454.244	4383.6
454.618	4413.2
454.992	4471.73
455.365	4470.15
455.739	4583.82
456.112	4654.1
456.486	4638.51
456.859	4697.49
457.232	4813.42
457.606	4816.58
457.979	4894.55
458.352	5024.03
458.725	5027.2
459.099	5055.45
459.472	5149.45
459.845	5264.71
460.218	5258.15
460.591	5308.32
460.964	5313.29
461.337	5501.76
461.71	5524.13
462.083	5664.92
462.456	5644.58
462.829	5727.97
463.201	5770.23
463.574	5815.65
463.947	5930.45
464.32	6052.93
464.692	6100.39
465.065	6115.31
465.438	6246.83
465.81	6323.89
466.183	6366.37
466.555	6473.49
466.928	6565.24
467.3	6548.97
467.672	6675.29
468.045	6862.86
468.417	6894.49
468.789	6916.19
469.161	7115.5
469.534	7165.9
469.906	7275.05
470.278	7394.14
470.65	7507.13
471.022	7567.7
471.394	7787.35
471.766	7803.85
472.138	7933.34
472.51	8124.29
472.882	8211.3
473.253	8274.12
473.625	8420.1
473.997	8602.47
474.369	8708.23
474.74	8766.08
475.112	8902.8
475.484	9109.35
475.855	9316.13
476.227	9332.4
476.598	9625.72
476.97	9687.41
477.341	9967.63
477.713	10162.66
478.084	10098.7
478.455	10402.2
478.827	10467.96
479.198	10838.8
479.569	10810.1
479.94	11135.29
480.311	11210.09
480.682	11496.41
481.053	11776.63
481.424	11989.73
481.795	12110.18
482.166	12210.06
482.537	12481.69
482.908	12638.98
483.279	12778.63
483.65	13011.4
484.021	13237.6
484.391	13460.65
484.762	13523.47
485.133	13721.88
485.503	13874.65
485.874	14213.4
486.244	14372.49
486.615	14624.46
486.985	14814.29
487.356	15092.7
487.726	15165.01
488.097	15504.89
488.467	15557.32
488.837	15896.74
489.207	16083.63
489.578	16370.18
489.948	16465.99
490.318	16733.56
490.688	16683.16
491.058	17041.8
491.428	17218.06
491.798	17445.85
492.168	17746.19
492.538	17776.24
492.908	18063.24
493.278	18339.62
493.648	18376.9
494.017	18593.62
494.387	18821.41
494.757	18958.13
495.126	19209.65
495.496	19251.23
495.866	19383.88
496.235	19599.02
496.605	19748.17
496.974	19904.55
497.344	19992.45
497.713	20203.52
498.082	20273.58
498.452	20633.57
498.821	20690.74
499.19	20751.08
499.559	21017.74
499.928	21125.98
500.298	21251.18
500.667	21455.69
501.036	21485.97
501.405	21818.17
501.774	21786.98
502.143	22015.9
502.512	22001.67
502.88	22308.55
503.249	22351.04
503.618	22509.68
503.987	22739.27
504.356	22779.73
504.724	22980.85
505.093	23084.12
505.462	23310.79
505.83	23417.9
506.199	23667.39
506.567	23943.54
506.936	23902.18
507.304	24226.02
507.672	24273.25
508.041	24407.48
508.409	24652.67
508.777	24827.81
509.145	24929.73
509.514	25015.6
509.882	25357.51
510.25	25341.01
510.618	25559.09
510.986	25725.41
511.354	25959.3
511.722	26224.83
512.09	26398.84
512.458	26380.54
512.826	26607.42
513.193	26851.71
513.561	26928.09
513.929	27193.85
514.297	27500.96
514.664	27699.6
515.032	27833.6
515.4	27913.38
515.767	28074.5
516.135	28306.13
516.502	28135.29
516.869	28782.51
517.237	28884.88
517.604	28870.19
517.972	29179.78
518.339	29441.92
518.706	29492.77
519.073	29620.45
519.44	29809.82
519.808	30284.84
520.175	30161.9
520.542	30641.89
520.909	30886.18
521.276	30887.31
521.643	31311.03
522.009	31627.4
522.376	31664.01
522.743	31876.21
523.11	32149.42
523.477	32542.63
523.843	32749.18
524.21	33110.3
524.577	33292.67
524.943	33512.1
525.31	33678.42
525.676	33903.73
526.043	34115.25
526.409	34341
526.776	34798.39
527.142	34746.64
527.508	35016.92
527.874	35383.24
528.241	35425.5
528.607	35571.93
528.973	36019.6
529.339	36146.38
529.705	36452.59
530.071	36638.57
530.437	36712.01
530.803	36993.59
531.169	37274.03
531.535	37247.37
531.901	37574.82
532.267	37552.44
532.632	37951.76
532.998	38070.4
533.364	38269.26
533.73	38323.05
534.095	38607.11
534.461	38685.97
534.826	38902.69
535.192	38983.37
535.557	39347.43
535.923	39375.67
536.288	39596.23
536.653	39776.57
537.019	39572.73
537.384	40019.27
537.749	40207.52
538.114	40204.35
538.479	40301.53
538.845	40444.12
539.21	40538.58
539.575	40734.51
539.94	40924.56
540.305	41046.59
540.67	41107.38
541.034	41374.94
541.399	41504.43
541.764	41594.15
542.129	41720.24
542.494	41835.27
542.858	42050.63
543.223	42084.08
543.587	42283.85
543.952	42421.7
544.316	42468.93
544.681	42527
545.045	42724.74
545.41	42929.03
545.774	43047.67
546.138	43175.12
546.503	43292.63
546.867	43378.51
547.231	43668.22
547.595	43828.44
547.959	43847.87
548.324	43935.55
548.688	44053.97
549.052	44247.18
549.416	44373.96
549.779	44448.08
550.143	44519.95
550.507	44871.12
550.871	44968.75
551.235	45020.72
551.599	45281.28
551.962	45378.68
552.326	45454.84
552.689	45835.62
553.053	45636.53
553.417	45764.66
553.78	46198.55
554.143	46133.24
554.507	46294.14
554.87	46551.53
555.234	46861.13
555.597	46695.48
555.96	46951.75
556.323	47198.97
556.686	47208.69
557.05	47462.47
557.413	47567.1
557.776	47656.13
558.139	47852.06
558.502	48029.91
558.865	48088.66
559.228	48471.48
559.59	48492.5
559.953	48646.39
560.316	49039.83
560.679	49061.97
561.041	49325.92
561.404	49320.5
561.767	49619.92
562.129	49551.23
562.492	49909.86
562.854	49905.57
563.217	50055.84
563.579	50155.05
563.941	50429.17
564.304	50454.48
564.666	50699.44
565.028	50799.1
565.39	50935.82
565.753	51162.48
566.115	51259.2
566.477	51373.1
566.839	51482.93
567.201	51705.52
567.563	51768.79
567.925	51969.24
568.287	51957.72
568.648	52134.21
569.01	52218.95
569.372	52423.92
569.734	52318.84
570.095	52622.11
570.457	52665.27
570.819	52751.59
571.18	52832.27
571.542	52948.88
571.903	52917.24
572.265	53127.18
572.626	53200.17
572.987	53244.46
573.349	53491.91
573.71	53571.23
574.071	53592.25
574.432	53690.55
574.794	53886.93
575.155	53819.36
575.516	53750.66
575.877	53933.03
576.238	53999.47
576.599	54100.94
576.96	54149.75
577.32	54147.94
577.681	54181.84
578.042	54328.95
578.403	54271.1
578.763	54357.2
579.124	54427.48
579.485	54546.12
579.845	54636.52
580.206	54518.1
580.566	54545.9
580.927	54632.22
581.287	54740.69
581.648	54535.95
582.008	54752.22
582.368	54709.28
582.728	54679.45
583.089	54699.34
583.449	54668.38
583.809	54720.81
584.169	54853.91
584.529	54733.91
584.889	54998.09
585.249	54714.71
585.609	54683.75
585.969	54841.26
586.329	54753.12
586.688	54836.51
587.048	54719
587.408	54827.24
587.768	54875.38
588.127	54742.73
588.487	54731.43
588.846	54859.33
589.206	54773.01
589.565	54799.9
589.925	54869.28
590.284	54810.52
590.643	54799.22
591.003	54955.38
591.362	54962.83
591.721	54994.47
592.08	54874.02
592.44	55011.87
592.799	55004.87
593.158	54995.6
593.517	54943.63
593.876	54992.89
594.235	54921.93
594.593	55063.4
594.952	55019.78
595.311	54910.63
595.67	55027.24
596.029	55146.33
596.387	55248.7
596.746	55212.32
597.104	55099.55
597.463	55035.15
597.822	55224.3
598.18	55130.74
598.538	55116.5
598.897	55254.8
599.255	54992.89
599.613	55408.7
599.972	55281.24
600.33	55328.47
600.688	55231.08
601.046	55353.11
601.404	55437.62
601.762	55367.34
602.12	55574.12
602.478	55419.55
602.836	55440.56
603.194	55355.82
603.552	55427.23
603.91	55387
604.268	55531.63
604.625	55500.67
604.983	55565.3
605.341	55493.89
605.698	55689.14
606.056	55635.13
606.413	55631.52
606.771	55718.07
607.128	55710.61
607.485	55627.22
607.843	55657.05
608.2	55816.15
608.557	55913.09
608.914	55791.51
609.272	55926.42
609.629	55890.27
609.986	56074.9
610.343	55904.5
610.7	56092.97
611.057	56071.28
611.414	55984.95
611.771	56058.4
612.127	56158.51
612.484	56100.43
612.841	56204.38
613.198	56149.24
613.554	56206.87
613.911	56178.17
614.267	56285.29
614.624	56255.23
614.98	56269.69
615.337	56358.96
615.693	56349.24
616.05	56380.65
616.406	56500.87
616.762	56383.81
617.118	56354.21
617.475	56345.4
617.831	56469.01
618.187	56476.92
618.543	56486.41
618.899	56664.26
619.255	56564.37
619.611	56565.5
619.967	56621.77
620.323	56709.23
620.678	56552.62
621.034	56547.43
621.39	56547.88
621.746	56485.28
622.101	56776.35
622.457	56517.82
622.812	56579.06
623.168	56621.77
623.523	56597.37
623.879	56710.13
624.234	56548.56
624.589	56626.52
624.945	56600.31
625.3	56671.94
625.655	56636.91
626.01	56579.97
626.365	56677.37
626.72	56600.53
627.075	56573.19
627.43	56569.35
627.785	56499.29
628.14	56562.79
628.495	56584.94
628.85	56589.91
629.205	56510.59
629.559	56639.4
629.914	56470.59
630.269	56494.09
630.623	56458.39
630.978	56364.61
631.332	56481.21
631.687	56522.79
632.041	56330.71
632.396	56426.75
632.75	56324.83
633.104	56327.09
633.459	56264.27
633.813	56257.49
634.167	56187.89
634.521	56252.29
634.875	56185.63
635.229	56095.23
635.583	55990.83
635.937	56035.12
636.291	55935.01
636.645	56016.37
636.999	55935.46
637.352	56046.65
637.706	55795.58
638.06	55960.77
638.413	55788.58
638.767	55722.59
639.121	55825.18
639.474	55628.13
639.828	55676.26
640.181	55621.8
640.534	55610.28
640.888	55573.67
641.241	55483.05
641.594	55454.35
641.947	55577.73
642.301	55460.9
642.654	55558.3
643.007	55418.19
643.36	55327.12
643.713	55367.12
644.066	55389.49
644.419	55218.65
644.771	54939.78
645.124	54707.7
645.477	54656.85
645.83	54534.6
646.182	54376.86
646.535	54320.14
646.888	54291.89
647.24	54239.01
647.593	54389.29
647.945	54182.97
648.298	54208.96
648.65	54064.55
649.002	53979.13
649.355	54143.2
649.707	54072.69
650.059	54149.52
650.411	54474.94
650.763	54518.78
651.115	54769.62
651.467	54645.33
651.819	54705.67
652.171	54540.92
652.523	54562.39
652.875	54494.15
653.227	54414.83
653.578	54572.79
653.93	54481.27
654.282	54320.82
654.633	54231.78
654.985	54266.58
655.337	54274.27
655.688	54225.9
656.039	54371.21
656.391	54071.56
656.742	54163.53
657.094	54135.74
657.445	54169.41
657.796	54156.3
658.147	54072.69
658.498	54067.72
658.849	54161.27
659.2	54084.44
659.551	53994.72
659.902	53996.31
660.253	53976.65
660.604	54046.02
660.955	53939.81
661.306	54017.55
661.656	53894.84
662.007	53959.7
662.358	53871.79
662.708	53954.27
663.059	53820.94
663.409	53649.2
663.76	53813.94
664.11	53774.17
664.461	53780.72
664.811	53822.75
665.161	53774.62
665.511	53677.67
665.862	53722.19
666.212	53787.95
666.562	53770.32
666.912	53629.31
667.262	53641.29
667.612	53625.24
667.962	53681.96
668.312	53525.13
668.662	53715.64
669.011	53533.72
669.361	53518.35
669.711	53500.95
670.06	53435.19
670.41	53413.95
670.76	53368.53
671.109	53479.94
671.459	53404.91
671.808	53304.57
672.157	53457.11
672.507	53227.74
672.856	53227.96
673.205	53260.96
673.554	53304.12
673.904	53132.37
674.253	53304.8
674.602	53179.83
674.951	52862.1
675.3	52564.48
675.649	53062.32
675.998	53098.25
676.346	53107.74
676.695	53149.32
677.044	52908.88
677.393	53015.99
677.741	53079.72
678.09	52870.46
678.438	52829.33
678.787	52857.35
679.135	52916.11
679.484	52703.91
679.832	52807.41
680.181	52630.92
680.529	52648.77
680.877	52597.02
681.225	52578.04
681.573	52695.78
681.922	52391.38
682.27	52364.26
682.618	52432.51
682.966	52321.32
683.314	52343.92
683.661	52181.89
684.009	52037.94
684.357	52038.17
684.705	51950.71
685.053	51967.88
685.4	51900.09
685.748	51734.67
686.095	51731.06
686.443	51563.38
686.79	51539.42
687.138	51580.32
687.485	51601.11
687.832	51402.02
688.18	51463.04
688.527	51245.87
688.874	51389.37
689.221	51219.88
689.568	51068.02
689.915	50931.98
690.262	50975.59
690.609	50789.61
690.956	50752.55
691.303	50724.75
691.65	50532.44
691.997	50526.79
692.344	50213.58
692.69	50320.47
693.037	50307.14
693.383	50001.83
693.73	50114.83
694.077	49914.15
694.423	49906.02
694.769	49753.48
695.116	49642.75
695.462	49596.42
695.808	49430.78
696.155	49549.87
696.501	49147.17
696.847	49212.7
697.193	48943.11
697.539	49187.85
697.885	48784.92
698.231	48620.18
698.577	48649.1
698.923	48560.97
699.269	48381.54
699.614	48305.83
699.96	48172.28
700.306	48087.76
700.651	48019.97
700.997	47993.07
701.342	47860.42
701.688	47683.93
702.033	47736.13
702.379	47703.36
702.724	47492.75
703.069	47586.53
703.415	47092.53
703.76	47147.45
704.105	47115.13
704.45	47024.06
704.795	46774.12
705.14	46644.18
705.485	46573
705.83	46475.83
706.175	46526.22
706.52	46280.12
706.865	46249.62
707.209	46121.49
707.554	46017.76
707.899	46049.4
708.243	45888.27
708.588	45706.58
708.932	45482.63
709.277	45533.93
709.621	45488.73
709.966	45239.25
710.31	45399.92
710.654	44911.8
710.998	45052.59
711.342	45016.2
711.687	44906.83
712.031	44676.55
712.375	44552.03
712.719	44740.05
713.063	44503.67
713.407	44725.59
713.75	44387.97
714.094	44275.88
714.438	44182.55
714.782	44265.71
715.125	43970.13
715.469	44190.91
715.812	43849.23
716.156	43625.28
716.499	43671.61
716.843	43596.58
717.186	43343.03
717.53	43610.82
717.873	43592.29
718.216	43367.66
718.559	43153.65
718.902	42976.03
719.246	43116.14
719.589	42917.28
719.932	42833.66
720.275	42671.86
720.617	42674.8
720.96	42575.14
721.303	42710.28
721.646	42712.99
721.989	42343.05
722.331	42553.67
722.674	42400.45
723.016	42328.14
723.359	42232.32
723.701	42180.12
724.044	41923.86
724.386	41838.43
724.729	42119.33
725.071	41809.73
725.413	41837.3
725.755	41846.34
726.097	41445.9
726.439	41483.41
726.782	41485.22
727.124	41523.87
727.465	41319.58
727.807	41320.93
728.149	41171.56
728.491	41141.5
728.833	40963.43
729.175	40947.84
729.516	40723.21
729.858	40708.29
730.199	40853.83
730.541	40758.24
730.882	40680.5
731.224	40759.37
731.565	40500.84
731.906	40427.62
732.248	40504.01
732.589	40399.15
732.93	40224.24
733.271	40162.55
733.612	40269.66
733.953	40246.61
734.294	40011.14
734.635	39929.11
734.976	39905.15
735.317	39843.23
735.658	39719.85
735.999	39687.98
736.339	39480.53
736.68	39647.76
737.021	39600.53
737.361	39301.33
737.702	39602.11
738.042	39399.85
738.383	39223.14
738.723	39296.13
739.063	39107.43
739.404	39304.49
739.744	38986.98
740.084	38965.29
740.424	38903.37
740.764	38930.71
741.104	38968.23
741.444	38810.49
741.784	38671.06
742.124	38768.91
742.464	38557.84
742.804	38467.9
743.143	38418.86
743.483	38344.51
743.823	38191.3
744.162	38208.47
744.502	38307.45
744.841	38134.8
745.181	38172.99
745.52	38021.13
745.86	38094.8
746.199	37885.54
746.538	37879.22
746.877	37976.39
747.216	37810.52
747.556	37590.64
747.895	37691.88
748.234	37441.94
748.573	37496.18
748.911	37501.15
749.25	37475.38
749.589	37256.41
749.928	37223.41
750.267	37320.81
750.605	37124.21
750.944	37052.57
751.283	36837.44
751.621	36907.26
751.96	36808.51
752.298	36628.18
752.636	36765.35
