Data from White_reflection_standard_FLMS001491_058.txt Node
Date: Tue Feb 07 10:32:06 GMT 2017
User: dcchb
Spectrometer: FLMS00149
Trigger mode: 0
Integration Time (sec): 2.000000E-2
Scans to average: 10
Electric dark correction enabled: true
Nonlinearity correction enabled: false
Boxcar width: 0
XAxis mode: Wavelengths
Number of Pixels in Spectrum: 2048
>>>>>Begin Spectral Data<<<<<
341.393	-20.72
341.776	-20.72
342.16	-20.72
342.543	-76.54
342.927	-80.15
343.31	-72.7
343.693	-68.4
344.077	-53.71
344.46	-59.59
344.843	-41.28
345.226	-34.96
345.61	-29.31
345.993	-23.43
346.376	-15.3
346.759	12.05
347.142	33.52
347.525	44.82
347.908	45.27
348.291	71.48
348.674	86.4
349.057	105.15
349.44	109.22
349.823	124.59
350.206	182.66
350.588	236.45
350.971	234.87
351.354	273.28
351.737	280.06
352.119	288.42
352.502	294.07
352.884	305.15
353.267	322.32
353.65	337.01
354.032	327.75
354.414	346.5
354.797	346.95
355.179	354.64
355.562	370.68
355.944	367.07
356.326	382.21
356.709	397.8
357.091	384.24
357.473	391.7
357.855	415.2
358.238	393.96
358.62	401.64
359.002	396.22
359.384	395.54
359.766	396.22
360.148	408.42
360.53	394.86
360.912	414.07
361.294	399.38
361.676	404.13
362.057	416.33
362.439	415.43
362.821	421.08
363.203	401.87
363.584	391.7
363.966	385.82
364.348	385.82
364.729	381.53
365.111	415.43
365.493	416.33
365.874	404.13
366.256	395.77
366.637	420.17
367.019	414.07
367.4	429.44
367.781	400.29
368.163	400.06
368.544	414.97
368.925	404.35
369.306	421.53
369.688	408.2
370.069	417.01
370.45	435.31
370.831	440.51
371.212	430.12
371.593	458.36
371.974	450.91
372.355	426.73
372.736	428.76
373.117	440.96
373.498	450
373.879	454.97
374.26	434.86
374.641	436.44
375.021	437.35
375.402	470.57
375.783	486.16
376.163	520.73
376.544	511.24
376.925	473.73
377.305	458.36
377.686	490.23
378.066	498.14
378.447	489.1
378.827	509.66
379.208	519.15
379.588	509.44
379.968	506.27
380.349	508.53
380.729	534.07
381.109	524.58
381.489	517.57
381.87	535.42
382.25	549.66
382.63	544.92
383.01	539.27
383.39	548.76
383.77	572.71
384.15	547.4
384.53	557.12
384.91	587.17
385.29	599.6
385.67	575.42
386.049	606.38
386.429	596.21
386.809	612.94
387.189	623.33
387.568	624.46
387.948	618.36
388.328	638.92
388.707	653.84
389.087	672.82
389.466	682.31
389.846	650.9
390.225	664.46
390.605	676.89
390.984	666.95
391.363	688.19
391.743	698.36
392.122	720.73
392.501	727.74
392.881	747.4
393.26	765.7
393.639	749.66
394.018	746.04
394.397	786.72
394.776	766.83
395.155	773.84
395.534	807.06
395.913	788.98
396.292	809.99
396.671	804.8
397.05	805.93
397.429	840.05
397.808	848.41
398.186	821.52
398.565	846.38
398.944	864.23
399.323	864.91
399.701	890.22
400.08	883.44
400.458	883.66
400.837	935.41
401.215	900.61
401.594	929.54
401.972	939.03
402.351	956.43
402.729	968.41
403.107	973.15
403.486	971.57
403.864	993.94
404.242	1000.72
404.62	997.56
404.999	1032.36
405.377	1024.45
405.755	1050.21
406.133	1090.44
406.511	1075.07
406.889	1089.76
407.267	1109.19
407.645	1108.29
408.023	1154.39
408.401	1132.92
408.779	1164.56
409.156	1188.29
409.534	1208.63
409.912	1197.1
410.29	1227.16
410.667	1265.35
411.045	1298.57
411.422	1303.77
411.8	1299.25
412.178	1315.97
412.555	1351.45
412.933	1356.65
413.31	1388.06
413.687	1405.46
414.065	1401.39
414.442	1409.53
414.819	1463.53
415.197	1467.38
415.574	1496.3
415.951	1496.75
416.328	1501.05
416.705	1522.52
417.082	1546.47
417.46	1536.75
417.837	1588.05
418.214	1558
418.591	1584.66
418.967	1611.1
419.344	1634.6
419.721	1654.49
420.098	1689.07
420.475	1669.41
420.852	1676.18
421.228	1694.94
421.605	1735.84
421.982	1759.35
422.358	1773.13
422.735	1806.8
423.111	1788.72
423.488	1836.41
423.864	1828.27
424.241	1871.43
424.617	1906.24
424.994	1897.42
425.37	1932.22
425.746	1974.71
426.123	1977.42
426.499	1999.34
426.875	2068.72
427.251	2075.5
427.627	2111.43
428.003	2149.39
428.379	2128.15
428.756	2189.84
429.132	2196.62
429.507	2260.35
429.883	2278.43
430.259	2296.96
430.635	2335.38
431.011	2324.53
431.387	2408.14
431.763	2437.52
432.138	2417.41
432.514	2483.62
432.89	2502.83
433.265	2546.44
433.641	2562.94
434.016	2643.84
434.392	2647.23
434.767	2719.32
435.143	2720.45
435.518	2750.73
435.894	2812.65
436.269	2820.11
436.644	2853.55
437.02	2887.45
437.395	2938.07
437.77	2969.71
438.145	2982.14
438.52	3009.26
438.895	3069.37
439.271	3051.29
439.646	3132.64
440.021	3169.7
440.395	3198.4
440.77	3147.11
441.145	3213.32
441.52	3254
441.895	3296.48
442.27	3311.62
442.645	3315.24
443.019	3370.38
443.394	3397.27
443.769	3445.86
444.143	3422.58
444.518	3454.67
444.892	3462.35
445.267	3490.37
445.641	3543.03
446.016	3578.28
446.39	3559.98
446.764	3611.5
447.139	3611.5
447.513	3665.06
447.887	3673.65
448.262	3684.04
448.636	3703.7
449.01	3765.4
449.384	3782.34
449.758	3830.48
450.132	3886.3
450.506	3922.91
450.88	3929.23
451.254	3942.34
451.628	3981.21
452.002	4028.44
452.376	4090.13
452.75	4157.7
453.123	4178.72
453.497	4234.08
453.871	4267.76
454.244	4340.52
454.618	4378.26
454.992	4486.96
455.365	4453.96
455.739	4543.45
456.112	4596.79
456.486	4621.64
456.859	4723.34
457.232	4788.19
457.606	4811.02
457.979	4853.5
458.352	5041.07
458.725	5039.49
459.099	5072.25
459.472	5149.77
459.845	5228.86
460.218	5322.64
460.591	5317.44
460.964	5317.22
461.337	5435.63
461.71	5560.83
462.083	5640.37
462.456	5646.48
462.829	5701.62
463.201	5824.1
463.574	5823.65
463.947	5923.3
464.32	6005.34
464.692	6146.35
465.065	6165.33
465.438	6230.64
465.81	6341.6
466.183	6361.94
466.555	6537.07
466.928	6526.68
467.3	6563.51
467.672	6691.19
468.045	6887.12
468.417	6855.48
468.789	6919.21
469.161	7020.68
469.534	7162.37
469.906	7311.74
470.278	7465.19
470.65	7442.81
471.022	7559.42
471.394	7758.28
471.766	7908.56
472.138	7962.12
472.51	8111.5
472.882	8198.27
473.253	8339.51
473.625	8464.25
473.997	8679.16
474.369	8694.53
474.74	8799.39
475.112	8948.76
475.484	9150.56
475.855	9232.37
476.227	9342.42
476.598	9594.39
476.97	9632.13
477.341	9935.85
477.713	10006.59
478.084	10131.1
478.455	10422.17
478.827	10480.47
479.198	10789.39
479.569	10804.53
479.94	11117.74
480.311	11316.38
480.682	11481.58
481.053	11776.94
481.424	11888.12
481.795	11977.83
482.166	12243.82
482.537	12362.01
482.908	12681.09
483.279	12818.04
483.65	13034.3
484.021	13304.58
484.391	13416.22
484.762	13539.6
485.133	13652.82
485.503	13867.28
485.874	14350.43
486.244	14270.88
486.615	14675.39
486.985	14764.2
487.356	15062.95
487.726	15172.1
488.097	15577.51
488.467	15601.47
488.837	15971.18
489.207	16063.15
489.578	16322.81
489.948	16426.76
490.318	16771.61
490.688	16727.09
491.058	17026.52
491.428	17257.7
491.798	17434.87
492.168	17766.61
492.538	17873.72
492.908	18037.11
493.278	18235.3
493.648	18328.63
494.017	18672.57
494.387	18790.31
494.757	18993.47
495.126	19179
495.496	19201.15
495.866	19431.42
496.235	19536.51
496.605	19789.15
496.974	19950.28
497.344	20053.55
497.713	20210.61
498.082	20310.5
498.452	20648.34
498.821	20751.84
499.19	20685.18
499.559	20970.14
499.928	21082.91
500.298	21225.95
500.667	21439.51
501.036	21478.6
501.405	21675.43
501.774	21714.08
502.143	21996.33
502.512	22084.46
502.88	22363.32
503.249	22287.17
503.618	22590.21
503.987	22608.74
504.356	22828.4
504.724	22960.37
505.093	23109.52
505.462	23257.31
505.83	23379.57
506.199	23577.76
506.567	23818.65
506.936	23960.34
507.304	24190.17
507.672	24377.73
508.041	24374.34
508.409	24664.96
508.777	24778.85
509.145	25092.52
509.514	24926.19
509.882	25247.54
510.25	25359.63
510.618	25522.56
510.986	25612.28
511.354	26022.66
511.722	26114.19
512.09	26444.57
512.458	26332.26
512.826	26586.94
513.193	26770.89
513.561	26896.54
513.929	27224.44
514.297	27386.47
514.664	27467.37
515.032	27687.93
515.4	28030.07
515.767	28136.28
516.135	28215.37
516.502	28196.17
516.869	28683.38
517.237	28764.96
517.604	28839.54
517.972	29240.43
518.339	29357.49
518.706	29429.58
519.073	29654.88
519.44	29914.31
519.808	30251.03
520.175	30163.57
520.542	30667.29
520.909	30867.51
521.276	30891.91
521.643	31202.64
522.009	31468.85
522.376	31772.79
522.743	31919.68
523.11	32215.95
523.477	32483.74
523.843	32824.52
524.21	33031.97
524.577	33223.38
524.943	33432.19
525.31	33582.46
525.676	33955.11
526.043	34106.07
526.409	34391.03
526.776	34690.46
527.142	34808.19
527.508	35005.25
527.874	35288.86
528.241	35425.81
528.607	35707.15
528.973	36117.54
529.339	36053.59
529.705	36368.61
530.071	36634.36
530.437	36828.03
530.803	37069.15
531.169	37258.75
531.535	37233.44
531.901	37490.61
532.267	37636.37
532.632	37851.05
532.998	37973.54
533.364	38179.86
533.73	38320.42
534.095	38657.59
534.461	38799.05
534.826	39054.41
535.192	38995.88
535.557	39318.81
535.923	39394.74
536.288	39649.88
536.653	39778.01
537.019	39770.1
537.384	39850.32
537.749	40181.39
538.114	40142.07
538.479	40255.96
538.845	40487.59
539.21	40499.57
539.575	40654.37
539.94	40982.27
540.305	41130.97
540.67	41133.23
541.034	41234.47
541.399	41462.71
541.764	41527.79
542.129	41671.52
542.494	41784.73
542.858	41947.44
543.223	42082.81
543.587	42357.37
543.952	42359.63
544.316	42497.03
544.681	42468.56
545.045	42713.75
545.41	42973.63
545.774	43038.26
546.138	43174.98
546.503	43351.93
546.867	43357.8
547.231	43743.55
547.595	43850.9
547.959	43975.19
548.324	43972.25
548.688	43902.42
549.052	44339.24
549.416	44443.65
549.779	44470.77
550.143	44565.68
550.507	44957.31
550.871	44971.32
551.235	45026.23
551.599	45476.84
551.962	45403.62
552.326	45648.81
552.689	45806.78
553.053	45564.3
553.417	45793.44
553.78	46300.1
554.143	46003.15
554.507	46364.95
554.87	46529.92
555.234	46905.5
555.597	46676.36
555.96	46828.67
556.323	47073.64
556.686	47131.49
557.05	47551.59
557.413	47513.4
557.776	47693.05
558.139	48094.63
558.502	48058.24
558.865	48146.83
559.228	48480.15
559.59	48417.55
559.953	48732.57
560.316	49060.7
560.679	48969.63
561.041	49218.44
561.404	49378.21
561.767	49609.39
562.129	49606
562.492	49876.95
562.854	49986.33
563.217	50071.3
563.579	50187.68
563.941	50319.2
564.304	50474.68
564.666	50699.3
565.028	50838.73
565.39	50914.89
565.753	51138.84
566.115	51187.2
566.477	51408.66
566.839	51445.95
567.201	51690.91
567.563	51738.37
567.925	51939.95
568.287	51965.03
568.648	52031.02
569.01	52255.87
569.372	52451.35
569.734	52360.05
570.095	52626.71
570.457	52704.9
570.819	52779.25
571.18	52796.65
571.542	52932.24
571.903	53013.14
572.265	53216.52
572.626	53219.01
572.987	53305.11
573.349	53377.65
573.71	53500.81
574.071	53572
574.432	53701.94
574.794	53847.47
575.155	53726.79
575.516	53718.66
575.877	53888.37
576.238	54016.05
576.599	54070.74
576.96	54104.86
577.32	54098.08
577.681	54291.07
578.042	54202.71
578.403	54300.56
578.763	54308.47
579.124	54362.93
579.485	54431.18
579.845	54559.77
580.206	54504.4
580.566	54505.98
580.927	54602.93
581.287	54659.65
581.648	54603.15
582.008	54761.79
582.368	54712.98
582.728	54714.56
583.089	54755.02
583.449	54686.54
583.809	54745.98
584.169	54819.42
584.529	54730.38
584.889	54874.56
585.249	54714.79
585.609	54649.26
585.969	54874.33
586.329	54741.68
586.688	54806.54
587.048	54802.92
587.408	54788.69
587.768	54780.55
588.127	54752.08
588.487	54817.84
588.846	54927.21
589.206	54760.44
589.565	54776.94
589.925	54865.29
590.284	54864.16
590.643	54862.13
591.003	54910.27
591.362	54983.71
591.721	54896.48
592.08	54861.68
592.44	55025.97
592.799	54985.97
593.158	54911.4
593.517	54971.96
593.876	55025.74
594.235	54994.56
594.593	54964.5
594.952	54997.04
595.311	54979.87
595.67	55040.21
596.029	55130.15
596.387	55201.56
596.746	55238.17
597.104	55027.55
597.463	55101.67
597.822	55242.01
598.18	55092.18
598.538	55141.9
598.897	55214.21
599.255	55023.48
599.613	55421.89
599.972	55223.7
600.33	55310.03
600.688	55214.44
601.046	55322.91
601.404	55439.74
601.762	55417.37
602.12	55487.43
602.478	55507.09
602.836	55475.9
603.194	55347.54
603.552	55432.51
603.91	55328.56
604.268	55465.96
604.625	55413.75
604.983	55569.23
605.341	55507.76
605.698	55608.33
606.056	55609.46
606.413	55617.59
606.771	55695.1
607.128	55692.17
607.485	55634.54
607.843	55617.59
608.2	55743.69
608.557	55894.65
608.914	55779.17
609.272	55985.04
609.629	56011.25
609.986	56038.37
610.343	55896
610.7	56030.91
611.057	56058.03
611.414	56052.38
611.771	56027.98
612.127	56151.81
612.484	56173.28
612.841	56240.63
613.198	56138.03
613.554	56227.97
613.911	56242.21
614.267	56272.94
614.624	56229.55
614.98	56306.39
615.337	56389.77
615.693	56283.11
616.05	56308.65
616.406	56507.29
616.762	56429.1
617.118	56384.58
617.475	56347.06
617.831	56430.9
618.187	56506.16
618.543	56492.82
618.899	56686.72
619.255	56532.82
619.611	56588.19
619.967	56611.24
620.323	56724.68
620.678	56575.98
621.034	56489.21
621.39	56511.13
621.746	56512.26
622.101	56807.39
622.457	56541.63
622.812	56624.12
623.168	56650.56
623.523	56641.07
623.879	56729.43
624.234	56505.7
624.589	56682.42
624.945	56669.32
625.3	56652.37
625.655	56626.38
626.01	56612.82
626.365	56628.41
626.72	56591.58
627.075	56617.79
627.43	56634.97
627.785	56481.75
628.14	56577.79
628.495	56586.61
628.85	56622.31
629.205	56516.78
629.559	56579.37
629.914	56482.65
630.269	56451.24
630.623	56437.23
630.978	56323.56
631.332	56441.52
631.687	56423.45
632.041	56338.7
632.396	56459.38
632.75	56272.49
633.104	56308.42
633.459	56224.13
633.813	56133.28
634.167	56211.93
634.521	56182.1
634.875	56240.4
635.229	56103.68
635.583	55945.72
635.937	55911.59
636.291	55907.75
636.645	55990.01
636.999	55902.33
637.352	55889.22
637.706	55802.45
638.06	55867.08
638.413	55881.31
638.767	55750.92
639.121	55813.52
639.474	55579.85
639.828	55648.55
640.181	55643.13
640.534	55615.78
640.888	55589.12
641.241	55360.65
641.594	55491.94
641.947	55484.94
642.301	55504.15
642.654	55436.81
643.007	55441.55
643.36	55353.64
643.713	55281.55
644.066	55392.74
644.419	55155.23
644.771	55001.34
645.124	54651.74
645.477	54649.03
645.83	54536.04
646.182	54371.3
646.535	54339.43
646.888	54289.04
647.24	54109.83
647.593	54380.79
647.945	54245.88
648.298	54174.24
648.65	54131.3
649.002	54017.63
649.355	54049.72
649.707	53995.71
650.059	54140.79
650.411	54466.89
650.763	54512.54
651.115	54793.66
651.467	54592.31
651.819	54627.79
652.171	54571.74
652.523	54517.96
652.875	54500.56
653.227	54392.31
653.578	54588.69
653.93	54432.31
654.282	54288.36
654.633	54229.83
654.985	54318.42
655.337	54329.26
655.688	54232.09
656.039	54280
656.391	54103.96
656.742	54108.48
657.094	54066.22
657.445	54177.18
657.796	54077.07
658.147	54088.14
658.498	54044.98
658.849	54125.88
659.2	54059.44
659.551	53909.61
659.902	54034.81
660.253	54034.13
660.604	53964.53
660.955	53805.66
661.306	53988.48
661.656	53922.72
662.007	53837.3
662.358	53860.35
662.708	53979.22
663.059	53834.81
663.409	53653.35
663.76	53844.53
664.11	53798.66
664.461	53827.58
664.811	53697.64
665.161	53727.02
665.511	53695.61
665.862	53635.04
666.212	53799.56
666.562	53760.92
666.912	53703.74
667.262	53589.85
667.612	53679.34
667.962	53642.5
668.312	53558.21
668.662	53655.61
669.011	53484.77
669.361	53536.52
669.711	53466.69
670.06	53394.6
670.41	53434.15
670.76	53390.08
671.109	53448.61
671.459	53358.22
671.808	53298.56
672.157	53314.15
672.507	53306.69
672.856	53149.63
673.205	53222.63
673.554	53306.01
673.904	53170.88
674.253	53360.25
674.602	53195.96
674.951	52666.26
675.3	52622.64
675.649	53161.84
675.998	53007.04
676.346	53087.26
676.695	53111.44
677.044	52955.06
677.393	52966.81
677.741	53023.08
678.09	52916.42
678.438	52782.64
678.787	52873.48
679.135	52847.95
679.484	52645.24
679.832	52759.14
680.181	52590.78
680.529	52644.79
680.877	52596.43
681.225	52606.82
681.573	52711.45
681.922	52469.88
682.27	52315.31
682.618	52369.09
682.966	52297.45
683.314	52332.93
683.661	52275.76
684.009	52075.54
684.357	51957.8
684.705	51890.68
685.053	51886.39
685.4	51890.01
685.748	51786.96
686.095	51780.18
686.443	51638.94
686.79	51531.6
687.138	51560.75
687.485	51604.59
687.832	51296.35
688.18	51510.13
688.527	51234.88
688.874	51241.44
689.221	51166.86
689.568	51140.87
689.915	51017.03
690.262	50921.44
690.609	50809.36
690.956	50729.58
691.303	50709.02
691.65	50582.7
691.997	50493.21
692.344	50285.75
692.69	50219.54
693.037	50315.13
693.383	49988.13
693.73	50050.73
694.077	49908.14
694.423	49851.87
694.769	49731.42
695.116	49605.09
695.462	49563.74
695.808	49422.5
696.155	49473.12
696.501	49250.53
696.847	49268.15
697.193	48871.1
697.539	49011.44
697.885	48803.76
698.231	48688.73
698.577	48766.25
698.923	48602.18
699.269	48452.81
699.614	48276.32
699.96	48097.11
700.306	48265.24
700.651	48005.14
700.997	47868.42
701.342	47896.44
701.688	47849.43
702.033	47712.49
702.379	47607.63
702.724	47483.79
703.069	47574.64
703.415	47038.61
703.76	47071.83
704.105	47152.28
704.45	47004.26
704.795	46693.98
705.14	46543.93
705.485	46639.97
705.83	46503.48
706.175	46490.83
706.52	46456.25
706.865	46317.04
707.209	46234.34
707.554	45941.24
707.899	46030.05
708.243	45780.11
708.588	45882.71
708.932	45486.78
709.277	45614.92
709.621	45515.26
709.966	45194.36
710.31	45282.95
710.654	44882.05
710.998	45146
711.342	45059
711.687	45007.47
712.031	44605.9
712.375	44590.54
712.719	44579.24
713.063	44551.67
713.407	44620.59
713.75	44380.15
714.094	44321.84
714.438	44139.7
714.782	44188.06
715.125	44017.22
715.469	44103.77
715.812	43780.16
716.156	43572.03
716.499	43661.3
716.843	43846.83
717.186	43509.89
717.53	43519.83
717.873	43540.39
718.216	43260.85
718.559	43264.02
718.902	42947.87
719.246	43016.11
719.589	42914.2
719.932	42813.18
720.275	42783.35
720.617	42704.94
720.96	42692.51
721.303	42702.9
721.646	42595.79
721.989	42202.8
722.331	42438.73
722.674	42238.51
723.016	42400.54
723.359	42275.8
723.701	42156.7
724.044	41837.61
724.386	41854.11
724.729	41923.71
725.071	41966.42
725.413	41782.47
725.755	41664.51
726.097	41651.86
726.439	41335.03
726.782	41330.74
727.124	41627.45
727.465	41346.33
727.807	41231.98
728.149	41136.16
728.491	41189.95
728.833	41192.21
729.175	40861.14
729.516	40876.96
729.858	40922.16
730.199	40857.53
730.541	40843.97
730.882	40641.04
731.224	40786.79
731.565	40538.44
731.906	40463.64
732.248	40542.06
732.589	40353.36
732.93	40139.35
733.271	40208.5
733.612	40291.44
733.953	40218.22
734.294	40090.54
734.635	40048.28
734.976	40049.19
735.317	39843.32
735.658	39769.87
735.999	39760.83
736.339	39590.44
736.68	39525.59
737.021	39531.91
737.361	39401.29
737.702	39537.56
738.042	39307.96
738.383	39179.61
738.723	39411.24
739.063	39100.51
739.404	39297.79
739.744	39064.13
740.084	38957.92
740.424	39105.26
740.764	38870.46
741.104	39034.07
741.444	38768.54
741.784	38625.5
742.124	38852.38
742.464	38585.72
742.804	38500.3
743.143	38373.75
743.483	38417.14
743.823	38165.17
744.162	38293.53
744.502	38232.06
744.841	38118.16
745.181	38119.97
745.52	37992.52
745.86	38038.17
746.199	37814.44
746.538	37885.18
746.877	37890.83
747.216	37886.53
747.556	37689.25
747.895	37665.07
748.234	37400.9
748.573	37431.18
748.911	37456.71
749.25	37373.1
749.589	37346.89
749.928	37233.22
750.267	37293.55
750.605	37136.27
750.944	36906.22
751.283	36905.09
751.621	36993.67
751.96	36788.48
752.298	36668.03
