Data from whiteboard_FLMS001491_00024.txt Node
Date: Wed Feb 08 11:25:50 GMT 2017
User: dcchb
Spectrometer: FLMS00149
Trigger mode: 0
Integration Time (sec): 2.000000E-2
Scans to average: 10
Electric dark correction enabled: true
Nonlinearity correction enabled: false
Boxcar width: 0
XAxis mode: Wavelengths
Number of Pixels in Spectrum: 2048
>>>>>Begin Spectral Data<<<<<
341.393	0.47
341.776	0.47
342.16	0.47
342.543	-50.15
342.927	-70.27
343.31	-66.65
343.693	-70.27
344.077	-63.94
344.46	-55.35
344.843	-37.5
345.226	-34.56
345.61	-34.79
345.993	-33.21
346.376	-2.7
346.759	21.93
347.142	26
347.525	32.56
347.908	52.89
348.291	66.68
348.674	79.79
349.057	119.11
349.44	148.48
349.823	136.96
350.206	165.89
350.588	229.61
350.971	262.15
351.354	257.18
351.737	265.32
352.119	273.68
352.502	293.34
352.884	324.53
353.267	331.53
353.65	310.97
354.032	320.23
354.414	363.62
354.797	365.88
355.179	355.49
355.562	345.77
355.944	364.3
356.326	370.4
356.709	356.61
357.091	373.11
357.473	384.86
357.855	387.8
358.238	367.69
358.62	395.71
359.002	388.93
359.384	376.05
359.766	384.18
360.148	381.47
360.53	392.55
360.912	362.49
361.294	365.2
361.676	353.45
362.057	356.16
362.439	398.87
362.821	386.44
363.203	371.3
363.584	367.01
363.966	364.07
364.348	404.3
364.729	388.7
365.111	369.72
365.493	378.08
365.874	382.38
366.256	380.12
366.637	363.39
367.019	381.92
367.4	367.69
367.781	394.81
368.163	360.46
368.544	387.12
368.925	369.95
369.306	363.85
369.688	381.47
370.069	372.21
370.45	389.61
370.831	386.67
371.212	372.43
371.593	376.73
371.974	382.6
372.355	414.24
372.736	410.4
373.117	404.07
373.498	404.3
373.879	390.06
374.26	402.26
374.641	360.23
375.021	379.44
375.402	393.68
375.783	405.2
376.163	457.18
376.544	415.14
376.925	406.78
377.305	405.43
377.686	441.81
378.066	428.25
378.447	428.93
378.827	464.63
379.208	428.25
379.588	430.96
379.968	435.48
380.349	465.54
380.729	434.13
381.109	463.5
381.489	446.78
381.87	454.24
382.25	465.54
382.63	470.51
383.01	462.6
383.39	454.47
383.77	475.93
384.15	485.65
384.53	476.39
384.91	471.19
385.29	495.59
385.67	503.73
386.049	476.84
386.429	487.46
386.809	500.34
387.189	498.31
387.568	524.29
387.948	507.8
388.328	532.2
388.707	553.45
389.087	543.73
389.466	547.34
389.846	561.58
390.225	538.08
390.605	554.35
390.984	580.56
391.363	551.19
391.743	588.7
392.122	601.58
392.501	599.32
392.881	600.45
393.26	622.6
393.639	609.26
394.018	610.85
394.397	629.38
394.776	644.97
395.155	668.7
395.534	647.91
395.913	671.86
396.292	666.89
396.671	686.55
397.05	698.53
397.429	698.07
397.808	710.73
398.186	710.05
398.565	720.67
398.944	736.04
399.323	750.73
399.701	757.51
400.08	728.13
400.458	791.63
400.837	793.44
401.215	813.55
401.594	793.44
401.972	823.04
402.351	804.51
402.729	833.89
403.107	851.97
403.486	902.14
403.864	884.96
404.242	893.78
404.62	912.08
404.999	943.04
405.377	946.43
405.755	942.81
406.133	991.85
406.511	983.72
406.889	995.69
407.267	1031.85
407.645	1025.52
408.023	1069.14
408.401	1066.43
408.779	1086.31
409.156	1131.06
409.534	1138.97
409.912	1180.55
410.29	1186.65
410.667	1202.24
411.045	1218.74
411.422	1246.08
411.8	1247.89
412.178	1261.9
412.555	1305.97
412.933	1332.86
413.31	1327.21
413.687	1378.28
414.065	1398.85
414.442	1436.36
414.819	1446.98
415.197	1452.63
415.574	1473.65
415.951	1528.34
416.328	1519.75
416.705	1552.74
417.082	1563.59
417.46	1581.89
417.837	1622.8
418.214	1620.08
418.591	1654.21
418.967	1630.25
419.344	1667.54
419.721	1699.18
420.098	1689.01
420.475	1736.69
420.852	1762.91
421.228	1771.72
421.605	1774.2
421.982	1822.34
422.358	1850.36
422.735	1874.99
423.111	1872.06
423.488	1903.69
423.864	1916.12
424.241	1912.73
424.617	1965.39
424.994	2023.01
425.37	2021.2
425.746	2040.41
426.123	2042.9
426.499	2086.74
426.875	2108.89
427.251	2154.76
427.627	2194.76
428.003	2224.81
428.379	2254.87
428.756	2305.49
429.132	2315.89
429.507	2337.13
429.883	2393.17
430.259	2403.34
430.635	2415.77
431.011	2447.86
431.387	2526.05
431.763	2580.74
432.138	2574.41
432.514	2594.3
432.89	2638.81
433.265	2696.67
433.641	2753.39
434.016	2775.99
434.392	2824.8
434.767	2848.3
435.143	2869.77
435.518	2878.81
435.894	2921.52
436.269	3013.04
436.644	3069.99
437.02	3047.17
437.395	3117.45
437.77	3145.69
438.145	3188.63
438.52	3215.97
438.895	3257.33
439.271	3263.21
439.646	3314.96
440.021	3348.63
440.395	3389.3
440.77	3342.3
441.145	3399.47
441.52	3503.42
441.895	3505.91
442.27	3466.36
442.645	3553.14
443.019	3554.27
443.394	3566.25
443.769	3639.92
444.143	3608.51
444.518	3678.56
444.892	3640.14
445.267	3707.94
445.641	3741.38
446.016	3802.63
446.39	3854.38
446.764	3864.32
447.139	3827.26
447.513	3907.26
447.887	3919.46
448.262	3954.71
448.636	3966.01
449.01	4037.2
449.384	4092.79
449.758	4086.91
450.132	4149.06
450.506	4181.15
450.88	4225.89
451.254	4230.86
451.628	4289.17
452.002	4316.28
452.376	4411.2
452.75	4437.19
453.123	4470.63
453.497	4567.58
453.871	4587.92
454.244	4665.88
454.618	4704.98
454.992	4726.67
455.365	4740.45
455.739	4939.09
456.112	4975.7
456.486	5027.23
456.859	5034.01
457.232	5183.38
457.606	5125.98
457.979	5229.93
458.352	5332.08
458.725	5411.17
459.099	5459.53
459.472	5570.49
459.845	5620.66
460.218	5707.43
460.591	5746.76
460.964	5806.19
461.337	5881.22
461.71	5978.16
462.083	6132.51
462.456	6085.73
462.829	6156.24
463.201	6270.58
463.574	6290.92
463.947	6379.51
464.32	6535.89
464.692	6603.91
465.065	6636.68
465.438	6737.24
465.81	6841.19
466.183	6924.8
466.555	7006.38
466.928	7091.35
467.3	7075.53
467.672	7191.01
468.045	7389.88
468.417	7431.01
468.789	7457.9
469.161	7586.03
469.534	7741.96
469.906	7805.91
470.278	7931.11
470.65	8117.99
471.022	8198.67
471.394	8396.4
471.766	8454.03
472.138	8642.5
472.51	8779.9
472.882	8881.81
473.253	9062.37
473.625	9125.42
473.997	9269.83
474.369	9352.76
474.74	9502.82
475.112	9731.51
475.484	9843.6
475.855	10091.27
476.227	10120.2
476.598	10441.1
476.97	10529.68
477.341	10763.57
477.713	10916.79
478.084	10993.62
478.455	11257.8
478.827	11353.39
479.198	11708.18
479.569	11749.54
479.94	12089.41
480.311	12188.17
480.682	12512
481.053	12770.53
481.424	12935.27
481.795	13123.51
482.166	13260
482.537	13461.13
482.908	13718.07
483.279	13904.51
483.65	14209.36
484.021	14377.04
484.391	14604.83
484.762	14817.25
485.133	14894.09
485.503	15103.57
485.874	15350.34
486.244	15574.07
486.615	15961.85
486.985	16113.94
487.356	16423.54
487.726	16536.08
488.097	16929.06
488.467	17032.79
488.837	17346.9
489.207	17573.79
489.578	17854.01
489.948	18015.81
490.318	18250.38
490.688	18312.53
491.058	18735.11
491.428	19001.1
491.798	19121.09
492.168	19494.64
492.538	19596.11
492.908	19830.45
493.278	20069.09
493.648	20006.04
494.017	20347.73
494.387	20516.31
494.757	20622.3
495.126	20953.36
495.496	21113.36
495.866	21113.81
496.235	21370.07
496.605	21501.37
496.974	21680.35
497.344	21876.28
497.713	21958.31
498.082	22119.66
498.452	22417.96
498.821	22420.89
499.19	22700.21
499.559	22851.39
499.928	23056.58
500.298	23192.85
500.667	23519.62
501.036	23363.69
501.405	23729.56
501.774	23680.3
502.143	23972.49
502.512	24122.54
502.88	24391.46
503.249	24426.94
503.618	24631.23
503.987	24733.6
504.356	25089.98
504.724	25106.02
505.093	25278.22
505.462	25318.22
505.83	25577.65
506.199	25883.63
506.567	26202.49
506.936	26262.6
507.304	26503.95
507.672	26631.18
508.041	26692.42
508.409	27016.25
508.777	27195.01
509.145	27413.3
509.514	27303.48
509.882	27580.08
510.25	27760.64
510.618	27865.72
510.986	27933.52
511.354	28326.73
511.722	28489.89
512.09	28792.93
512.458	28735.98
512.826	28986.14
513.193	29164.9
513.561	29225.91
513.929	29451.67
514.297	29828.61
514.664	30207.36
515.032	30196.96
515.4	30387.24
515.767	30516.05
516.135	30724.63
516.502	30721.69
516.869	31210.27
517.237	31320.77
517.604	31241
517.972	31733.42
518.339	31927.99
518.706	32012.73
519.073	32345.83
519.44	32590.12
519.808	32998.47
520.175	32880.28
520.542	33425.8
520.909	33587.83
521.276	33651.56
521.643	34063.3
522.009	34374.7
522.376	34598.2
522.743	34673.23
523.11	35098.75
523.477	35404.73
523.843	35611.73
524.21	36121.78
524.577	36320.42
524.943	36408.1
525.31	36645.83
525.676	37009.66
526.043	37200.62
526.409	37255.76
526.776	37587.05
527.142	37801.96
527.508	37980.48
527.874	38269.29
528.241	38508.61
528.607	38642.16
528.973	39052.09
529.339	39079.89
529.705	39428.81
530.071	39559.65
530.437	39850.49
530.803	40059.3
531.169	40349.69
531.535	40189.01
531.901	40488.67
532.267	40622.45
532.632	40887.98
532.998	41121.19
533.364	41318.48
533.73	41369.32
534.095	41611.8
534.461	41893.83
534.826	42028.51
535.192	42212.92
535.557	42338.11
535.923	42527.48
536.288	42735.39
536.653	42983.74
537.019	43018.09
537.384	43168.14
537.749	43515.93
538.114	43546.44
538.479	43792.31
538.845	43812.2
539.21	43893.1
539.575	44027.33
539.94	44149.81
540.305	44495.34
540.67	44483.14
541.034	44706.86
541.399	44808.33
541.764	44920.41
542.129	45248.32
542.494	45189.33
542.858	45343.68
543.223	45330.35
543.587	45794.52
543.952	45651.24
544.316	45782.31
544.681	45712.48
545.045	46056.88
545.41	46327.16
545.774	46242.64
546.138	46361.73
546.503	46653.25
546.867	46643.08
547.231	47042.84
547.595	46994.94
547.959	47086.23
548.324	47139.34
548.688	47204.87
549.052	47439.44
549.416	47548.82
549.779	47591.31
550.143	47669.72
550.507	47941.8
550.871	48046.43
551.235	48109.26
551.599	48436.71
551.962	48496.14
552.326	48508.57
552.689	48900.2
553.053	48781.33
553.417	48815.23
553.78	49424.7
554.143	49257.25
554.507	49447.08
554.87	49594.64
555.234	49818.82
555.597	49659.27
555.96	49894.97
556.323	50073.95
556.686	50182.42
557.05	50542.19
557.413	50477.33
557.776	50545.58
558.139	50689.08
558.502	50906.92
558.865	50920.71
559.228	51184.43
559.59	51357.31
559.953	51185.56
560.316	51656.28
560.679	51621.03
561.041	51887.46
561.404	51833.91
561.767	52144.86
562.129	52033
562.492	52412.65
562.854	52371.07
563.217	52446.32
563.579	52617.61
563.941	52803.37
564.304	52981.9
564.666	53161.33
565.028	53218.95
565.39	53339.85
565.753	53454.65
566.115	53542.56
566.477	53682.44
566.839	53693.52
567.201	54023.45
567.563	53993.4
567.925	54250.79
568.287	54234.07
568.648	54278.13
569.01	54451.01
569.372	54711.34
569.734	54581.63
570.095	54721.74
570.457	54914.5
570.819	54978.68
571.18	55035.63
571.542	55224.55
571.903	55162.18
572.265	55314.27
572.626	55385.68
572.987	55431.55
573.349	55508.16
573.71	55566.46
574.071	55689.85
574.432	55780.24
574.794	55951.76
575.155	55895.04
575.516	55812.33
575.877	55977.3
576.238	56080.35
576.599	56218.65
576.96	56207.8
577.32	56294.13
577.681	56343.17
578.042	56378.19
578.403	56411.86
578.763	56400.57
579.124	56417.29
579.485	56552.2
579.845	56544.52
580.206	56622.93
580.566	56610.73
580.927	56619.99
581.287	56623.16
581.648	56564.4
582.008	56631.52
582.368	56723.04
582.728	56707.45
583.089	56709.94
583.449	56685.08
583.809	56777.05
584.169	56874.45
584.529	56784.51
584.889	56911.51
585.249	56717.17
585.609	56739.09
585.969	56876.26
586.329	56803.27
586.688	56750.61
587.048	56833.55
587.408	56802.81
587.768	56810.05
588.127	56790.39
588.487	56774.79
588.846	56882.13
589.206	56783.83
589.565	56806.43
589.925	56955.13
590.284	56901.57
590.643	56903.15
591.003	57016.59
591.362	57079.19
591.721	56977.5
592.08	56960.78
592.44	57051.62
592.799	57124.61
593.158	57040.77
593.517	57051.4
593.876	57128.91
594.235	57039.64
594.593	57060.43
594.952	57157.16
595.311	57055.69
595.67	57201.45
596.029	57268.34
596.387	57287.55
596.746	57337.49
597.104	57229.47
597.463	57256.81
597.822	57360.54
598.18	57275.57
598.538	57177.27
598.897	57414.1
599.255	57147.89
599.613	57565.28
599.972	57393.08
600.33	57409.13
600.688	57276.93
601.046	57414.1
601.404	57491.16
601.762	57411.61
602.12	57486.19
602.478	57443.93
602.836	57446.41
603.194	57309.47
603.552	57331.84
603.91	57286.19
604.268	57475.57
604.625	57341.33
604.983	57437.6
605.341	57267.66
605.698	57467.43
606.056	57548.78
606.413	57525.73
606.771	57623.13
607.128	57511.95
607.485	57521.89
607.843	57488.45
608.2	57657.71
608.557	57718.72
608.914	57618.16
609.272	57787.65
609.629	57786.97
609.986	57884.82
610.343	57824.26
610.7	57948.32
611.057	57899.51
611.414	57920.75
611.771	57917.81
612.127	58056.11
612.484	58006.17
612.841	58059.5
613.198	58059.05
613.554	58102.89
613.911	58181.54
614.267	58200.52
614.624	58141.08
614.98	58197.58
615.337	58340.4
615.693	58263.79
616.05	58223.79
616.406	58456.56
616.762	58353.28
617.118	58361.19
617.475	58379.95
617.831	58491.58
618.187	58479.83
618.543	58484.8
618.899	58548.31
619.255	58565.93
619.611	58524.35
619.967	58625.14
620.323	58751.01
620.678	58546.05
621.034	58524.35
621.39	58482.54
621.746	58462.21
622.101	58724.8
622.457	58531.58
622.812	58567.74
623.168	58700.17
623.523	58666.72
623.879	58685.02
624.234	58541.3
624.589	58596.44
624.945	58627.17
625.3	58647.29
625.655	58589.66
626.01	58573.62
626.365	58501.53
626.72	58488.19
627.075	58432.15
627.43	58456.56
627.785	58363.68
628.14	58435.31
628.495	58414.3
628.85	58329.78
629.205	58246.62
629.559	58416.33
629.914	58313.74
630.269	58293.85
630.623	58175.43
630.978	58150.12
631.332	58295.43
631.687	58280.74
632.041	58106.73
632.396	58212.49
632.75	58054.53
633.104	58083.23
633.459	57980.86
633.813	58001.43
634.167	58000.07
634.521	57998.72
634.875	58024.7
635.229	57944.03
635.583	57838.72
635.937	57857.02
636.291	57905.16
636.645	57826.29
636.999	57855.89
637.352	57845.95
637.706	57746.97
638.06	57881.2
638.413	57759.85
638.767	57706.52
639.121	57779.96
639.474	57623.36
639.828	57683.47
640.181	57667.42
640.534	57670.14
640.888	57572.74
641.241	57539.52
641.594	57610.48
641.947	57666.29
642.301	57544.49
642.654	57586.07
643.007	57655.45
643.36	57575.45
643.713	57460.65
644.066	57603.02
644.419	57483.47
644.771	57262.92
645.124	56981.11
645.477	57059.98
645.83	56794.9
646.182	56650.5
646.535	56530.28
646.888	56680.11
647.24	56476.72
647.593	56665.64
647.945	56582.93
648.298	56467.91
648.65	56325.76
649.002	56303.62
649.355	56382.71
649.707	56350.17
650.059	56502.94
650.411	56720.78
650.763	56668.81
651.115	57025.18
651.467	56852.98
651.819	56718.97
652.171	56755.81
652.523	56730.95
652.875	56692.31
653.227	56664.29
653.578	56723.72
653.93	56667.22
654.282	56489.83
654.633	56455.93
654.985	56423.62
655.337	56449.83
655.688	56502.03
656.039	56511.3
656.391	56323.05
656.742	56352.43
657.094	56334.58
657.445	56415.71
657.796	56304.52
658.147	56244.86
658.498	56209.61
658.849	56271.75
659.2	56175.94
659.551	56123.74
659.902	56195.15
660.253	56128.71
660.604	56134.13
660.955	56020.46
661.306	56088.03
661.656	56023.17
662.007	56092.1
662.358	56083.74
662.708	55982.27
663.059	55989.28
663.409	55874.25
663.76	55957.86
664.11	55952.22
664.461	56034.7
664.811	56040.12
665.161	55994.02
665.511	55888.26
665.862	55977.53
666.212	56094.81
666.562	55994.7
666.912	56048.48
667.262	55948.37
667.612	55988.37
667.962	55999.22
668.312	55966.45
668.662	56040.35
669.011	55990.86
669.361	55975.72
669.711	55928.71
670.06	55810.75
670.41	55831.99
670.76	55806.23
671.109	55899.34
671.459	55857.08
671.808	55814.59
672.157	55822.28
672.507	55604.43
672.856	55670.64
673.205	55703.86
673.554	55796.29
673.904	55652.34
674.253	55704.99
674.602	55660.47
674.951	55213.48
675.3	55096.87
675.649	55516.75
675.998	55466.58
676.346	55484.66
676.695	55480.36
677.044	55289.18
677.393	55397.43
677.741	55362.85
678.09	55298.9
678.438	55192.24
678.787	55265.91
679.135	55248.5
679.484	55088.06
679.832	55173.48
680.181	54940.49
680.529	54984.11
680.877	54918.34
681.225	54840.38
681.573	54986.36
681.922	54701.63
682.27	54663.66
682.618	54629.09
682.966	54628.86
683.314	54728.97
683.661	54574.4
684.009	54540.5
684.357	54349.09
684.705	54274.07
685.053	54317.68
685.4	54272.49
685.748	54114.52
686.095	54089.89
686.443	53954.98
686.79	53967.18
687.138	54047.63
687.485	53987.52
687.832	53884.47
688.18	53860.74
688.527	53705.04
688.874	53672.95
689.221	53546.18
689.568	53600.64
689.915	53399.74
690.262	53366.52
690.609	53303.02
690.956	53191.16
691.303	53187.77
691.65	53106.19
691.997	53074.55
692.344	52849.02
692.69	52811.28
693.037	52927.21
693.383	52533.32
693.73	52740.32
694.077	52630.72
694.423	52578.52
694.769	52369.48
695.116	52447.45
695.462	52303.27
695.808	52242.48
696.155	52177.63
696.501	52069.61
696.847	52039.32
697.193	51802.04
697.539	51927.91
697.885	51640.92
698.231	51620.58
698.577	51637.75
698.923	51576.29
699.269	51435.72
699.614	51255.16
699.96	51202.06
700.306	51251.77
700.651	51176.97
700.997	50982.85
701.342	50893.59
701.688	50873.25
702.033	50843.87
702.379	50842.29
702.724	50630.32
703.069	50617.89
703.415	50195.76
703.76	50235.98
704.105	50325.92
704.45	50168.41
704.795	49927.74
705.14	49816.78
705.485	49790.57
705.83	49621.53
706.175	49735.2
706.52	49658.37
706.865	49434.65
707.209	49473.29
707.554	49341.09
707.899	49350.58
708.243	49015.67
708.588	49098.84
708.932	48633.99
709.277	48710.6
709.621	48789.01
709.966	48495.69
710.31	48507.89
710.654	48012.76
710.998	48364.62
711.342	48244.4
711.687	48069.71
712.031	47950.17
712.375	47862.71
712.719	47852.54
713.063	47678.76
713.407	47837.17
713.75	47543.85
714.094	47488.71
714.438	47311.54
714.782	47367.58
715.125	47162.62
715.469	47185.21
715.812	46908.39
716.156	46745.9
716.499	46823.87
716.843	46672.69
717.186	46539.58
717.53	46619.35
717.873	46539.58
718.216	46363.77
718.559	46315.18
718.902	46114.96
719.246	46013.27
719.589	45937.34
719.932	45836.32
720.275	45791.13
720.617	45801.52
720.96	45671.36
721.303	45517.01
721.646	45573.73
721.989	45364.7
722.331	45569.89
722.674	45489.67
723.016	45455.32
723.359	45376.9
723.701	45293.74
724.044	45127.19
724.386	44917.03
724.729	44996.12
725.071	44858.72
725.413	44690.59
725.755	44712.96
726.097	44625.73
726.439	44529.69
726.782	44480.43
727.124	44668.22
727.465	44451.5
727.807	44445.17
728.149	44186.2
728.491	44189.13
728.833	44286.53
729.175	44125.86
729.516	44066.43
729.858	43990.72
730.199	43981.68
730.541	43819.65
730.882	43865.98
731.224	44068.23
731.565	43689.71
731.906	43719.77
732.248	43740.56
732.589	43481.81
732.93	43514.35
733.271	43510.06
733.612	43608.59
733.953	43413.56
734.294	43356.84
734.635	43260.35
734.976	43231.42
735.317	43129.73
735.658	43076.17
735.999	42999.34
736.339	42939.9
736.68	43082.5
737.021	42814.48
737.361	42755.27
737.702	42792.11
738.042	42630.76
738.383	42621.72
738.723	42577.2
739.063	42337.66
739.404	42583.98
739.744	42491.55
740.084	42159.81
740.424	42175.4
740.764	41989.87
741.104	42136.99
741.444	41871.91
741.784	41873.26
742.124	41858.12
742.464	41744
742.804	41642.08
743.143	41460.39
743.483	41514.18
743.823	41287.52
744.162	41391.02
744.502	41289.32
744.841	41094.3
745.181	41196.45
745.52	41023.34
745.86	40961.87
746.199	40840.75
746.538	40802.33
746.877	40826.74
747.216	40698.38
747.556	40605.73
747.895	40514.66
748.234	40293.64
748.573	40225.17
748.911	40130.71
749.25	40093.88
749.589	40057.72
749.928	40133.65
750.267	39973.43
750.605	39782.92
750.944	39755.13
751.283	39411.18
751.621	39628.58
751.96	39351.52
752.298	39369.15
752.636	39316.27
