Data from White_paper_FLMS001491_090.txt Node
Date: Tue Feb 07 10:35:41 GMT 2017
User: dcchb
Spectrometer: FLMS00149
Trigger mode: 0
Integration Time (sec): 2.000000E-2
Scans to average: 10
Electric dark correction enabled: true
Nonlinearity correction enabled: false
Boxcar width: 0
XAxis mode: Wavelengths
Number of Pixels in Spectrum: 2048
>>>>>Begin Spectral Data<<<<<
341.393	-21.85
341.776	-21.85
342.16	-21.85
342.543	-62.98
342.927	-58.68
343.31	-69.76
343.693	-55.75
344.077	-58.46
344.46	-62.07
344.843	-61.62
345.226	-33.15
345.61	-25.69
345.993	-16.2
346.376	-24.34
346.759	1.2
347.142	14.76
347.525	38.49
347.908	78.49
348.291	72.84
348.674	79.16
349.057	122.1
349.44	115.77
349.823	129.78
350.206	159.61
350.588	200.74
350.971	238.48
351.354	245.94
351.737	277.13
352.119	305.37
352.502	276.67
352.884	296.33
353.267	308.99
353.65	323.45
354.032	316.45
354.414	356.67
354.797	354.86
355.179	360.29
355.562	360.29
355.944	342.89
356.326	345.6
356.709	353.06
357.091	361.42
357.473	358.93
357.855	367.29
358.238	379.04
358.62	367.29
359.002	361.42
359.384	385.6
359.766	379.04
360.148	379.95
360.53	383.56
360.912	355.09
361.294	370.23
361.676	371.81
362.057	361.64
362.439	363
362.821	363.45
363.203	382.43
363.584	361.42
363.966	365.94
364.348	358.03
364.729	339.95
365.111	347.41
365.493	363.22
365.874	348.99
366.256	373.85
366.637	355.09
367.019	364.35
367.4	375.43
367.781	367.52
368.163	375.43
368.544	343.79
368.925	375.65
369.306	365.48
369.688	369.33
370.069	360.06
370.45	352.15
370.831	357.8
371.212	372.94
371.593	374.52
371.974	375.2
372.355	358.93
372.736	390.34
373.117	363.9
373.498	377.69
373.879	364.81
374.26	380.85
374.641	371.13
375.021	375.88
375.402	357.35
375.783	396.44
376.163	407.29
376.544	397.35
376.925	382.66
377.305	385.82
377.686	384.02
378.066	389.21
378.447	412.72
378.827	402.77
379.208	407.29
379.588	405.94
379.968	404.13
380.349	421.3
380.729	417.91
381.109	418.82
381.489	410.68
381.87	420.4
382.25	423.56
382.63	434.41
383.01	409.55
383.39	416.78
383.77	454.97
384.15	418.82
384.53	444.35
384.91	446.16
385.29	453.39
385.67	461.53
386.049	442.09
386.429	446.16
386.809	475.99
387.189	487.74
387.568	443.67
387.948	475.31
388.328	486.61
388.707	488.42
389.087	469.66
389.466	482.32
389.846	495.42
390.225	504.01
390.605	488.19
390.984	514.41
391.363	501.07
391.743	524.58
392.122	522.99
392.501	534.29
392.881	542.2
393.26	555.54
393.639	547.85
394.018	539.94
394.397	534.52
394.776	561.64
395.155	545.37
395.534	561.64
395.913	574.07
396.292	580.85
396.671	575.87
397.05	564.8
397.429	595.76
397.808	600.28
398.186	616.1
398.565	591.92
398.944	635.31
399.323	602.31
399.701	645.03
400.08	628.3
400.458	645.7
400.837	666.27
401.215	664.69
401.594	691.8
401.972	688.19
402.351	702.2
402.729	692.93
403.107	701.52
403.486	721.18
403.864	736.1
404.242	722.31
404.62	751.69
404.999	742.65
405.377	771.12
405.755	784.46
406.133	791.24
406.511	824.91
406.889	814.06
407.267	838.01
407.645	878.24
408.023	895.41
408.401	913.04
408.779	937.67
409.156	960.72
409.534	969.08
409.912	982.42
410.29	1026.94
410.667	1052.02
411.045	1075.75
411.422	1092.02
411.8	1115.3
412.178	1124.11
412.555	1180.38
412.933	1202.75
413.31	1228.96
413.687	1276.2
414.065	1261.05
414.442	1324.33
414.819	1332.69
415.197	1359.13
415.574	1400.71
415.951	1419.02
416.328	1430.77
416.705	1453.37
417.082	1484.33
417.46	1523.65
417.837	1565.91
418.214	1535.17
418.591	1585.11
418.967	1605.9
419.344	1659.24
419.721	1685.22
420.098	1711.89
420.475	1720.48
420.852	1779.01
421.228	1804.77
421.605	1798.67
421.982	1809.06
422.358	1851.1
422.735	1857.87
423.111	1895.84
423.488	1929.29
423.864	1943.3
424.241	1993.46
424.617	2014.93
424.994	2045.21
425.37	2065.1
425.746	2058.32
426.123	2126.34
426.499	2126.12
426.875	2172.89
427.251	2205.21
427.627	2252.21
428.003	2257.19
428.379	2327.24
428.756	2339.9
429.132	2353.91
429.507	2439.33
429.883	2449.95
430.259	2495.37
430.635	2536.95
431.011	2549.83
431.387	2607.23
431.763	2636.16
432.138	2709.38
432.514	2678.64
432.89	2734.01
433.265	2770.17
433.641	2834.8
434.016	2853.1
434.392	2935.13
434.767	2985.53
435.143	2990.27
435.518	2992.08
435.894	3080.89
436.269	3116.82
436.644	3178.07
437.02	3184.85
437.395	3193.43
437.77	3275.69
438.145	3294.45
438.52	3346.2
438.895	3413.54
439.271	3399.08
439.646	3425.97
440.021	3505.52
440.395	3474.56
440.77	3468.68
441.145	3499.64
441.52	3574.67
441.895	3551.62
442.27	3628
442.645	3626.42
443.019	3678.17
443.394	3691.72
443.769	3734.44
444.143	3705.51
444.518	3780.99
444.892	3758.62
445.267	3773.3
445.641	3853.53
446.016	3882.23
446.39	3885.62
446.764	3933.75
447.139	3887.65
447.513	3986.41
447.887	3966.07
448.262	3989.12
448.636	4021.89
449.01	4088.55
449.384	4093.3
449.758	4084.03
450.132	4177.59
450.506	4175.1
450.88	4245.38
451.254	4235.67
451.628	4302.56
452.002	4373.97
452.376	4396.34
452.75	4421.2
453.123	4522.89
453.497	4524.02
453.871	4549.56
454.244	4620.97
454.618	4688.76
454.992	4733.51
455.365	4717.01
455.739	4828.19
456.112	4936.89
456.486	4994.74
456.859	5037.68
457.232	5128.75
457.606	5073.84
457.979	5150.67
458.352	5260.72
458.725	5324.45
459.099	5359.7
459.472	5467.95
459.845	5488.97
460.218	5565.12
460.591	5645.57
460.964	5623.43
461.337	5752.69
461.71	5866.58
462.083	5931.89
462.456	5932.34
462.829	5930.31
463.201	6123.53
463.574	6146.8
463.947	6219.57
464.32	6321.49
464.692	6397.19
465.065	6431.54
465.438	6550.86
465.81	6621.59
466.183	6690.29
466.555	6827.24
466.928	6855.03
467.3	6878.08
467.672	7011.86
468.045	7154.46
468.417	7185.87
468.789	7229.94
469.161	7349.48
469.534	7525.07
469.906	7684.61
470.278	7725.52
470.65	7808.68
471.022	7961.67
471.394	8111.72
471.766	8151.27
472.138	8197.14
472.51	8410.47
472.882	8567.75
473.253	8655.89
473.625	8833.74
473.997	8919.61
474.369	9047.06
474.74	9157.8
475.112	9275.31
475.484	9452.93
475.855	9590.33
476.227	9682.53
476.598	10012.69
476.97	10045.91
477.341	10306.24
477.713	10422.85
478.084	10429.4
478.455	10765.66
478.827	10902.83
479.198	11166.1
479.569	11213.34
479.94	11532.65
480.311	11620.78
480.682	11872.98
481.053	12044.5
481.424	12250.82
481.795	12439.52
482.166	12571.49
482.537	12770.81
482.908	12987.53
483.279	13149.78
483.65	13443.56
484.021	13583.67
484.391	13779.82
484.762	13957.22
485.133	13972.36
485.503	14243.54
485.874	14550.2
486.244	14677.2
486.615	14933.92
486.985	15061.6
487.356	15474.69
487.726	15456.84
488.097	15832.87
488.467	15873.78
488.837	16208.01
489.207	16401.9
489.578	16629.46
489.948	16738.16
490.318	17081.88
490.688	17067.19
491.058	17314.42
491.428	17561.19
491.798	17653.39
492.168	18020.61
492.538	18135.41
492.908	18349.42
493.278	18600.49
493.648	18596.42
494.017	18862.17
494.387	18924.32
494.757	19130.42
495.126	19356.4
495.496	19535.83
495.866	19516.62
496.235	19740.12
496.605	19936.04
496.974	19996.61
497.344	20218.52
497.713	20370.38
498.082	20435.47
498.452	20757.49
498.821	20707.32
499.19	20889.24
499.559	21056.24
499.928	21209.68
500.298	21339.62
500.667	21491.48
501.036	21435.21
501.405	21786.84
501.774	21871.81
502.143	22000.85
502.512	22162.65
502.88	22333.04
503.249	22358.35
503.618	22488.74
503.987	22712.24
504.356	22834.05
504.724	22906.59
505.093	23002.63
505.462	23105.45
505.83	23293.7
506.199	23464.99
506.567	23708.83
506.936	23700.69
507.304	24033.56
507.672	24051.19
508.041	24233.11
508.409	24438.75
508.777	24541.12
509.145	24781.11
509.514	24843.71
509.882	25087.77
510.25	25090.03
510.618	25196.24
510.986	25400.08
511.354	25597.36
511.722	25964.59
512.09	26042.55
512.458	26036
512.826	26271.47
513.193	26444.12
513.561	26568.86
513.929	26824.68
514.297	26960.49
514.664	27203.2
515.032	27223.76
515.4	27405.68
515.767	27612
516.135	27746.91
516.502	27746.69
516.869	28240.01
517.237	28228.03
517.604	28153.23
517.972	28641.58
518.339	28736.94
518.706	28852.87
519.073	28991.62
519.44	29139.19
519.808	29473.87
520.175	29432.07
520.542	29823.92
520.909	30060.07
521.276	30159.28
521.643	30353.4
522.009	30507.07
522.376	30754.06
522.743	30889.65
523.11	31185.47
523.477	31408.28
523.843	31610.54
524.21	31999.23
524.577	32255.49
524.943	32249.62
525.31	32568.71
525.676	32843.05
526.043	32992.65
526.409	33115.36
526.776	33411.85
527.142	33469.93
527.508	33741.78
527.874	34003.47
528.241	34166.4
528.607	34185.61
528.973	34586.05
529.339	34582.44
529.705	34979.94
530.071	35185.81
530.437	35444.34
530.803	35548.97
531.169	35765.23
531.535	35775.4
531.901	35812.69
532.267	36098.56
532.632	36431.66
532.998	36385.78
533.364	36690.86
533.73	36610.86
534.095	37061.92
534.461	37163.39
534.826	37399.77
535.192	37476.83
535.557	37758.4
535.923	37783.71
536.288	38011.95
536.653	38192.74
537.019	38230.7
537.384	38307.76
537.749	38569.9
538.114	38590.02
538.479	38665.04
538.845	38936.67
539.21	38954.3
539.575	39084.69
539.94	39237.91
540.305	39472.93
540.67	39399.94
541.034	39530.1
541.399	39747.27
541.764	39893.71
542.129	40073.37
542.494	40080.37
542.858	40176.19
543.223	40502.28
543.587	40582.51
543.952	40609.62
544.316	40855.72
544.681	40789.73
545.045	41038.31
545.41	41228.82
545.774	41331.87
546.138	41270.62
546.503	41418.64
546.867	41544.29
547.231	41991.96
547.595	41923.49
547.959	42027.89
548.324	42082.58
548.688	42250.26
549.052	42507.88
549.416	42573.19
549.779	42678.72
550.143	42701.55
550.507	43028.77
550.871	43114.19
551.235	43035.1
551.599	43426.95
551.962	43471.24
552.326	43664.69
552.689	43870.1
553.053	43799.14
553.417	43905.81
553.78	44315.74
554.143	44263.99
554.507	44428.05
554.87	44456.98
555.234	44947.36
555.597	44669.86
555.96	44814.94
556.323	45081.37
556.686	45136.74
557.05	45558.42
557.413	45540.57
557.776	45768.58
558.139	45835.7
558.502	45900.11
558.865	45902.59
559.228	46415.8
559.59	46407.66
559.953	46496.25
560.316	46920.64
560.679	46902.34
561.041	47175.33
561.404	47330.35
561.767	47524.02
562.129	47485.38
562.492	47806.27
562.854	47930.11
563.217	47916.32
563.579	48184.79
563.941	48377.33
564.304	48392.47
564.666	48646.7
565.028	48836.07
565.39	48840.14
565.753	49029.52
566.115	49185.22
566.477	49357.87
566.839	49444.19
567.201	49827.46
567.563	49701.14
567.925	50066.55
568.287	49959.21
568.648	50087.79
569.01	50282.59
569.372	50643.26
569.734	50441.68
570.095	50639.42
570.457	50824.72
570.819	50864.72
571.18	50893.65
571.542	51211.83
571.903	51139.97
572.265	51375.89
572.626	51455.67
572.987	51478.72
573.349	51710.8
573.71	51759.39
574.071	51869.44
574.432	51979.27
574.794	52185.82
575.155	52092.49
575.516	52124.35
575.877	52221.75
576.238	52315.08
576.599	52500.39
576.96	52569.76
577.32	52602.53
577.681	52735.18
578.042	52722.75
578.403	52773.37
578.763	52823.77
579.124	52872.35
579.485	53015.63
579.845	53135.17
580.206	53048.85
580.566	53073.48
580.927	53126.36
581.287	53286.58
581.648	53227.82
582.008	53440.47
582.368	53289.29
582.728	53415.62
583.089	53341.04
583.449	53298.33
583.809	53431.89
584.169	53512.34
584.529	53581.71
584.889	53615.16
585.249	53571.32
585.609	53511.88
585.969	53700.35
586.329	53547.36
586.688	53649.51
587.048	53673.01
587.408	53663.52
587.768	53650.41
588.127	53688.15
588.487	53663.97
588.846	53819.67
589.206	53706.46
589.565	53761.82
589.925	53960.01
590.284	53821.71
590.643	53882.5
591.003	53945.54
591.362	53959.56
591.721	53942.83
592.08	53919.33
592.44	54051.3
592.799	54023.06
593.158	53953.45
593.517	54021.7
593.876	54026.67
594.235	54018.76
594.593	54014.02
594.952	54173.11
595.311	54067.58
595.67	54163.39
596.029	54251.3
596.387	54345.08
596.746	54352.09
597.104	54262.15
597.463	54264.86
597.822	54398.19
598.18	54287.68
598.538	54231.19
598.897	54479.77
599.255	54125.88
599.613	54638.18
599.972	54398.41
600.33	54609.03
600.688	54398.64
601.046	54501.24
601.404	54668.92
601.762	54576.04
602.12	54686.54
602.478	54589.14
602.836	54639.31
603.194	54467.57
603.552	54706.43
603.91	54509.15
604.268	54744.17
604.625	54585.3
604.983	54759.08
605.341	54701.91
605.698	54770.38
606.056	54802.25
606.413	54811.28
606.771	54889.02
607.128	54897.84
607.485	54867.78
607.843	54875.69
608.2	55029.36
608.557	54972.86
608.914	54970.83
609.272	55136.7
609.629	55144.84
609.986	55272.97
610.343	55087.44
610.7	55258.5
611.057	55228
611.414	55254.21
611.771	55371.5
612.127	55326.3
612.484	55359.74
612.841	55335.79
613.198	55310.71
613.554	55355.45
613.911	55484.26
614.267	55531.94
614.624	55387.09
614.98	55514.09
615.337	55657.59
615.693	55558.84
616.05	55529.23
616.406	55676.8
616.762	55587.76
617.118	55554.77
617.475	55572.85
617.831	55729.23
618.187	55672.05
618.543	55679.06
618.899	55854.87
619.255	55774.65
619.611	55788.21
619.967	55787.98
620.323	55900.07
620.678	55788.66
621.034	55706.18
621.39	55797.93
621.746	55730.13
622.101	56016.68
622.457	55756.12
622.812	55833.86
623.168	55910.24
623.523	55887.64
623.879	55919.96
624.234	55729.23
624.589	55910.24
624.945	55924.48
625.3	55895.32
625.655	55954.08
626.01	55925.38
626.365	55869.11
626.72	55931.03
627.075	55957.7
627.43	55905.49
627.785	55891.26
628.14	55951.14
628.495	55989.78
628.85	55933.74
629.205	55825.27
629.559	56064.13
629.914	55816.68
630.269	55949.79
630.623	55863.91
630.978	55830.47
631.332	55951.37
631.687	55924.02
632.041	55800.19
632.396	55927.41
632.75	55826.63
633.104	55830.02
633.459	55757.93
633.813	55752.5
634.167	55681.54
634.521	55713.18
634.875	55818.72
635.229	55732.84
635.583	55622.34
635.937	55641.09
636.291	55553.86
636.645	55543.69
636.999	55554.77
637.352	55661.43
637.706	55483.58
638.06	55612.62
638.413	55504.37
638.767	55533.07
639.121	55544.37
639.474	55334.89
639.828	55392.74
640.181	55468.22
640.534	55435.45
640.888	55319.52
641.241	55275.68
641.594	55375.56
641.947	55423.25
642.301	55377.82
642.654	55342.8
643.007	55340.99
643.36	55380.08
643.713	55223.7
644.066	55306.86
644.419	55203.36
644.771	54901.45
645.124	54776.71
645.477	54727.9
645.83	54602.7
646.182	54483.16
646.535	54470.5
646.888	54552.08
647.24	54289.94
647.593	54467.79
647.945	54423.05
648.298	54308.25
648.65	54301.24
649.002	54176.05
649.355	54297.4
649.707	54200.68
650.059	54374.01
650.411	54785.52
650.763	54796.6
651.115	55038.4
651.467	54994.78
651.819	54918.85
652.171	54864.84
652.523	54832.75
652.875	54802.47
653.227	54705.3
653.578	54889.7
653.93	54784.17
654.282	54731.29
654.633	54576.49
654.985	54814.45
655.337	54755.47
655.688	54814.45
656.039	54758.4
656.391	54531.97
656.742	54615.58
657.094	54654.68
657.445	54716.82
657.796	54596.83
658.147	54591.86
658.498	54599.76
658.849	54648.8
659.2	54492.42
659.551	54503.95
659.902	54631.18
660.253	54511.63
660.604	54555.02
660.955	54469.82
661.306	54624.85
661.656	54470.95
662.007	54436.61
662.358	54453.55
662.708	54538.98
663.059	54394.12
663.409	54262.6
663.76	54465.31
664.11	54418.53
664.461	54516.83
664.811	54553.66
665.161	54391.18
665.511	54325.87
665.862	54404.74
666.212	54366.78
666.562	54458.07
666.912	54391.18
667.262	54318.42
667.612	54265.08
667.962	54367
668.312	54291.75
668.662	54464.85
669.011	54261.24
669.361	54265.08
669.711	54236.38
670.06	54260.56
670.41	54123.39
670.76	54157.06
671.109	54274.8
671.459	54143.96
671.808	54101.02
672.157	54150.06
672.507	53909.16
672.856	53896.51
673.205	54065.54
673.554	54009.95
673.904	53876.39
674.253	54108.48
674.602	53894.02
674.951	53448.83
675.3	53358.44
675.649	53785.78
675.998	53817.64
676.346	53814.02
676.695	53881.37
677.044	53587.14
677.393	53703.07
677.741	53739.67
678.09	53649.73
678.438	53631.2
678.787	53692.22
679.135	53609.51
679.484	53335.84
679.832	53501.26
680.181	53329.74
680.529	53426.91
680.877	53282.96
681.225	53329.97
681.573	53399.34
681.922	53232.8
682.27	53065.79
682.618	53149.63
682.966	53011.11
683.314	53096.08
683.661	52914.16
684.009	52855.4
684.357	52806.82
684.705	52736.54
685.053	52741.73
685.4	52664.45
685.748	52522.98
686.095	52541.74
686.443	52425.13
686.79	52359.15
687.138	52325.47
687.485	52220.17
687.832	52165.7
688.18	52198.92
688.527	51994.86
688.874	52050.68
689.221	52021.08
689.568	51833.51
689.915	51700.41
690.262	51648.43
690.609	51641.65
690.956	51502.67
691.303	51438.49
691.65	51344.71
691.997	51192.17
692.344	51093.19
692.69	50989.01
693.037	51066.52
693.383	50787.89
693.73	51008.9
694.077	50733.65
694.423	50609.81
694.769	50513.09
695.116	50565.07
695.462	50373.21
695.808	50436.94
696.155	50268.13
696.501	50020
696.847	50161.01
697.193	49802.83
697.539	49989.49
697.885	49663.4
698.231	49611.42
698.577	49553.12
698.923	49497.53
699.269	49278.1
699.614	49187.7
699.96	49081.94
700.306	49109.51
700.651	48995.17
700.997	48894.6
701.342	48826.13
701.688	48752.24
702.033	48636.76
702.379	48576.65
702.724	48507.5
703.069	48590.43
703.415	48089.65
703.76	48170.78
704.105	48161.52
704.45	48079.71
704.795	47743
705.14	47737.57
705.485	47698.48
705.83	47516.11
706.175	47443.79
706.52	47337.36
706.865	47233.63
707.209	47268.43
707.554	47026.63
707.899	47117.7
708.243	46903.47
708.588	46999.96
708.932	46645.85
709.277	46696.7
709.621	46616.25
709.966	46377.83
710.31	46643.36
710.654	46197.27
710.998	46225.3
711.342	46298.74
711.687	46177.16
712.031	46001.8
712.375	45912.99
712.719	45975.58
713.063	45790.05
713.407	45851.75
713.75	45734.69
714.094	45694.46
714.438	45392.1
714.782	45469.84
715.125	45273.91
715.469	45354.36
715.812	45080.92
716.156	44999.79
716.499	44937.87
716.843	44950.75
717.186	44743.98
717.53	44947.36
717.873	44941.04
718.216	44732.23
718.559	44684.09
718.902	44376.76
719.246	44410.2
719.589	44243.43
719.932	44177.44
720.275	44132.92
720.617	44132.24
720.96	44103.32
721.303	43991.46
721.646	43993.49
721.989	43697.23
722.331	43814.29
722.674	43698.81
723.016	43771.12
723.359	43520.28
723.701	43829.88
724.044	43475.54
724.386	43293.62
724.729	43410.68
725.071	43312.15
725.413	43323.68
725.755	43296.33
726.097	43147.41
726.439	42883.46
726.782	43026.28
727.124	43096.56
727.465	42847.98
727.807	42752.39
728.149	42658.16
728.491	42638.72
728.833	42791.04
729.175	42561.44
729.516	42438.28
729.858	42282.12
730.199	42403.7
730.541	42370.48
730.882	42285.96
731.224	42458.84
731.565	42031.73
731.906	41965.97
732.248	42041.9
732.589	41889.14
732.93	41854.79
733.271	41750.61
733.612	41778.86
733.953	41868.57
734.294	41697.05
734.635	41653.21
734.976	41659.09
735.317	41430.62
735.658	41532.76
735.999	41497.51
736.339	41347.23
736.68	41340.23
737.021	41219.78
737.361	41069.5
737.702	41295.93
738.042	41168.93
738.383	41039.44
738.723	41023.4
739.063	40883.52
739.404	41041.93
739.744	40820.69
740.084	40665.67
740.424	40837.64
740.764	40577.53
741.104	40670.41
741.444	40581.15
741.784	40357.88
742.124	40374.38
742.464	40361.95
742.804	40371.44
743.143	40310.88
743.483	40229.97
743.823	40198.79
744.162	40075.18
744.502	40061.84
744.841	39974.16
745.181	40138.45
745.52	39916.31
745.86	39987.27
746.199	39820.27
746.538	39723.77
746.877	39823.66
747.216	39747.27
747.556	39533.27
747.895	39703.21
748.234	39384.12
748.573	39268.64
748.911	39357.68
749.25	39331.69
749.589	39154.52
749.928	39179.83
750.267	39243.11
750.605	39088.76
750.944	39004.02
751.283	38857.13
751.621	38904.81
751.96	38678.15
752.298	38704.82
752.636	38596.34
