Data from white_steel_sheet_FLMS001491_011.txt Node
Date: Tue Feb 07 10:57:27 GMT 2017
User: dcchb
Spectrometer: FLMS00149
Trigger mode: 0
Integration Time (sec): 2.000000E-2
Scans to average: 10
Electric dark correction enabled: true
Nonlinearity correction enabled: false
Boxcar width: 0
XAxis mode: Wavelengths
Number of Pixels in Spectrum: 2048
>>>>>Begin Spectral Data<<<<<
341.393	-7.1
341.776	-7.1
342.16	-7.1
342.543	-52.53
342.927	-70.15
343.31	-70.38
343.693	-85.75
344.077	-60.66
344.46	-50.49
344.843	-66.76
345.226	-44.39
345.61	-16.14
345.993	-5.3
346.376	-10.04
346.759	45.78
347.142	19.11
347.525	46
347.908	42.84
348.291	71.09
348.674	86.45
349.057	98.66
349.44	134.13
349.823	143.17
350.206	153.8
350.588	198.09
350.971	207.35
351.354	232.21
351.737	247.13
352.119	244.41
352.502	296.16
352.884	274.02
353.267	292.55
353.65	297.07
354.032	302.04
354.414	341.81
354.797	336.39
355.179	329.61
355.562	328.71
355.944	338.2
356.326	337.97
356.709	334.13
357.091	341.59
357.473	328.48
357.855	321.25
358.238	344.3
358.62	360.8
359.002	333
359.384	354.47
359.766	345.2
360.148	343.39
360.53	320.12
360.912	335.71
361.294	328.93
361.676	328.93
362.057	343.62
362.439	342.27
362.821	368.03
363.203	369.83
363.584	329.61
363.966	326.9
364.348	320.12
364.729	332.55
365.111	337.29
365.493	342.04
365.874	314.24
366.256	313.11
366.637	311.08
367.019	330.29
367.4	325.99
367.781	330.74
368.163	309.5
368.544	342.27
368.925	306.11
369.306	321.47
369.688	335.49
370.069	334.81
370.45	321.25
370.831	342.94
371.212	335.26
371.593	308.37
371.974	314.24
372.355	312.44
372.736	320.12
373.117	327.12
373.498	331.87
373.879	339.78
374.26	313.57
374.641	315.37
375.021	320.8
375.402	336.62
375.783	361.47
376.163	353.79
376.544	335.49
376.925	350.4
377.305	328.48
377.686	361.93
378.066	326.9
378.447	358.31
378.827	351.53
379.208	368.25
379.588	358.99
379.968	351.08
380.349	348.37
380.729	332.1
381.109	348.59
381.489	361.93
381.87	373.45
382.25	371.87
382.63	370.29
383.01	384.98
383.39	359.89
383.77	365.77
384.15	359.44
384.53	379.78
384.91	383.17
385.29	384.07
385.67	376.16
386.049	378.65
386.429	401.02
386.809	405.09
387.189	400.57
387.568	395.82
387.948	406.22
388.328	377.52
388.707	392.89
389.087	434.24
389.466	403.05
389.846	410.51
390.225	411.19
390.605	430.17
390.984	431.08
391.363	429.27
391.743	442.38
392.122	410.96
392.501	448.25
392.881	455.26
393.26	461.36
393.639	445.54
394.018	448.02
394.397	455.71
394.776	454.13
395.155	463.39
395.534	470.4
395.913	469.49
396.292	469.49
396.671	479.21
397.05	495.71
397.429	498.19
397.808	494.35
398.186	500.45
398.565	499.1
398.944	504.52
399.323	527.8
399.701	503.16
400.08	525.76
400.458	539.1
400.837	549.72
401.215	556.72
401.594	554.91
401.972	565.54
402.351	568.7
402.729	587
403.107	572.32
403.486	597.63
403.864	585.65
404.242	619.77
404.62	624.52
404.999	637.17
405.377	652.77
405.755	631.3
406.133	644.4
406.511	658.87
406.889	663.61
407.267	688.7
407.645	685.98
408.023	711.07
408.401	725.53
408.779	721.92
409.156	737.28
409.534	723.95
409.912	749.94
410.29	752.65
410.667	774.57
411.045	770.73
411.422	820.44
411.8	848.92
412.178	859.31
412.555	833.55
412.933	836.49
413.31	830.39
413.687	877.39
414.065	870.16
414.442	887.34
414.819	904.74
415.197	883.49
415.574	911.74
415.951	950.61
416.328	931.18
416.705	951.29
417.082	967.11
417.46	978.18
417.837	986.09
418.214	983.15
418.591	998.97
418.967	979.08
419.344	1012.98
419.721	1048.69
420.098	1038.07
420.475	1015.24
420.852	1066.77
421.228	1049.82
421.605	1083.49
421.982	1076.71
422.358	1069.7
422.735	1095.24
423.111	1116.26
423.488	1105.86
423.864	1154.45
424.241	1161.45
424.617	1174.11
424.994	1195.35
425.37	1209.81
425.746	1211.85
426.123	1193.32
426.499	1211.62
426.875	1244.39
427.251	1238.29
427.627	1287.32
428.003	1291.39
428.379	1316.48
428.756	1324.84
429.132	1356.48
429.507	1368.68
429.883	1362.35
430.259	1372.29
430.635	1405.74
431.011	1409.81
431.387	1457.04
431.763	1484.38
432.138	1472.63
432.514	1508.79
432.89	1505.62
433.265	1544.27
433.641	1548.11
434.016	1581.33
434.392	1610.25
434.767	1660.65
435.143	1636.24
435.518	1654.09
435.894	1663.13
436.269	1706.75
436.644	1709.01
437.02	1744.26
437.395	1738.84
437.77	1771.61
438.145	1799.4
438.52	1803.92
438.895	1801.21
439.271	1842.34
439.646	1878.72
440.021	1858.61
440.395	1900.19
440.77	1903.13
441.145	1930.02
441.52	1936.12
441.895	1959.4
442.27	1956.01
442.645	1997.36
443.019	1981.09
443.394	2005.72
443.769	2005.5
444.143	2004.37
444.518	2039.85
444.892	2068.1
445.267	2073.52
445.641	2092.73
446.016	2129.11
446.39	2125.72
446.764	2138.38
447.139	2144.03
447.513	2199.84
447.887	2185.61
448.262	2167.75
448.636	2204.36
449.01	2226.06
449.384	2277.58
449.758	2272.84
450.132	2308.54
450.506	2329.78
450.88	2331.59
451.254	2339.05
451.628	2396.9
452.002	2359.39
452.376	2406.62
452.75	2426.96
453.123	2449.55
453.497	2516.67
453.871	2539.27
454.244	2570.46
454.618	2576.1
454.992	2612.94
455.365	2644.58
455.739	2722.77
456.112	2736.55
456.486	2751.47
456.859	2772.48
457.232	2816.55
457.606	2800.96
457.979	2861.29
458.352	2893.84
458.725	2951.69
459.099	2952.82
459.472	3046.6
459.845	3053.38
460.218	3080.95
460.591	3094.96
460.964	3130.21
461.337	3164.56
461.71	3185.81
462.083	3298.8
462.456	3300.15
462.829	3269.42
463.201	3347.84
463.574	3405.69
463.947	3425.35
464.32	3455.63
464.692	3516.64
465.065	3530.43
465.438	3600.03
465.81	3652.23
466.183	3652.23
466.555	3755.06
466.928	3763.42
467.3	3780.14
467.672	3845.45
468.045	3906.92
468.417	3936.97
468.789	4006.8
469.161	4013.58
469.534	4077.76
469.906	4169.06
470.278	4179
470.65	4221.49
471.022	4321.82
471.394	4392.55
471.766	4434.13
472.138	4541.48
472.51	4581.93
472.882	4644.3
473.253	4717.52
473.625	4755.93
473.997	4879.09
474.369	4897.85
474.74	4992.09
475.112	5032.31
475.484	5089.71
475.855	5241.12
476.227	5273.89
476.598	5386.2
476.97	5397.05
477.341	5548.91
477.713	5648.57
478.084	5679.53
478.455	5853.53
478.827	5914.55
479.198	6036.58
479.569	6041.32
479.94	6238.38
480.311	6257.14
480.682	6404.03
481.053	6536
481.424	6687.63
481.795	6689.67
482.166	6827.74
482.537	6931.47
482.908	7014.41
483.279	7140.73
483.65	7328.52
484.021	7362.19
484.391	7497.11
484.762	7599.93
485.133	7647.38
485.503	7732.13
485.874	7922.86
486.244	8001.27
486.615	8167.6
486.985	8264.54
487.356	8383.18
487.726	8429.06
488.097	8619.34
488.467	8643.52
488.837	8859.78
489.207	8946.56
489.578	9097.97
489.948	9110.85
490.318	9284.18
490.688	9327.57
491.058	9461.35
491.428	9655.69
491.798	9658.86
492.168	9884.39
492.538	9919.64
492.908	10043.03
493.278	10159.41
493.648	10259.74
494.017	10335.45
494.387	10503.35
494.757	10567.31
495.126	10731.6
495.496	10664.71
495.866	10820.41
496.235	10877.13
496.605	11032.61
496.974	11109.44
497.344	11232.83
497.713	11228.08
498.082	11363.22
498.452	11553.72
498.821	11456.55
499.19	11592.36
499.559	11737.22
499.928	11831.23
500.298	11867.84
500.667	12047.27
501.036	11993.48
501.405	12232.35
501.774	12148.28
502.143	12255.17
502.512	12393.93
502.88	12541.94
503.249	12465.56
503.618	12622.17
503.987	12755.5
504.356	12740.13
504.724	12957.53
505.093	12902.16
505.462	13019.45
505.83	13073.91
506.199	13149.84
506.567	13451.98
506.936	13413.79
507.304	13587.11
507.672	13628.24
508.041	13771.52
508.409	13825.07
508.777	13937.39
509.145	14050.38
509.514	14047.89
509.882	14207.44
510.25	14234.78
510.618	14460.09
510.986	14382.57
511.354	14562.68
511.722	14744.6
512.09	14869.57
512.458	14858.27
512.826	15037.47
513.193	15105.04
513.561	15096.68
513.929	15268.2
514.297	15458.7
514.664	15635.87
515.032	15619.6
515.4	15726.04
515.767	15823.44
516.135	15932.14
516.502	15877.9
516.869	16230.21
517.237	16317.44
517.604	16264.56
517.972	16496.64
518.339	16605.79
518.706	16578.22
519.073	16630.88
519.44	16912
519.808	17041.71
520.175	17114.03
520.542	17418.43
520.909	17477.63
521.276	17524.64
521.643	17676.72
522.009	17815.03
522.376	17975.47
522.743	18180.89
523.11	18279.65
523.477	18495.69
523.843	18521.22
524.21	18709.01
524.577	18958.72
524.943	19056.8
525.31	19142
525.676	19378.37
526.043	19414.08
526.409	19559.84
526.776	19697.24
527.142	19814.3
527.508	19921.19
527.874	20136.77
528.241	20237.34
528.607	20161.18
528.973	20498.8
529.339	20612.24
529.705	20838.22
530.071	20901.05
530.437	21056.97
530.803	21192.56
531.169	21277.31
531.535	21209.96
531.901	21346.46
532.267	21549.84
532.632	21684.3
532.998	21789.38
533.364	21945.76
533.73	22019.66
534.095	22188.7
534.461	22214.91
534.826	22352.31
535.192	22306.66
535.557	22587.33
535.923	22578.74
536.288	22688.34
536.653	22839.75
537.019	22790.49
537.384	22874.33
537.749	22998.84
538.114	23143.93
538.479	23161.55
538.845	23316.12
539.21	23358.38
539.575	23423.92
539.94	23493.97
540.305	23646.51
540.67	23679.73
541.034	23809.67
541.399	23886.05
541.764	24050.57
542.129	23995.2
542.494	24136.22
542.858	24233.61
543.223	24282.88
543.587	24397.68
543.952	24386.83
544.316	24613.49
544.681	24677.22
545.045	24702.53
545.41	24859.36
545.774	24949.98
546.138	24928.29
546.503	24999.02
546.867	25091.44
547.231	25342.51
547.595	25224.55
547.959	25399.91
548.324	25401.72
548.688	25478.33
549.052	25544.54
549.416	25580.02
549.779	25724.87
550.143	25800.8
550.507	26010.97
550.871	26136.39
551.235	26086.9
551.599	26297.97
551.962	26370.96
552.326	26435.36
552.689	26625.64
553.053	26402.37
553.417	26479.88
553.78	26890.95
554.143	26741.8
554.507	26984.73
554.87	27120.77
555.234	27296.36
555.597	27146.53
555.96	27312.63
556.323	27492.29
556.686	27496.13
557.05	27644.15
557.413	27889.34
557.776	27921.88
558.139	27917.13
558.502	28159.16
558.865	28217.92
559.228	28335.2
559.59	28370
559.953	28535.87
560.316	28840.95
560.679	28771.35
561.041	29067.61
561.404	29096.99
561.767	29387.38
562.129	29170.43
562.492	29620.59
562.854	29534.04
563.217	29511.67
563.579	29720.93
563.941	29813.81
564.304	30034.82
564.666	30155.94
565.028	30281.14
565.39	30362.49
565.753	30632.09
566.115	30623.05
566.477	30692.2
566.839	30917.28
567.201	31068.69
567.563	31124.96
567.925	31248.35
568.287	31348.91
568.648	31409.47
569.01	31492.41
569.372	31728.33
569.734	31719.07
570.095	31759.07
570.457	32031.6
570.819	32014.43
571.18	32068.44
571.542	32378.94
571.903	32335.1
572.265	32467.75
572.626	32543.68
572.987	32558.37
573.349	32725.59
573.71	32732.15
574.071	32872.26
574.432	32952.26
574.794	33142.76
575.155	33144.11
575.516	33046.26
575.877	33218.46
576.238	33253.49
576.599	33319.25
576.96	33315.41
577.32	33490.09
577.681	33589.3
578.042	33516.99
578.403	33728.05
578.763	33617.55
579.124	33686.7
579.485	33857.54
579.845	33919.01
580.206	33865.23
580.566	33873.36
580.927	33915.17
581.287	33996.75
581.648	33892.57
582.008	34097.08
582.368	34055.95
582.728	33961.49
583.089	34033.36
583.449	33951.78
583.809	34081.72
584.169	34130.76
584.529	34183.18
584.889	34308.15
585.249	34137.76
585.609	34017.09
585.969	34184.99
586.329	34221.37
586.688	34133.24
587.048	34098.44
587.408	34114.26
587.768	34261.83
588.127	34168.27
588.487	34151.55
588.846	34337.53
589.206	34148.38
589.565	34177.08
589.925	34309.96
590.284	34163.3
590.643	34209.62
591.003	34205.33
591.362	34305.89
591.721	34372.1
592.08	34187.02
592.44	34250.98
592.799	34218.89
593.158	34192
593.517	34113.35
593.876	34247.59
594.235	34170.98
594.593	34228.83
594.952	34291.88
595.311	34161.94
595.67	34277.87
596.029	34453.68
596.387	34384.53
596.746	34451.42
597.104	34271.77
597.463	34348.38
597.822	34429.96
598.18	34260.47
598.538	34297.53
598.897	34526.9
599.255	34206.46
599.613	34577.97
599.972	34478.99
600.33	34545.43
600.688	34365.78
601.046	34579.1
601.404	34595.15
601.762	34577.07
602.12	34737.52
602.478	34579.78
602.836	34611.19
603.194	34355.38
603.552	34616.84
603.91	34517.64
604.268	34667.46
604.625	34652.32
604.983	34645.32
605.341	34557.86
605.698	34803.51
606.056	34773.9
606.413	34601.03
606.771	34798.08
607.128	34818.42
607.485	34617.75
607.843	34684.86
608.2	34928.93
608.557	34956.72
608.914	34809.38
609.272	34964.18
609.629	35060.67
609.986	35241.46
610.343	34891.41
610.7	35215.7
611.057	35208.01
611.414	35172.08
611.771	35156.26
612.127	35321.91
612.484	35198.98
612.841	35399.65
613.198	35344.51
613.554	35281.23
613.911	35562.36
614.267	35600.77
614.624	35609.59
614.98	35631.05
615.337	35673.31
615.693	35641
616.05	35688
616.406	35872.63
616.762	35723.71
617.118	35772.75
617.475	35733.42
617.831	35836.02
618.187	35767.77
618.543	35904.27
618.899	35939.52
619.255	35926.87
619.611	36012.51
619.967	36056.13
620.323	36098.39
620.678	36013.87
621.034	35921.44
621.39	35990.14
621.746	35897.49
622.101	36297.48
622.457	36054.55
622.812	36266.74
623.168	36249.8
623.523	36220.87
623.879	36371.6
624.234	36037.15
624.589	36167.76
624.945	36277.82
625.3	36288.89
625.655	36250.7
626.01	36154.2
626.365	36374.31
626.72	36006.41
627.075	36175
627.43	36061.33
627.785	36061.55
628.14	36190.14
628.495	36115.34
628.85	36127.99
629.205	35999.86
629.559	36159.85
629.914	35968.9
630.269	35955.57
630.623	35991.5
630.978	35913.08
631.332	36140.19
631.687	35981.55
632.041	35952.4
632.396	35816.36
632.75	35780.66
633.104	35793.99
633.459	35668.12
633.813	35663.6
634.167	35620.43
634.521	35579.53
634.875	35681.9
635.229	35577.27
635.583	35347.45
635.937	35360.78
636.291	35416.82
636.645	35345.64
636.999	35368.24
637.352	35353.55
637.706	35173.44
638.06	35351.97
638.413	35151.52
638.767	35059.77
639.121	35102.25
639.474	34886.44
639.828	34971.41
640.181	34958.53
640.534	34963.5
640.888	34855.48
641.241	34681.7
641.594	34815.93
641.947	34818.65
642.301	34653.23
642.654	34673.34
643.007	34633.57
643.36	34658.42
643.713	34558.99
644.066	34562.83
644.419	34416.85
644.771	34094.82
645.124	33809.41
645.477	33667.94
645.83	33474.95
646.182	33375.52
646.535	33284
646.888	33349.53
647.24	33272.25
647.593	33307.05
647.945	33231.34
648.298	33162.42
648.65	33101.86
649.002	33071.57
649.355	33170.55
649.707	32978.02
650.059	33096.21
650.411	33563.76
650.763	33627.94
651.115	33937.99
651.467	33709.07
651.819	33741.39
652.171	33670.43
652.523	33603.76
652.875	33696.87
653.227	33522.86
653.578	33687.6
653.93	33586.14
654.282	33420.49
654.633	33330.55
654.985	33481.05
655.337	33440.6
655.688	33414.16
656.039	33535.97
656.391	33222.3
656.742	33184.11
657.094	33276.54
657.445	33393.6
657.796	33325.58
658.147	33127.39
658.498	33194.28
658.849	33186.83
659.2	33222.08
659.551	33062.31
659.902	33148.63
660.253	33011.24
660.604	32982.99
660.955	32832.48
661.306	32948.64
661.656	32901.86
662.007	32969.43
662.358	32810.56
662.708	32671.13
663.059	32587.52
663.409	32488.76
663.76	32670.68
664.11	32626.61
664.461	32638.82
664.811	32622.09
665.161	32426.39
665.511	32459.84
665.862	32286.28
666.212	32390.69
666.562	32432.72
666.912	32348.88
667.262	32134.88
667.612	32086.29
667.962	32082.22
668.312	31928.55
668.662	32105.27
669.011	31972.85
669.361	31800.65
669.711	31791.83
670.06	31618.5
670.41	31559.75
670.76	31381.9
671.109	31491.73
671.459	31306.87
671.808	31193.21
672.157	31264.39
672.507	31044.96
672.856	31086.77
673.205	31056.03
673.554	31136.48
673.904	30892.42
674.253	31131.96
674.602	30924.74
674.951	30436.39
675.3	30147.36
675.649	30714.8
675.998	30691.52
676.346	30770.84
676.695	30791.63
677.044	30589.15
677.393	30644.07
677.741	30645.65
678.09	30620.79
678.438	30524.97
678.787	30565.88
679.135	30496.73
679.484	30433.45
679.832	30479.33
680.181	30388.71
680.529	30472.32
680.877	30359.1
681.225	30207.47
681.573	30517.29
681.922	30249.28
682.27	30106.68
682.618	30231.65
682.966	30216.96
683.314	30416.73
683.661	30381.93
684.009	30178.54
684.357	30166.11
684.705	30133.35
685.053	30353.91
685.4	30292.66
685.748	30112.33
686.095	30170.86
686.443	30035.27
686.79	30078.66
687.138	30141.93
687.485	30173.57
687.832	30082.5
688.18	30176.96
688.527	30040.02
688.874	30137.64
689.221	30021.71
689.568	29988.94
689.915	29992.56
690.262	30057.19
690.609	29845.9
690.956	29910.75
691.303	29761.83
691.65	29615.17
691.997	29896.52
692.344	29720.93
692.69	29654.04
693.037	29729.06
693.383	29502.4
693.73	29613.36
694.077	29487.04
694.423	29548.5
694.769	29505.34
695.116	29372.91
695.462	29393.48
695.808	29347.83
696.155	29422.86
696.501	29142.41
696.847	29178.79
697.193	29075.97
697.539	29014.96
697.885	28903.1
698.231	28766.6
698.577	28907.39
698.923	28777.9
699.269	28710.11
699.614	28415.43
699.96	28405.93
700.306	28476.21
700.651	28471.47
700.997	28291.59
701.342	28412.04
701.688	28273.96
702.033	28149.44
702.379	28198.26
702.724	28033.97
703.069	28076.23
703.415	27751.94
703.76	27769.11
704.105	27810.24
704.45	27734.54
704.795	27548.56
705.14	27527.99
705.485	27546.52
705.83	27281.9
706.175	27560.98
706.52	27302.46
706.865	27222.91
707.209	27237.6
707.554	27141.56
707.899	27120.54
708.243	26935.46
708.588	26892.98
708.932	26796.71
709.277	26674.68
709.621	26735.47
709.966	26515.14
710.31	26608.24
710.654	26435.14
710.998	26507.23
711.342	26461.8
711.687	26306.55
712.031	26307.46
712.375	26253.45
712.719	26161.02
713.063	26168.93
713.407	26210.51
713.75	26096.16
714.094	26202.38
714.438	26009.16
714.782	25926
715.125	25899.11
715.469	25919.22
715.812	25707.25
716.156	25694.37
716.499	25681.03
716.843	25659.57
717.186	25474.03
717.53	25555.61
717.873	25613.92
718.216	25448.27
718.559	25487.59
718.902	25240.14
719.246	25379.12
719.589	25199.92
719.932	25146.58
720.275	25120.82
720.617	25057.77
720.96	25112.24
721.303	25037.43
721.646	25066.59
721.989	24982.3
722.331	24938
722.674	24848.74
723.016	24924.67
723.359	24840.6
723.701	24849.64
724.044	24609.65
724.386	24505.92
724.729	24599.03
725.071	24460.73
725.413	24550.89
725.755	24487.62
726.097	24474.29
726.439	24321.75
726.782	24354.74
727.124	24508.64
727.465	24234.52
727.807	24132.6
728.149	24226.61
728.491	24222.32
728.833	24251.01
729.175	24087.4
729.516	24084.69
729.858	23912.27
730.199	24097.12
730.541	23974.86
730.882	23882.21
731.224	23995.88
731.565	23756.79
731.906	23854.19
732.248	23774.64
732.589	23619.17
732.93	23593.86
733.271	23551.37
733.612	23630.24
733.953	23551.15
734.294	23561.99
734.635	23377.59
734.976	23448.55
735.317	23449.68
735.658	23327.88
735.999	23275
736.339	23261.89
736.68	23349.12
737.021	23169.91
737.361	23147.77
737.702	23154.55
738.042	23199.52
738.383	23048.33
738.723	23103.7
739.063	23042.91
739.404	23042.69
739.744	23009.92
740.084	22940.77
740.424	23031.39
740.764	22879.53
741.104	22937.15
741.444	22748.68
741.784	22593.66
742.124	22804.95
742.464	22602.47
742.804	22653.32
743.143	22629.14
743.483	22629.14
743.823	22463.49
744.162	22559.99
744.502	22497.84
744.841	22304.4
745.181	22484.73
745.52	22351.86
745.86	22418.07
746.199	22305.76
746.538	22258.75
746.877	22261.01
747.216	22301.24
747.556	22176.72
747.895	22177.17
748.234	22157.96
748.573	22060.11
748.911	21934.69
749.25	21969.94
749.589	21806.79
749.928	21975.82
750.267	21917.29
750.605	21850.4
750.944	21790.74
751.283	21677.3
751.621	21676.39
751.96	21555.94
752.298	21539.45
752.636	21569.5
752.975	21506
753.313	21379.23
753.651	21542.16
753.989	21278.66
754.327	21298.78
