Data from White_reflection_standard_FLMS001491_017.txt Node
Date: Tue Feb 07 10:31:58 GMT 2017
User: dcchb
Spectrometer: FLMS00149
Trigger mode: 0
Integration Time (sec): 2.000000E-2
Scans to average: 10
Electric dark correction enabled: true
Nonlinearity correction enabled: false
Boxcar width: 0
XAxis mode: Wavelengths
Number of Pixels in Spectrum: 2048
>>>>>Begin Spectral Data<<<<<
341.393	-14.99
341.776	-14.99
342.16	-14.99
342.543	-59.73
342.927	-69.22
343.31	-81.65
343.693	-64.25
344.077	-74.19
344.46	-78.26
344.843	-62.44
345.226	-41.2
345.61	-23.57
345.993	-12.05
346.376	9.65
346.759	11.91
347.142	23.21
347.525	35.63
347.908	66.37
348.291	78.57
348.674	94.39
349.057	117.89
349.44	106.59
349.823	147.72
350.206	194.73
350.588	246.02
350.971	265.01
351.354	267.04
351.737	281.05
352.119	294.84
352.502	290.77
352.884	313.59
353.267	326.02
353.65	316.08
354.032	338.23
354.414	366.47
354.797	380.03
355.179	377.77
355.562	382.07
355.944	368.73
356.326	381.84
356.709	386.81
357.091	390.65
357.473	396.98
357.855	420.48
358.238	398.79
358.62	410.99
359.002	422.52
359.384	414.83
359.766	404.66
360.148	413.48
360.53	378.9
360.912	403.53
361.294	402.4
361.676	415.96
362.057	390.2
362.439	424.33
362.821	396.76
363.203	410.31
363.584	402.18
363.966	408.51
364.348	401.05
364.729	423.2
365.111	424.33
365.493	422.07
365.874	420.26
366.256	414.38
366.637	420.03
367.019	406.92
367.4	419.35
367.781	430.2
368.163	416.42
368.544	415.96
368.925	398.11
369.306	421.61
369.688	440.14
370.069	438.11
370.45	428.39
370.831	419.35
371.212	436.08
371.593	430.65
371.974	464.78
372.355	435.85
372.736	459.58
373.117	463.19
373.498	439.01
373.879	452.35
374.26	454.15
374.641	419.58
375.021	446.02
375.402	470.88
375.783	485.11
376.163	516.53
376.544	509.52
376.925	475.4
377.305	507.71
377.686	498.9
378.066	480.82
378.447	493.02
378.827	495.06
379.208	518.11
379.588	524.21
379.968	519.46
380.349	530.99
380.729	547.26
381.109	519.01
381.489	535.06
381.87	553.36
382.25	538.9
382.63	550.2
383.01	562.85
383.39	552.46
383.77	571.89
384.15	587.26
384.53	580.93
384.91	583.87
385.29	605.56
385.67	609.18
386.049	623.64
386.429	588.61
386.809	636.3
387.189	615.51
387.568	617.77
387.948	641.04
388.328	641.95
388.707	657.54
389.087	683.08
389.466	660.48
389.846	658.67
390.225	660.25
390.605	711.55
390.984	688.27
391.363	707.03
391.743	694.37
392.122	722.4
392.501	741.38
392.881	737.76
393.26	766.46
393.639	759.68
394.018	759.23
394.397	777.99
394.776	783.64
395.155	788.84
395.534	809.63
395.913	786.8
396.292	799.91
396.671	822.51
397.05	843.07
397.429	844.43
397.808	832.68
398.186	842.39
398.565	850.98
398.944	878.78
399.323	850.53
399.701	878.1
400.08	871.54
400.458	893.01
400.837	944.31
401.215	933.46
401.594	922.39
401.972	953.58
402.351	967.14
402.729	977.08
403.107	989.96
403.486	974.37
403.864	1005.33
404.242	981.82
404.62	1018.21
404.999	1040.35
405.377	1011.88
405.755	1054.82
406.133	1072.9
406.511	1066.57
406.889	1095.95
407.267	1106.57
407.645	1137.75
408.023	1168.03
408.401	1165.77
408.779	1152.22
409.156	1175.94
409.534	1199.67
409.912	1211.87
410.29	1218.43
410.667	1240.12
411.045	1268.37
411.422	1302.04
411.8	1328.48
412.178	1338.65
412.555	1346.11
412.933	1384.98
413.31	1366.67
413.687	1407.8
414.065	1415.26
414.442	1403.96
414.819	1431.08
415.197	1460
415.574	1480.12
415.951	1517.63
416.328	1521.7
416.705	1528.25
417.082	1525.09
417.46	1569.61
417.837	1567.12
418.214	1573.45
418.591	1608.7
418.967	1627.91
419.344	1649.83
419.721	1649.38
420.098	1640.56
420.475	1673.11
420.852	1722.37
421.228	1740.67
421.605	1756.95
421.982	1770.73
422.358	1775.93
422.735	1824.97
423.111	1823.16
423.488	1834.23
423.864	1844.85
424.241	1881.46
424.617	1905.42
424.994	1935.7
425.37	1942.48
425.746	1959.88
426.123	2008.69
426.499	2027.22
426.875	2047.33
427.251	2036.94
427.627	2106.31
428.003	2118.07
428.379	2152.42
428.756	2148.12
429.132	2211.4
429.507	2226.76
429.883	2241.23
430.259	2305.18
430.635	2327.33
431.011	2320.32
431.387	2416.81
431.763	2446.64
432.138	2450.26
432.514	2481.9
432.89	2487.55
433.265	2584.04
433.641	2599.86
434.016	2632.18
434.392	2678.28
434.767	2720.76
435.143	2715.34
435.518	2765.51
435.894	2784.71
436.269	2868.55
436.644	2853.64
437.02	2879.85
437.395	2933.19
437.77	2969.34
438.145	2975.9
438.52	3019.96
438.895	3054.31
439.271	3056.8
439.646	3120.53
440.021	3163.91
440.395	3216.12
440.77	3177.92
441.145	3217.02
441.52	3257.47
441.895	3277.81
442.27	3320.29
442.645	3350.35
443.019	3349.9
443.394	3376.79
443.769	3371.82
444.143	3384.25
444.518	3523.23
444.892	3430.12
445.267	3480.97
445.641	3527.75
446.016	3547.18
446.39	3608.87
446.764	3602.32
447.139	3578.82
447.513	3639.38
447.887	3689.32
448.262	3696.1
448.636	3743.11
449.01	3796.21
449.384	3791.02
449.758	3852.03
450.132	3923.22
450.506	3966.38
450.88	3927.96
451.254	3932.93
451.628	4036.66
452.002	4037.34
452.376	4064.68
452.75	4171.35
453.123	4176.32
453.497	4257.22
453.871	4289.76
454.244	4381.06
454.618	4442.52
454.992	4469.19
455.365	4471.45
455.739	4596.42
456.112	4619.92
456.486	4691.78
456.859	4729.75
457.232	4816.53
457.606	4767.49
457.979	4902.17
458.352	4970.87
458.725	4999.35
459.099	5050.42
459.472	5151.43
459.845	5194.37
460.218	5219.45
460.591	5317.3
460.964	5374.03
461.337	5483.18
461.71	5580.57
462.083	5645.66
462.456	5639.33
462.829	5695.37
463.201	5799.78
463.574	5816.05
463.947	5884.97
464.32	6031.86
464.692	6103.72
465.065	6111.63
465.438	6220.56
465.81	6348.24
466.183	6359.99
466.555	6561.11
466.928	6610.15
467.3	6545.97
467.672	6661
468.045	6848.11
468.417	6886.75
468.789	6980.31
469.161	7051.5
469.534	7146.86
469.906	7311.83
470.278	7364.48
470.65	7480.41
471.022	7612.16
471.394	7750.46
471.766	7839.5
472.138	7945.48
472.51	8127.17
472.882	8226.15
473.253	8336.89
473.625	8420.95
473.997	8604.22
474.369	8629.31
474.74	8804.67
475.112	8923.99
475.484	9051.44
475.855	9255.05
476.227	9262.06
476.598	9640.13
476.97	9653.91
477.341	9944.75
477.713	10049.38
478.084	10088.25
478.455	10402.82
478.827	10490.28
479.198	10745.86
479.569	10820.21
479.94	11139.98
480.311	11200.09
480.682	11550.81
481.053	11747.87
481.424	12002.55
481.795	12057.24
482.166	12235.99
482.537	12393.95
482.908	12659.71
483.279	12776.54
483.65	12981.06
484.021	13272.8
484.391	13475.96
484.762	13577.88
485.133	13660.14
485.503	13887.02
485.874	14227.8
486.244	14371.3
486.615	14604.29
486.985	14818.07
487.356	15112.98
487.726	15218.51
488.097	15508.22
488.467	15542.8
488.837	15933.97
489.207	16114.53
489.578	16371.02
489.948	16519.27
490.318	16755.87
490.688	16876.55
491.058	17018.01
491.428	17251.23
491.798	17403.99
492.168	17811.89
492.538	17853.47
492.908	18134.59
493.278	18283.52
493.648	18302.27
494.017	18533.91
494.387	18695.48
494.757	18918.53
495.126	19083.04
495.496	19232.64
495.866	19369.59
496.235	19606.42
496.605	19736.59
496.974	19933.64
497.344	20069.46
497.713	20262.9
498.082	20386.96
498.452	20548.32
498.821	20669.22
499.19	20825.14
499.559	20959.6
499.928	21232.14
500.298	21243.21
500.667	21445.69
501.036	21499.03
501.405	21797.77
501.774	21817.89
502.143	22048.62
502.512	22144.43
502.88	22358.66
503.249	22349.85
503.618	22541.26
503.987	22630.97
504.356	22879.55
504.724	22946.9
505.093	23048.59
505.462	23289.26
505.83	23370.61
506.199	23540.78
506.567	23860.09
506.936	23786.65
507.304	24191.84
507.672	24362.9
508.041	24374.43
508.409	24646.29
508.777	24806.96
509.145	25017.58
509.514	25004.7
509.882	25173.5
510.25	25190.45
510.618	25544.34
510.986	25672.47
511.354	25899.81
511.722	26137.32
512.09	26465.22
512.458	26316.3
512.826	26726.46
513.193	26812.11
513.561	26938.43
513.929	27144.07
514.297	27344.97
514.664	27608.47
515.032	27718.97
515.4	28009.59
515.767	28074.22
516.135	28261.79
516.502	28167.78
516.869	28771.15
517.237	28882.11
517.604	28820.64
517.972	29203.91
518.339	29375.43
518.706	29392.83
519.073	29652.71
519.44	29792.59
519.808	30244.78
520.175	30296.31
520.542	30647.26
520.909	30891.77
521.276	30880.47
521.643	31241.59
522.009	31447.01
522.376	31815.82
522.743	31867.57
523.11	32143.94
523.477	32517.04
523.843	32600.65
524.21	33079.51
524.577	33223.24
524.943	33473.17
525.31	33545.26
525.676	33914.07
526.043	34183.89
526.409	34300.95
526.776	34735.97
527.142	34691.22
527.508	35109.29
527.874	35411.2
528.241	35520.13
528.607	35564.42
528.973	35956.95
529.339	36084.86
529.705	36283.95
530.071	36689.13
530.437	36676.93
530.803	37060.88
531.169	37273.3
531.535	37301.55
531.901	37484.37
532.267	37569.34
532.632	37963.22
532.998	37970
533.364	38191.47
533.73	38337
534.095	38640.72
534.461	38813.6
534.826	38856.76
535.192	39061.5
535.557	39306.01
535.923	39380.36
536.288	39458.55
536.653	39718.89
537.019	39732.67
537.384	39875.49
537.749	40160.46
538.114	40272.99
538.479	40338.98
538.845	40524.74
539.21	40566.09
539.575	40901.23
539.94	40929.7
540.305	41101.45
540.67	41075.69
541.034	41324.49
541.399	41477.26
541.764	41596.35
542.129	41904.59
542.494	41926.51
542.858	42016.23
543.223	42060.07
543.587	42456.21
543.952	42406.5
544.316	42547.96
544.681	42483.33
545.045	42765.81
545.41	42877.9
545.774	43007.39
546.138	43154.05
546.503	43286.47
546.867	43277.66
547.231	43747.03
547.595	43623.42
547.959	43974.14
548.324	43842.39
548.688	44022.5
549.052	44116.28
549.416	44312.89
549.779	44424.3
550.143	44572.32
550.507	44867.22
550.871	44902.48
551.235	44900.67
551.599	45411.84
551.962	45338.85
552.326	45493.87
552.689	45770.25
553.053	45705.62
553.417	45821.32
553.78	46348.09
554.143	46071.26
554.507	46312.16
554.87	46607.29
555.234	46841.41
555.597	46814.07
555.96	46868.08
556.323	47045.25
556.686	47163.21
557.05	47490.21
557.413	47587.15
557.776	47711.44
558.139	48039.57
558.502	48072.34
558.865	48146.69
559.228	48418.54
559.59	48556.62
559.953	48574.02
560.316	49008.81
560.679	49067.79
561.041	49286.32
561.404	49418.74
561.767	49564.73
562.129	49529.7
562.492	49891.27
562.854	49902.35
563.217	49920.2
563.579	50134.66
563.941	50504.14
564.304	50530.8
564.666	50802.66
565.028	50915.65
565.39	51030.68
565.753	51126.49
566.115	51262.31
566.477	51510.89
566.839	51398.13
567.201	51647.38
567.563	51698.91
567.925	51969.64
568.287	51966.7
568.648	52084.66
569.01	52237.43
569.372	52451.66
569.734	52367.82
570.095	52640.81
570.457	52740.24
570.819	52778.88
571.18	52847.58
571.542	53076.95
571.903	53026.78
572.265	53117.85
572.626	53186.1
572.987	53328.7
573.349	53436.49
573.71	53521.23
574.071	53577.05
574.432	53625.19
574.794	53880.77
575.155	53796.25
575.516	53730.27
575.877	53875.57
576.238	54071.28
576.599	54192.85
576.96	54183.36
577.32	54121.67
577.681	54310.37
578.042	54301.33
578.403	54281.89
578.763	54367.31
579.124	54370.48
579.485	54487.76
579.845	54553.07
580.206	54479.17
580.566	54611.37
580.927	54520.76
581.287	54683.46
581.648	54560.3
582.008	54737.93
582.368	54663.35
582.728	54783.12
583.089	54799.17
583.449	54703.58
583.809	54746.96
584.169	54805.27
584.529	54770.01
584.889	54943.34
585.249	54707.19
585.609	54720.07
585.969	54847.98
586.329	54762.78
586.688	54830.8
587.048	54823.12
587.408	54773.18
587.768	54759.39
588.127	54809.34
588.487	54758.26
588.846	54949.9
589.206	54699.73
589.565	54791.48
589.925	54917.81
590.284	54842.78
590.643	54867.87
591.003	54895.21
591.362	55042.32
591.721	54961.87
592.08	54922.78
592.44	54992.16
592.799	54917.81
593.158	54955.09
593.517	54971.14
593.876	55026.96
594.235	54974.08
594.593	54975.43
594.952	54977.24
595.311	54972.27
595.67	54995.32
596.029	55232.83
596.387	55219.04
596.746	55245.03
597.104	55099.5
597.463	55161.87
597.822	55167.97
598.18	55163.68
598.538	55097.01
598.897	55268.76
599.255	55072.38
599.613	55450.9
599.972	55179.72
600.33	55322.99
600.688	55193.05
601.046	55330.45
601.404	55451.58
601.762	55376.55
602.12	55582.87
602.478	55518.47
602.836	55530.45
603.194	55379.49
603.552	55418.36
603.91	55383.78
604.268	55519.15
604.625	55464.69
604.983	55577.9
605.341	55437.57
605.698	55615.64
606.056	55679.6
606.413	55627.85
606.771	55699.48
607.128	55728.41
607.485	55655.19
607.843	55672.82
608.2	55858.8
608.557	55850.66
608.914	55792.36
609.272	55893.6
609.629	55915.97
609.986	56059.02
610.343	55925.01
610.7	56152.58
611.057	55999.13
611.414	55995.75
611.771	56102.86
612.127	56176.31
612.484	56081.17
612.841	56167.04
613.198	56159.36
613.554	56113.48
613.911	56220.6
614.267	56230.99
614.624	56202.29
614.98	56253.14
615.337	56401.61
615.693	56295.17
616.05	56341.5
616.406	56502.85
616.762	56364.1
617.118	56329.97
617.475	56393.47
617.831	56420.37
618.187	56520.93
618.543	56534.49
618.899	56692.68
619.255	56589.18
619.611	56566.8
619.967	56671.21
620.323	56628.27
620.678	56535.17
621.034	56477.54
621.39	56499.23
621.746	56537.65
622.101	56853.12
622.457	56512.34
622.812	56551.44
623.168	56661.49
623.523	56601.83
623.879	56699
624.234	56475.96
624.589	56663.75
624.945	56603.64
625.3	56622.85
625.655	56596.86
626.01	56581.49
626.365	56625.56
626.72	56528.61
627.075	56569.52
627.43	56540.82
627.785	56459.91
628.14	56505.11
628.495	56566.8
628.85	56533.58
629.205	56505.11
629.559	56635.73
629.914	56494.04
630.269	56458.78
630.623	56384.44
630.978	56349.41
631.332	56426.24
631.687	56511.44
632.041	56357.77
632.396	56443.42
632.75	56228.73
633.104	56295.62
633.459	56170.43
633.813	56159.58
634.167	56210.2
634.521	56207.04
634.875	56180.15
635.229	56088.4
635.583	55901.96
635.937	55936.09
636.291	55945.13
636.645	55937.22
636.999	55906.48
637.352	55957.33
637.706	55685.7
638.06	55885.47
638.413	55845.92
638.767	55767.28
639.121	55816.99
639.474	55625.81
639.828	55605.25
640.181	55562.54
640.534	55684.34
640.888	55551.46
641.241	55410.22
641.594	55511.46
641.947	55582.42
642.301	55475.76
642.654	55462.88
643.007	55338.14
643.36	55379.49
643.713	55384.01
644.066	55438.7
644.419	55195.09
644.771	55021.76
645.124	54743.57
645.477	54641.66
645.83	54564.82
646.182	54417.48
646.535	54342.91
646.888	54323.92
647.24	54250.93
647.593	54361.89
647.945	54295.68
648.298	54098.85
648.65	54109.02
649.002	54035.8
649.355	54059.07
649.707	54047.77
650.059	54127.09
650.411	54484.82
650.763	54499.29
651.115	54731.37
651.467	54627.19
651.819	54658.38
652.171	54645.05
652.523	54454.09
652.875	54482.79
653.227	54386.75
653.578	54579.51
653.93	54389.01
654.282	54277.15
654.633	54234.21
654.985	54290.03
655.337	54337.26
655.688	54236.24
656.039	54356.47
656.391	54119.64
656.742	54144.27
657.094	54130.71
657.445	54219.52
657.796	54165.96
658.147	54074.21
658.498	54002.8
658.849	54061.56
659.2	54007.77
659.551	54042.12
659.902	54073.76
660.253	53989.7
660.604	53932.07
660.955	53774.33
661.306	53967.32
661.656	53809.14
662.007	53826.31
662.358	53842.36
662.708	53840.55
663.059	53803.03
663.409	53662.7
663.76	53800.77
664.11	53749.48
664.461	53794.67
664.811	53796.03
665.161	53807.1
665.511	53622.25
665.862	53648.46
666.212	53793.32
666.562	53714.9
666.912	53614.11
667.262	53638.97
667.612	53594.23
667.962	53631.74
668.312	53558.3
668.662	53674.45
669.011	53594
669.361	53507
669.711	53472.2
670.06	53418.64
670.41	53419.99
670.76	53442.14
671.109	53491.86
671.459	53429.26
671.808	53274.91
672.157	53419.77
672.507	53150.62
672.856	53276.27
673.205	53231.52
673.554	53278.53
673.904	53207.57
674.253	53257.06
674.602	53182.94
674.951	52777.3
675.3	52578.66
675.649	53097.52
675.998	53079.66
676.346	53034.47
676.695	53179.55
677.044	52874.92
677.393	52945.43
677.741	52961.02
678.09	52841.93
678.438	52917.86
678.787	52917.63
679.135	52939.1
679.484	52674.02
679.832	52840.12
680.181	52521.49
680.529	52680.35
680.877	52628.6
681.225	52490.07
681.573	52766.23
681.922	52484.43
682.27	52386.35
682.618	52436.74
682.966	52313.81
683.314	52354.03
683.661	52279.01
684.009	52100.25
684.357	52036.08
684.705	51978.9
685.053	51980.71
685.4	51884.21
685.748	51781.84
686.095	51727.16
686.443	51630.89
686.79	51559.03
687.138	51543.43
687.485	51508.18
687.832	51379.14
688.18	51441.06
688.527	51361.06
688.874	51197.68
689.221	51153.61
689.568	50968.76
689.915	50983.9
690.262	50840.4
690.609	50792.27
690.956	50834.75
691.303	50688.54
691.65	50473.18
691.997	50601.08
692.344	50268.21
692.69	50325.39
693.037	50252.85
693.383	50017.37
693.73	50063.02
694.077	49847.21
694.423	49821.67
694.769	49722.92
695.116	49588.68
695.462	49567.21
695.808	49312.98
696.155	49431.4
696.501	49206.77
696.847	49301.91
697.193	48780.34
697.539	49105.3
697.885	48769.95
698.231	48743.05
698.577	48669.61
698.923	48647.01
699.269	48460.8
699.614	48250.19
699.96	48214.03
700.306	48225.78
700.651	47867.15
700.997	47850.65
701.342	47799.8
701.688	47839.12
702.033	47688.84
702.379	47633.48
702.724	47579.02
703.069	47638.68
703.415	47012.7
703.76	47133.38
704.105	47070.78
704.45	47001.18
704.795	46785.59
705.14	46693.39
705.485	46643
705.83	46460.63
706.175	46538.59
706.52	46270.13
706.865	46201.2
707.209	46212.73
707.554	46034.65
707.899	46061.77
708.243	45746.52
708.588	45761.21
708.932	45572.52
709.277	45610.26
709.621	45590.37
709.966	45058.86
710.31	45289.13
710.654	44941.8
710.998	45073.09
711.342	45065.19
711.687	44918.97
712.031	44776.61
712.375	44609.38
712.719	44655.25
713.063	44615.71
713.407	44551.3
713.75	44303.4
714.094	44384.98
714.438	44202.83
714.782	44155.38
715.125	44000.35
715.469	44100.92
715.812	43821.6
716.156	43613.92
716.499	43776.86
716.843	43584.32
717.186	43474.27
717.53	43570.76
717.873	43590.65
718.216	43481.95
718.559	43304.55
718.902	42976.88
719.246	43005.8
719.589	42895.3
719.932	42867.5
720.275	42736.43
720.617	42653.05
720.96	42747.28
721.303	42562.43
721.646	42651.46
721.989	42323.56
722.331	42475.65
722.674	42434.75
723.016	42200.4
723.359	42104.13
723.701	42198.82
724.044	42026.17
724.386	41801.99
724.729	42081.31
725.071	41795.21
725.413	41796.12
725.755	41687.65
726.097	41617.59
726.439	41373.08
726.782	41372.85
727.124	41568.1
727.465	41430.48
727.807	41163.37
728.149	41201.33
728.491	41055.8
728.833	41128.11
729.175	40866.2
729.516	40874.79
729.858	40855.58
730.199	40924.96
730.541	40714.34
730.882	40615.13
731.224	40740.78
731.565	40480.22
731.906	40494.23
732.248	40498.07
732.589	40265.31
732.93	40197.97
733.271	40156.39
733.612	40300.11
733.953	40175.37
734.294	39997.52
734.635	39995.26
734.976	40186.67
735.317	39846.11
735.658	39719.11
735.999	39663.29
736.339	39488.83
736.68	39671.2
737.021	39546.46
737.361	39366.8
737.702	39621.26
738.042	39558.44
738.383	39183.76
738.723	39353.02
739.063	39097.88
739.404	39243.64
739.744	39176.53
740.084	38894.73
740.424	38953.93
740.764	38839.81
741.104	38999.81
741.444	38612.47
741.784	38732.92
742.124	38801.17
742.464	38668.07
742.804	38561.85
743.143	38289.77
743.483	38434.85
743.823	38088.87
744.162	38169.1
744.502	38242.99
744.841	38066.95
745.181	38251.13
745.52	38002.55
745.86	38124.8
746.199	37878.26
746.538	37773.17
746.877	37936.11
747.216	37763
747.556	37635.55
747.895	37714.42
748.234	37576.12
748.573	37417.25
748.911	37425.39
749.25	37287.54
749.589	37174.55
749.928	37228.1
750.267	37328.67
750.605	36997.83
750.944	37043.7
751.283	36892.97
751.621	36948.34
751.96	36726.2
752.298	36665.18
