Data from whiteboard_FLMS001491_00089.txt Node
Date: Wed Feb 08 11:28:30 GMT 2017
User: dcchb
Spectrometer: FLMS00149
Trigger mode: 0
Integration Time (sec): 2.000000E-2
Scans to average: 10
Electric dark correction enabled: true
Nonlinearity correction enabled: false
Boxcar width: 0
XAxis mode: Wavelengths
Number of Pixels in Spectrum: 2048
>>>>>Begin Spectral Data<<<<<
341.393	-22.54
341.776	-22.54
342.16	-22.54
342.543	-52.82
342.927	-55.31
343.31	-67.06
343.693	-68.64
344.077	-55.76
344.46	-57.57
344.843	-65.48
345.226	-50.34
345.61	-19.38
345.993	-46.5
346.376	2.32
346.759	-6.27
347.142	35.54
347.525	46.38
347.908	74.63
348.291	75.99
348.674	89.55
349.057	112.6
349.44	134.97
349.823	124.12
350.206	153.95
350.588	207.51
350.971	232.14
351.354	257
351.737	257.45
352.119	261.07
352.502	272.37
352.884	298.13
353.267	292.25
353.65	300.84
354.032	313.27
354.414	330.22
354.797	322.31
355.179	346.94
355.562	346.26
355.944	367.96
356.326	374.96
356.709	341.74
357.091	378.8
357.473	384.91
357.855	370.22
358.238	367.96
358.62	354.4
359.002	371.12
359.384	362.31
359.766	368.63
360.148	372.48
360.53	374.96
360.912	381.29
361.294	365.92
361.676	369.54
362.057	355.98
362.439	363.44
362.821	344.68
363.203	370.67
363.584	367.5
363.966	359.82
364.348	363.21
364.729	372.7
365.111	349.65
365.493	365.02
365.874	349.2
366.256	367.28
366.637	370.44
367.019	363.44
367.4	337.9
367.781	379.71
368.163	339.48
368.544	351.91
368.925	355.53
369.306	362.31
369.688	336.32
370.069	381.74
370.45	347.84
370.831	358.47
371.212	357.34
371.593	359.37
371.974	356.43
372.355	348.97
372.736	367.05
373.117	380.61
373.498	375.64
373.879	362.76
374.26	370.44
374.641	359.6
375.021	346.04
375.402	384.23
375.783	380.39
376.163	412.25
376.544	391.23
376.925	400.27
377.305	375.64
377.686	423.1
378.066	409.54
378.447	392.59
378.827	392.59
379.208	416.09
379.588	383.55
379.968	400.95
380.349	405.47
380.729	396.88
381.109	423.32
381.489	415.86
381.87	396.66
382.25	398.24
382.63	400.5
383.01	427.62
383.39	423.77
383.77	442.98
384.15	418.8
384.53	437.11
384.91	443.43
385.29	433.72
385.67	433.27
386.049	426.71
386.429	444.34
386.809	445.69
387.189	480.5
387.568	443.89
387.948	466.26
388.328	475.98
388.707	492.7
389.087	471.91
389.466	479.59
389.846	495.18
390.225	502.64
390.605	509.42
390.984	513.72
391.363	503.09
391.743	511.68
392.122	522.3
392.501	523.43
392.881	523.88
393.26	529.53
393.639	577.89
394.018	557.78
394.397	574.28
394.776	582.19
395.155	590.78
395.534	571.57
395.913	588.74
396.292	609.31
396.671	616.76
397.05	613.15
397.429	633.71
397.808	629.87
398.186	631.45
398.565	637.1
398.944	649.3
399.323	680.04
399.701	680.94
400.08	711.68
400.458	701.73
400.837	705.8
401.215	716.2
401.594	744.22
401.972	741.28
402.351	762.3
402.729	775.86
403.107	786.93
403.486	781.73
403.864	809.3
404.242	821.73
404.62	850.43
404.999	837.77
405.377	860.37
405.755	883.42
406.133	902.41
406.511	928.39
406.889	922.07
407.267	975.17
407.645	989.41
408.023	999.13
408.401	984.21
408.779	1036.64
409.156	1036.64
409.534	1065.11
409.912	1097.2
410.29	1124.09
410.667	1133.81
411.045	1149.18
411.422	1179.46
411.8	1197.09
412.178	1234.6
412.555	1270.31
412.933	1262.62
413.31	1320.93
413.687	1319.34
414.065	1353.47
414.442	1336.29
414.819	1355.05
415.197	1375.39
415.574	1415.84
415.951	1455.61
416.328	1470.3
416.705	1472.79
417.082	1512.33
417.46	1532.9
417.837	1531.54
418.214	1556.4
418.591	1556.63
418.967	1592.11
419.344	1583.52
419.721	1648.83
420.098	1620.13
420.475	1673.01
420.852	1701.93
421.228	1721.82
421.605	1776.05
421.982	1744.64
422.358	1767.47
422.735	1804.53
423.111	1818.54
423.488	1854.47
423.864	1841.59
424.241	1886.56
424.617	1914.36
424.994	1903.96
425.37	1932.66
425.746	1947.12
426.123	1988.48
426.499	2022.15
426.875	2046.56
427.251	2071.19
427.627	2145.76
428.003	2168.36
428.379	2155.71
428.756	2168.81
429.132	2240
429.507	2265.53
429.883	2293.1
430.259	2330.39
430.635	2339.2
431.011	2388.47
431.387	2437.51
431.763	2484.96
432.138	2465.3
432.514	2509.37
432.89	2560.44
433.265	2599.08
433.641	2622.13
434.016	2689.7
434.392	2726.54
434.767	2726.99
435.143	2745.97
435.518	2818.29
435.894	2814.9
436.269	2881.34
436.644	2929.02
437.02	2926.76
437.395	2945.52
437.77	2998.62
438.145	3050.15
438.52	3030.71
438.895	3107.55
439.271	3102.57
439.646	3217.37
440.021	3162.91
440.395	3222.8
440.77	3211.95
441.145	3290.14
441.52	3305.05
441.895	3318.84
442.27	3356.13
442.645	3350.7
443.019	3377.37
443.394	3389.35
443.769	3460.98
444.143	3449.46
444.518	3511.38
444.892	3464.6
445.267	3507.76
445.641	3587.53
446.016	3606.97
446.39	3638.6
446.764	3659.62
447.139	3623.24
447.513	3705.5
447.887	3751.14
448.262	3760.41
448.636	3805.83
449.01	3843.35
449.384	3891.03
449.758	3894.87
450.132	3944.81
450.506	3975.32
450.88	3991.14
451.254	4011.25
451.628	4079.05
452.002	4117.24
452.376	4106.62
452.75	4266.38
453.123	4241.53
453.497	4255.99
453.871	4323.56
454.244	4428.64
454.618	4439.71
454.992	4532.82
455.365	4520.39
455.739	4622.53
456.112	4672.48
456.486	4733.04
456.859	4750.44
457.232	4914.05
457.606	4867.95
457.979	4905.46
458.352	5050.77
458.725	5057.55
459.099	5104.33
459.472	5194.27
459.845	5310.2
460.218	5311.78
460.591	5385.45
460.964	5389.29
461.337	5540.93
461.71	5622.96
462.083	5728.27
462.456	5700.02
462.829	5749.96
463.201	5835.61
463.574	5859.11
463.947	5966.45
464.32	6091.42
464.692	6189.72
465.065	6194.02
465.438	6232.21
465.81	6355.14
466.183	6429.04
466.555	6571.64
466.928	6666.55
467.3	6617.96
467.672	6714.91
468.045	6897.73
468.417	6907.67
468.789	6994.9
469.161	7106.99
469.534	7185.18
469.906	7386.53
470.278	7390.82
470.65	7563.02
471.022	7654.77
471.394	7762.56
471.766	7869.45
472.138	7981.99
472.51	8169.56
472.882	8221.76
473.253	8333.85
473.625	8414.3
473.997	8668.53
474.369	8675.76
474.74	8809.99
475.112	8997.11
475.484	9119.14
475.855	9353.71
476.227	9414.05
476.598	9633.02
476.97	9670.76
477.341	9907.37
477.713	10072.33
478.084	10207.25
478.455	10422.16
478.827	10514.81
479.198	10749.6
479.569	10779.89
479.94	11129.03
480.311	11274.11
480.682	11427.1
481.053	11705.06
481.424	11940.53
481.795	12012.4
482.166	12281.77
482.537	12392.05
482.908	12698.03
483.279	12787.74
483.65	13019.6
484.021	13278.58
484.391	13415.3
484.762	13565.12
485.133	13682.86
485.503	13883.08
485.874	14165.33
486.244	14287.82
486.615	14649.84
486.985	14625.43
487.356	15057.51
487.726	15175.25
488.097	15504.96
488.467	15570.27
488.837	15783.37
489.207	16098.16
489.578	16269.91
489.948	16413.41
490.318	16580.19
490.688	16750.58
491.058	16926.84
491.428	17261.07
491.798	17423.78
492.168	17722.53
492.538	17760.04
492.908	17998
493.278	18268.95
493.648	18223.08
494.017	18501.49
494.387	18758.89
494.757	18872.78
495.126	18947.58
495.496	19057.86
495.866	19259.21
496.235	19498.07
496.605	19623.95
496.974	19713.44
497.344	19968.35
497.713	20041.79
498.082	20044.5
498.452	20395.45
498.821	20507.09
499.19	20488.78
499.559	20662.11
499.928	20763.8
500.298	20999.28
500.667	21301.87
501.036	21330.57
501.405	21473.16
501.774	21604.91
502.143	21814.85
502.512	21916.09
502.88	22103.88
503.249	22126.71
503.618	22272.92
503.987	22462.52
504.356	22482.86
504.724	22709.06
505.093	22824.99
505.462	22975.72
505.83	23147.92
506.199	23424.07
506.567	23683.73
506.936	23646.89
507.304	23891.18
507.672	23962.59
508.041	24181.79
508.409	24247.55
508.777	24410.26
509.145	24567.32
509.514	24612.29
509.882	24877.59
510.25	24954.43
510.618	25162.56
510.986	25243.91
511.354	25383.57
511.722	25684.8
512.09	26004.8
512.458	25937.68
512.826	26167.73
513.193	26259.48
513.561	26473.94
513.929	26556.42
514.297	26920.03
514.664	26998.22
515.032	27218.55
515.4	27415.83
515.767	27491.54
516.135	27690.63
516.502	27606.56
516.869	28176.04
517.237	28392.3
517.604	28286.09
517.972	28672.52
518.339	28903.25
518.706	28877.49
519.073	28999.52
519.44	29310.47
519.808	29711.37
520.175	29745.26
520.542	30009.89
520.909	30180.05
521.276	30245.59
521.643	30669.53
522.009	30705.92
522.376	30943.88
522.743	31212.57
523.11	31414.15
523.477	31809.62
523.843	31914.25
524.21	32156.05
524.577	32411.63
524.943	32594.91
525.31	32697.5
525.676	33008.91
526.043	33315.79
526.409	33449.12
526.776	33724.82
527.142	33754.2
527.508	33962.33
527.874	34406.61
528.241	34476.66
528.607	34591.69
528.973	34769.54
529.339	34806.6
529.705	35303.54
530.071	35542.17
530.437	35601.61
530.803	35872.56
531.169	36131.76
531.535	36154.13
531.901	36317.75
532.267	36625.08
532.632	36845.87
532.998	36894.23
533.364	37137.84
533.73	37167.89
534.095	37615.56
534.461	37656.24
534.826	37845.62
535.192	38053.52
535.557	38316.79
535.923	38274.3
536.288	38488.54
536.653	38645.37
537.019	38534.86
537.384	38800.17
537.749	38960.16
538.114	39137.56
538.479	39143.21
538.845	39444.67
539.21	39296.2
539.575	39482.41
539.94	39530.09
540.305	39850.31
540.67	39855.28
541.034	39961.94
541.399	40289.17
541.764	40422.95
542.129	40486.9
542.494	40475.15
542.858	40677.41
543.223	40740.45
543.587	40980.67
543.952	40936.83
544.316	41126.66
544.681	41305.86
545.045	41395.13
545.41	41552.86
545.774	41792.86
546.138	41794.66
546.503	41827.43
546.867	42029.91
547.231	42363.01
547.595	42424.25
547.959	42681.65
548.324	42590.8
548.688	42755.32
549.052	42919.61
549.416	43058.13
549.779	43209.09
550.143	43390.1
550.507	43563.2
550.871	43752.35
551.235	43777.66
551.599	44075.73
551.962	44144.21
552.326	44087.03
552.689	44398.44
553.053	44290.19
553.417	44344.43
553.78	44990.51
554.143	44808.14
554.507	45081.81
554.87	45159.55
555.234	45561.8
555.597	45252.2
555.96	45640.21
556.323	45750.04
556.686	45710.94
557.05	46064.38
557.413	46180.76
557.776	46387.31
558.139	46563.58
558.502	46450.81
558.865	46794.53
559.228	46867.07
559.59	47008.76
559.953	47166.95
560.316	47552.7
560.679	47463.89
561.041	47652.81
561.404	47966.25
561.767	48159.47
562.129	48045.12
562.492	48468.84
562.854	48471.78
563.217	48607.14
563.579	48738.89
563.941	49003.51
564.304	49183.85
564.666	49374.35
565.028	49439.21
565.39	49593.1
565.753	49719.88
566.115	49830.16
566.477	49983.83
566.839	50076.71
567.201	50311.05
567.563	50401.9
567.925	50730.25
568.287	50727.08
568.648	50713.53
569.01	51007.3
569.372	51167.3
569.734	50990.58
570.095	51299.27
570.457	51377.91
570.819	51422.21
571.18	51559.83
571.542	51740.62
571.903	51685.03
572.265	51822.2
572.626	52041.4
572.987	52020.61
573.349	52070.1
573.71	52221.06
574.071	52341.05
574.432	52407.72
574.794	52630.09
575.155	52600.93
575.516	52560.71
575.877	52768.61
576.238	52818.1
576.599	52861.94
576.96	52919.57
577.32	52971.09
577.681	52991.43
578.042	53190.3
578.403	53152.78
578.763	53243.63
579.124	53195.04
579.485	53345.09
579.845	53477.07
580.206	53280.92
580.566	53315.26
580.927	53393.91
581.287	53571.53
581.648	53447.69
582.008	53549.16
582.368	53458.31
582.728	53619.21
583.089	53480.91
583.449	53587.35
583.809	53602.71
584.169	53764.07
584.529	53593.22
584.889	53893.1
585.249	53670.96
585.609	53619.89
585.969	53771.52
586.329	53706.44
586.688	53756.61
587.048	53682.71
587.408	53669.15
587.768	53646.56
588.127	53640
588.487	53668.93
588.846	53875.48
589.206	53712.77
589.565	53615.6
589.925	53770.39
590.284	53718.42
590.643	53783.05
591.003	53850.17
591.362	53924.06
591.721	53929.49
592.08	53845.87
592.44	53960.9
592.799	53945.3
593.158	53916.15
593.517	53872.31
593.876	53883.61
594.235	53832.77
594.593	53845.42
594.952	53908.24
595.311	53912.31
595.67	53868.92
596.029	54061.91
596.387	54021.23
596.746	54095.81
597.104	54008.35
597.463	53922.48
597.822	54150.05
598.18	53970.16
598.538	54068.24
598.897	54186.65
599.255	54054.45
599.613	54410.15
599.972	54189.37
600.33	54320.89
600.688	54209.93
601.046	54396.82
601.404	54366.31
601.762	54378.74
602.12	54485.4
602.478	54406.76
602.836	54451.51
603.194	54288.12
603.552	54353.66
603.91	54269.14
604.268	54463.94
604.625	54251.96
604.983	54478.17
605.341	54260.32
605.698	54404.73
606.056	54395.91
606.413	54394.11
606.771	54472.97
607.128	54531.96
607.485	54377.38
607.843	54418.29
608.2	54536.02
608.557	54571.05
608.914	54632.52
609.272	54648.56
609.629	54769.24
609.986	54845.85
610.343	54656.7
610.7	54865.28
611.057	54791.84
611.414	54793.19
611.771	54809.91
612.127	54919.52
612.484	54831.38
612.841	54951.83
613.198	54849.24
613.554	54888.33
613.911	55084.94
614.267	55002.23
614.624	54986.86
614.98	55051.04
615.337	55197.93
615.693	55227.76
616.05	55170.81
616.406	55359.05
616.762	55210.58
617.118	55206.51
617.475	55250.13
617.831	55294.65
618.187	55329.9
618.543	55320.64
618.899	55483.8
619.255	55391.82
619.611	55374.42
619.967	55494.64
620.323	55507.75
620.678	55371.48
621.034	55283.12
621.39	55314.08
621.746	55210.81
622.101	55542.55
622.457	55244.03
622.812	55299.17
623.168	55379.17
623.523	55376.91
623.879	55478.15
624.234	55255.55
624.589	55379.17
624.945	55384.14
625.3	55414.87
625.655	55278.83
626.01	55314.99
626.365	55364.7
626.72	55303.46
627.075	55265.72
627.43	55273.41
627.785	55222.33
628.14	55194.54
628.495	55251.49
628.85	55201.09
629.205	55091.04
629.559	55237.93
629.914	55120.19
630.269	55089
630.623	55020.98
630.978	54903.02
631.332	55065.95
631.687	55164.48
632.041	54923.36
632.396	55047.87
632.75	54844.94
633.104	54886.75
633.459	54849.01
633.813	54780.76
634.167	54809.24
634.521	54812.17
634.875	54777.6
635.229	54763.14
635.583	54661.22
635.937	54649.02
636.291	54628.68
636.645	54599.98
636.999	54536.7
637.352	54619.86
637.706	54438.63
638.06	54559.07
638.413	54524.05
638.767	54444.27
639.121	54450.38
639.474	54253.55
639.828	54295.8
640.181	54319.76
640.534	54363.6
640.888	54169.25
641.241	54129.48
641.594	54208.12
641.947	54236.37
642.301	54091.29
642.654	54129.93
643.007	54101.01
643.36	54047.22
643.713	54009.48
644.066	53997.73
644.419	53932.65
644.771	53664.18
645.124	53343.29
645.477	53259.9
645.83	53040.92
646.182	52965.67
646.535	52929.29
646.888	53030.07
647.24	52796.86
647.593	53036.4
647.945	52994.6
648.298	52819.01
648.65	52632.12
649.002	52712.12
649.355	52761.38
649.707	52623.31
650.059	52673.47
650.411	53017.19
650.763	53004.76
651.115	53392.1
651.467	53250.63
651.819	53217.19
652.171	53174.25
652.523	53083.18
652.875	53108.04
653.227	52968.61
653.578	53162.73
653.93	53030.53
654.282	52875.05
654.633	52842.28
654.985	52866.46
655.337	52876.63
655.688	52936.52
656.039	52864.43
656.391	52652.23
656.742	52711.21
657.094	52730.87
657.445	52832.57
657.796	52643.64
658.147	52619.01
658.498	52628.05
658.849	52628.5
659.2	52602.06
659.551	52558.45
659.902	52603.19
660.253	52564.1
660.604	52563.19
660.955	52335.63
661.306	52509.64
661.656	52376.53
662.007	52431.45
662.358	52403.42
662.708	52463.99
663.059	52380.6
663.409	52202.98
663.76	52444.33
664.11	52351.67
664.461	52371.56
664.811	52335.86
665.161	52228.06
665.511	52286.14
665.862	52304.67
666.212	52319.58
666.562	52291.11
666.912	52273.94
667.262	52200.04
667.612	52098.8
667.962	52249.76
668.312	52145.13
668.662	52308.06
669.011	52097.22
669.361	52161.62
669.711	51965.47
670.06	52026.94
670.41	51815.64
670.76	51858.13
671.109	51945.81
671.459	51871.69
671.808	51780.16
672.157	51881.86
672.507	51719.6
672.856	51706.27
673.205	51684.8
673.554	51763.89
673.904	51676.44
674.253	51716.44
674.602	51691.13
674.951	51213.17
675.3	50979.06
675.649	51472.6
675.998	51296.79
676.346	51407.74
676.695	51424.24
677.044	51231.25
677.393	51264.02
677.741	51263.79
678.09	51143.12
678.438	51017.02
678.787	51184.25
679.135	51230.57
679.484	50881.88
679.832	51028.32
680.181	50819.51
680.529	50953.29
680.877	50859.96
681.225	50857.25
681.573	50915.1
681.922	50593.3
682.27	50517.82
682.618	50617.26
682.966	50466.98
683.314	50462.91
683.661	50389.92
684.009	50196.25
684.357	50173.43
684.705	50152.18
685.053	50172.97
685.4	50012.07
685.748	49918.97
686.095	49954.9
686.443	49723.72
686.79	49825.64
687.138	49695.7
687.485	49803.72
687.832	49543.16
688.18	49625.64
688.527	49474.01
688.874	49320.79
689.221	49241.7
689.568	49128.93
689.915	49010.52
690.262	49045.77
690.609	49016.17
690.956	48862.5
691.303	48821.15
691.65	48541.83
691.997	48605.33
692.344	48391.33
692.69	48265.45
693.037	48265.23
693.383	48007.16
693.73	48077.44
694.077	47758.57
694.423	47755.19
694.769	47752.02
695.116	47560.61
695.462	47569.2
695.808	47534.4
696.155	47445.14
696.501	47190.45
696.847	47082.66
697.193	46930.35
697.539	47057.8
697.885	46693.52
698.231	46672.28
698.577	46746.85
698.923	46602.45
699.269	46413.75
699.614	46154.1
699.96	46072.29
700.306	46081.1
700.651	45840.66
700.997	45702.13
701.342	45646.99
701.688	45605.86
702.033	45359.32
702.379	45339.66
702.724	45223.05
703.069	45297.85
703.415	44864.41
703.76	44952.09
704.105	44797.3
704.45	44675.94
704.795	44477.31
705.14	44422.84
705.485	44292.9
705.83	44064.66
706.175	44247.71
706.52	44051.33
706.865	43825.12
707.209	43807.72
707.554	43608.18
707.899	43681.39
708.243	43464.22
708.588	43487.95
708.932	43219.26
709.277	43235.98
709.621	43237.79
709.966	42963.22
710.31	42973.16
710.654	42578.15
710.998	42703.57
711.342	42801.64
711.687	42520.52
712.031	42245.05
712.375	42172.96
712.719	42263.8
713.063	42094.77
713.407	42433.97
713.75	41995.79
714.094	42007.09
714.438	41799.41
714.782	41791.95
715.125	41733.2
715.469	41685.97
715.812	41497.04
716.156	41295.92
716.499	41331.85
716.843	41338.4
717.186	41040.33
717.53	41194.45
717.873	41048.02
718.216	41066.55
718.559	40763.73
718.902	40511.53
719.246	40639.44
719.589	40356.51
719.932	40487.35
720.275	40476.51
720.617	40288.71
720.96	40171.66
721.303	40174.14
721.646	40299.79
721.989	39901.61
722.331	40185.44
722.674	39989.29
723.016	39916.97
723.359	39789.29
723.701	39805.11
724.044	39646.02
724.386	39422.52
724.729	39479.24
725.071	39472.69
725.413	39408.74
725.755	39377.78
726.097	39172.13
726.439	38869.32
726.782	39003.1
727.124	39045.58
727.465	38921.97
727.807	38730.79
728.149	38726.95
728.491	38559.04
728.833	38660.96
729.175	38463.68
729.516	38251.25
729.858	38300.74
730.199	38358.6
730.541	38260.07
730.882	38108.43
731.224	38251.71
731.565	38013.07
731.906	38031.15
732.248	38012.84
732.589	37872.51
732.93	37825.05
733.271	37792.06
733.612	37586.19
733.953	37798.38
734.294	37604.72
734.635	37571.27
734.976	37627.09
735.317	37402.91
735.658	37396.36
735.999	37352.97
736.339	37142.58
736.68	37333.76
737.021	37058.29
737.361	36995.47
737.702	37281.79
738.042	37034.56
738.383	36823.04
738.723	37003.38
739.063	36864.62
739.404	36903.27
739.744	36729.94
740.084	36687.23
740.424	36484.29
740.764	36466.44
741.104	36495.82
741.444	36313.9
741.784	36195.71
742.124	36199.1
742.464	36195.94
742.804	36145.55
743.143	36092.44
743.483	36096.28
743.823	35732.68
744.162	35667.82
744.502	35891.32
744.841	35661.49
745.181	35770.19
745.52	35612.23
745.86	35633.47
746.199	35508.05
746.538	35420.37
746.877	35487.94
747.216	35374.72
747.556	35240.26
747.895	35206.14
748.234	35152.35
748.573	34986.26
748.911	34915.07
749.25	34939.48
749.589	34737.22
749.928	34682.76
750.267	34908.29
750.605	34578.36
750.944	34542.43
751.283	34372.49
751.621	34379.27
751.96	34257.23
752.298	34214.3
752.636	34124.81
