Data from whiteboard_FLMS001491_00070.txt Node
Date: Wed Feb 08 11:27:30 GMT 2017
User: dcchb
Spectrometer: FLMS00149
Trigger mode: 0
Integration Time (sec): 2.000000E-2
Scans to average: 10
Electric dark correction enabled: true
Nonlinearity correction enabled: false
Boxcar width: 0
XAxis mode: Wavelengths
Number of Pixels in Spectrum: 2048
>>>>>Begin Spectral Data<<<<<
341.393	-2.61
341.776	-2.61
342.16	-2.61
342.543	-54.59
342.927	-67.02
343.31	-75.61
343.693	-63.63
344.077	-60.24
344.46	-66.57
344.843	-53.69
345.226	-40.35
345.61	-45.55
345.993	-35.83
346.376	-6.68
346.759	24.96
347.142	31.51
347.525	48.69
347.908	58.85
348.291	78.51
348.674	85.29
349.057	120.32
349.44	121.23
349.823	137.04
350.206	160.32
350.588	218.17
350.971	241.67
351.354	287.55
351.737	271.28
352.119	257.95
352.502	293.65
352.884	309.92
353.267	323.03
353.65	318.51
354.032	321.45
354.414	314.67
354.797	364.84
355.179	369.13
355.562	342.46
355.944	387.89
356.326	368.68
356.709	370.03
357.091	364.16
357.473	378.62
357.855	366.64
358.238	378.39
358.62	394.66
359.002	369.35
359.384	387.43
359.766	391.05
360.148	366.64
360.53	391.28
360.912	378.39
361.294	384.72
361.676	361.45
362.057	375.91
362.439	373.87
362.821	361.22
363.203	372.07
363.584	361.67
363.966	368
364.348	368.22
364.729	376.81
365.111	359.64
365.493	377.04
365.874	370.03
366.256	359.41
366.637	387.89
367.019	377.94
367.4	384.95
367.781	375.46
368.163	374.55
368.544	386.76
368.925	385.63
369.306	365.06
369.688	343.82
370.069	392.63
370.45	397.83
370.831	376.36
371.212	366.64
371.593	370.71
371.974	373.65
372.355	375.46
372.736	396.47
373.117	394.66
373.498	392.86
373.879	408.68
374.26	388.56
374.641	372.07
375.021	384.5
375.402	394.66
375.783	377.49
376.163	413.2
376.544	419.07
376.925	411.61
377.305	394.66
377.686	417.49
378.066	416.59
378.447	409.58
378.827	424.95
379.208	434.21
379.588	423.59
379.968	428.79
380.349	417.04
380.729	433.08
381.109	435.57
381.489	430.37
381.87	453.42
382.25	453.65
382.63	443.48
383.01	466.75
383.39	441.22
383.77	459.3
384.15	476.7
384.53	466.98
384.91	463.59
385.29	483.25
385.67	469.01
386.049	479.18
386.429	489.35
386.809	490.71
387.189	490.93
387.568	502.91
387.948	523.25
388.328	513.53
388.707	516.92
389.087	520.09
389.466	541.78
389.846	545.17
390.225	552.17
390.605	535
390.984	586.98
391.363	558.73
391.743	581.33
392.122	564.38
392.501	578.39
392.881	585.62
393.26	593.53
393.639	609.35
394.018	617.48
394.397	630.14
394.776	621.55
395.155	660.19
395.534	662
395.913	643.47
396.292	666.07
396.671	676.01
397.05	681.89
397.429	703.13
397.808	683.02
398.186	723.24
398.565	715.79
398.944	717.59
399.323	737.71
399.701	742.23
400.08	767.54
400.458	760.53
400.837	797.37
401.215	800.08
401.594	806.86
401.972	786.52
402.351	823.58
402.729	848.21
403.107	864.93
403.486	892.73
403.864	902.22
404.242	918.04
404.62	929.57
404.999	943.12
405.377	968.89
405.755	963.01
406.133	998.94
406.511	1007.98
406.889	1039.85
407.267	1064.93
407.645	1062.44
408.023	1089.79
408.401	1113.29
408.779	1119.62
409.156	1162.78
409.534	1160.97
409.912	1189.67
410.29	1216.56
410.667	1240.07
411.045	1294.98
411.422	1295.43
411.8	1288.43
412.178	1332.04
412.555	1334.75
412.933	1379.95
413.31	1375.43
413.687	1441.42
414.065	1442.09
414.442	1474.41
414.819	1501.98
415.197	1501.75
415.574	1560.06
415.951	1545.37
416.328	1579.72
416.705	1593.05
417.082	1606.84
417.46	1673.73
417.837	1693.16
418.214	1698.81
418.591	1702.43
418.967	1712.37
419.344	1777
419.721	1783.55
420.098	1795.08
420.475	1821.75
420.852	1854.74
421.228	1870.78
421.605	1885.92
421.982	1910.78
422.358	1911.01
422.735	1974.51
423.111	1969.54
423.488	2014.28
423.864	2028.07
424.241	2040.95
424.617	2096.31
424.994	2106.94
425.37	2162.08
425.746	2139.03
426.123	2166.37
426.499	2235.07
426.875	2254.95
427.251	2300.6
427.627	2307.61
428.003	2342.18
428.379	2412.01
428.756	2421.5
429.132	2446.14
429.507	2507.15
429.883	2534.95
430.259	2569.75
430.635	2591.9
431.011	2615.85
431.387	2699.91
431.763	2732.68
432.138	2737.65
432.514	2825.11
432.89	2819.91
433.265	2913.02
433.641	2944.43
434.016	2943.75
434.392	3041.83
434.767	3060.81
435.143	3043.18
435.518	3123.41
435.894	3132.22
436.269	3183.07
436.644	3260.13
437.02	3257.64
437.395	3297.87
437.77	3362.27
438.145	3402.72
438.52	3402.04
438.895	3500.57
439.271	3522.94
439.646	3590.74
440.021	3599.1
440.395	3656.05
440.77	3629.16
441.145	3677.52
441.52	3752.54
441.895	3768.81
442.27	3786.44
442.645	3801.81
443.019	3825.54
443.394	3884.52
443.769	3878.87
444.143	3909.83
444.518	3943.05
444.892	3950.73
445.267	4011.74
445.641	4051.29
446.016	4064.4
446.39	4113.66
446.764	4108.01
447.139	4136.26
447.513	4225.3
447.887	4216.94
448.262	4171.97
448.636	4229.59
449.01	4383.49
449.384	4359.31
449.758	4423.49
450.132	4473.88
450.506	4517.72
450.88	4557.95
451.254	4533.76
451.628	4679.98
452.002	4691.5
452.376	4745.28
452.75	4789.58
453.123	4767.66
453.497	4928.78
453.871	4974.88
454.244	5048.55
454.618	5129.91
454.992	5193.63
455.365	5187.08
455.739	5330.35
456.112	5383.23
456.486	5437.47
456.859	5475.21
457.232	5621.19
457.606	5571.03
457.979	5689.67
458.352	5785.94
458.725	5834.07
459.099	5957.46
459.472	6006.27
459.845	6084.68
460.218	6136.89
460.591	6187.28
460.964	6227.73
461.337	6389.54
461.71	6505.92
462.083	6585.46
462.456	6590.66
462.829	6606.7
463.201	6732.35
463.574	6803.99
463.947	6920.14
464.32	7125.34
464.692	7130.53
465.065	7212.11
465.438	7362.62
465.81	7491.88
466.183	7510.86
466.555	7711.53
466.928	7789.05
467.3	7760.35
467.672	7950.17
468.045	8193.33
468.417	8115.37
468.789	8204.63
469.161	8350.61
469.534	8523.94
469.906	8706.99
470.278	8742.02
470.65	8889.13
471.022	9001.22
471.394	9152.17
471.766	9253.87
472.138	9315.56
472.51	9528.89
472.882	9620.18
473.253	9820.18
473.625	9907.86
473.997	10241.64
474.369	10213.84
474.74	10319.15
475.112	10512.36
475.484	10704.68
475.855	10897.67
476.227	11000.04
476.598	11320.03
476.97	11484.32
477.341	11717.53
477.713	11814.7
478.084	11947.81
478.455	12436.16
478.827	12453.78
479.198	12801.8
479.569	12897.84
479.94	13208.57
480.311	13379.63
480.682	13735.33
481.053	13950.92
481.424	14157.01
481.795	14370.34
482.166	14651.24
482.537	14801.29
482.908	15137.1
483.279	15257.78
483.65	15558.79
484.021	15936.63
484.391	16045.1
484.762	16271.76
485.133	16450.97
485.503	16619.32
485.874	16988.13
486.244	17141.8
486.615	17590.37
486.985	17741.78
487.356	17949.46
487.726	18156.01
488.097	18445.04
488.467	18626.05
488.837	19048.86
489.207	19260.16
489.578	19576.76
489.948	19626.02
490.318	19904.66
490.688	20040.25
491.058	20409.05
491.428	20638.88
491.798	20807.91
492.168	21291.97
492.538	21394.56
492.908	21604.95
493.278	21769.24
493.648	22010.82
494.017	22276.8
494.387	22594.31
494.757	22686.51
495.126	22876.79
495.496	23023.9
495.866	23254.18
496.235	23549.99
496.605	23658.46
496.974	23850.77
497.344	24008.06
497.713	24254.38
498.082	24448.95
498.452	24724.65
498.821	24776.85
499.19	24902.49
499.559	25132.55
499.928	25283.05
500.298	25471.52
500.667	25809.82
501.036	25804.62
501.405	26099.53
501.774	26127.32
502.143	26422
502.512	26485.28
502.88	26716.91
503.249	26878.04
503.618	27017.24
503.987	27222.66
504.356	27391.02
504.724	27487.96
505.093	27673.27
505.462	27874.17
505.83	28210.88
506.199	28280.49
506.567	28794.82
506.936	28661.72
507.304	29129.73
507.672	29179.44
508.041	29348.25
508.409	29497.4
508.777	29831.63
509.145	30026.2
509.514	30071.62
509.882	30343.71
510.25	30383.71
510.618	30529.01
510.986	30603.14
511.354	31115.44
511.722	31369.9
512.09	31605.82
512.458	31564.24
512.826	31875.42
513.193	32050.1
513.561	32196.09
513.929	32444.9
514.297	32862.96
514.664	32897.54
515.032	33149.51
515.4	33279.45
515.767	33520.8
516.135	33780.68
516.502	33618.65
516.869	34198.3
517.237	34266.54
517.604	34507.21
517.972	34970.25
518.339	35083.7
518.706	35166.86
519.073	35476
519.44	35742.21
519.808	36115.76
520.175	36074.18
520.542	36719.36
520.909	36793.71
521.276	36872.12
521.643	37493.12
522.009	37656.74
522.376	37871.19
522.743	38146.67
523.11	38537.62
523.477	38902.13
523.843	38947.1
524.21	39558.38
524.577	39642.9
524.943	40025.94
525.31	40133.05
525.676	40472.03
526.043	40695.3
526.409	40883.32
526.776	41376.19
527.142	41397.65
527.508	41618.67
527.874	41956.06
528.241	42165.77
528.607	42212.1
528.973	42468.36
529.339	42593.78
529.705	43176.59
530.071	43231.05
530.437	43434.89
530.803	43656.58
531.169	43816.57
531.535	43876.23
531.901	44096.79
532.267	44412.49
532.632	44556.44
532.998	44782.88
533.364	44833.72
533.73	45113.04
534.095	45519.58
534.461	45574.27
534.826	45838.89
535.192	45967.48
535.557	46279.33
535.923	46320.46
536.288	46422.83
536.653	46705.09
537.019	46511.42
537.384	46954.12
537.749	47017.85
538.114	47151.85
538.479	47177.84
538.845	47346.42
539.21	47369.25
539.575	47669.35
539.94	47792.97
540.305	48126.74
540.67	48199.74
541.034	48468.2
541.399	48472.72
541.764	48553.4
542.129	48768.31
542.494	48719.27
542.858	49052.59
543.223	49173.27
543.587	49353.6
543.952	49436.99
544.316	49505.69
544.681	49542.53
545.045	49658
545.41	49971.67
545.774	50060.93
546.138	50048.73
546.503	50186.12
546.867	50116.97
547.231	50589.73
547.595	50610.29
547.959	50694.59
548.324	50791.31
548.688	50789.72
549.052	50976.16
549.416	50924.41
549.779	50974.58
550.143	51125.31
550.507	51296.38
550.871	51479.42
551.235	51392.42
551.599	51638.06
551.962	51624.96
552.326	51755.12
552.689	51900.43
553.053	51815.01
553.417	51860.66
553.78	52359.63
554.143	52262.23
554.507	52331.38
554.87	52444.6
555.234	52710.8
555.597	52604.37
555.96	52758.71
556.323	52878.93
556.686	52868.54
557.05	53107.18
557.413	53220.85
557.776	53257.23
558.139	53397.79
558.502	53514.4
558.865	53654.51
559.228	53831.68
559.59	53855.18
559.953	53988.51
560.316	54300.14
560.679	54243.19
561.041	54431.66
561.404	54631.88
561.767	54746.91
562.129	54729.96
562.492	55043.17
562.854	55089.05
563.217	55112.77
563.579	55267.57
563.941	55454.23
564.304	55666.66
564.666	55773.1
565.028	55817.61
565.39	55985.97
565.753	56157.04
566.115	56134.89
566.477	56293.76
566.839	56352.74
567.201	56576.92
567.563	56547.09
567.925	56766.29
568.287	56820.3
568.648	56874.54
569.01	57017.36
569.372	57138.71
569.734	57086.96
570.095	57245.37
570.457	57330.34
570.819	57320.85
571.18	57381.41
571.542	57521.75
571.903	57460.06
572.265	57589.55
572.626	57580.96
572.987	57685.59
573.349	57721.52
573.71	57818.24
574.071	57870.44
574.432	57934.62
574.794	58071.11
575.155	57966.26
575.516	57978.24
575.877	58050.78
576.238	58108.85
576.599	58146.82
576.96	58199.7
577.32	58270.21
577.681	58304.33
578.042	58323.54
578.403	58264.56
578.763	58371.45
579.124	58402.86
579.485	58453.7
579.845	58533.02
580.206	58456.87
580.566	58423.65
580.927	58489.18
581.287	58566.47
581.648	58538.45
582.008	58615.28
582.368	58577.54
582.728	58709.06
583.089	58650.99
583.449	58710.87
583.809	58672.68
584.169	58767.37
584.529	58799.68
584.889	58977.98
585.249	58825.44
585.609	58815.28
585.969	58987.7
586.329	58922.39
586.688	58987.02
587.048	59044.42
587.408	58989.73
587.768	59090.52
588.127	59075.16
588.487	59139.79
588.846	59248.03
589.206	59115.38
589.565	59163.06
589.925	59328.93
590.284	59217.07
590.643	59290.29
591.003	59396.73
591.362	59367.35
591.721	59364.87
592.08	59330.52
592.44	59440.8
592.799	59403.28
593.158	59363.96
593.517	59365.32
593.876	59377.07
594.235	59337.75
594.593	59297.3
594.952	59423.62
595.311	59294.13
595.67	59347.01
596.029	59491.64
596.387	59344.75
596.746	59389.72
597.104	59236.28
597.463	59260.91
597.822	59339.33
598.18	59229.5
598.538	59218.43
598.897	59316.73
599.255	59107.7
599.613	59469.95
599.972	59231.08
600.33	59276.73
600.688	59107.02
601.046	59256.62
601.404	59322.15
601.762	59271.53
602.12	59261.14
602.478	59273.12
602.836	59264.3
603.194	59145.66
603.552	59232.21
603.91	59158.32
604.268	59267.92
604.625	59186.34
604.983	59324.87
605.341	59189.5
605.698	59339.56
606.056	59372.78
606.413	59318.54
606.771	59428.37
607.128	59461.59
607.485	59405.09
607.843	59447.12
608.2	59637.17
608.557	59645.31
608.914	59629.27
609.272	59726.89
609.629	59822.48
609.986	59939.54
610.343	59764.86
610.7	59960.33
611.057	59976.83
611.414	59942.03
611.771	60024.28
612.127	60139.53
612.484	60138.63
612.841	60214.11
613.198	60179.76
613.554	60278.97
613.911	60342.69
614.267	60368.68
614.624	60348.79
614.98	60420.66
615.337	60563.93
615.693	60507.89
616.05	60515.57
616.406	60649.8
616.762	60523.03
617.118	60578.85
617.475	60602.12
617.831	60651.16
618.187	60717.82
618.543	60756.24
618.899	60756.02
619.255	60798.73
619.611	60703.59
619.967	60729.58
620.323	60810.93
620.678	60659.07
621.034	60583.14
621.39	60629.47
621.746	60522.35
622.101	60816.35
622.457	60526.87
622.812	60550.37
623.168	60599.86
623.523	60585.4
623.879	60653.65
624.234	60384.73
624.589	60465.85
624.945	60450.26
625.3	60471.73
625.655	60335.69
626.01	60346.99
626.365	60278.51
626.72	60242.36
627.075	60236.48
627.43	60227.67
627.785	60146.77
628.14	60233.77
628.495	60173.43
628.85	60185.86
629.205	60074.9
629.559	60233.54
629.914	60135.69
630.269	60107.22
630.623	60052.08
630.978	59965.3
631.332	60065.41
631.687	60081.68
632.041	59950.39
632.396	59975.47
632.75	59898.86
633.104	59908.13
633.459	59830.16
633.813	59821.35
634.167	59784.74
634.521	59833.1
634.875	59842.14
635.229	59866.55
635.583	59829.49
635.937	59868.58
636.291	59811.63
636.645	59887.34
636.999	59856.6
637.352	59898.86
637.706	59755.14
638.06	59909.48
638.413	59829.03
638.767	59798.98
639.121	59758.08
639.474	59736.83
639.828	59759.21
640.181	59745.19
640.534	59829.03
640.888	59796.49
641.241	59679.89
641.594	59807.34
641.947	59789.49
642.301	59751.75
642.654	59741.58
643.007	59755.14
643.36	59713.56
643.713	59611.19
644.066	59699.77
644.419	59634.01
644.771	59476.05
645.124	59296.84
645.477	59202.16
645.83	59004.42
646.182	58905.67
646.535	58736.41
646.888	58805.11
647.24	58652.79
647.593	58827.25
647.945	58715.84
648.298	58536.64
648.65	58470.88
649.002	58401.73
649.355	58526.7
649.707	58414.38
650.059	58531.67
650.411	58781.83
650.763	58769.85
651.115	58958.55
651.467	58841.04
651.819	58780.02
652.171	58641.49
652.523	58682.17
652.875	58648.95
653.227	58520.14
653.578	58623.64
653.93	58523.31
654.282	58422.97
654.633	58381.16
654.985	58377.32
655.337	58274.95
655.688	58363.76
656.039	58375.74
656.391	58137.78
656.742	58178.68
657.094	58116.76
657.445	58291.22
657.796	58125.58
658.147	58030.21
658.498	58068.18
658.849	58169.87
659.2	58021.85
659.551	57919.93
659.902	57970.55
660.253	57976.88
660.604	58038.57
660.955	57874.28
661.306	58035.18
661.656	57942.76
662.007	58054.39
662.358	58053.26
662.708	57994.73
663.059	57980.04
663.409	57892.36
663.76	58023.43
664.11	57974.17
664.461	58026.14
664.811	58034.51
665.161	58091.68
665.511	57932.59
665.862	57977.33
666.212	58027.95
666.562	58072.47
666.912	58051
667.262	58038.12
667.612	58015.52
667.962	57989.08
668.312	58048.29
668.662	58134.39
669.011	58082.87
669.361	58031.34
669.711	58036.99
670.06	58044
670.41	57946.37
670.76	57961.51
671.109	58022.3
671.459	57924.9
671.808	57989.31
672.157	57979.37
672.507	57840.84
672.856	57799.03
673.205	57914.73
673.554	57884.68
673.904	57767.39
674.253	57956.99
674.602	57825.25
674.951	57448.98
675.3	57259.84
675.649	57672.93
675.998	57622.99
676.346	57662.54
676.695	57719.26
677.044	57530.34
677.393	57535.76
677.741	57596.1
678.09	57536.89
678.438	57442.43
678.787	57399.04
679.135	57393.39
679.484	57115.43
679.832	57205.6
680.181	57085.38
680.529	57196.11
680.877	57097.13
681.225	57014.87
681.573	57108.88
681.922	56845.61
682.27	56806.74
682.618	56784.59
682.966	56637.71
683.314	56662.34
683.661	56566.97
684.009	56437.71
684.357	56328.11
684.705	56315.68
685.053	56369.24
685.4	56294.66
685.748	56145.52
686.095	56091.28
686.443	56050.38
686.79	56004.5
687.138	56063.26
687.485	55931.06
687.832	55920.44
688.18	55961.57
688.527	55889.48
688.874	55782.36
689.221	55696.49
689.568	55631.63
689.915	55553.89
690.262	55591.86
690.609	55565.42
690.956	55434.57
691.303	55353.22
691.65	55275.03
691.997	55336.5
692.344	55176.73
692.69	55119.1
693.037	55104.86
693.383	54783.29
693.73	54887.02
694.077	54804.08
694.423	54799.79
694.769	54716.63
695.116	54749.17
695.462	54670.53
695.808	54526.35
696.155	54636.18
696.501	54406.35
696.847	54440.7
697.193	54184.89
697.539	54378.33
697.885	54185.34
698.231	54110.31
698.577	54030.54
698.923	54000.71
699.269	53926.82
699.614	53809.98
699.96	53744.67
700.306	53710.1
700.651	53546.71
700.997	53395.76
701.342	53396.66
701.688	53388.07
702.033	53315.76
702.379	53231.47
702.724	53238.93
703.069	53272.14
703.415	52977.46
703.76	52888.88
704.105	52930.23
704.45	52846.62
704.795	52650.47
705.14	52622.67
705.485	52451.38
705.83	52325.28
706.175	52311.04
706.52	52175.9
706.865	52136.81
707.209	52054.1
707.554	51917.38
707.899	51888
708.243	51769.59
708.588	51688.46
708.932	51429.71
709.277	51401.01
709.621	51368.47
709.966	51211.86
710.31	51219.32
710.654	50923.51
710.998	50882.15
711.342	50883.28
711.687	50695.72
712.031	50585.89
712.375	50414.59
712.719	50452.56
713.063	50366.68
713.407	50364.88
713.75	50085.11
714.094	50187.25
714.438	49956.98
714.782	50045.34
715.125	49867.49
715.469	49915.17
715.812	49737.1
716.156	49407.61
716.499	49373.49
716.843	49420.72
717.186	49225.25
717.53	49306.6
717.873	49345.92
718.216	49098.47
718.559	48999.49
718.902	48832.71
719.246	49057.57
719.589	48737.35
719.932	48563.57
720.275	48482.67
720.617	48487.19
720.96	48373.29
721.303	48480.86
721.646	48484.47
721.989	48282.67
722.331	48276.57
722.674	48218.94
723.016	48262.78
723.359	48156.8
723.701	48161.09
724.044	47978.95
724.386	47797.94
724.729	47912.51
725.071	47904.6
725.413	47790.48
725.755	47773.76
726.097	47725.85
726.439	47451.96
726.782	47592.07
727.124	47782.12
727.465	47434.33
727.807	47463.48
728.149	47315.01
728.491	47265.52
728.833	47369.47
729.175	47270.49
729.516	47101.23
729.858	47298.97
730.199	47148.24
730.541	47252.42
730.882	47002.48
731.224	47148.01
731.565	46866.89
731.906	46969.94
732.248	46969.94
732.589	46680
732.93	46775.82
733.271	46651.75
733.612	46738.76
733.953	46818.08
734.294	46483.62
734.635	46446.79
734.976	46497.18
735.317	46360.46
735.658	46324.76
735.999	46454.02
736.339	46130.64
736.68	46154.37
737.021	45966.8
737.361	45743.3
737.702	46030.08
738.042	45727.26
738.383	45713.02
738.723	45748.95
739.063	45571.1
739.404	45506.02
739.744	45288.17
740.084	45259.02
740.424	45221.96
740.764	45071.68
741.104	45294.05
741.444	44925.47
741.784	44612.49
742.124	44696.55
742.464	44557.8
742.804	44601.86
743.143	44460.17
743.483	44392.6
743.823	44110.13
744.162	44020.41
744.502	44049.34
744.841	43786.74
745.181	43996
745.52	43459.07
745.86	43775.45
746.199	43524.15
746.538	43383.36
746.877	43474.89
747.216	43246.42
747.556	43117.61
747.895	42892.53
748.234	42834.9
748.573	42779.99
748.911	42772.53
749.25	42642.82
749.589	42296.16
749.928	42400.34
750.267	42238.54
750.605	42189.05
750.944	42224.98
751.283	41965.78
751.621	42133.45
751.96	41663.18
752.298	41716.97
