Data from White_paper_FLMS001491_077.txt Node
Date: Tue Feb 07 10:35:33 GMT 2017
User: dcchb
Spectrometer: FLMS00149
Trigger mode: 0
Integration Time (sec): 2.000000E-2
Scans to average: 10
Electric dark correction enabled: true
Nonlinearity correction enabled: false
Boxcar width: 0
XAxis mode: Wavelengths
Number of Pixels in Spectrum: 2048
>>>>>Begin Spectral Data<<<<<
341.393	-1.16
341.776	-1.16
342.16	-1.16
342.543	-49.74
342.927	-72.12
343.31	-57.2
343.693	-63.98
344.077	-74.83
344.46	-72.79
344.843	-69.63
345.226	-51.1
345.61	-33.7
345.993	2.46
346.376	-6.13
346.759	28.9
347.142	12.17
347.525	41.33
347.908	48.11
348.291	81.33
348.674	102.57
349.057	112.51
349.44	128.56
349.823	122.23
350.206	166.3
350.588	215.33
350.971	210.81
351.354	248.33
351.737	257.37
352.119	271.83
352.502	281.55
352.884	272.28
353.267	295.78
353.65	315.67
354.032	315.67
354.414	314.31
354.797	362.22
355.179	336.01
355.562	346.4
355.944	336.23
356.326	365.84
356.709	365.61
357.091	359.96
357.473	357.7
357.855	359.96
358.238	385.27
358.62	346.63
359.002	366.97
359.384	367.42
359.766	381.66
360.148	358.83
360.53	371.04
360.912	378.49
361.294	354.31
361.676	370.13
362.057	364.93
362.439	338.49
362.821	348.44
363.203	366.52
363.584	359.28
363.966	357.93
364.348	366.74
364.729	348.89
365.111	360.87
365.493	380.3
365.874	339.85
366.256	365.39
366.637	359.28
367.019	371.26
367.4	372.17
367.781	350.47
368.163	359.06
368.544	362.9
368.925	366.97
369.306	366.52
369.688	361.54
370.069	368.78
370.45	371.04
370.831	348.89
371.212	366.97
371.593	366.29
371.974	366.52
372.355	370.58
372.736	374.43
373.117	382.79
373.498	358.61
373.879	387.31
374.26	386.85
374.641	371.04
375.021	372.62
375.402	376.69
375.783	390.47
376.163	380.3
376.544	377.36
376.925	378.94
377.305	399.28
377.686	400.19
378.066	374.65
378.447	384.14
378.827	399.51
379.208	389.57
379.588	410.81
379.968	408.77
380.349	423.01
380.729	408.1
381.109	410.81
381.489	422.11
381.87	439.96
382.25	409.68
382.63	418.94
383.01	425.05
383.39	414.2
383.77	441.32
384.15	422.11
384.53	423.46
384.91	434.08
385.29	448.1
385.67	447.87
386.049	455.78
386.429	425.05
386.809	467.53
387.189	454.88
387.568	468.66
387.948	470.47
388.328	484.7
388.707	470.47
389.087	484.93
389.466	484.7
389.846	486.74
390.225	512.73
390.605	472.5
390.984	511.6
391.363	513.86
391.743	496.23
392.122	527.19
392.501	510.47
392.881	527.64
393.26	523.35
393.639	548.88
394.018	563.12
394.397	555.44
394.776	548.21
395.155	539.84
395.534	563.12
395.913	594.08
396.292	570.13
396.671	584.36
397.05	592.95
397.429	584.82
397.808	577.13
398.186	597.92
398.565	612.61
398.944	609.22
399.323	639.05
399.701	626.62
400.08	641.08
400.458	653.29
400.837	632.95
401.215	667.3
401.594	665.49
401.972	684.7
402.351	682.67
402.729	677.92
403.107	715.21
403.486	737.81
403.864	734.42
404.242	758.14
404.62	743.91
404.999	769.22
405.377	777.58
405.755	792.04
406.133	797.69
406.511	830.68
406.889	827.75
407.267	864.58
407.645	879.04
408.023	890.34
408.401	900.06
408.779	929.89
409.156	947.29
409.534	952.72
409.912	996.56
410.29	1035.65
410.667	1063.45
411.045	1088.53
411.422	1095.31
411.8	1098.7
412.178	1137.12
412.555	1175.53
412.933	1181.64
413.31	1238.81
413.687	1266.83
414.065	1298.69
414.442	1309.32
414.819	1351.12
415.197	1364.46
415.574	1404.23
415.951	1430.89
416.328	1457.79
416.705	1466.37
417.082	1498.92
417.46	1530.33
417.837	1564
418.214	1611
418.591	1622.75
418.967	1634.28
419.344	1655.75
419.721	1699.81
420.098	1726.48
420.475	1801.28
420.852	1763.77
421.228	1820.71
421.605	1841.28
421.982	1867.95
422.358	1898.23
422.735	1894.61
423.111	1910.2
423.488	1952.69
423.864	1970.54
424.241	1978
424.617	2018.68
424.994	2046.7
425.37	2072.46
425.746	2086.92
426.123	2130.99
426.499	2156.3
426.875	2164.66
427.251	2236.52
427.627	2251.66
428.003	2315.62
428.379	2347.93
428.756	2385.45
429.132	2383.41
429.507	2428.16
429.883	2450.3
430.259	2531.2
430.635	2518.55
431.011	2586.12
431.387	2608.49
431.763	2697.98
432.138	2701.82
432.514	2711.31
432.89	2734.36
433.265	2821.37
433.641	2838.32
434.016	2874.02
434.392	2932.55
434.767	2958.76
435.143	2996.5
435.518	3060
435.894	3055.71
436.269	3122.6
436.644	3172.54
437.02	3207.12
437.395	3206.22
437.77	3302.26
438.145	3326.66
438.52	3372.09
438.895	3372.09
439.271	3422.93
439.646	3470.61
440.021	3529.82
440.395	3516.72
440.77	3495.7
441.145	3539.54
441.52	3636.26
441.895	3590.84
442.27	3655.92
442.645	3630.61
443.019	3730.27
443.394	3720.55
443.769	3787.89
444.143	3683.26
444.518	3815.46
444.892	3758.52
445.267	3836.26
445.641	3863.82
446.016	3889.59
446.39	3904.73
446.764	3951.51
447.139	3912.41
447.513	3996.7
447.887	3984.05
448.262	4062.24
448.636	4042.13
449.01	4113.54
449.384	4151.5
449.758	4137.94
450.132	4191.73
450.506	4250.03
450.88	4258.62
451.254	4248.22
451.628	4318.05
452.002	4384.94
452.376	4397.14
452.75	4406.18
453.123	4470.81
453.497	4513.98
453.871	4569.34
454.244	4699.51
454.618	4741.32
454.992	4774.54
455.365	4716.01
455.739	4911.71
456.112	4920.52
456.486	5005.72
456.859	5011.14
457.232	5123.23
457.606	5103.79
457.979	5188.54
458.352	5295.65
458.725	5394.18
459.099	5381.07
459.472	5487.29
459.845	5563.44
460.218	5556.21
460.591	5657.45
460.964	5665.81
461.337	5814.96
461.71	5865.35
462.083	5973.15
462.456	5962.75
462.829	6016.08
463.201	6190.09
463.574	6125.23
463.947	6238
464.32	6408.39
464.692	6396.19
465.065	6482.51
465.438	6583.08
465.81	6698.55
466.183	6709.63
466.555	6914.37
466.928	6925.67
467.3	6922.73
467.672	7026.23
468.045	7270.06
468.417	7249.72
468.789	7298.99
469.161	7397.97
469.534	7520.9
469.906	7701.46
470.278	7740.79
470.65	7829.82
471.022	7988.69
471.394	8157.5
471.766	8172.64
472.138	8353.65
472.51	8460.77
472.882	8525.17
473.253	8734.21
473.625	8820.3
473.997	8973.3
474.369	9043.58
474.74	9184.36
475.112	9353.17
475.484	9494.64
475.855	9639.27
476.227	9769.66
476.598	9985.92
476.97	10053.27
477.341	10301.62
477.713	10486.93
478.084	10552.69
478.455	10780.03
478.827	10970.3
479.198	11245.55
479.569	11238.55
479.94	11566
480.311	11623.85
480.682	11879.89
481.053	12117.17
481.424	12361.23
481.795	12472.64
482.166	12634.89
482.537	12814.32
482.908	13087.31
483.279	13213.86
483.65	13456.79
484.021	13673.51
484.391	13857.91
484.762	13944.46
485.133	14097.68
485.503	14245.92
485.874	14647.04
486.244	14768.85
486.615	15044.32
486.985	15137.88
487.356	15488.38
487.726	15567.7
488.097	15915.49
488.467	15882.49
488.837	16262.14
489.207	16435.92
489.578	16750.49
489.948	16797.95
490.318	17065.96
490.688	17062.35
491.058	17440.87
491.428	17676.34
491.798	17759.28
492.168	18076.78
492.538	18098.03
492.908	18399.49
493.278	18618.01
493.648	18693.04
494.017	18962.41
494.387	19053.93
494.757	19189.75
495.126	19419.12
495.496	19458.44
495.866	19689.4
496.235	19842.39
496.605	19937.53
496.974	20194.47
497.344	20256.84
497.713	20372.54
498.082	20580.9
498.452	20809.82
498.821	20850.04
499.19	20986.76
499.559	21138.17
499.928	21336.36
500.298	21365.29
500.667	21592.17
501.036	21555.34
501.405	21797.14
501.774	21864.03
502.143	22057.92
502.512	22219.73
502.88	22428.76
503.249	22414.07
503.618	22479.83
503.987	22733.61
504.356	22853.83
504.724	22888.41
505.093	23167.05
505.462	23153.26
505.83	23441.39
506.199	23590.76
506.567	23834.6
506.936	23783.08
507.304	24036.4
507.672	24315.49
508.041	24254.7
508.409	24404.53
508.777	24695.14
509.145	24877.74
509.514	24876.83
509.882	25170.61
510.25	25157.28
510.618	25394.11
510.986	25434.56
511.354	25587.1
511.722	25948.89
512.09	26233.18
512.458	26128.55
512.826	26409.22
513.193	26474.76
513.561	26639.5
513.929	26802.2
514.297	26966.72
514.664	27306.15
515.032	27264.34
515.4	27666.59
515.767	27577.55
516.135	27960.59
516.502	27705.68
516.869	28277.19
517.237	28342.5
517.604	28389.28
517.972	28674.02
518.339	28824.3
518.706	28943.17
519.073	29031.52
519.44	29219.99
519.808	29497.73
520.175	29649.36
520.542	29859.07
520.909	30098.39
521.276	30077.6
521.643	30417.93
522.009	30569.79
522.376	30809.78
522.743	31100.17
523.11	31309.66
523.477	31542.42
523.843	31842.52
524.21	31968.17
524.577	32205.9
524.943	32498.55
525.31	32651.32
525.676	32938.54
526.043	33009.73
526.409	33174.24
526.776	33630.5
527.142	33670.5
527.508	33910.27
527.874	34036.14
528.241	34305.06
528.607	34283.36
528.973	34816.68
529.339	34707.53
529.705	35034.76
530.071	35371.25
530.437	35542.09
530.803	35704.57
531.169	35985.01
531.535	35847.62
531.901	36030.89
532.267	36258.45
532.632	36559.91
532.998	36665.9
533.364	36864.77
533.73	36890.3
534.095	37222.95
534.461	37441.25
534.826	37474.24
535.192	37797.4
535.557	37874
535.923	37886.66
536.288	38201
536.653	38227.44
537.019	38324.84
537.384	38387.89
537.749	38754.88
538.114	38775
538.479	38852.06
538.845	39051.15
539.21	39030.81
539.575	39131.15
539.94	39425.38
540.305	39555.99
540.67	39488.2
541.034	39790.11
541.399	39884.8
541.764	40092.02
542.129	40034.4
542.494	40279.82
542.858	40403.88
543.223	40475.29
543.587	40764.32
543.952	40734.04
544.316	41057.42
544.681	41141.49
545.045	41333.35
545.41	41373.12
545.774	41531.54
546.138	41570.4
546.503	41769.27
546.867	41779.89
547.231	42085.64
547.595	42137.39
547.959	42223.95
548.324	42293.1
548.688	42396.6
549.052	42603.15
549.416	42785.51
549.779	42755.46
550.143	42922.01
550.507	43166.75
550.871	43245.84
551.235	43379.85
551.599	43454.2
551.962	43774.87
552.326	43818.93
552.689	44092.15
553.053	44052.6
553.417	44024.8
553.78	44507.73
554.143	44414.85
554.507	44483.1
554.87	44739.81
555.234	45074.94
555.597	44906.14
555.96	45094.15
556.323	45252.12
556.686	45453.47
557.05	45652.56
557.413	45716.96
557.776	45751.09
558.139	46048.25
558.502	46180.23
558.865	46193.56
559.228	46565.53
559.59	46748.12
559.953	46751.51
560.316	47195.34
560.679	47105.85
561.041	47421.32
561.404	47476.92
561.767	47684.82
562.129	47620.64
562.492	48081.42
562.854	48074.41
563.217	48136.79
563.579	48185.37
563.941	48492.71
564.304	48683.44
564.666	48949.19
565.028	48986.48
565.39	49100.38
565.753	49308.28
566.115	49460.14
566.477	49605.45
566.839	49722.05
567.201	49928.38
567.563	49927.02
567.925	50236.16
568.287	50141.7
568.648	50336.95
569.01	50545.99
569.372	50681.58
569.734	50668.47
570.095	50884.96
570.457	50984.62
570.819	51188.68
571.18	51111.4
571.542	51280.43
571.903	51449.69
572.265	51618.73
572.626	51653.75
572.987	51792.73
573.349	51898.95
573.71	51946.85
574.071	52004.93
574.432	52063.91
574.794	52450.34
575.155	52358.82
575.516	52317.01
575.877	52421.87
576.238	52587.52
576.599	52630.9
576.96	52728.3
577.32	52700.28
577.681	52842.2
578.042	52894.4
578.403	52905.47
578.763	52984.34
579.124	53051.23
579.485	53107.95
579.845	53233.15
580.206	53172.13
580.566	53215.75
580.927	53321.96
581.287	53420.04
581.648	53334.39
582.008	53563.99
582.368	53444.89
582.728	53523.54
583.089	53491.9
583.449	53480.6
583.809	53586.81
584.169	53710.2
584.529	53626.36
584.889	53904.54
585.249	53623.65
585.609	53548.17
585.969	53807.14
586.329	53735.51
586.688	53754.72
587.048	53707.94
587.408	53727.37
587.768	53788.16
588.127	53819.35
588.487	53876.75
588.846	53985.22
589.206	53813.02
589.565	53820.7
589.925	53980.25
590.284	53857.54
590.643	54001.94
591.003	54065.67
591.362	54140.92
591.721	54036.52
592.08	54101.6
592.44	54087.82
592.799	54210.07
593.158	54166.91
593.517	54126.46
593.876	54153.35
594.235	54153.8
594.593	54220.02
594.952	54297.08
595.311	54286
595.67	54308.6
596.029	54427.69
596.387	54519.89
596.746	54489.39
597.104	54288.26
597.463	54417.52
597.822	54537.29
598.18	54429.05
598.538	54430.63
598.897	54559.44
599.255	54276.06
599.613	54788.81
599.972	54514.47
600.33	54606.67
600.688	54529.16
601.046	54637.86
601.404	54751.75
601.762	54680.79
602.12	54826.1
602.478	54869.04
602.836	54838.76
603.194	54637.86
603.552	54827
603.91	54751.53
604.268	54881.01
604.625	54778.19
604.983	54947
605.341	54820.9
605.698	54887.57
606.056	54971.41
606.413	54945.87
606.771	54938.64
607.128	55053.67
607.485	54954.23
607.843	55012.54
608.2	55137.28
608.557	55159.43
608.914	55153.78
609.272	55304.28
609.629	55290.5
609.986	55337.95
610.343	55206.43
610.7	55389.02
611.057	55376.82
611.414	55276.71
611.771	55332.75
612.127	55471.96
612.484	55422.7
612.841	55481.22
613.198	55369.82
613.554	55449.36
613.911	55642.8
614.267	55566.65
614.624	55518.06
614.98	55567.32
615.337	55689.13
615.693	55653.42
616.05	55670.37
616.406	55835.34
616.762	55730.71
617.118	55682.35
617.475	55722.35
617.831	55767.32
618.187	55743.36
618.543	55783.36
618.899	55899.52
619.255	55819.3
619.611	55853.64
619.967	55996.47
620.323	55956.01
620.678	55946.3
621.034	55923.02
621.39	55906.3
621.746	55824.27
622.101	56148.33
622.457	55927.09
622.812	55916.69
623.168	55975.9
623.523	56040.76
623.879	56040.53
624.234	55845.51
624.589	55925.28
624.945	55996.47
625.3	56074.88
625.655	56017.03
626.01	56067.65
626.365	56024.71
626.72	56004.6
627.075	56112.39
627.43	56054.77
627.785	55981.1
628.14	56029.91
628.495	56103.81
628.85	55956.69
629.205	55951.49
629.559	56041.44
629.914	56002.79
630.269	56005.28
630.623	56008.22
630.978	55906.98
631.332	56024.49
631.687	56049.12
632.041	55984.71
632.396	56042.57
632.75	55963.47
633.104	56040.31
633.459	55772.97
633.813	55824.72
634.167	55806.41
634.521	55793.53
634.875	55828.11
635.229	55841.44
635.583	55700.65
635.937	55682.8
636.291	55627.21
636.645	55755.79
636.999	55649.36
637.352	55725.06
637.706	55601.67
638.06	55754.44
638.413	55570.26
638.767	55522.13
639.121	55584.72
639.474	55459.08
639.828	55517.61
640.181	55549.7
640.534	55519.19
640.888	55482.81
641.241	55316.71
641.594	55384.73
641.947	55574.78
642.301	55400.77
642.654	55428.34
643.007	55365.97
643.36	55456.37
643.713	55299.99
644.066	55387.44
644.419	55250.04
644.771	55030.39
645.124	54848.93
645.477	54701.36
645.83	54604.86
646.182	54523.96
646.535	54419.78
646.888	54532.1
647.24	54416.17
647.593	54558.09
647.945	54379.78
648.298	54375.04
648.65	54259.79
649.002	54326.9
649.355	54379.78
649.707	54344.08
650.059	54395.38
650.411	54743.62
650.763	54763.73
651.115	55069.71
651.467	54984.74
651.819	54993.55
652.171	54964.18
652.523	54845.76
652.875	54829.49
653.227	54728.02
653.578	54924.4
653.93	54871.3
654.282	54744.75
654.633	54658.42
654.985	54745.42
655.337	54762.83
655.688	54831.98
656.039	54832.43
656.391	54580.23
656.742	54634.92
657.094	54589.5
657.445	54735.48
657.796	54684.41
658.147	54640.79
658.498	54565.99
658.849	54619.1
659.2	54518.99
659.551	54570.06
659.902	54640.57
660.253	54534.36
660.604	54629.04
660.955	54486
661.306	54614.13
661.656	54546.56
662.007	54553.57
662.358	54521.7
662.708	54509.5
663.059	54439.22
663.409	54347.92
663.76	54505.43
664.11	54462.27
664.461	54471.76
664.811	54483.28
665.161	54472.44
665.511	54399.67
665.862	54435.38
666.212	54406.22
666.562	54385.66
666.912	54418.65
667.262	54388.15
667.612	54367.13
667.962	54309.5
668.312	54271.31
668.662	54409.84
669.011	54299.33
669.361	54197.19
669.711	54189.96
670.06	54184.08
670.41	54139.11
670.76	54027.93
671.109	54223.86
671.459	54089.4
671.808	54099.79
672.157	54105.22
672.507	53958.78
672.856	53945.45
673.205	54046.69
673.554	54058.21
673.904	53973.02
674.253	54080.36
674.602	54080.36
674.951	53535.29
675.3	53415.97
675.649	53808.95
675.998	53739.35
676.346	53874.49
676.695	54001.04
677.044	53603.99
677.393	53707.71
677.741	53689.86
678.09	53711.78
678.438	53632.23
678.787	53675.85
679.135	53674.49
679.484	53420.04
679.832	53537.77
680.181	53348.63
680.529	53459.13
680.877	53328.51
681.225	53313.82
681.573	53429.08
681.922	53198.8
682.27	53082.42
682.618	53114.73
682.966	53075.64
683.314	53030.67
683.661	53006.71
684.009	52815.98
684.357	52773.27
684.705	52738.7
685.053	52766.04
685.4	52731.47
685.748	52434.07
686.095	52553.62
686.443	52385.04
686.79	52359.5
687.138	52277.69
687.485	52330.12
687.832	52185.27
688.18	52176.45
688.527	52051.94
688.874	52096.68
689.221	51959.51
689.568	51798.38
689.915	51739.63
690.262	51815.33
690.609	51718.16
690.956	51476.81
691.303	51525.85
691.65	51354.33
691.997	51344.84
692.344	51268.68
692.69	51014.9
693.037	51062.36
693.383	50908.46
693.73	50969.03
694.077	50731.07
694.423	50658.53
694.769	50548.47
695.116	50557.51
695.462	50445.88
695.808	50364.3
696.155	50410.62
696.501	50083.63
696.847	50099.9
697.193	49853.12
697.539	49981.03
697.885	49737.87
698.231	49639.12
698.577	49748.95
698.923	49512.57
699.269	49323.42
699.614	49223.54
699.96	49133.14
700.306	49076.65
700.651	48953.71
700.997	48985.8
701.342	48816.09
701.688	48837.56
702.033	48718.69
702.379	48666.49
702.724	48473.73
703.069	48600.5
703.415	48210
703.76	48123.9
704.105	48064.47
704.45	48006.39
704.795	47801.88
705.14	47881.2
705.485	47786.29
705.83	47541.55
706.175	47536.57
706.52	47442.11
706.865	47385.62
707.209	47221.1
707.554	47140.2
707.899	47221.78
708.243	46919.87
708.588	46859.3
708.932	46687.33
709.277	46708.35
709.621	46798.29
709.966	46245.99
710.31	46570.5
710.654	46253.44
710.998	46259.55
711.342	46368.92
711.687	46078.76
712.031	46025.2
712.375	45897.3
712.719	45902.27
713.063	45778.2
713.407	45902.95
713.75	45752.67
714.094	45608.04
714.438	45479.45
714.782	45467.7
715.125	45299.57
715.469	45401.04
715.812	45117.2
716.156	44896.64
716.499	45027.26
716.843	45116.53
717.186	44757.66
717.53	45020.03
717.873	44900.94
718.216	44832.01
718.559	44593.6
718.902	44396.09
719.246	44597.9
719.589	44268.86
719.932	44116.55
720.275	44104.8
720.617	44076.33
720.96	44079.49
721.303	44034.52
721.646	44055.54
721.989	43752.49
722.331	43807.41
722.674	43694.42
723.016	43719.27
723.359	43525.83
723.701	43570.13
724.044	43412.62
724.386	43211.72
724.729	43360.87
725.071	43299.62
725.413	43251.26
725.755	43242.9
726.097	43074.32
726.439	42890.14
726.782	42809.69
727.124	42982.57
727.465	42762.46
727.807	42679.53
728.149	42673.65
728.491	42566.54
728.833	42626.42
729.175	42435.47
729.516	42310.95
729.858	42363.38
730.199	42543.94
730.541	42264.85
730.882	42226.66
731.224	42425.07
731.565	41923.16
731.906	42003.39
732.248	42073.89
732.589	41788.7
732.93	41819.66
733.271	41682.04
733.612	41801.58
733.953	41855.59
734.294	41561.14
734.635	41381.93
734.976	41550.29
735.317	41315.04
735.658	41214.93
735.999	41370.86
736.339	41168.83
736.68	41398.66
737.021	41223.97
737.361	41102.62
737.702	41272.56
738.042	41001.83
738.383	40905.79
738.723	41007.26
739.063	40938.56
739.404	40901.5
739.744	40759.13
740.084	40524.78
740.424	40682.52
740.764	40514.61
741.104	40789.18
741.444	40433.03
741.784	40423.54
742.124	40478.23
742.464	40325.01
742.804	40360.72
743.143	40274.84
743.483	40140.39
743.823	39961.18
744.162	39990.11
744.502	40087.96
744.841	39888.87
745.181	39980.39
745.52	39786.27
745.86	39906.49
746.199	39705.14
746.538	39810.45
746.877	39760.06
747.216	39711.47
747.556	39640.74
747.895	39608.2
748.234	39210.69
748.573	39172.28
748.911	39263.57
749.25	39401.2
749.589	39011.38
749.928	39098.6
750.267	39052.05
750.605	38982
750.944	38856.13
751.283	38740.65
751.621	38977.03
751.96	38560.77
752.298	38676.02
752.636	38554.21
752.975	38506.76
753.313	38362.35
753.651	38441.45
