Data from white_steel_sheet_FLMS001491_089.txt Node
Date: Tue Feb 07 10:58:37 GMT 2017
User: dcchb
Spectrometer: FLMS00149
Trigger mode: 0
Integration Time (sec): 2.000000E-2
Scans to average: 10
Electric dark correction enabled: true
Nonlinearity correction enabled: false
Boxcar width: 0
XAxis mode: Wavelengths
Number of Pixels in Spectrum: 2048
>>>>>Begin Spectral Data<<<<<
341.393	-12.23
341.776	-12.23
342.16	-12.23
342.543	-48.61
342.927	-73.47
343.31	-81.61
343.693	-71.21
344.077	-57.65
344.46	-61.04
344.843	-39.58
345.226	-46.81
345.61	-58.56
345.993	-3.64
346.376	-3.64
346.759	13.3
347.142	36.13
347.525	60.54
347.908	45.85
348.291	67.09
348.674	93.08
349.057	107.77
349.44	118.84
349.823	158.16
350.206	153.41
350.588	197.25
350.971	197.03
351.354	251.49
351.737	224.37
352.119	233.41
352.502	266.86
352.884	266.63
353.267	297.59
353.65	297.59
354.032	299.17
354.414	314.99
354.797	315.44
355.179	319.29
355.562	318.83
355.944	336.46
356.326	334.2
356.709	328.55
357.091	353.63
357.473	341.88
357.855	333.07
358.238	328.78
358.62	334.2
359.002	357.02
359.384	350.47
359.766	349.12
360.148	334.2
360.53	345.73
360.912	336.46
361.294	324.03
361.676	336.91
362.057	362.67
362.439	333.3
362.821	357.02
363.203	340.3
363.584	348.89
363.966	347.08
364.348	327.65
364.729	322.45
365.111	334.88
365.493	335.1
365.874	326.97
366.256	329.68
366.637	328.78
367.019	322.9
367.4	333.3
367.781	311.15
368.163	322
368.544	336.23
368.925	319.06
369.306	332.39
369.688	334.43
370.069	321.77
370.45	316.12
370.831	312.28
371.212	335.33
371.593	315.44
371.974	318.16
372.355	319.74
372.736	331.94
373.117	318.61
373.498	323.81
373.879	319.51
374.26	333.75
374.641	322.68
375.021	325.16
375.402	315.67
375.783	357.25
376.163	358.15
376.544	374.43
376.925	346.63
377.305	330.81
377.686	334.65
378.066	324.26
378.447	354.09
378.827	360.87
379.208	359.06
379.588	361.32
379.968	333.52
380.349	350.92
380.729	366.52
381.109	368.32
381.489	349.12
381.87	361.32
382.25	378.27
382.63	340.3
383.01	382.79
383.39	387.31
383.77	366.74
384.15	377.81
384.53	369.45
384.91	357.7
385.29	373.3
385.67	412.62
386.049	394.31
386.429	391.83
386.809	411.71
387.189	390.7
387.568	397.02
387.948	408.77
388.328	403.58
388.707	388.44
389.087	391.83
389.466	423.24
389.846	460.75
390.225	440.19
390.605	442.67
390.984	424.37
391.363	412.62
391.743	437.25
392.122	456.46
392.501	446.74
392.881	434.76
393.26	449.9
393.639	463.46
394.018	489
394.397	470.24
394.776	472.95
395.155	483.35
395.534	484.7
395.913	480.86
396.292	511.6
396.671	503.01
397.05	514.99
397.429	508.43
397.808	517.47
398.186	531.26
398.565	550.69
398.944	552.05
399.323	554.08
399.701	555.66
400.08	550.69
400.458	565.61
400.837	568.09
401.215	560.86
401.594	576.23
401.972	590.92
402.351	600.86
402.729	623.01
403.107	618.94
403.486	600.18
403.864	627.98
404.242	643.12
404.62	675.21
404.999	642.67
405.377	668.88
405.755	682.67
406.133	702.55
406.511	715.21
406.889	699.16
407.267	748.88
407.645	735.77
408.023	744.13
408.401	757.69
408.779	760.18
409.156	765.6
409.534	813.51
409.912	823.9
410.29	836.56
410.667	839.27
411.045	848.31
411.422	855.77
411.8	865.94
412.178	880.63
412.555	897.12
412.933	905.94
413.31	935.09
413.687	922.21
414.065	942.77
414.442	958.14
414.819	966.27
415.197	957.23
415.574	996.56
415.951	1018.25
416.328	997.01
416.705	1031.81
417.082	1045.59
417.46	1032.71
417.837	1098.7
418.214	1060.06
418.591	1088.08
418.967	1083.11
419.344	1125.14
419.721	1116.78
420.098	1125.59
420.475	1160.17
420.852	1167.85
421.228	1151.13
421.605	1134.86
421.982	1195.42
422.358	1209.88
422.735	1206.04
423.111	1211.24
423.488	1228.19
423.864	1225.93
424.241	1277.45
424.617	1282.42
424.994	1278.36
425.37	1321.97
425.746	1268.86
426.123	1295.53
426.499	1341.63
426.875	1356.77
427.251	1347.73
427.627	1411.23
428.003	1419.6
428.379	1432.93
428.756	1419.14
429.132	1495.3
429.507	1526.71
429.883	1537.33
430.259	1523.32
430.635	1549.08
431.011	1573.26
431.387	1592.02
431.763	1613.94
432.138	1658.01
432.514	1666.37
432.89	1640.38
433.265	1711.79
433.641	1734.16
434.016	1754.73
434.392	1772.81
434.767	1803.31
435.143	1794.27
435.518	1848.96
435.894	1834.27
436.269	1897.55
436.644	1891.9
437.02	1913.14
437.395	1911.79
437.77	1967.38
438.145	1991.78
438.52	1991.56
438.895	2015.74
439.271	2028.39
439.646	2068.39
440.021	2078.56
440.395	2076.3
440.77	2095.74
441.145	2142.74
441.52	2162.4
441.895	2142.51
442.27	2160.14
442.645	2200.82
443.019	2187.71
443.394	2230.42
443.769	2259.35
444.143	2251.21
444.518	2272.45
444.892	2294.83
445.267	2293.24
445.641	2281.95
446.016	2357.2
446.39	2386.58
446.764	2334.37
447.139	2392.45
447.513	2415.5
447.887	2406.01
448.262	2423.18
448.636	2483.75
449.01	2493.47
449.384	2508.15
449.758	2558.1
450.132	2568.49
450.506	2549.96
450.88	2581.37
451.254	2597.19
451.628	2668.83
452.002	2667.92
452.376	2690.52
452.75	2724.19
453.123	2723.06
453.497	2816.85
453.871	2812.78
454.244	2863.85
454.618	2879.44
454.992	2927.13
455.365	2927.58
455.739	3001.7
456.112	3033.56
456.486	3055.03
456.859	3097.97
457.232	3107.69
457.606	3169.38
457.979	3175.03
458.352	3251.64
458.725	3279.89
459.099	3288.02
459.472	3369.37
459.845	3397.62
460.218	3441.24
460.591	3487.79
460.964	3462.48
461.337	3580.67
461.71	3618.41
462.083	3666.09
462.456	3666.77
462.829	3702.02
463.201	3775.47
463.574	3763.71
463.947	3781.57
464.32	3930.72
464.692	3963.03
465.065	3993.77
465.438	4078.73
465.81	4082.35
466.183	4120.99
466.555	4200.99
466.928	4185.17
467.3	4207.09
467.672	4319.86
468.045	4410.25
468.417	4444.83
468.789	4474.2
469.161	4536.8
469.534	4629.91
469.906	4721.88
470.278	4744.25
470.65	4777.7
471.022	4818.6
471.394	4923.91
471.766	5001.87
472.138	5130.01
472.51	5171.36
472.882	5265.6
473.253	5307.85
473.625	5361.19
473.997	5498.36
474.369	5522.99
474.74	5565.02
475.112	5700.61
475.484	5745.36
475.855	5898.8
476.227	5906.94
476.598	6063.32
476.97	6155.74
477.341	6263.08
477.713	6345.57
478.084	6416.3
478.455	6563.19
478.827	6642.28
479.198	6809.06
479.569	6838.21
479.94	7061.71
480.311	7126.79
480.682	7230.06
481.053	7388.25
481.424	7574.91
481.795	7614.46
482.166	7738.75
482.537	7844.06
482.908	7996.82
483.279	8110.04
483.65	8197.5
484.021	8410.15
484.391	8488.79
484.762	8576.02
485.133	8642.91
485.503	8729.91
485.874	8886.07
486.244	9038.83
486.615	9249.67
486.985	9312.27
487.356	9524.92
487.726	9586.61
488.097	9761.75
488.467	9862.09
488.837	9995.87
489.207	10082.87
489.578	10284.9
489.948	10431.34
490.318	10507.72
490.688	10533.03
491.058	10728.05
491.428	10880.59
491.798	11003.75
492.168	11229.96
492.538	11257.3
492.908	11364.64
493.278	11509.5
493.648	11528.71
494.017	11690.74
494.387	11848.47
494.757	11956.95
495.126	12101.12
495.496	12124.4
495.866	12244.62
496.235	12461.56
496.605	12545.4
496.974	12612.97
497.344	12754.44
497.713	12732.74
498.082	12843.93
498.452	12994.66
498.821	13038.05
499.19	13050.02
499.559	13271.26
499.928	13454.08
500.298	13471.71
500.667	13596.9
501.036	13627.64
501.405	13798.93
501.774	13829.66
502.143	13962.99
502.512	14056.33
502.88	14272.59
503.249	14195.53
503.618	14381.97
503.987	14340.39
504.356	14513.49
504.724	14597.55
505.093	14621.73
505.462	14744.67
505.83	14841.16
506.199	15012.23
506.567	15252.9
506.936	15172.45
507.304	15410.41
507.672	15434.37
508.041	15586.91
508.409	15635.94
508.777	15748.26
509.145	15952.32
509.514	15955.03
509.882	16160.68
510.25	16135.82
510.618	16325.42
510.986	16411.07
511.354	16543.27
511.722	16711.85
512.09	16864.84
512.458	16861.45
512.826	17024.83
513.193	17148.45
513.561	17258.28
513.929	17352.96
514.297	17551.83
514.664	17620.75
515.032	17726.74
515.4	17944.58
515.767	18022.55
516.135	18131.25
516.502	17997.01
516.869	18442.42
517.237	18481.29
517.604	18551.57
517.972	18710.44
518.339	18917.67
518.706	18925.12
519.073	19088.51
519.44	19198.11
519.808	19350.2
520.175	19442.85
520.542	19662.96
520.909	19707.02
521.276	19824.99
521.643	20080.12
522.009	20269.5
522.376	20347.01
522.743	20534.35
523.11	20697.51
523.477	20871.06
523.843	21086.65
524.21	21263.82
524.577	21433.31
524.943	21530.03
525.31	21708.33
525.676	21904.71
526.043	22061.54
526.409	22082.55
526.776	22412.04
527.142	22459.49
527.508	22682.31
527.874	22840.95
528.241	22991.23
528.607	23018.12
528.973	23301.96
529.339	23408.17
529.705	23581.95
530.071	23706.02
530.437	23783.98
530.803	24060.58
531.169	24067.81
531.535	24159.79
531.901	24235.49
532.267	24308.26
532.632	24621.92
532.998	24604.3
533.364	24727.46
533.73	24882.71
534.095	25009.26
534.461	25212.19
534.826	25385.97
535.192	25406.31
535.557	25682.69
535.923	25571.95
536.288	25755.23
536.653	25873.42
537.019	25869.8
537.384	25949.12
537.749	26118.16
538.114	26219.17
538.479	26259.17
538.845	26487.18
539.21	26425.04
539.575	26385.72
539.94	26670.23
540.305	26884.46
540.67	26813.28
541.034	27022.76
541.399	27021.18
541.764	27227.96
542.129	27251.01
542.494	27392.7
542.858	27411.23
543.223	27564.44
543.587	27740.49
543.952	27665.68
544.316	27786.13
544.681	27837.66
545.045	28038.33
545.41	28149.97
545.774	28255.95
546.138	28248.49
546.503	28394.93
546.867	28346.8
547.231	28673.57
547.595	28578.88
547.959	28749.27
548.324	28774.36
548.688	28988.81
549.052	29012.32
549.416	29121.01
549.779	29194.68
550.143	29271.29
550.507	29520.78
550.871	29566.2
551.235	29672.86
551.599	29839.64
551.962	29777.49
552.326	29963.03
552.689	30163.92
553.053	30124.38
553.417	30018.84
553.78	30445.27
554.143	30375.9
554.507	30469.45
554.87	30626.74
555.234	30986.73
555.597	30838.26
555.96	30937.46
556.323	31211.58
556.686	31268.08
557.05	31331.8
557.413	31552.36
557.776	31569.76
558.139	31875.52
558.502	31816.54
558.865	31936.08
559.228	32283.87
559.59	32288.84
559.953	32376.07
560.316	32730.64
560.679	32683.86
561.041	32842.05
561.404	33057.63
561.767	33251.53
562.129	33019.67
562.492	33421.24
562.854	33604.96
563.217	33487.45
563.579	33733.55
563.941	33875.24
564.304	33981
564.666	34246.08
565.028	34303.7
565.39	34370.37
565.753	34512.51
566.115	34740.08
566.477	34894.87
566.839	35022.78
567.201	35213.06
567.563	35173.06
567.925	35399.72
568.287	35406.5
568.648	35418.93
569.01	35854.17
569.372	36004
569.734	35860.5
570.095	36235.18
570.457	36291.45
570.819	36300.26
571.18	36366.7
571.542	36561.5
571.903	36656.86
572.265	36715.16
572.626	36894.14
572.987	36869.28
573.349	36983.86
573.71	37142.05
574.071	37230.63
574.432	37342.72
574.794	37579.77
575.155	37525.31
575.516	37320.12
575.877	37654.35
576.238	37641.24
576.599	37897.51
576.96	37787
577.32	37877.62
577.681	37939.99
578.042	37972.53
578.403	38000.55
578.763	38070.61
579.124	38181.34
579.485	38245.29
579.845	38432.63
580.206	38285.29
580.566	38213.43
580.927	38371.62
581.287	38463.14
581.648	38346.08
582.008	38543.59
582.368	38476.47
582.728	38543.14
583.089	38535.68
583.449	38466.98
583.809	38511.28
584.169	38680.08
584.529	38505.63
584.889	38823.36
585.249	38616.13
585.609	38564.61
585.969	38753.76
586.329	38626.07
586.688	38670.37
587.048	38664.04
587.408	38566.19
587.768	38559.64
588.127	38546.08
588.487	38568.45
588.846	38854.77
589.206	38547.66
589.565	38608.67
589.925	38702.23
590.284	38634.44
590.643	38606.64
591.003	38796.24
591.362	38766.18
591.721	38699.97
592.08	38637.6
592.44	38807.09
592.799	38777.71
593.158	38768.22
593.517	38784.49
593.876	38819.52
594.235	38609.8
594.593	38763.47
594.952	38828.78
595.311	38690.48
595.67	38770.25
596.029	38753.98
596.387	39006.18
596.746	38958.72
597.104	38800.76
597.463	38870.14
597.822	38977.93
598.18	38785.17
598.538	38812.96
598.897	38992.17
599.255	38689.58
599.613	39337.69
599.972	39028.32
600.33	39193.97
600.688	39007.53
601.046	39041.43
601.404	39202.78
601.762	38983.35
602.12	39158.72
602.478	39206.17
602.836	39203.01
603.194	39040.75
603.552	39118.72
603.91	39055.22
604.268	39320.07
604.625	39122.33
604.983	39219.73
605.341	39110.13
605.698	39298.83
606.056	39238.71
606.413	39316.9
606.771	39370.69
607.128	39476
607.485	39299.05
607.843	39337.02
608.2	39492.49
608.557	39634.18
608.914	39466.28
609.272	39616.11
609.629	39762.99
609.986	39788.76
610.343	39629.21
610.7	39947.62
611.057	39862.2
611.414	39733.62
611.771	39957.11
612.127	39992.37
612.484	40062.87
612.841	40178.12
613.198	39963.21
613.554	40040.95
613.911	40168.63
614.267	40245.69
614.624	40264.45
614.98	40270.78
615.337	40384.45
615.693	40338.8
616.05	40191.46
616.406	40465.8
616.762	40360.27
617.118	40380.83
617.475	40317.78
617.831	40581.5
618.187	40592.58
618.543	40752.8
618.899	40853.59
619.255	40834.83
619.611	40743.99
619.967	40782.4
620.323	40905.11
620.678	40864.21
621.034	40703.99
621.39	40705.34
621.746	40712.35
622.101	41149.4
622.457	40875.73
622.812	40924.77
623.168	40900.37
623.523	40816.98
623.879	41015.84
624.234	40828.5
624.589	40935.39
624.945	40953.25
625.3	40956.18
625.655	40838.67
626.01	40972.91
626.365	41011.32
626.72	40980.36
627.075	40957.31
627.43	40900.59
627.785	40862.17
628.14	40903.3
628.495	40863.76
628.85	40874.83
629.205	40710.09
629.559	40955.96
629.914	40674.16
630.269	40769.3
630.623	40655.4
630.978	40580.37
631.332	40709.64
631.687	40697.21
632.041	40708.28
632.396	40676.19
632.75	40594.61
633.104	40423.32
633.459	40486.82
633.813	40226.26
634.167	40349.42
634.521	40141.74
634.875	40356.42
635.229	40369.31
635.583	40005.25
635.937	40091.12
636.291	39977.68
636.645	39987.85
636.999	39876.89
637.352	39996.43
637.706	39762.77
638.06	39948.53
638.413	39867.62
638.767	39640.51
639.121	39772.71
639.474	39469.67
639.828	39486.62
640.181	39468.54
640.534	39541.76
640.888	39452.49
641.241	39231.71
641.594	39337.47
641.947	39390.57
642.301	39286.62
642.654	39292.27
643.007	39266.51
643.36	39236.68
643.713	39097.47
644.066	39256.34
644.419	39085.05
644.771	38804.6
645.124	38323.48
645.477	38302.02
645.83	37975.92
646.182	37864.51
646.535	37785.19
646.888	37983.38
647.24	37778.41
647.593	37985.41
647.945	37922.36
648.298	37782.93
648.65	37749.94
649.002	37511.08
649.355	37601.47
649.707	37492.09
650.059	37617.06
650.411	38072.87
650.763	38095.24
651.115	38527.77
651.467	38306.99
651.819	38288.23
652.171	38299.53
652.523	38133.88
652.875	38095.92
653.227	38084.39
653.578	38301.34
653.93	38102.02
654.282	37951.52
654.633	37935.25
654.985	37913.55
655.337	37906.55
655.688	37866.77
656.039	38030.38
656.391	37623.62
656.742	37577.97
657.094	37747.68
657.445	37881.01
657.796	37726.44
658.147	37698.19
658.498	37635.59
658.849	37668.36
659.2	37496.61
659.551	37415.26
659.902	37542.26
660.253	37401.7
660.604	37430.85
660.955	37354.24
661.306	37347.69
661.656	37316.96
662.007	37253
662.358	37291.42
662.708	37038.32
663.059	37063.86
663.409	36861.83
663.76	36960.81
664.11	36978.21
664.461	36927.14
664.811	37038.55
665.161	36929.17
665.511	36610.08
665.862	36653.92
666.212	36614.38
666.562	36723.53
666.912	36500.03
667.262	36553.13
667.612	36451.22
667.962	36301.16
668.312	36167.16
668.662	36359.02
669.011	36286.02
669.361	36097.78
669.711	35990.21
670.06	35880.16
670.41	35750.9
670.76	35638.81
671.109	35705.7
671.459	35630.67
671.808	35464.35
672.157	35419.61
672.507	35344.35
672.856	35195.43
673.205	35277.69
673.554	35302.77
673.904	35201.76
674.253	35245.37
674.602	35084.7
674.951	34649.46
675.3	34300.99
675.649	34899.62
675.998	34802.45
676.346	34738.72
676.695	34982.1
677.044	34825.72
677.393	34712.05
677.741	34751.37
678.09	34627.31
678.438	34706.4
678.787	34614.88
679.135	34698.95
679.484	34406.52
679.832	34636.58
680.181	34432.96
680.529	34696.69
680.877	34405.62
681.225	34453.08
681.573	34644.71
681.922	34428.45
682.27	34376.47
682.618	34491.04
682.966	34379.63
683.314	34521.55
683.661	34399.07
684.009	34295.57
684.357	34241.78
684.705	34343.48
685.053	34373.53
685.4	34357.94
685.748	34225.29
686.095	34355.23
686.443	34242.01
686.79	34204.72
687.138	34251.73
687.485	34317.04
687.832	34270.71
688.18	34376.24
688.527	34169.24
688.874	34102.58
689.221	34191.84
689.568	34179.41
689.915	33895.13
690.262	34180.54
690.609	33967.67
690.956	33976.25
691.303	33961.11
691.65	33799.54
691.997	33771.51
692.344	33656.26
692.69	33720.22
693.037	33824.85
693.383	33519.99
693.73	33736.49
694.077	33534.46
694.423	33579.65
694.769	33347.12
695.116	33440.22
695.462	33421.69
695.808	33172.43
696.155	33289.72
696.501	33129.72
696.847	33004.98
697.193	32866.9
697.539	33138.76
697.885	32840.46
698.231	32752.56
698.577	32593.92
698.923	32672.11
699.269	32502.39
699.614	32371.78
699.96	32464.2
700.306	32336.75
700.651	32187.83
700.997	32165.45
701.342	32076.64
701.688	32033.48
702.033	31994.38
702.379	31988.74
702.724	31918.68
703.069	31878.91
703.415	31495.19
703.76	31623.77
704.105	31641.4
704.45	31449.54
704.795	31374.97
705.14	31253.61
705.485	31289.32
705.83	31218.36
706.175	31256.1
706.52	31079.38
706.865	30897.24
707.209	30968.2
707.554	30750.12
707.899	30935.66
708.243	30793.96
708.588	30788.54
708.932	30458.38
709.277	30481.43
709.621	30485.05
709.966	30245.5
710.31	30398.49
710.654	30094.55
710.998	30187.88
711.342	30226.07
711.687	30106.75
712.031	30037.83
712.375	29873.08
712.719	29940.65
713.063	29878.06
713.407	29801.22
713.75	29671.96
714.094	29661.11
714.438	29662.47
714.782	29685.74
715.125	29439.2
715.469	29348.13
715.812	29380.44
716.156	29171.41
716.499	29168.7
716.843	29261.12
717.186	29108.36
717.53	29211.18
717.873	29168.02
718.216	29029.04
718.559	28988.14
718.902	28783.85
719.246	28777.75
719.589	28658.43
719.932	28709.95
720.275	28707.92
720.617	28497.75
720.96	28562.16
721.303	28452.56
721.646	28518.77
721.989	28331.2
722.331	28506.34
722.674	28324.42
723.016	28327.81
723.359	28227.93
723.701	28189.96
724.044	28054.15
724.386	28086.24
724.729	28014.6
725.071	27953.36
725.413	27973.25
725.755	27895.28
726.097	27780.48
726.439	27758.11
726.782	27803.76
727.124	27828.84
727.465	27630.43
727.807	27613.26
728.149	27571.22
728.491	27599.02
728.833	27649.64
729.175	27414.39
729.516	27492.81
729.858	27344.56
730.199	27324.68
730.541	27235.41
730.882	27250.1
731.224	27283.77
731.565	27154.51
731.906	27150.44
732.248	27009.21
732.589	26828.87
732.93	26956.78
733.271	26897.57
733.612	26800.17
733.953	26822.54
734.294	26821.41
734.635	26649.89
734.976	26787.52
735.317	26622.1
735.658	26595.66
735.999	26699.38
736.339	26474.76
736.68	26694.64
737.021	26462.78
737.361	26328.55
737.702	26613.96
738.042	26368.54
738.383	26286.06
738.723	26296.68
739.063	26354.76
739.404	26307.08
739.744	26194.54
740.084	26118.61
740.424	26136.23
740.764	26082.22
741.104	26147.98
741.444	25898.73
741.784	25892.17
742.124	25896.69
742.464	25778.73
742.804	25896.92
743.143	25840.42
743.483	25754.55
743.823	25557.04
744.162	25668.68
744.502	25633.65
744.841	25486.31
745.181	25552.75
745.52	25382.81
745.86	25634.33
746.199	25493.31
746.538	25506.19
746.877	25413.09
747.216	25281.79
747.556	25277.05
747.895	25348.68
748.234	25122.02
748.573	25061.69
748.911	25095.81
749.25	25062.36
749.589	24875.93
749.928	24909.15
750.267	24984.17
750.605	24831.41
750.944	24794.35
751.283	24780.11
751.621	24706.44
751.96	24580.57
752.298	24602.26
752.636	24621.7
752.975	24554.13
753.313	24340.12
