Data from whiteboard_FLMS001491_00100.txt Node
Date: Wed Feb 08 11:28:46 GMT 2017
User: dcchb
Spectrometer: FLMS00149
Trigger mode: 0
Integration Time (sec): 2.000000E-2
Scans to average: 10
Electric dark correction enabled: true
Nonlinearity correction enabled: false
Boxcar width: 0
XAxis mode: Wavelengths
Number of Pixels in Spectrum: 2048
>>>>>Begin Spectral Data<<<<<
341.393	-19.9
341.776	-19.9
342.16	-19.9
342.543	-60.8
342.927	-83.85
343.31	-58.32
343.693	-75.04
344.077	-50.63
344.46	-81.14
344.843	-50.63
345.226	-38.88
345.61	-9.28
345.993	-12.44
346.376	7.67
346.759	-23.74
347.142	18.29
347.525	42.92
347.908	43.83
348.291	85.41
348.674	98.29
349.057	103.71
349.44	136.03
349.823	145.74
350.206	180.55
350.588	217.83
350.971	239.3
351.354	252.63
351.737	262.8
352.119	269.58
352.502	314.33
352.884	307.55
353.267	308.23
353.65	318.62
354.032	333.08
354.414	319.75
354.797	333.99
355.179	360.65
355.562	370.15
355.944	348.45
356.326	386.64
356.709	360.43
357.091	375.34
357.473	380.77
357.855	358.85
358.238	378.28
358.62	371.5
359.002	377.38
359.384	395.46
359.766	379.86
360.148	359.98
360.53	368.34
360.912	401.11
361.294	377.83
361.676	396.13
362.057	382.57
362.439	380.77
362.821	378.06
363.203	364.27
363.584	362.91
363.966	368.11
364.348	351.16
364.729	347.32
365.111	347.32
365.493	357.72
365.874	353.42
366.256	358.62
366.637	357.26
367.019	333.76
367.4	356.59
367.781	366.53
368.163	361.33
368.544	345.97
368.925	350.71
369.306	360.65
369.688	360.43
370.069	354.55
370.45	355.68
370.831	364.04
371.212	347.1
371.593	366.76
371.974	364.5
372.355	371.05
372.736	370.6
373.117	368.56
373.498	350.71
373.879	369.92
374.26	378.51
374.641	390.94
375.021	375.12
375.402	362.24
375.783	383.03
376.163	397.49
376.544	397.26
376.925	391.61
377.305	382.8
377.686	416.92
378.066	406.75
378.447	382.57
378.827	406.75
379.208	412.18
379.588	407.43
379.968	397.94
380.349	413.99
380.729	432.97
381.109	418.73
381.489	419.41
381.87	403.59
382.25	449.92
382.63	436.13
383.01	442.46
383.39	419.18
383.77	431.16
384.15	449.47
384.53	455.34
384.91	445.85
385.29	470.03
385.67	441.78
386.049	461.22
386.429	454.89
386.809	477.94
387.189	454.89
387.568	469.58
387.948	484.94
388.328	477.49
388.707	468.22
389.087	463.02
389.466	497.15
389.846	513.42
390.225	475
390.605	507.09
390.984	519.29
391.363	520.65
391.743	512.51
392.122	535.57
392.501	550.25
392.881	540.99
393.26	574.21
393.639	563.81
394.018	555.45
394.397	568.11
394.776	582.34
395.155	588.44
395.534	598.84
395.913	605.85
396.292	602.68
396.671	620.99
397.05	658.5
397.429	606.75
397.808	621.66
398.186	655.79
398.565	645.62
398.944	692.4
399.323	669.8
399.701	684.71
400.08	736.69
400.458	723.58
400.837	736.46
401.215	735.33
401.594	748.21
401.972	785.95
402.351	772.39
402.729	773.52
403.107	809
403.486	810.81
403.864	817.14
404.242	847.87
404.62	842.68
404.999	874.99
405.377	900.08
405.755	869.57
406.133	925.84
406.511	933.75
406.889	949.57
407.267	966.97
407.645	969
408.023	1009.45
408.401	1039.05
408.779	1037.7
409.156	1068.21
409.534	1072.5
409.912	1078.6
410.29	1128.77
410.667	1160.63
411.045	1184.14
411.422	1203.12
411.8	1223.91
412.178	1273.4
412.555	1262.33
412.933	1281.99
413.31	1321.08
413.687	1320.4
414.065	1344.81
414.442	1379.61
414.819	1398.14
415.197	1447.18
415.574	1427.29
415.951	1460.29
416.328	1496.67
416.705	1501.19
417.082	1465.26
417.46	1569.21
417.837	1554.75
418.214	1560.4
418.591	1581.41
418.967	1616.21
419.344	1644.46
419.721	1657.57
420.098	1676.33
420.475	1674.29
420.852	1693.95
421.228	1724.46
421.605	1748.41
421.982	1794.06
422.358	1793.39
422.735	1821.18
423.111	1836.77
423.488	1865.47
423.864	1869.54
424.241	1934.17
424.617	1956.32
424.994	1945.47
425.37	1983.21
425.746	2010.1
426.123	2005.13
426.499	2016.88
426.875	2068.63
427.251	2101.17
427.627	2131.91
428.003	2166.03
428.379	2197.89
428.756	2214.62
429.132	2278.57
429.507	2293.94
429.883	2306.82
430.259	2357.66
430.635	2385.23
431.011	2414.84
431.387	2505.46
431.763	2504.55
432.138	2514.72
432.514	2571.44
432.89	2588.39
433.265	2638.56
433.641	2699.8
434.016	2694.6
434.392	2752
434.767	2825.9
435.143	2822.28
435.518	2822.28
435.894	2848.95
436.269	2900.93
436.644	2938.67
437.02	2972.11
437.395	3014.14
437.77	3050.08
438.145	3095.05
438.52	3140.24
438.895	3151.99
439.271	3170.52
439.646	3241.48
440.021	3276.74
440.395	3257.75
440.77	3290.29
441.145	3327.58
441.52	3387.02
441.895	3359.9
442.27	3407.81
442.645	3413.68
443.019	3528.48
443.394	3469.5
443.769	3525.09
444.143	3485.09
444.518	3562.38
444.892	3539.55
445.267	3582.49
445.641	3653.9
446.016	3650.74
446.39	3710.17
446.764	3726.89
447.139	3710.85
447.513	3782.94
447.887	3760.79
448.262	3810.06
448.636	3818.64
449.01	3911.75
449.384	3939.54
449.758	3928.02
450.132	3978.64
450.506	3989.26
450.88	4017.96
451.254	4065.87
451.628	4133.89
452.002	4220.67
452.376	4218.63
452.75	4242.81
453.123	4256.6
453.497	4389.7
453.871	4387.89
454.244	4513.31
454.618	4494.56
454.992	4600.32
455.365	4585.63
455.739	4759.63
456.112	4772.74
456.486	4782.46
456.859	4839.18
457.232	4925.51
457.606	4934.77
457.979	5027.2
458.352	5158.27
458.725	5215.22
459.099	5215.22
459.472	5274.88
459.845	5395.1
460.218	5431.48
460.591	5531.14
460.964	5475.55
461.337	5667.41
461.71	5733.39
462.083	5732.26
462.456	5847.52
462.829	5871.47
463.201	6004.35
463.574	6011.13
463.947	6063.33
464.32	6227.39
464.692	6251.35
465.065	6314.85
465.438	6419.25
465.81	6495.63
466.183	6621.73
466.555	6714.84
466.928	6759.36
467.3	6703.54
467.672	6879.35
468.045	7109.86
468.417	7085.68
468.789	7126.58
469.161	7251.32
469.534	7367.48
469.906	7559.34
470.278	7570.41
470.65	7682.27
471.022	7877.07
471.394	8017.4
471.766	8048.59
472.138	8124.29
472.51	8234.57
472.882	8473.21
473.253	8515.69
473.625	8726.31
473.997	8899.86
474.369	8967.89
474.74	8986.42
475.112	9123.14
475.484	9337.14
475.855	9526.97
476.227	9580.98
476.598	9868.88
476.97	9929.67
477.341	10118.14
477.713	10306.38
478.084	10347.96
478.455	10653.72
478.827	10706.37
479.198	11086.7
479.569	11088.06
479.94	11377.54
480.311	11526.01
480.682	11695.27
481.053	12081.7
481.424	12216.16
481.795	12350.85
482.166	12504.52
482.537	12744.74
482.908	12945.86
483.279	13073.54
483.65	13366.41
484.021	13588.78
484.391	13720.76
484.762	13836.23
485.133	14069.22
485.503	14200.06
485.874	14533.84
486.244	14666.49
486.615	14946.49
486.985	15221.28
487.356	15474.16
487.726	15579.69
488.097	15901.94
488.467	15969.28
488.837	16314.36
489.207	16447.46
489.578	16681.58
489.948	16807.45
490.318	17079.08
490.688	17098.52
491.058	17443.82
491.428	17581.44
491.798	17746.19
492.168	18117.7
492.538	18232.73
492.908	18420.52
493.278	18647.63
493.648	18729.21
494.017	19020.28
494.387	19129.2
494.757	19246.71
495.126	19591.79
495.496	19514.95
495.866	19736.42
496.235	19834.49
496.605	20183.18
496.974	20294.82
497.344	20537.75
497.713	20592.89
498.082	20708.59
498.452	20951.53
498.821	21164.4
499.19	21145.64
499.559	21328.46
499.928	21565.97
500.298	21651.85
500.667	21870.6
501.036	21972.74
501.405	22114.43
501.774	22128.44
502.143	22390.36
502.512	22503.57
502.88	22692.27
503.249	22753.96
503.618	23014.3
503.987	23039.61
504.356	23154.63
504.724	23329.32
505.093	23440.95
505.462	23549.65
505.83	23599.14
506.199	23856.76
506.567	24252.23
506.936	24074.61
507.304	24469.85
507.672	24482.05
508.041	24641.37
508.409	24882.95
508.777	25006.56
509.145	25174.47
509.514	25307.12
509.882	25428.24
510.25	25476.83
510.618	25674.79
510.986	25866.65
511.354	26111.16
511.722	26257.83
512.09	26597.03
512.458	26524.71
512.826	26872.5
513.193	27030.24
513.561	27220.97
513.929	27401.3
514.297	27664.34
514.664	27726.49
515.032	27952.7
515.4	28146.36
515.767	28230.88
516.135	28423.19
516.502	28441.27
516.869	29055.27
517.237	29107.7
517.604	29055.27
517.972	29481.24
518.339	29600.56
518.706	29688.02
519.073	29786.77
519.44	30023.83
519.808	30420.88
520.175	30403.71
520.542	30805.5
520.909	30882.79
521.276	30881.21
521.643	31254.98
522.009	31541.76
522.376	31713.5
522.743	31900.84
523.11	32286.59
523.477	32460.38
523.843	32544.67
524.21	32984.88
524.577	33260.81
524.943	33364.08
525.31	33546.45
525.676	33849.27
526.043	33984.4
526.409	34217.62
526.776	34528.34
527.142	34632.75
527.508	34846.75
527.874	35182.11
528.241	35326.06
528.607	35432.05
528.973	35915.88
529.339	35952.26
529.705	36350.44
530.071	36488.52
530.437	36693.94
530.803	36920.6
531.169	37179.57
531.535	37165.79
531.901	37348.38
532.267	37619.34
532.632	37847.58
532.998	37924.41
533.364	38137.06
533.73	38291.86
534.095	38515.36
534.461	38677.84
534.826	38838.96
535.192	38967.77
535.557	39364.37
535.923	39276.02
536.288	39524.37
536.653	39660.86
537.019	39586.97
537.384	39848.2
537.749	40059.95
538.114	40047.29
538.479	40239.83
538.845	40360.28
539.21	40341.52
539.575	40519.15
539.94	40734.51
540.305	40918.68
540.67	40846.6
541.034	40954.16
541.399	41209.07
541.764	41229.64
542.129	41481.61
542.494	41501.95
542.858	41748.27
543.223	41933.8
543.587	41871.43
543.952	42032.33
544.316	42067.35
544.681	42032.33
545.045	42328.36
545.41	42707.34
545.774	42710.73
546.138	42744.85
546.503	42983.04
546.867	43118.63
547.231	43226.87
547.595	43325.4
547.959	43664.37
548.324	43659.4
548.688	43758.16
549.052	43931.94
549.416	44015.33
549.779	44160.41
550.143	44282.21
550.507	44673.16
550.871	44743.44
551.235	44696.44
551.599	45084.68
551.962	45213.94
552.326	45276.31
552.689	45509.75
553.053	45391.79
553.417	45550.43
553.78	45997.87
554.143	45910.42
554.507	46176.85
554.87	46218.21
555.234	46676.95
555.597	46309.95
555.96	46583.39
556.323	46873.33
556.686	46822.03
557.05	47136.83
557.413	47192.19
557.776	47346.09
558.139	47627.66
558.502	47444.84
558.865	47674.66
559.228	47906.3
559.59	47951.95
559.953	47991.94
560.316	48351.26
560.679	48412.5
561.041	48578.82
561.404	48720.74
561.767	49059.49
562.129	48831.92
562.492	49242.08
562.854	49260.39
563.217	49274.62
563.579	49451.57
563.941	49723.42
564.304	49933.36
564.666	50133.36
565.028	50175.16
565.39	50145.79
565.753	50352.79
566.115	50435.27
566.477	50663.96
566.839	50762.04
567.201	51080.45
567.563	51033.67
567.925	51341.01
568.287	51487.67
568.648	51509.59
569.01	51701
569.372	52028.22
569.734	51889.02
570.095	52166.75
570.457	52304.83
570.819	52283.13
571.18	52353.64
571.542	52519.51
571.903	52680.86
572.265	52742.78
572.626	52883.79
572.987	52936.22
573.349	52954.98
573.71	53135.99
574.071	53230
574.432	53348.41
574.794	53462.31
575.155	53466.38
575.516	53384.34
575.877	53621.17
576.238	53632.02
576.599	53820.94
576.96	53842.86
577.32	53803.77
577.681	53946.82
578.042	53878.12
578.403	53999.92
578.763	53831.79
579.124	53943.65
579.485	54040.15
579.845	54154.49
580.206	54017.55
580.566	54003.99
580.927	54050.99
581.287	54127.6
581.648	54038.79
582.008	54115.63
582.368	54059.81
582.728	54194.27
583.089	54105.23
583.449	54088.73
583.809	54107.26
584.169	54210.31
584.529	54136.42
584.889	54404.66
585.249	54289.18
585.609	54192.23
585.969	54329.4
586.329	54124.21
586.688	54227.03
587.048	54206.02
587.408	54211.44
587.768	54234.49
588.127	54286.24
588.487	54220.48
588.846	54438.78
589.206	54318.33
589.565	54338.44
589.925	54447.82
590.284	54457.76
590.643	54458.21
591.003	54598.78
591.362	54650.3
591.721	54636.06
592.08	54688.49
592.44	54763.97
592.799	54792.22
593.158	54764.87
593.517	54759
593.876	54794.25
594.235	54769.62
594.593	54819.34
594.952	54880.35
595.311	54813.01
595.67	54823.63
596.029	54940.24
596.387	54939.11
596.746	55051.65
597.104	54879.45
597.463	54938.65
597.822	55046.22
598.18	54896.4
598.538	54893.01
598.897	55013.68
599.255	54776.85
599.613	55140
599.972	54889.16
600.33	54991.76
600.688	54870.18
601.046	54993.79
601.404	55011.87
601.762	54854.81
602.12	54980.46
602.478	54982.72
602.836	54998.54
603.194	54802.61
603.552	54852.55
603.91	54729.17
604.268	54876.28
604.625	54752.22
604.983	54917.64
605.341	54715.38
605.698	54911.54
606.056	54922.16
606.413	54921.03
606.771	54947.69
607.128	54956.05
607.485	54948.37
607.843	54957.86
608.2	55102.94
608.557	55154.69
608.914	55059.56
609.272	55250.28
609.629	55241.92
609.986	55356.04
610.343	55252.09
610.7	55456.61
611.057	55374.58
611.414	55364.41
611.771	55439.88
612.127	55563.27
612.484	55547.9
612.841	55635.13
613.198	55638.75
613.554	55697.28
613.911	55818.63
614.267	55774.34
614.624	55756.71
614.98	55902.7
615.337	56102.24
615.693	56019.53
616.05	55986.76
616.406	56166.42
616.762	55982.24
617.118	56159.87
617.475	56173.42
617.831	56172.52
618.187	56153.09
618.543	56229.47
618.899	56337.94
619.255	56243.25
619.611	56264.72
619.967	56345.85
620.323	56320.76
620.678	56225.85
621.034	56100.66
621.39	56197.6
621.746	56184.72
622.101	56427.88
622.457	56178.62
622.812	56210.03
623.168	56186.76
623.523	56133.43
623.879	56205.51
624.234	55933.43
624.589	56054.78
624.945	56115.57
625.3	56142.01
625.655	56056.82
626.01	56029.25
626.365	56071.73
626.72	55962.36
627.075	55905.63
627.43	55793.32
627.785	55802.13
628.14	55864.05
628.495	55848.91
628.85	55798.07
629.205	55717.62
629.559	55847.11
629.914	55690.72
630.269	55707.9
630.623	55612.53
630.978	55525.08
631.332	55629.71
631.687	55743.15
632.041	55516.04
632.396	55537.06
632.75	55508.58
633.104	55503.84
633.459	55440.11
633.813	55427.23
634.167	55453.67
634.521	55398.3
634.875	55518.75
635.229	55474.23
635.583	55385.87
635.937	55399.21
636.291	55406.89
636.645	55363.95
636.999	55379.77
637.352	55482.37
637.706	55229.49
638.06	55351.52
638.413	55349.04
638.767	55307.68
639.121	55273.56
639.474	55187.69
639.828	55207.12
640.181	55241.92
640.534	55273.11
640.888	55157.41
641.241	55128.71
641.594	55287.12
641.947	55227.91
642.301	55117.86
642.654	55227.69
643.007	55156.73
643.36	55178.42
643.713	55137.29
644.066	55238.76
644.419	54941.59
644.771	54870.41
645.124	54469.51
645.477	54451.21
645.83	54228.39
646.182	54131.9
646.535	54086.7
646.888	54143.42
647.24	54070.43
647.593	54114.95
647.945	54037.44
648.298	53859.81
648.65	53767.16
649.002	53557.67
649.355	53670.44
649.707	53575.98
650.059	53661.4
650.411	53963.99
650.763	53968.06
651.115	54333.02
651.467	54087.6
651.819	54071.56
652.171	53978.68
652.523	53833.82
652.875	53814.16
653.227	53731
653.578	53922.86
653.93	53801.96
654.282	53629.99
654.633	53556.54
654.985	53682.64
655.337	53692.81
655.688	53576.66
656.039	53609.42
656.391	53338.02
656.742	53341.63
657.094	53430.45
657.445	53532.14
657.796	53356.55
658.147	53343.44
658.498	53332.59
658.849	53446.26
659.2	53297.34
659.551	53289.88
659.902	53435.42
660.253	53215.99
660.604	53328.08
660.955	53171.92
661.306	53320.62
661.656	53206.72
662.007	53244.91
662.358	53365.59
662.708	53309.77
663.059	53217.57
663.409	53021.64
663.76	53244.69
664.11	53300.73
664.461	53317
664.811	53394.74
665.161	53284.69
665.511	53288.53
665.862	53253.05
666.212	53342.54
666.562	53282.88
666.912	53274.52
667.262	53251.69
667.612	53141.19
667.962	53277.23
668.312	53183.45
668.662	53347.28
669.011	53257.57
669.361	53270.22
669.711	53192.94
670.06	53210.56
670.41	53051.25
670.76	53047.86
671.109	53225.71
671.459	53057.12
671.808	52945.03
672.157	53064.58
672.507	52866.84
672.856	52861.19
673.205	52862.78
673.554	52969.21
673.904	52828.88
674.253	52957.46
674.602	52807.41
674.951	52366.52
675.3	52216.69
675.649	52724.93
675.998	52637.25
676.346	52703.23
676.695	52692.61
677.044	52383.69
677.393	52493.29
677.741	52443.8
678.09	52340.98
678.438	52215.11
678.787	52355.9
679.135	52152.74
679.484	51958.17
679.832	52074.32
680.181	51842.69
680.529	51890.82
680.877	51767.89
681.225	51825.74
681.573	51914.33
681.922	51594.79
682.27	51482.02
682.618	51576.93
682.966	51370.84
683.314	51583.94
683.661	51304.4
684.009	51215.14
684.357	51091.75
684.705	51068.47
685.053	51074.58
685.4	50987.8
685.748	50711.65
686.095	50744.19
686.443	50643.85
686.79	50611.76
687.138	50500.13
687.485	50643.63
687.832	50532.89
688.18	50546
688.527	50294.26
688.874	50339.68
689.221	50244.09
689.568	50185.78
689.915	50046.81
690.262	50030.53
690.609	49960.93
690.956	49861.95
691.303	49792.57
691.65	49560.04
691.997	49570.21
692.344	49387.16
692.69	49406.14
693.037	49381.74
693.383	49084.12
693.73	49225.36
694.077	48989.43
694.423	48984.01
694.769	48920.28
695.116	48754.18
695.462	48687.29
695.808	48675.54
696.155	48719.16
696.501	48481.2
696.847	48526.17
697.193	48293.41
697.539	48344.48
697.885	48068.1
698.231	47920.76
698.577	47937.26
698.923	47852.06
699.269	47593.31
699.614	47592.63
699.96	47610.94
700.306	47455.69
700.651	47292.75
700.997	47167.79
701.342	47177.95
701.688	47081.23
702.033	46990.61
702.379	46928.47
702.724	46980.67
703.069	46988.81
703.415	46411.65
703.76	46460.46
704.105	46442.15
704.45	46351.99
704.795	46168.26
705.14	45922.62
705.485	45978.66
705.83	45682.63
706.175	45867.71
706.52	45705
706.865	45489.64
707.209	45406.48
707.554	45216.65
707.899	45404.67
708.243	45029.54
708.588	45082.42
708.932	44646.72
709.277	44723.33
709.621	44642.88
709.966	44464.35
710.31	44514.3
710.654	43982.11
710.998	44073.63
711.342	44088.32
711.687	43919.96
712.031	43729.46
712.375	43613.98
712.719	43707.99
713.063	43543.25
713.407	43581.89
713.75	43224.39
714.094	43247.89
714.438	43035.69
714.782	42982.58
715.125	42779.65
715.469	42927.22
715.812	42620.33
716.156	42443.62
716.499	42505.53
716.843	42380.11
717.186	42230.97
717.53	42313.22
717.873	42298.76
718.216	42143.06
718.559	41971.54
718.902	41520.48
719.246	41673.24
719.589	41650.64
719.932	41451.33
720.275	41492.68
720.617	41372.46
720.96	41290.65
721.303	41307.37
721.646	41309.86
721.989	41103.76
722.331	41023.54
722.674	41005.01
723.016	41011.79
723.359	40896.76
723.701	40956.88
724.044	40619.03
724.386	40466.04
724.729	40661.29
725.071	40470.56
725.413	40655.64
725.755	40450.22
726.097	40304.01
726.439	39960.07
726.782	40123
727.124	40365.93
727.465	40064.02
727.807	39979.73
728.149	39945.83
728.491	39819.73
728.833	39831.25
729.175	39715.78
729.516	39595.55
729.858	39429.01
730.199	39599.62
730.541	39430.59
730.882	39404.83
731.224	39538.61
731.565	39179.52
731.906	39346.75
732.248	39521.21
732.589	39206.86
732.93	39081.22
733.271	39055.68
733.612	39252.51
733.953	39123.02
734.294	39012.29
734.635	38830.6
734.976	38904.73
735.317	38821.56
735.658	38832.64
735.999	38844.39
736.339	38659.08
736.68	38828.8
737.021	38607.33
737.361	38409.82
737.702	38535.92
738.042	38541.35
738.383	38305.65
738.723	38348.36
739.063	38178.64
739.404	38298.87
739.744	38072.43
740.084	37885.77
740.424	37954.92
740.764	37983.17
741.104	37968.25
741.444	37823.4
741.784	37654.14
742.124	37672.89
742.464	37613.46
742.804	37546.12
743.143	37498.43
743.483	37462.73
743.823	37132.79
744.162	37252.11
744.502	37256.63
744.841	36981.39
745.181	37066.13
745.52	37105.9
745.86	37060.93
746.199	36888.96
746.538	36803.76
746.877	36758.34
747.216	36649.19
747.556	36745.23
747.895	36582.07
748.234	36447.16
748.573	36306.15
748.911	36238.58
749.25	36261.18
749.589	35987.97
749.928	36056.66
750.267	36113.84
750.605	35805.15
750.944	35766.05
751.283	35671.14
751.621	35554.76
751.96	35453.52
752.298	35366.74
