Data from white_poster_card_FLMS001491_00051.txt Node
Date: Wed Feb 08 11:51:42 GMT 2017
User: dcchb
Spectrometer: FLMS00149
Trigger mode: 0
Integration Time (sec): 2.000000E-2
Scans to average: 10
Electric dark correction enabled: true
Nonlinearity correction enabled: false
Boxcar width: 0
XAxis mode: Wavelengths
Number of Pixels in Spectrum: 2048
>>>>>Begin Spectral Data<<<<<
341.393	-28.88
341.776	-28.88
342.16	-28.88
342.543	-41.76
342.927	-64.81
343.31	-74.53
343.693	-56.68
344.077	-72.72
344.46	-63.46
344.843	-30.92
345.226	-50.35
345.61	-22.33
345.993	-21.65
346.376	2.75
346.759	6.6
347.142	7.27
347.525	36.88
347.908	78.01
348.291	82.98
348.674	78.23
349.057	99.93
349.44	129.98
349.823	148.74
350.206	175.18
350.588	182.18
350.971	214.95
351.354	217.89
351.737	222.41
352.119	258.57
352.502	254.27
352.884	293.59
353.267	268.06
353.65	291.33
354.032	305.12
354.414	304.89
354.797	305.35
355.179	310.09
355.562	325.46
355.944	305.8
356.326	318.23
356.709	332.01
357.091	347.38
357.473	347.38
357.855	322.75
358.238	334.5
358.62	341.95
359.002	348.28
359.384	331.56
359.766	339.69
360.148	332.24
360.53	338.34
360.912	335.63
361.294	320.26
361.676	322.75
362.057	355.74
362.439	325.68
362.821	325.68
363.203	338.11
363.584	325.46
363.966	308.51
364.348	333.14
364.729	319.13
365.111	315.29
365.493	319.58
365.874	308.51
366.256	332.46
366.637	315.29
367.019	318.68
367.4	310.32
367.781	299.92
368.163	306.02
368.544	339.24
368.925	316.42
369.306	304.67
369.688	314.84
370.069	326.59
370.45	314.38
370.831	328.17
371.212	306.7
371.593	296.98
371.974	323.88
372.355	316.87
372.736	340.82
373.117	323.65
373.498	314.16
373.879	327.27
374.26	328.4
374.641	320.49
375.021	319.81
375.402	317.1
375.783	318.23
376.163	326.36
376.544	329.07
376.925	346.7
377.305	327.04
377.686	342.63
378.066	319.58
378.447	335.17
378.827	338.34
379.208	341.05
379.588	336.3
379.968	342.41
380.349	331.56
380.729	315.74
381.109	339.47
381.489	342.86
381.87	334.95
382.25	337.66
382.63	352.35
383.01	338.11
383.39	362.29
383.77	354.84
384.15	343.54
384.53	338.34
384.91	358.23
385.29	358
385.67	365.46
386.049	373.37
386.429	373.37
386.809	349.41
387.189	382.63
387.568	369.98
387.948	359.13
388.328	363.87
388.707	380.15
389.087	379.47
389.466	381.28
389.846	363.42
390.225	393.48
390.605	389.18
390.984	386.92
391.363	405
391.743	395.29
392.122	413.82
392.501	394.61
392.881	409.07
393.26	414.27
393.639	391.44
394.018	412.69
394.397	391.67
394.776	405.46
395.155	415.17
395.534	413.82
395.913	398.45
396.292	439.58
396.671	426.02
397.05	421.95
397.429	418.56
397.808	406.13
398.186	429.86
398.565	425.79
398.944	422.4
399.323	456.98
399.701	413.82
400.08	445.45
400.458	435.06
400.837	466.47
401.215	454.95
401.594	475.06
401.972	447.49
402.351	468.28
402.729	463.76
403.107	461.5
403.486	463.53
403.864	478.22
404.242	485.68
404.62	487.26
404.999	479.58
405.377	475.06
405.755	501.5
406.133	506.7
406.511	503.31
406.889	527.94
407.267	520.71
407.645	522.51
408.023	539.92
408.401	534.27
408.779	553.47
409.156	566.13
409.534	558.67
409.912	563.87
410.29	577.65
410.667	598.22
411.045	602.51
411.422	622.4
411.8	629.4
412.178	654.49
412.555	659.69
412.933	669.18
413.31	688.39
413.687	693.58
414.065	703.53
414.442	753.47
414.819	743.3
415.197	750.08
415.574	764.77
415.951	779.91
416.328	771.32
416.705	786.91
417.082	806.57
417.46	837.53
417.837	859.23
418.214	877.76
418.591	855.39
418.967	896.06
419.344	896.52
419.721	908.04
420.098	916.63
420.475	942.84
420.852	948.04
421.228	938.32
421.605	973.12
421.982	990.75
422.358	1022.39
422.735	1009.73
423.111	1006.57
423.488	1054.93
423.864	1052.22
424.241	1075.72
424.617	1056.29
424.994	1111.88
425.37	1099.67
425.746	1153.68
426.123	1148.94
426.499	1136.51
426.875	1183.06
427.251	1188.94
427.627	1222.84
428.003	1223.29
428.379	1249.05
428.756	1254.02
429.132	1273.46
429.507	1321.14
429.883	1306.22
430.259	1348.48
430.635	1335.15
431.011	1379.89
431.387	1384.41
431.763	1414.24
432.138	1427.35
432.514	1465.31
432.89	1463.96
433.265	1488.36
433.641	1534.01
434.016	1535.6
434.392	1534.47
434.767	1568.59
435.143	1591.41
435.518	1586.67
435.894	1637.06
436.269	1622.6
436.644	1661.47
437.02	1689.04
437.395	1676.83
437.77	1703.73
438.145	1740.34
438.52	1743.73
438.895	1800.67
439.271	1764.97
439.646	1818.98
440.021	1841.35
440.395	1832.31
440.77	1840.45
441.145	1840.9
441.52	1894.68
441.895	1882.03
442.27	1919.77
442.645	1852.2
443.019	1916.6
443.394	1920.67
443.769	1980.78
444.143	1956.83
444.518	1967.45
444.892	1947.79
445.267	2001.8
445.641	2027.56
446.016	2007.45
446.39	2037.28
446.764	2054.23
447.139	2010.61
447.513	2086.09
447.887	2089.25
448.262	2103.49
448.636	2132.87
449.01	2134
449.384	2153.66
449.758	2136.94
450.132	2189.36
450.506	2204.96
450.88	2218.74
451.254	2220.32
451.628	2269.36
452.002	2243.37
452.376	2265.75
452.75	2303.94
453.123	2344.84
453.497	2355.46
453.871	2371.51
454.244	2421.22
454.618	2469.36
454.992	2508
455.365	2442.46
455.739	2506.64
456.112	2573.31
456.486	2555.68
456.859	2572.4
457.232	2636.81
457.606	2666.64
457.979	2687.43
458.352	2705.28
458.725	2759.07
459.099	2762.46
459.472	2839.52
459.845	2828.67
460.218	2857.14
460.591	2881.55
460.964	2919.06
461.337	3008.55
461.71	2995.9
462.083	3032.96
462.456	3053.52
462.829	3081.09
463.201	3095.1
463.574	3128.1
463.947	3171.26
464.32	3264.82
464.692	3281.99
465.065	3308.2
465.438	3352.04
465.81	3396.34
466.183	3429.78
466.555	3506.16
466.928	3511.59
467.3	3515.88
467.672	3553.85
468.045	3666.84
468.417	3654.86
468.789	3688.53
469.161	3763.56
469.534	3834.07
469.906	3871.58
470.278	3881.07
470.65	3937.79
471.022	3992.48
471.394	4111.8
471.766	4079.48
472.138	4160.16
472.51	4245.13
472.882	4281.29
473.253	4297.78
473.625	4394.96
473.997	4494.39
474.369	4495.74
474.74	4564.89
475.112	4678.34
475.484	4717.88
475.855	4787.49
476.227	4801.5
476.598	4959.23
476.97	4986.58
477.341	5076.07
477.713	5188.38
478.084	5200.81
478.455	5340.92
478.827	5386.79
479.198	5507.92
479.569	5526
479.94	5708.14
480.311	5718.31
480.682	5893.22
481.053	5943.61
481.424	6071.07
481.795	6089.15
482.166	6269.03
482.537	6280.56
482.908	6421.12
483.279	6482.13
483.65	6564.16
484.021	6750.37
484.391	6848
484.762	6893.42
485.133	6909.47
485.503	7082.57
485.874	7180.87
486.244	7241.89
486.615	7390.58
486.985	7523.01
487.356	7573.4
487.726	7694.53
488.097	7780.18
488.467	7913.28
488.837	7975.65
489.207	8085.25
489.578	8257.68
489.948	8334.96
490.318	8427.39
490.688	8480.5
491.058	8566.37
491.428	8711.45
491.798	8837.55
492.168	8991.67
492.538	8997.55
492.908	9151.21
493.278	9239.57
493.648	9300.59
494.017	9378.78
494.387	9548.04
494.757	9543.07
495.126	9696.96
495.496	9702.61
495.866	9754.14
496.235	9866.9
496.605	10005.65
496.974	10054.92
497.344	10193.22
497.713	10218.98
498.082	10231.19
498.452	10381.24
498.821	10455.81
499.19	10480.22
499.559	10654.45
499.928	10622.14
500.298	10755.01
500.667	10932.18
501.036	10855.35
501.405	10894.45
501.774	11017.83
502.143	11091.5
502.512	11142.12
502.88	11232.06
503.249	11313.64
503.618	11366.07
503.987	11435.67
504.356	11564.94
504.724	11565.61
505.093	11676.35
505.462	11741.2
505.83	11889
506.199	11899.39
506.567	12077.92
506.936	12120.85
507.304	12228.42
507.672	12288.76
508.041	12331.02
508.409	12478.36
508.777	12552.25
509.145	12630.22
509.514	12694.62
509.882	12809.88
510.25	12808.52
510.618	12966.93
510.986	13045.12
511.354	13150.21
511.722	13240.6
512.09	13392.46
512.458	13374.61
512.826	13560.14
513.193	13634.26
513.561	13638.55
513.929	13709.29
514.297	13895.04
514.664	14035.38
515.032	14112.21
515.4	14170.52
515.767	14299.1
516.135	14382.04
516.502	14321.02
516.869	14584.97
517.237	14632.43
517.604	14709.03
517.972	14851.18
518.339	14973.43
518.706	15003.72
519.073	15031.29
519.44	15120.1
519.808	15378.4
520.175	15385.17
520.542	15523.48
520.909	15708.1
521.276	15726.63
521.643	15873.07
522.009	16002.79
522.376	16057.02
522.743	16188.54
523.11	16452.72
523.477	16534.97
523.843	16669.66
524.21	16854.29
524.577	16974.06
524.943	17065.13
525.31	17100.61
525.676	17299.25
526.043	17440.04
526.409	17494.5
526.776	17721.16
527.142	17837.09
527.508	17950.53
527.874	17959.8
528.241	18136.97
528.607	18243.4
528.973	18452.21
529.339	18449.05
529.705	18615.37
530.071	18759.32
530.437	18849.26
530.803	18967.68
531.169	19112.99
531.535	19123.38
531.901	19203.83
532.267	19274.34
532.632	19442.47
532.998	19532.18
533.364	19746.87
533.73	19594.33
534.095	19851.5
534.461	19930.14
534.826	20063.02
535.192	20087.42
535.557	20225.05
535.923	20300.53
536.288	20356.8
536.653	20463.69
537.019	20473.4
537.384	20631.14
537.749	20686.96
538.114	20767.63
538.479	20764.92
538.845	20948.87
539.21	20908.19
539.575	21031.58
539.94	21077.23
540.305	21227.96
540.67	21234.74
541.034	21376.43
541.399	21415.75
541.764	21504.56
542.129	21611.45
542.494	21781.84
542.858	21709.75
543.223	21759.47
543.587	21899.35
543.952	21889.86
544.316	22062.29
544.681	22129.63
545.045	22193.13
545.41	22304.99
545.774	22255.73
546.138	22306.35
546.503	22373.69
546.867	22509.96
547.231	22700.46
547.595	22672.44
547.959	22772.78
548.324	22805.54
548.688	22939.78
549.052	22976.16
549.416	23118.3
549.779	23115.37
550.143	23260.45
550.507	23393.33
550.871	23364.85
551.235	23455.47
551.599	23511.29
551.962	23737.5
552.326	23713.32
552.689	23855.01
553.053	23834.44
553.417	23886.87
553.78	24303.58
554.143	24154.21
554.507	24271.04
554.87	24350.36
555.234	24594.2
555.597	24426.97
555.96	24570.02
556.323	24691.14
556.686	24821.76
557.05	25042.55
557.413	25000.51
557.776	25106.5
558.139	25328.19
558.502	25334.29
558.865	25526.6
559.228	25722.53
559.59	25754.39
559.953	25765.47
560.316	26105.34
560.679	25927.72
561.041	26286.58
561.404	26331.1
561.767	26583.98
562.129	26447.93
562.492	26766.34
562.854	26686.57
563.217	26765.21
563.579	26899.22
563.941	27018.99
564.304	27144.87
564.666	27320.68
565.028	27409.27
565.39	27618.98
565.753	27577.17
566.115	27754.79
566.477	27799.31
566.839	27971.96
567.201	28106.65
567.563	28192.52
567.925	28291.05
568.287	28421.44
568.648	28454.66
569.01	28637.03
569.372	28758.38
569.734	28618.5
570.095	29061.43
570.457	29069.56
570.819	29258.48
571.18	29113.85
571.542	29193.85
571.903	29319.27
572.265	29471.36
572.626	29551.58
572.987	29653.27
573.349	29664.35
573.71	29917.67
574.071	29900.5
574.432	30049.42
574.794	30231.34
575.155	30066.37
575.516	30080.16
575.877	30231.56
576.238	30235.86
576.599	30439.47
576.96	30526.02
577.32	30504.33
577.681	30634.94
578.042	30732.79
578.403	30691.44
578.763	30857.54
579.124	30749.52
579.485	30979.57
579.845	30949.06
580.206	30986.35
580.566	30977.08
580.927	31053.69
581.287	31071.32
581.648	30942.05
582.008	31194.7
582.368	31111.54
582.728	31262.95
583.089	31234.93
583.449	31041.94
583.809	31149.28
584.169	31236.28
584.529	31205.55
584.889	31435.37
585.249	31212.78
585.609	31192.67
585.969	31206.23
586.329	31329.39
586.688	31360.35
587.048	31344.75
587.408	31221.14
587.768	31312.89
588.127	31197.87
588.487	31183.63
588.846	31573.68
589.206	31225.89
589.565	31286.23
589.925	31471.76
590.284	31328.94
590.643	31489.84
591.003	31469.05
591.362	31544.52
591.721	31475.15
592.08	31555.82
592.44	31598.31
592.799	31579.78
593.158	31638.53
593.517	31666.33
593.876	31651.64
594.235	31415.71
594.593	31561.7
594.952	31579.55
595.311	31556.05
595.67	31635.82
596.029	31786.33
596.387	31715.82
596.746	31784.52
597.104	31604.64
597.463	31667.46
597.822	31775.25
598.18	31656.16
598.538	31509.95
598.897	31935.02
599.255	31687.34
599.613	32115.58
599.972	31939.99
600.33	31860
600.688	31769.38
601.046	32005.08
601.404	32044.62
601.762	32100.89
602.12	32137.95
602.478	32082.59
602.836	32317.16
603.194	32038.75
603.552	32164.62
603.91	32081.68
604.268	32313.09
604.625	32044.85
604.983	32228.35
605.341	32191.74
605.698	32336.59
606.056	32226.09
606.413	32309.93
606.771	32389.02
607.128	32479.19
607.485	32236.03
607.843	32352.64
608.2	32507.21
608.557	32620.2
608.914	32548.34
609.272	32704.49
609.629	32650.71
609.986	32759.41
610.343	32737.71
610.7	32911.49
611.057	32711.27
611.414	32829.24
611.771	32829.46
612.127	32873.75
612.484	32981.32
612.841	33106.74
613.198	32901.1
613.554	33078.27
613.911	33189.23
614.267	33193.52
614.624	33144.48
614.98	33133.63
615.337	33326.4
615.693	33212.5
616.05	33222.22
616.406	33298.15
616.762	33279.17
617.118	33447.98
617.475	33330.92
617.831	33456.79
618.187	33414.98
618.543	33482.55
618.899	33655.88
619.255	33578.14
619.611	33495.88
619.967	33627.86
620.323	33726.84
620.678	33547.86
621.034	33469.67
621.39	33587.63
621.746	33485.04
622.101	33783.56
622.457	33501.31
622.812	33642.55
623.168	33667.86
623.523	33747.18
623.879	33874.86
624.234	33636.45
624.589	33777.91
624.945	33766.61
625.3	33772.49
625.655	33791.24
626.01	33745.14
626.365	33751.7
626.72	33692.49
627.075	33665.6
627.43	33596.67
627.785	33686.84
628.14	33534.08
628.495	33567.07
628.85	33586.5
629.205	33440.97
629.559	33619.95
629.914	33435.32
630.269	33421.99
630.623	33276.68
630.978	33353.74
631.332	33563
631.687	33529.1
632.041	33345.38
632.396	33386.74
632.75	33219.28
633.104	33374.08
633.459	33187.64
633.813	33072.39
634.167	33149
634.521	33174.54
634.875	33274.65
635.229	33054.54
635.583	33048.89
635.937	33035.56
636.291	32895.67
636.645	32906.3
636.999	32702.46
637.352	32972.28
637.706	32701.78
638.06	32775.23
638.413	32650.71
638.767	32624.5
639.121	32719.18
639.474	32552.18
639.828	32407.1
640.181	32453.43
640.534	32550.82
640.888	32352.41
641.241	32230.38
641.594	32423.6
641.947	32429.02
642.301	32294.33
642.654	32252.98
643.007	32243.71
643.36	32230.61
643.713	32130.27
644.066	32251.62
644.419	32108.8
644.771	31807.12
645.124	31548.37
645.477	31611.64
645.83	31174.36
646.182	31234.7
646.535	31030.19
646.888	31241.25
647.24	30917.2
647.593	31143.63
647.945	31061.37
648.298	30891.43
648.65	30754.94
649.002	30676.52
649.355	30855.5
649.707	30754.71
650.059	30949.96
650.411	31316.06
650.763	31335.26
651.115	31516.5
651.467	31382.04
651.819	31485.09
652.171	31380.69
652.523	31268.37
652.875	31245.77
653.227	31229.96
653.578	31262.05
653.93	31253.46
654.282	31148.83
654.633	30992.22
654.985	31063.41
655.337	31129.17
655.688	31101.6
656.039	31036.97
656.391	30910.87
656.742	30971.21
657.094	31095.5
657.445	30994.71
657.796	30848.5
658.147	30792
658.498	30944.54
658.849	30827.93
659.2	30884.2
659.551	30804.88
659.902	30849.17
660.253	30852.79
660.604	30828.38
660.955	30729.4
661.306	30853.92
661.656	30628.84
662.007	30664.77
662.358	30656.41
662.708	30608.73
663.059	30590.65
663.409	30505
663.76	30659.35
664.11	30655.96
664.461	30569.86
664.811	30667.94
665.161	30558.56
665.511	30484.89
665.862	30413.03
666.212	30544.32
666.562	30565.34
666.912	30413.25
667.262	30408.28
667.612	30407.38
667.962	30540.48
668.312	30472.46
668.662	30485.12
669.011	30305.01
669.361	30407.15
669.711	30381.16
670.06	30302.07
670.41	30259.81
670.76	30185.01
671.109	30266.82
671.459	30172.36
671.808	30104.79
672.157	30175.29
672.507	30012.81
672.856	30018.91
673.205	29928.29
673.554	30105.92
673.904	30024.79
674.253	30031.8
674.602	30024.34
674.951	29658.92
675.3	29507.74
675.649	29825.92
675.998	29945.47
676.346	29756.55
676.695	29992.47
677.044	29729.66
677.393	29744.35
677.741	29753.61
678.09	29619.6
678.438	29611.92
678.787	29656.66
679.135	29620.73
679.484	29630.22
679.832	29565.14
680.181	29480.85
680.529	29639.49
680.877	29418.7
681.225	29439.72
681.573	29665.25
681.922	29328.54
682.27	29164.25
682.618	29219.84
682.966	29188.2
683.314	29258.48
683.661	29123.8
684.009	28948.66
684.357	29112.72
684.705	28846.06
685.053	28953.86
685.4	28846.06
685.748	28613.75
686.095	28730.59
686.443	28756.57
686.79	28558.16
687.138	28667.54
687.485	28616.47
687.832	28439.75
688.18	28558.61
688.527	28312.07
688.874	28362.69
689.221	28243.82
689.568	28173.54
689.915	28103.94
690.262	28128.34
690.609	27991.85
690.956	27992.3
691.303	27934.45
691.65	27820.33
691.997	27693.55
692.344	27581.01
692.69	27609.49
693.037	27547.79
693.383	27401.36
693.73	27610.16
694.077	27351.64
694.423	27262.15
694.769	27246.11
695.116	27170.4
695.462	27122.95
695.808	27061.48
696.155	27079.33
696.501	26819.9
696.847	26796.4
697.193	26568.16
697.539	26736.29
697.885	26501.72
698.231	26388.5
698.577	26514.15
698.923	26459.46
699.269	26292.46
699.614	26136.3
699.96	26121.39
700.306	26170.88
700.651	26070.54
700.997	25928.63
701.342	25896.08
701.688	25825.35
702.033	25674.85
702.379	25733.38
702.724	25646.83
703.069	25660.84
703.415	25367.74
703.76	25405.25
704.105	25341.07
704.45	25271.02
704.795	25121.64
705.14	25094.52
705.485	25030.34
705.83	25031.02
706.175	25059.04
706.52	24885.04
706.865	24745.83
707.209	24850.46
707.554	24680.07
707.899	24717.58
708.243	24494.54
708.588	24480.98
708.932	24274.66
709.277	24327.76
709.621	24241.89
709.966	24274.21
710.31	24307.65
710.654	24106.53
710.998	24169.8
711.342	24080.54
711.687	24044.38
712.031	23920.32
712.375	23767.33
712.719	23948.57
713.063	23884.84
713.407	23958.96
713.75	23757.84
714.094	23698.18
714.438	23676.71
714.782	23817.04
715.125	23544.06
715.469	23568.46
715.812	23450.5
716.156	23338.41
716.499	23287.11
716.843	23354
717.186	23308.81
717.53	23353.1
717.873	23352.87
718.216	23172.99
718.559	23122.6
718.902	22984.97
719.246	23025.65
719.589	22919.21
719.932	22850.51
720.275	22842.38
720.617	22766.22
720.96	22661.59
721.303	22752.89
721.646	22730.74
721.989	22451.66
722.331	22663.4
722.674	22448.27
723.016	22593.12
723.359	22575.27
723.701	22525.55
724.044	22351.32
724.386	22295.28
724.729	22368.04
725.071	22342.05
725.413	22303.41
725.755	22349.96
726.097	22157.2
726.439	22101.16
726.782	21978.67
727.124	22117.43
727.465	22027.71
727.807	21960.82
728.149	21840.6
728.491	21881.5
728.833	21889.64
729.175	21821.16
729.516	21814.84
729.858	21661.39
730.199	21700.26
730.541	21555.63
730.882	21708.85
731.224	21627.04
731.565	21443.09
731.906	21472.7
732.248	21586.14
732.589	21299.6
732.93	21343.66
733.271	21250.56
733.612	21408.74
733.953	21372.36
734.294	21272.48
734.635	21134.4
734.976	21375.53
735.317	21171.69
735.658	21223.67
735.999	21111.58
736.339	20998.13
736.68	21022.77
737.021	21005.82
737.361	20968.08
737.702	20948.87
738.042	20906.84
738.383	20871.81
738.723	20830.23
739.063	20836.56
739.404	20801.98
739.744	20747.75
740.084	20753.62
740.424	20764.92
740.764	20709.78
741.104	20711.14
741.444	20627.52
741.784	20660.97
742.124	20647.18
742.464	20461.43
742.804	20474.53
743.143	20420.07
743.483	20434.76
743.823	20277.48
744.162	20323.8
744.502	20310.47
744.841	20164.71
745.181	20324.71
745.52	20231.37
745.86	20225.5
746.199	20099.17
746.538	20094.66
746.877	20155.67
747.216	20159.74
747.556	20155.22
747.895	20053.3
748.234	20018.05
748.573	19896.02
748.911	19893.76
749.25	19874.32
749.589	19796.36
749.928	19776.02
750.267	19780.54
750.605	19743.03
750.944	19644.27
751.283	19586.87
751.621	19659.19
751.96	19517.72
752.298	19508
752.636	19391.62
752.975	19381.68
753.313	19300.55
753.651	19405.63
753.989	19289.25
754.327	19174
754.666	19107.79
