Data from white_poster_card_FLMS001491_00040.txt Node
Date: Wed Feb 08 11:51:27 GMT 2017
User: dcchb
Spectrometer: FLMS00149
Trigger mode: 0
Integration Time (sec): 2.000000E-2
Scans to average: 10
Electric dark correction enabled: true
Nonlinearity correction enabled: false
Boxcar width: 0
XAxis mode: Wavelengths
Number of Pixels in Spectrum: 2048
>>>>>Begin Spectral Data<<<<<
341.393	-13.63
341.776	-13.63
342.16	-13.63
342.543	-71.03
342.927	-46.17
343.31	-67.87
343.693	-59.05
344.077	-76.23
344.46	-83.46
344.843	-60.18
345.226	-35.55
345.61	-22.44
345.993	-8.66
346.376	-11.14
346.759	-7.3
347.142	30.89
347.525	53.94
347.908	62.07
348.291	83.09
348.674	93.26
349.057	108.63
349.44	124.45
349.823	124.22
350.206	176.42
350.588	200.83
350.971	193.14
351.354	232.01
351.737	225.69
352.119	254.84
352.502	253.93
352.884	274.27
353.267	270.2
353.65	263.2
354.032	297.55
354.414	283.99
354.797	330.54
355.179	328.51
355.562	314.5
355.944	327.83
356.326	329.41
356.709	335.74
357.091	321.05
357.473	326.02
357.855	327.15
358.238	347.94
358.62	350.43
359.002	346.36
359.384	337.55
359.766	354.04
360.148	301.62
360.53	337.1
360.912	323.54
361.294	338.45
361.676	317.44
362.057	315.85
362.439	339.36
362.821	331.22
363.203	321.05
363.584	314.95
363.966	314.95
364.348	332.8
364.729	307.04
365.111	331.45
365.493	334.16
365.874	317.66
366.256	321.5
366.637	320.82
367.019	323.31
367.4	320.82
367.781	320.6
368.163	310.66
368.544	316.08
368.925	330.54
369.306	338.9
369.688	296.87
370.069	324.44
370.45	326.02
370.831	312.46
371.212	314.5
371.593	334.38
371.974	302.97
372.355	311.56
372.736	341.84
373.117	326.25
373.498	317.21
373.879	314.27
374.26	297.77
374.641	306.14
375.021	308.62
375.402	328.06
375.783	327.15
376.163	324.89
376.544	340.03
376.925	323.99
377.305	347.26
377.686	328.51
378.066	326.25
378.447	346.59
378.827	333.93
379.208	328.51
379.588	344.55
379.968	333.48
380.349	336.87
380.729	337.55
381.109	334.84
381.489	339.36
381.87	342.07
382.25	353.14
382.63	340.94
383.01	364.21
383.39	344.78
383.77	341.39
384.15	356.08
384.53	368.06
384.91	356.53
385.29	349.52
385.67	370.54
386.049	363.76
386.429	368.96
386.809	350.65
387.189	366.7
387.568	364.89
387.948	360.6
388.328	354.95
388.707	369.19
389.087	383.65
389.466	364.89
389.846	379.13
390.225	401.95
390.605	368.73
390.984	377.77
391.363	382.52
391.743	376.87
392.122	413.25
392.501	392.01
392.881	373.7
393.26	391.33
393.639	386.81
394.018	398.11
394.397	392.01
394.776	387.49
395.155	396.08
395.534	370.99
395.913	426.36
396.292	412.35
396.671	402.4
397.05	408.51
397.429	406.02
397.808	397.89
398.186	429.52
398.565	422.07
398.944	427.94
399.323	439.01
399.701	417.77
400.08	450.31
400.458	445.57
400.837	425.45
401.215	445.34
401.594	452.8
401.972	446.02
402.351	467.49
402.729	479.46
403.107	437.43
403.486	465.45
403.864	465.91
404.242	456.19
404.62	486.02
404.999	498.45
405.377	476.3
405.755	490.99
406.133	493.7
406.511	526.47
406.889	493.48
407.267	526.47
407.645	546.58
408.023	539.58
408.401	530.54
408.779	543.19
409.156	565.11
409.534	574.6
409.912	563.76
410.29	593.81
410.667	591.78
411.045	614.83
411.422	606.69
411.8	624.55
412.178	620.7
412.555	640.82
412.933	664.32
413.31	684.88
413.687	676.97
414.065	694.37
414.442	706.35
414.819	708.39
415.197	742.51
415.574	747.93
415.951	760.59
416.328	767.14
416.705	783.86
417.082	813.92
417.46	827.48
417.837	832.45
418.214	843.3
418.591	851.88
418.967	849.85
419.344	902.28
419.721	883.97
420.098	882.17
420.475	906.8
420.852	916.52
421.228	963.29
421.605	968.27
421.982	951.09
422.358	980.69
422.735	997.42
423.111	1018.21
423.488	1010.98
423.864	1033.8
424.241	1048.49
424.617	1077.87
424.994	1069.28
425.37	1090.75
425.746	1088.71
426.123	1118.54
426.499	1124.65
426.875	1146.34
427.251	1161.93
427.627	1222.5
428.003	1202.38
428.379	1246
428.756	1231.31
429.132	1248.94
429.507	1274.92
429.883	1304.98
430.259	1284.87
430.635	1346.33
431.011	1323.74
431.387	1365.77
431.763	1409.38
432.138	1422.72
432.514	1406.67
432.89	1435.6
433.265	1453.9
433.641	1503.17
434.016	1506.56
434.392	1548.14
434.767	1575.71
435.143	1562.37
435.518	1554.46
435.894	1594.92
436.269	1626.78
436.644	1662.03
437.02	1649.15
437.395	1666.1
437.77	1673.33
438.145	1746.55
438.52	1729.6
438.895	1738.41
439.271	1714.23
439.646	1757.85
440.021	1758.98
440.395	1812.99
440.77	1782.48
441.145	1826.1
441.52	1836.49
441.895	1860.22
442.27	1860.9
442.645	1876.49
443.019	1903.16
443.394	1884.63
443.769	1925.08
444.143	1921.69
444.518	1963.72
444.892	1937.28
445.267	1965.3
445.641	1975.7
446.016	1997.39
446.39	1984.51
446.764	1979.54
447.139	2007.79
447.513	2043.72
447.887	2055.02
448.262	2060.89
448.636	2102.92
449.01	2093.43
449.384	2120.1
449.758	2119.87
450.132	2163.71
450.506	2173.21
450.88	2178.86
451.254	2193.09
451.628	2201.91
452.002	2262.47
452.376	2245.52
452.75	2245.97
453.123	2281.23
453.497	2318.51
453.871	2370.49
454.244	2361.22
454.618	2441.9
454.992	2450.94
455.365	2425.85
455.739	2489.13
456.112	2504.04
456.486	2559.86
456.859	2557.38
457.232	2602.57
457.606	2581.33
457.979	2675.57
458.352	2701.33
458.725	2737.94
459.099	2691.38
459.472	2770.25
459.845	2803.47
460.218	2809.12
460.591	2817.26
460.964	2870.36
461.337	2938.16
461.71	2936.35
462.083	3020.41
462.456	3042.79
462.829	3022.9
463.201	3087.98
463.574	3075.33
463.947	3105.38
464.32	3220.18
464.692	3219.73
465.065	3215.89
465.438	3261.99
465.81	3304.7
466.183	3358.03
466.555	3439.39
466.928	3428.99
467.3	3478.48
467.672	3504.02
468.045	3589.21
468.417	3592.6
468.789	3636.22
469.161	3661.53
469.534	3703.33
469.906	3767.51
470.278	3765.48
470.65	3881.86
471.022	3953.72
471.394	4029.65
471.766	4072.36
472.138	4100.61
472.51	4184.68
472.882	4193.27
473.253	4282.75
473.625	4288.18
473.997	4401.4
474.369	4413.37
474.74	4481.62
475.112	4522.07
475.484	4666.93
475.855	4726.36
476.227	4738.34
476.598	4836.86
476.97	4927.71
477.341	5005.22
477.713	5060.81
478.084	5097.65
478.455	5275.95
478.827	5254.25
479.198	5405.66
479.569	5400.01
479.94	5584.87
480.311	5641.14
480.682	5733.79
481.053	5844.3
481.424	5942.6
481.795	5975.59
482.166	6049.04
482.537	6132.88
482.908	6354.79
483.279	6381.91
483.65	6461
484.021	6626.65
484.391	6669.58
484.762	6762.46
485.133	6771.73
485.503	6883.82
485.874	7074.55
486.244	7067.99
486.615	7272.28
486.985	7319.28
487.356	7460.07
487.726	7536.45
488.097	7630.01
488.467	7701.2
488.837	7865.03
489.207	7974.63
489.578	8102.54
489.948	8142.31
490.318	8222.76
490.688	8371.91
491.058	8474.96
491.428	8550.67
491.798	8627.73
492.168	8756.76
492.538	8832.24
492.908	8963.99
493.278	9002.86
493.648	9067.49
494.017	9220.03
494.387	9270.19
494.757	9365.11
495.126	9450.08
495.496	9498.44
495.866	9502.96
496.235	9686
496.605	9759.22
496.974	9882.38
497.344	9999.21
497.713	10008.48
498.082	10047.12
498.452	10211.41
498.821	10268.36
499.19	10265.2
499.559	10385.65
499.928	10449.15
500.298	10531.63
500.667	10648.91
501.036	10601.46
501.405	10744.05
501.774	10766.2
502.143	10906.76
502.512	10924.39
502.88	11018.4
503.249	11029.02
503.618	11165.06
503.987	11194.44
504.356	11304.26
504.724	11406.86
505.093	11457.26
505.462	11458.84
505.83	11546.74
506.199	11685.5
506.567	11793.52
506.936	11845.72
507.304	11920.07
507.672	12042.1
508.041	12107.86
508.409	12163.23
508.777	12339.49
509.145	12447.74
509.514	12412.48
509.882	12565.47
510.25	12536.55
510.618	12680.05
510.986	12781.29
511.354	12858.35
511.722	12954.62
512.09	13035.52
512.458	13131.11
512.826	13197.1
513.193	13299.01
513.561	13379.24
513.929	13462.17
514.297	13618.78
514.664	13694.03
515.032	13760.47
515.4	13862.39
515.767	13998.43
516.135	14030.97
516.502	14022.84
516.869	14226.22
517.237	14279.55
517.604	14288.82
517.972	14557.51
518.339	14570.39
518.706	14581.47
519.073	14769.71
519.44	14975.13
519.808	15000.66
520.175	14988.91
520.542	15256.03
520.909	15341.9
521.276	15341.67
521.643	15557.71
522.009	15607.65
522.376	15772.17
522.743	15969.23
523.11	16006.06
523.477	16147.08
523.843	16302.78
524.21	16439.27
524.577	16572.83
524.943	16649.21
525.31	16751.81
525.676	16928.3
526.043	16959.71
526.409	17139.82
526.776	17326.93
527.142	17305.69
527.508	17450.32
527.874	17690.76
528.241	17769.18
528.607	17800.59
528.973	17970.76
529.339	18014.37
529.705	18232.67
530.071	18335.94
530.437	18478.54
530.803	18554.47
531.169	18735.71
531.535	18666.56
531.901	18748.14
532.267	18821.13
532.632	19075.36
532.998	19057.96
533.364	19195.81
533.73	19350.83
534.095	19447.78
534.461	19493.2
534.826	19531.39
535.192	19776.58
535.557	19812.52
535.923	19756.92
536.288	19897.71
536.653	19955.34
537.019	19870.14
537.384	20043.24
537.749	20189.46
538.114	20306.51
538.479	20403.69
538.845	20461.09
539.21	20448.66
539.575	20513.97
539.94	20488.43
540.305	20808.2
540.67	20734.75
541.034	20943.56
541.399	20882.77
541.764	21043.44
542.129	21067.4
542.494	21117.34
542.858	21295.19
543.223	21301.97
543.587	21417.67
543.952	21411.57
544.316	21518.23
544.681	21485.69
545.045	21599.81
545.41	21761.84
545.774	21916.87
546.138	21905.34
546.503	21979.46
546.867	21937.66
547.231	22121.83
547.595	22198.89
547.959	22282.28
548.324	22364.54
548.688	22433.69
549.052	22428.49
549.416	22501.71
549.779	22606.57
550.143	22620.13
550.507	22784.64
550.871	22854.7
551.235	22827.58
551.599	23141.02
551.962	23102.15
552.326	23207.45
552.689	23249.94
553.053	23285.19
553.417	23336.94
553.78	23741
554.143	23618.97
554.507	23720.89
554.87	23828.23
555.234	23973.76
555.597	23914.78
555.96	24104.15
556.323	24135.57
556.686	24224.38
557.05	24437.25
557.413	24503.24
557.776	24541.21
558.139	24783.23
558.502	24707.75
558.865	24892.61
559.228	25016.45
559.59	25069.1
559.953	25226.84
560.316	25430.22
560.679	25376.21
561.041	25666.37
561.404	25773.71
561.767	25786.82
562.129	25785.92
562.492	26103.2
562.854	25949.3
563.217	26058.23
563.579	26240.37
563.941	26434.94
564.304	26587.93
564.666	26703.18
565.028	26822.05
565.39	26877.41
565.753	27072.89
566.115	27013.91
566.477	27255.26
566.839	27219.55
567.201	27585.42
567.563	27421.58
567.925	27701.8
568.287	27689.14
568.648	27778.18
569.01	27969.36
569.372	28176.59
569.734	28012.75
570.095	28260.88
570.457	28531.83
570.819	28452.51
571.18	28355.34
571.542	28625.62
571.903	28509.01
572.265	28812.96
572.626	28823.35
572.987	28887.31
573.349	29111.48
573.71	29217.47
574.071	29105.6
574.432	29340.4
574.794	29490.68
575.155	29515.99
575.516	29335.88
575.877	29633.73
576.238	29718.47
576.599	29790.56
576.96	29796.43
577.32	29732.48
577.681	29932.48
578.042	29946.94
578.403	30176.09
578.763	30170.66
579.124	30132.7
579.485	30229.64
579.845	30277.78
580.206	30246.37
580.566	30224.22
580.927	30240.72
581.287	30422.18
581.648	30222.64
582.008	30526.81
582.368	30383.31
582.728	30472.35
583.089	30446.36
583.449	30412.46
583.809	30543.31
584.169	30595.96
584.529	30372.69
584.889	30629.86
585.249	30480.71
585.609	30434.61
585.969	30589.63
586.329	30611.55
586.688	30655.62
587.048	30564.78
587.408	30462.41
587.768	30615.4
588.127	30459.24
588.487	30481.61
588.846	30576.53
589.206	30501.95
589.565	30589.41
589.925	30708.5
590.284	30749.18
590.643	30781.04
591.003	30752.79
591.362	30880.02
591.721	30733.81
592.08	30760.48
592.44	30905.56
592.799	30814.49
593.158	30755.96
593.517	30807.48
593.876	30831.89
594.235	30780.59
594.593	30815.62
594.952	30958.89
595.311	30825.56
595.67	30727.48
596.029	31031.88
596.387	31147.13
596.746	31061.94
597.104	30793.7
597.463	31015.61
597.822	31070.98
598.18	30987.36
598.538	30985.1
598.897	31053.35
599.255	30873.69
599.613	31287.69
599.972	31124.31
600.33	31214.93
600.688	31073.01
601.046	31189.39
601.404	31228.26
601.762	31374.02
602.12	31355.04
602.478	31422.15
602.836	31470.97
603.194	31289.05
603.552	31365.21
603.91	31250.63
604.268	31378.54
604.625	31393.68
604.983	31515.71
605.341	31420.8
605.698	31554.58
606.056	31596.39
606.413	31515.48
606.771	31635.03
607.128	31692.2
607.485	31511.42
607.843	31644.97
608.2	31811.75
608.557	31804.52
608.914	31739.43
609.272	31953.89
609.629	31887.23
609.986	32047.9
610.343	31895.81
610.7	32109.37
611.057	31875.48
611.414	31994.34
611.771	32244.51
612.127	32021.46
612.484	32166.99
612.841	32384.16
613.198	32080.44
613.554	32169.25
613.911	32317.27
614.267	32221.46
614.624	32373.09
614.98	32388.46
615.337	32540.32
615.693	32454.44
616.05	32377.84
616.406	32530.6
616.762	32550.71
617.118	32555.91
617.475	32463.93
617.831	32546.87
618.187	32568.11
618.543	32795
618.899	32837.94
619.255	32797.49
619.611	32797.49
619.967	32838.61
620.323	32884.71
620.678	32734.21
621.034	32641.78
621.39	32809.69
621.746	32623.93
622.101	33012.62
622.457	32769.01
622.812	32765.17
623.168	32973.07
623.523	32894.21
623.879	32931.94
624.234	32765.62
624.589	32942.11
624.945	32760.42
625.3	32869.57
625.655	32795
626.01	32823.7
626.365	32875
626.72	32885.62
627.075	32778.28
627.43	32737.15
627.785	32830.25
628.14	32798.39
628.495	32843.13
628.85	32701.44
629.205	32574.67
629.559	32781.67
629.914	32606.08
630.269	32593.2
630.623	32619.64
630.978	32535.12
631.332	32761.78
631.687	32708
632.041	32590.94
632.396	32667.32
632.75	32473.65
633.104	32563.37
633.459	32461.45
633.813	32331.06
634.167	32260.1
634.521	32390.49
634.875	32321.79
635.229	32273.21
635.583	32272.53
635.937	32044.74
636.291	32011.74
636.645	32118.18
636.999	31993.44
637.352	32110.95
637.706	31818.98
638.06	32080.22
638.413	31930.39
638.767	31723.16
639.121	31785.53
639.474	31661.92
639.828	31696.27
640.181	31676.61
640.534	31633.45
640.888	31440.23
641.241	31465.32
641.594	31470.74
641.947	31521.59
642.301	31459.67
642.654	31432.32
643.007	31422.61
643.36	31377.41
643.713	31397.3
644.066	31472.1
644.419	31262.38
644.771	31026.91
645.124	30690.2
645.477	30660.59
645.83	30425.12
646.182	30245.01
646.535	30213.15
646.888	30323.43
647.24	30114.62
647.593	30256.76
647.945	30170.21
648.298	29981.74
648.65	29947.62
649.002	29884.79
649.355	30056.31
649.707	29957.33
650.059	30097.22
650.411	30478.45
650.763	30506.92
651.115	30735.62
651.467	30654.04
651.819	30669.86
652.171	30467.83
652.523	30482.74
652.875	30489.75
653.227	30377.89
653.578	30580.82
653.93	30513.25
654.282	30382.18
654.633	30257.89
654.985	30351.67
655.337	30358.91
655.688	30322.52
656.039	30298.12
656.391	30094.28
656.742	30133.37
657.094	30213.6
657.445	30323.65
657.796	30003.43
658.147	30131.34
658.498	30082.53
658.849	30144.67
659.2	30028.07
659.551	29903.32
659.902	30025.35
660.253	29977.22
660.604	29994.17
660.955	29812.7
661.306	30004.79
661.656	29795.08
662.007	29971.57
662.358	29797.56
662.708	29869.43
663.059	29831.01
663.409	29688.41
663.76	29922.76
664.11	29793.04
664.461	29895.19
664.811	29833.5
665.161	29727.96
665.511	29647.06
665.862	29625.14
666.212	29811.57
666.562	29655.65
666.912	29664.69
667.262	29685.93
667.612	29557.34
667.962	29747.85
668.312	29571.81
668.662	29696.32
669.011	29696.55
669.361	29577.46
669.711	29546.72
670.06	29525.03
670.41	29426.5
670.76	29500.4
671.109	29619.04
671.459	29529.77
671.808	29433.05
672.157	29512.37
672.507	29276
672.856	29304.7
673.205	29335.43
673.554	29476.44
673.904	29292.49
674.253	29447.97
674.602	29168.43
674.951	28873.52
675.3	28689.8
675.649	28987.42
675.998	29147.64
676.346	29068.09
676.695	29136.79
677.044	29024.7
677.393	28997.36
677.741	29054.98
678.09	28882.56
678.438	28882.79
678.787	29005.49
679.135	28899.96
679.484	28744.26
679.832	28836.01
680.181	28681.66
680.529	28824.71
680.877	28630.59
681.225	28755.33
681.573	28890.24
681.922	28563.02
682.27	28459.75
682.618	28561.21
682.966	28438.5
683.314	28461.55
683.661	28315.12
684.009	28170.71
684.357	28225.18
684.705	28144.05
685.053	28210.71
685.4	28150.38
685.748	27913.32
686.095	27933.66
686.443	27846.88
686.79	27870.83
687.138	27931.85
687.485	27863.38
687.832	27754
688.18	27706.55
688.527	27601.01
688.874	27434.01
689.221	27471.98
689.568	27463.16
689.915	27459.32
690.262	27333.67
690.609	27265.65
690.956	27151.98
691.303	27124.19
691.65	27066.79
691.997	26987.92
692.344	26819.56
692.69	26775.27
693.037	26817.3
693.383	26674.48
693.73	26780.02
694.077	26552.9
694.423	26526.46
694.769	26525.56
695.116	26462.96
695.462	26343.19
695.808	26288.5
696.155	26264.1
696.501	26040.15
696.847	26226.81
697.193	26041.96
697.539	26079.92
697.885	25886.48
698.231	25753.15
698.577	25787.05
698.923	25690.55
699.269	25624.34
699.614	25491.46
699.96	25402.88
700.306	25411.01
700.651	25270.23
700.997	25298.93
701.342	25162.21
701.688	25166.05
702.033	25018.93
702.379	25064.36
702.724	25059.38
703.069	25000.85
703.415	24726.06
703.76	24658.04
704.105	24730.13
704.45	24644.71
704.795	24599.96
705.14	24487.2
705.485	24488.1
705.83	24397.25
706.175	24328.1
706.52	24211.72
706.865	24177.6
707.209	24103.48
707.554	24047.66
707.899	24107.54
708.243	23894.89
708.588	23977.83
708.932	23627.33
709.277	23662.13
709.621	23694.22
709.966	23536.94
710.31	23615.35
710.654	23425.98
710.998	23536.94
711.342	23406.09
711.687	23403.83
712.031	23262.37
712.375	23273.44
712.719	23204.74
713.063	23188.02
713.407	23188.02
713.75	22992.55
714.094	23094.92
714.438	22936.5
714.782	22940.57
715.125	22982.6
715.469	22870.06
715.812	22758.65
716.156	22681.37
716.499	22757.3
716.843	22772.44
717.186	22580.58
717.53	22696.96
717.873	22595.49
718.216	22473.46
718.559	22358.89
718.902	22260.36
719.246	22384.2
719.589	22298.1
719.932	22228.5
720.275	22191.44
720.617	22195.05
720.96	22023.08
721.303	22062.63
721.646	22070.08
721.989	21901.73
722.331	22056.52
722.674	21837.55
723.016	21975.62
723.359	21929.75
723.701	21890.43
724.044	21740.37
724.386	21672.13
724.729	21808.4
725.071	21670.77
725.413	21662.18
725.755	21644.78
726.097	21514.62
726.439	21430.33
726.782	21443.89
727.124	21586.25
727.465	21481.4
727.807	21403.66
728.149	21285.92
728.491	21202.54
728.833	21314.85
729.175	21159.15
729.516	21193.95
729.858	21088.64
730.199	21144.68
730.541	21032.14
730.882	21061.97
731.224	21035.99
731.565	20919.61
731.906	20936.55
732.248	20889.78
732.589	20897.68
732.93	20863.79
733.271	20872.37
733.612	20861.3
733.953	20799.16
734.294	20793.05
734.635	20740.63
734.976	20707.41
735.317	20574.08
735.658	20547.19
735.999	20557.35
736.339	20553.06
736.68	20556.23
737.021	20546.51
737.361	20383.12
737.702	20464.7
738.042	20410.47
738.383	20353.52
738.723	20427.87
739.063	20321.43
739.404	20266.97
739.744	20242.11
740.084	20106.07
740.424	20225.16
740.764	20227.65
741.104	20136.35
741.444	20052.96
741.784	19949.69
742.124	20035.79
742.464	19975.68
742.804	19897.71
743.143	19832.85
743.483	19879.41
743.823	19724.61
744.162	19743.82
744.502	19752.86
744.841	19617.72
745.181	19706.98
745.52	19680.99
745.86	19732.29
746.199	19612.07
746.538	19631.28
746.877	19581.79
747.216	19640.32
747.556	19539.3
747.895	19528
748.234	19417.05
748.573	19390.38
748.911	19346.99
749.25	19417.95
749.589	19239.65
749.928	19187.9
750.267	19209.14
750.605	19236.71
750.944	19098.86
751.283	18996.72
751.621	19188.8
751.96	18929.83
752.298	18919.66
752.636	18996.94
752.975	18896.38
753.313	18812.54
753.651	18802.82
753.989	18682.6
754.327	18819.55
