Data from white_poster_card_FLMS001491_00081.txt Node
Date: Wed Feb 08 11:52:07 GMT 2017
User: dcchb
Spectrometer: FLMS00149
Trigger mode: 0
Integration Time (sec): 2.000000E-2
Scans to average: 10
Electric dark correction enabled: true
Nonlinearity correction enabled: false
Boxcar width: 0
XAxis mode: Wavelengths
Number of Pixels in Spectrum: 2048
>>>>>Begin Spectral Data<<<<<
341.393	-8.33
341.776	-8.33
342.16	-8.33
342.543	-50.14
342.927	-60.76
343.31	-60.08
343.693	-65.05
344.077	-58.28
344.46	-73.42
344.843	-63.47
345.226	-51.04
345.61	-16.92
345.993	-23.02
346.376	2.74
346.759	12.01
347.142	26.69
347.525	34.6
347.908	44.77
348.291	88.84
348.674	97.2
349.057	104.43
349.44	147.37
349.823	163.19
350.206	175.84
350.588	201.38
350.971	209.06
351.354	240.93
351.737	241.83
352.119	256.29
352.502	284.54
352.884	284.09
353.267	297.2
353.65	296.52
354.032	310.98
354.414	307.14
354.797	319.57
355.179	327.25
355.562	332.67
355.944	332
356.326	338.32
356.709	353.69
357.091	342.39
357.473	365.67
357.855	343.75
358.238	351.66
358.62	329.96
359.002	332.9
359.384	339.68
359.766	334.48
360.148	336.52
360.53	344.2
360.912	337.87
361.294	339.23
361.676	330.64
362.057	333.35
362.439	367.25
362.821	352.56
363.203	309.17
363.584	341.71
363.966	345.1
364.348	324.31
364.729	321.6
365.111	315.27
365.493	310.53
365.874	325.67
366.256	320.92
366.637	310.3
367.019	337.65
367.4	324.09
367.781	328.38
368.163	312.79
368.544	304.65
368.925	309.62
369.306	324.77
369.688	326.8
370.069	320.47
370.45	306.01
370.831	306.01
371.212	296.29
371.593	302.17
371.974	336.97
372.355	323.86
372.736	316.18
373.117	336.97
373.498	316.86
373.879	317.99
374.26	313.69
374.641	332.9
375.021	323.86
375.402	341.94
375.783	344.43
376.163	324.99
376.544	319.12
376.925	311.43
377.305	343.75
377.686	341.04
378.066	345.78
378.447	342.17
378.827	346.91
379.208	331.32
379.588	329.29
379.968	348.27
380.349	349.17
380.729	335.84
381.109	346.69
381.489	329.06
381.87	331.09
382.25	333.58
382.63	350.98
383.01	364.09
383.39	348.95
383.77	357.31
384.15	358.66
384.53	352.79
384.91	354.6
385.29	365.22
385.67	346.46
386.049	350.08
386.429	365.22
386.809	384.42
387.189	357.08
387.568	375.61
387.948	371.77
388.328	383.3
388.707	385.78
389.087	369.06
389.466	372.67
389.846	373.13
390.225	388.04
390.605	372.9
390.984	380.36
391.363	396.85
391.743	394.14
392.122	379.68
392.501	413.58
392.881	406.57
393.26	408.15
393.639	414.71
394.018	408.15
394.397	408.61
394.776	408.15
395.155	416.29
395.534	393.92
395.913	408.61
396.292	429.85
396.671	428.04
397.05	426.46
397.429	433.92
397.808	433.69
398.186	440.24
398.565	429.85
398.944	426.01
399.323	447.02
399.701	445.89
400.08	447.47
400.458	449.06
400.837	453.8
401.215	459
401.594	464.2
401.972	481.15
402.351	457.64
402.729	480.02
403.107	474.37
403.486	466
403.864	476.63
404.242	483.18
404.62	476.85
404.999	501.48
405.377	511.88
405.755	506.68
406.133	511.88
406.511	501.03
406.889	493.57
407.267	513.46
407.645	544.65
408.023	516.85
408.401	545.32
408.779	547.13
409.156	571.54
409.534	596.85
409.912	562.05
410.29	592.78
410.667	591.2
411.045	598.43
411.422	616.51
411.8	629.39
412.178	623.51
412.555	664.64
412.933	654.93
413.31	687.92
413.687	685.43
414.065	716.39
414.442	709.61
414.819	698.77
415.197	724.98
415.574	773.12
415.951	775.38
416.328	795.71
416.705	788.93
417.082	801.59
417.46	793.68
417.837	813.11
418.214	861.02
418.591	865.54
418.967	878.42
419.344	856.73
419.721	904.19
420.098	896.05
420.475	953.9
420.852	937.18
421.228	959.33
421.605	943.96
421.982	1004.75
422.358	994.8
422.735	1007.46
423.111	1028.93
423.488	1002.49
423.864	1045.2
424.241	1056.05
424.617	1077.29
424.994	1099.21
425.37	1085.65
425.746	1109.83
426.123	1119.32
426.499	1120.22
426.875	1148.02
427.251	1172.65
427.627	1193.9
428.003	1226.89
428.379	1226.66
428.756	1268.24
429.132	1267.34
429.507	1314.34
429.883	1282.25
430.259	1317.73
430.635	1305.98
431.011	1337.17
431.387	1387.34
431.763	1413.32
432.138	1410.84
432.514	1449.93
432.89	1469.14
433.265	1492.19
433.641	1486.77
434.016	1507.33
434.392	1544.62
434.767	1574.9
435.143	1565.41
435.518	1579.2
435.894	1607.22
436.269	1620.55
436.644	1658.06
437.02	1657.61
437.395	1635.47
437.77	1658.29
438.145	1712.53
438.52	1737.16
438.895	1756.14
439.271	1755.24
439.646	1837.27
440.021	1807.66
440.395	1774.9
440.77	1786.87
441.145	1828.45
441.52	1862.13
441.895	1864.61
442.27	1895.8
442.645	1894.22
443.019	1895.57
443.394	1900.32
443.769	1903.48
444.143	1943.71
444.518	1928.57
444.892	1952.29
445.267	1983.48
445.641	1991.84
446.016	2019.64
446.39	2030.03
446.764	2037.49
447.139	2011.5
447.513	2053.08
447.887	2080.2
448.262	2075.91
448.636	2095.57
449.01	2137.6
449.384	2117.49
449.758	2146.41
450.132	2152.74
450.506	2164.04
450.88	2155.9
451.254	2184.15
451.628	2230.03
452.002	2216.69
452.376	2276.8
452.75	2248.78
453.123	2315
453.497	2356.12
453.871	2352.96
454.244	2411.72
454.618	2408.1
454.992	2416.24
455.365	2443.35
455.739	2483.58
456.112	2491.04
456.486	2562.9
456.859	2569.9
457.232	2575.33
457.606	2600.64
457.979	2628.89
458.352	2676.79
458.725	2708.21
459.099	2709.11
459.472	2796.56
459.845	2773.74
460.218	2854.42
460.591	2831.14
460.964	2846.28
461.337	2964.7
461.71	2996.79
462.083	2984.58
462.456	3015.09
462.829	3011.02
463.201	3072.94
463.574	3060.74
463.947	3136.22
464.32	3211.02
464.692	3216.44
465.065	3200.85
465.438	3295.53
465.81	3303.67
466.183	3341.64
466.555	3421.18
466.928	3445.36
467.3	3470.45
467.672	3533.04
468.045	3571.01
468.417	3577.11
468.789	3612.36
469.161	3664.79
469.534	3703.89
469.906	3814.39
470.278	3800.15
470.65	3863.2
471.022	3908.4
471.394	3975.74
471.766	4048.74
472.138	4099.36
472.51	4136.64
472.882	4236.08
473.253	4255.74
473.625	4287.83
473.997	4380.03
474.369	4439.46
474.74	4414.83
475.112	4573.24
475.484	4648.49
475.855	4700.7
476.227	4730.3
476.598	4876.74
476.97	4866.57
477.341	4965.1
477.713	5037.41
478.084	5056.17
478.455	5232.66
478.827	5240.34
479.198	5395.14
479.569	5418.87
479.94	5560.79
480.311	5595.14
480.682	5759.42
481.053	5844.17
481.424	5968.23
481.795	5929.14
482.166	6069.25
482.537	6204.84
482.908	6277.38
483.279	6349.47
483.65	6501.33
484.021	6626.52
484.391	6636.01
484.762	6739.29
485.133	6793.97
485.503	6866.97
485.874	7037.81
486.244	7117.36
486.615	7233.28
486.985	7278.48
487.356	7412.26
487.726	7473.28
488.097	7697
488.467	7640.28
488.837	7859.93
489.207	7905.81
489.578	8045.24
489.948	8172.69
490.318	8276.87
490.688	8306.02
491.058	8483.2
491.428	8501.95
491.798	8611.78
492.168	8755.28
492.538	8804.32
492.908	8875.05
493.278	9008.38
493.648	9076.85
494.017	9162.5
494.387	9272.78
494.757	9337.41
495.126	9434.13
495.496	9449.95
495.866	9508.03
496.235	9660.79
496.605	9735.59
496.974	9822.82
497.344	9877.28
497.713	9967.22
498.082	10056.26
498.452	10201.79
498.821	10230.72
499.19	10240.66
499.559	10377.16
499.928	10473.65
500.298	10556.13
500.667	10690.37
501.036	10646.3
501.405	10738.73
501.774	10707.09
502.143	10826.86
502.512	10838.61
502.88	11120.41
503.249	11027.53
503.618	11085.84
503.987	11137.59
504.356	11263.69
504.724	11387.75
505.093	11371.25
505.462	11462.33
505.83	11496.9
506.199	11664.13
506.567	11843.33
506.936	11764.69
507.304	11988.87
507.672	11947.28
508.041	12053.72
508.409	12124
508.777	12257.79
509.145	12321.96
509.514	12381.62
509.882	12466.59
510.25	12516.99
510.618	12547.95
510.986	12663.42
511.354	12766.7
511.722	12899.58
512.09	13053.24
512.458	13071.1
512.826	13220.02
513.193	13237.65
513.561	13338.21
513.929	13406
514.297	13531.42
514.664	13674.7
515.032	13713.79
515.4	13878.31
515.767	13925.54
516.135	13976.84
516.502	13921.92
516.869	14221.12
517.237	14235.81
517.604	14269.94
517.972	14509.03
518.339	14558.97
518.706	14696.14
519.073	14742.92
519.44	14738.4
519.808	15008.45
520.175	15076.92
520.542	15326.86
520.909	15258.38
521.276	15294.09
521.643	15474.42
522.009	15625.61
522.376	15695.43
522.743	15885.49
523.11	15976.11
523.477	16140.39
523.843	16239.6
524.21	16394.63
524.577	16487.96
524.943	16591.23
525.31	16659.03
525.676	16861.05
526.043	16931.56
526.409	17073.93
526.776	17296.75
527.142	17325.9
527.508	17486.12
527.874	17571.09
528.241	17758.21
528.607	17805.66
528.973	17942.16
529.339	17991.19
529.705	18131.3
530.071	18245.65
530.437	18404.06
530.803	18413.33
531.169	18624.85
531.535	18581.91
531.901	18603.15
532.267	18763.83
532.632	18929.25
532.998	18969.47
533.364	19104.16
533.73	19123.37
534.095	19358.16
534.461	19392.06
534.826	19438.16
535.192	19558.16
535.557	19838.6
535.923	19701.66
536.288	19785.95
536.653	19961.99
537.019	19915.44
537.384	20033.63
537.749	20209.44
538.114	20133.51
538.479	20201.76
538.845	20371.92
539.21	20373.28
539.575	20564.23
539.94	20596.55
540.305	20698.02
540.67	20619.83
541.034	20764.91
541.399	20915.64
541.764	21010.32
542.129	21057.1
542.494	21174.16
542.858	21152.24
543.223	21141.85
543.587	21317.89
543.952	21307.04
544.316	21473.36
544.681	21548.39
545.045	21608.5
545.41	21721.49
545.774	21789.51
546.138	21822.05
546.503	21818.21
546.867	21846.91
547.231	22064.31
547.595	22150.86
547.959	22255.71
548.324	22187.69
548.688	22365.09
549.052	22407.8
549.416	22471.53
549.779	22566.67
550.143	22605.76
550.507	22761.01
550.871	22876.26
551.235	22821.35
551.599	23043.94
551.962	23073.55
552.326	23192.86
552.689	23304.73
553.053	23109.48
553.417	23316.93
553.78	23662.46
554.143	23561.67
554.507	23635.56
554.87	23763.47
555.234	24023.8
555.597	23889.57
555.96	24036.68
556.323	24177.02
556.686	24224.02
557.05	24424.47
557.413	24461.76
557.776	24422.44
558.139	24687.74
558.502	24620.17
558.865	24760.06
559.228	24964.34
559.59	24988.3
559.953	25129.54
560.316	25311
560.679	25336.76
561.041	25478
561.404	25669.64
561.767	25896.97
562.129	25818.78
562.492	26050.87
562.854	26031.66
563.217	26151.88
563.579	26287.7
563.941	26414.47
564.304	26536.28
564.666	26709.38
565.028	26616.28
565.39	26806.56
565.753	26913.67
566.115	27084.29
566.477	27246.54
566.839	27329.93
567.201	27344.85
567.563	27457.61
567.925	27538.51
568.287	27626.42
568.648	27654.89
569.01	27860.09
569.372	28127.42
569.734	28001.78
570.095	28101.89
570.457	28293.75
570.819	28289
571.18	28405.16
571.542	28547.07
571.903	28561.09
572.265	28636.79
572.626	28797.01
572.987	28814.41
573.349	28864.35
573.71	29077.23
574.071	29062.99
574.432	29376.66
574.794	29473.6
575.155	29429.08
575.516	29464.11
575.877	29472.47
576.238	29671.56
576.599	29627.5
576.96	29701.17
577.32	29693.48
577.681	29862.52
578.042	29976.19
578.403	29954.04
578.763	30005.79
579.124	30122.17
579.485	30196.07
579.845	30247.37
580.206	30114.26
580.566	30104.55
580.927	30155.85
581.287	30276.97
581.648	30199.46
582.008	30362.17
582.368	30308.61
582.728	30287.59
583.089	30495.95
583.449	30366.01
583.809	30370.98
584.169	30442.84
584.529	30352
584.889	30600.81
585.249	30530.52
585.609	30279.91
585.969	30603.74
586.329	30601.48
586.688	30515.38
587.048	30544.31
587.408	30444.65
587.768	30453.24
588.127	30331.66
588.487	30464.54
588.846	30593.35
589.206	30510.41
589.565	30516.29
589.925	30621.82
590.284	30663.63
590.643	30617.98
591.003	30565.55
591.362	30651.88
591.721	30616.85
592.08	30609.17
592.44	30767.13
592.799	30814.81
593.158	30737.3
593.517	30774.59
593.876	30734.36
594.235	30674.93
594.593	30688.94
594.952	30787.24
595.311	30584.53
595.67	30888.93
596.029	30944.98
596.387	30977.29
596.746	30955.6
597.104	30742.04
597.463	30819.78
597.822	31011.64
598.18	30854.36
598.538	30949.27
598.897	31081.92
599.255	30794.7
599.613	31170.06
599.972	31134.8
600.33	31193.33
600.688	31013.45
601.046	31241.47
601.404	31343.61
601.762	31116.5
602.12	31350.62
602.478	31308.81
602.836	31296.83
603.194	31154.01
603.552	31271.75
603.91	31213.67
604.268	31394.91
604.625	31176.38
604.983	31421.57
605.341	31351.75
605.698	31434.23
606.056	31461.57
606.413	31440.78
606.771	31558.75
607.128	31558.97
607.485	31578.63
607.843	31589.25
608.2	31834.67
608.557	31777.05
608.914	31704.51
609.272	31819.08
609.629	31894.33
609.986	32068.11
610.343	31844.61
610.7	32128.45
611.057	31969.81
611.414	32046.64
611.771	31990.15
612.127	32159.18
612.484	32027.21
612.841	32165.96
613.198	32193.31
613.554	32101.56
613.911	32272.85
614.267	32283.47
614.624	32344.71
614.98	32298.16
615.337	32420.42
615.693	32369.12
616.05	32281.21
616.406	32609.79
616.762	32394.66
617.118	32422.45
617.475	32428.78
617.831	32509.23
618.187	32618.15
618.543	32518.04
618.899	32761.88
619.255	32569.12
619.611	32693.86
619.967	32683.01
620.323	32736.34
620.678	32598.95
621.034	32650.24
621.39	32574.76
621.746	32525.95
622.101	32901.08
622.457	32645.95
622.812	32779.28
623.168	32885.49
623.523	32678.04
623.879	32705.38
624.234	32579.06
624.589	32757.36
624.945	32781.31
625.3	32825.15
625.655	32779.96
626.01	32832.16
626.365	32745.16
626.72	32683.91
627.075	32669.68
627.43	32762.56
627.785	32748.32
628.14	32687.98
628.495	32692.95
628.85	32660.19
629.205	32531.83
629.559	32768.21
629.914	32519.85
630.269	32601.88
630.623	32535.44
630.978	32418.38
631.332	32543.35
631.687	32576.12
632.041	32392.85
632.396	32474.43
632.75	32299.74
633.104	32436.46
633.459	32267.65
633.813	32183.36
634.167	32226.53
634.521	32151.73
634.875	32275.56
635.229	32257.94
635.583	32052.29
635.937	31956.93
636.291	32032.63
636.645	31932.75
636.999	31878.29
637.352	32030.6
637.706	31752.19
638.06	31903.37
638.413	31816.59
638.767	31775.69
639.121	31769.81
639.474	31663.38
639.828	31610.72
640.181	31740.89
640.534	31659.08
640.888	31472.42
641.241	31338.64
641.594	31458.86
641.947	31576.37
642.301	31415.02
642.654	31379.99
643.007	31374.8
643.36	31374.57
643.713	31334.8
644.066	31408.24
644.419	31204.86
644.771	30938.42
645.124	30779.56
645.477	30632.22
645.83	30399
646.182	30388.16
646.535	30142.51
646.888	30190.65
647.24	30105
647.593	30283.53
647.945	30052.12
648.298	29972.35
648.65	29780.04
649.002	29751.11
649.355	29939.58
649.707	29932.35
650.059	29985.68
650.411	30434.26
650.763	30386.57
651.115	30653.91
651.467	30520.81
651.819	30466.57
652.171	30488.49
652.523	30548.38
652.875	30457.53
653.227	30275.84
653.578	30286.01
653.93	30351.32
654.282	30264.77
654.633	30079.69
654.985	30286.46
655.337	30252.79
655.688	30253.47
656.039	30207.82
656.391	30107.26
656.742	30005.12
657.094	30158.11
657.445	30088.73
657.796	29983.42
658.147	29968.73
658.498	29973.48
658.849	30011.67
659.2	29873.82
659.551	29876.76
659.902	29954.49
660.253	29941.84
660.604	29920.15
660.955	29704.33
661.306	29829.53
661.656	29819.81
662.007	29696.65
662.358	29801.05
662.708	29759.92
663.059	29634.28
663.409	29518.57
663.76	29703.65
664.11	29658.01
664.461	29765.8
664.811	29705.91
665.161	29561.28
665.511	29502.98
665.862	29623.2
666.212	29655.29
666.562	29699.36
666.912	29512.02
667.262	29530.55
667.612	29589.53
667.962	29560.61
668.312	29469.99
668.662	29623.88
669.011	29520.83
669.361	29340.73
669.711	29426.6
670.06	29377.33
670.41	29349.54
670.76	29208.3
671.109	29412.59
671.459	29301.63
671.808	29189.54
672.157	29342.99
672.507	29128.3
672.856	29170.79
673.205	29094.63
673.554	29227.73
673.904	29109.32
674.253	29157.91
674.602	29245.81
674.951	28903.68
675.3	28578.71
675.649	28948.65
675.998	28997.23
676.346	29022.99
676.695	29178.92
677.044	28868.87
677.393	28904.8
677.741	29026.38
678.09	28871.81
678.438	28910.91
678.787	29015.76
679.135	28964.69
679.484	28705.49
679.832	28647.86
680.181	28632.27
680.529	28705.04
680.877	28618.71
681.225	28620.74
681.573	28765.83
681.922	28534.42
682.27	28350.47
682.618	28550.69
682.966	28167.2
683.314	28433.86
683.661	28212.17
684.009	28141.21
684.357	28085.84
684.705	28129.91
685.053	28169.01
685.4	27960.2
685.748	27820.09
686.095	27926.3
686.443	27825.06
686.79	27793.42
687.138	27830.93
687.485	27715.46
687.832	27651.05
688.18	27695.57
688.527	27469.36
688.874	27507.33
689.221	27519.98
689.568	27398.86
689.915	27211.97
690.262	27260.33
690.609	27193.21
690.956	27060.79
691.303	27040.67
691.65	26837.51
691.997	27000.45
692.344	26786.22
692.69	26730.85
693.037	26725.2
693.383	26550.06
693.73	26630.74
694.077	26533.57
694.423	26498.31
694.769	26374.48
695.116	26252.67
695.462	26275.95
695.808	26193.46
696.155	26185.33
696.501	26059.46
696.847	25896.52
697.193	25725
697.539	25917.31
697.885	25735.62
698.231	25691.56
698.577	25699.92
698.923	25489.08
699.269	25463.77
699.614	25293.6
699.96	25356.65
700.306	25234.62
700.651	25184.9
700.997	25152.59
701.342	25140.84
701.688	24932.71
702.033	24928.86
702.379	24882.09
702.724	24861.52
703.069	24964.34
703.415	24553.28
703.76	24678.25
704.105	24627.63
704.45	24600.51
704.795	24300.18
705.14	24362.1
705.485	24279.62
705.83	24119.17
706.175	24254.31
706.52	24212.05
706.865	24072.62
707.209	23980.87
707.554	23949.23
707.899	23996.23
708.243	23908.33
708.588	23776.35
708.932	23647.09
709.277	23669.91
709.621	23715.56
709.966	23464.95
710.31	23560.31
710.654	23393.99
710.998	23401.67
711.342	23308.12
711.687	23251.39
712.031	23249.81
712.375	23031.97
712.719	23088.01
713.063	23047.11
713.407	23111.96
713.75	22994.9
714.094	22911.74
714.438	22940.89
714.782	22927.34
715.125	22717.4
715.469	22812.08
715.812	22720.56
716.156	22565.08
716.499	22556.5
716.843	22677.17
717.186	22369.38
717.53	22485.31
717.873	22468.36
718.216	22441.25
718.559	22324.86
718.902	22200.57
719.246	22232.89
719.589	22075.83
719.932	22069.5
720.275	22088.71
720.617	22087.36
720.96	22070.86
721.303	22031.54
721.646	21945.89
721.989	21836.97
722.331	21960.81
722.674	21767.14
723.016	21826.8
723.359	21897.53
723.701	21773.02
724.044	21631.78
724.386	21503.19
724.729	21694.83
725.071	21608.73
725.413	21552.46
725.755	21546.58
726.097	21443.08
726.439	21221.39
726.782	21319.69
727.124	21407.37
727.465	21351.78
727.807	21277.21
728.149	21171.67
728.491	21110.89
728.833	21187.04
729.175	21078.34
729.516	21024.33
729.858	21070.43
730.199	21051.9
730.541	21011.23
730.882	20951.34
731.224	20910.21
731.565	20823.66
731.906	20792.48
732.248	20887.61
732.589	20729.43
732.93	20682.87
733.271	20768.3
733.612	20725.13
733.953	20660.05
734.294	20655.76
734.635	20457.8
734.976	20660.5
735.317	20532.82
735.658	20406.95
735.999	20399.49
736.339	20415.99
736.68	20534.86
737.021	20358.59
737.361	20282.43
737.702	20464.8
738.042	20347.52
738.383	20317.91
738.723	20288.99
739.063	20131.02
739.404	20387.51
739.744	20075.88
740.084	20117.24
740.424	20056.68
740.764	19969.22
741.104	20040.41
741.444	20015.1
741.784	19852.16
742.124	19941.42
742.464	19885.16
742.804	19751.37
743.143	19672.96
743.483	19835.21
743.823	19643.13
744.162	19638.38
744.502	19860.52
744.841	19585.73
745.181	19649.68
745.52	19627.76
745.86	19633.64
746.199	19540.31
746.538	19445.84
746.877	19537.14
747.216	19438.84
747.556	19372.4
747.895	19420.08
748.234	19314.32
748.573	19247.88
748.911	19234.32
749.25	19184.16
749.589	19125.4
749.928	19184.38
750.267	19129.02
750.605	18996.14
750.944	18924.95
751.283	18979.19
751.621	18918.63
751.96	18813.54
752.298	18804.51
752.636	18916.14
752.975	18718.63
753.313	18705.53
753.651	18716.82
753.989	18691.74
754.327	18646.09
