Data from white_steel_sheet_FLMS001491_002.txt Node
Date: Tue Feb 07 10:57:18 GMT 2017
User: dcchb
Spectrometer: FLMS00149
Trigger mode: 0
Integration Time (sec): 2.000000E-2
Scans to average: 10
Electric dark correction enabled: true
Nonlinearity correction enabled: false
Boxcar width: 0
XAxis mode: Wavelengths
Number of Pixels in Spectrum: 2048
>>>>>Begin Spectral Data<<<<<
341.393	-19.76
341.776	-19.76
342.16	-19.76
342.543	-65.41
342.927	-80.32
343.31	-57.27
343.693	-66.31
344.077	-70.83
344.46	-72.19
344.843	-53.43
345.226	-38.52
345.61	-20.21
345.993	-32.64
346.376	-15.01
346.759	22.27
347.142	24.76
347.525	44.19
347.908	64.53
348.291	89.84
348.674	85.77
349.057	95.04
349.44	105.21
349.823	147.69
350.206	143.4
350.588	208.03
350.971	220.91
351.354	219.56
351.737	248.71
352.119	253.91
352.502	261.59
352.884	276.05
353.267	289.84
353.65	304.3
354.032	320.8
354.414	312.66
354.797	309.5
355.179	312.21
355.562	307.69
355.944	310.4
356.326	340.91
356.709	333.9
357.091	327.12
357.473	363.51
357.855	345.65
358.238	343.85
358.62	351.53
359.002	366.22
359.384	348.82
359.766	343.62
360.148	360.57
360.53	347.46
360.912	349.27
361.294	343.17
361.676	335.03
362.057	325.54
362.439	324.86
362.821	338.65
363.203	335.49
363.584	327.58
363.966	356.5
364.348	352.43
364.729	328.71
365.111	327.12
365.493	308.14
365.874	313.57
366.256	306.33
366.637	300.01
367.019	307.01
367.4	335.03
367.781	334.36
368.163	319.21
368.544	329.16
368.925	312.21
369.306	345.43
369.688	327.35
370.069	336.39
370.45	321.93
370.831	321.47
371.212	326.67
371.593	311.76
371.974	311.76
372.355	323.28
372.736	335.94
373.117	337.29
373.498	328.03
373.879	339.78
374.26	352.66
374.641	328.93
375.021	334.36
375.402	338.65
375.783	335.49
376.163	332.1
376.544	334.36
376.925	347.46
377.305	347.01
377.686	323.96
378.066	370.51
378.447	352.21
378.827	344.3
379.208	348.82
379.588	350.85
379.968	346.33
380.349	365.77
380.729	367.58
381.109	366.22
381.489	358.99
381.87	375.71
382.25	367.58
382.63	365.54
383.01	372.32
383.39	390.85
383.77	361.47
384.15	376.61
384.53	364.64
384.91	379.33
385.29	367.12
385.67	355.15
386.049	395.82
386.429	372.77
386.809	387.91
387.189	387.24
387.568	392.66
387.948	406.67
388.328	413.22
388.707	405.99
389.087	401.25
389.466	432.43
389.846	433.34
390.225	429.72
390.605	413.9
390.984	438.08
391.363	424.97
391.743	442.6
392.122	436.5
392.501	411.87
392.881	451.41
393.26	467.01
393.639	460.45
394.018	445.99
394.397	458.42
394.776	471.08
395.155	484.18
395.534	491.64
395.913	480.79
396.292	490.51
396.671	487.35
397.05	490.96
397.429	513.33
397.808	505.42
398.186	509.04
398.565	506.55
398.944	515.14
399.323	539.32
399.701	546.1
400.08	551.53
400.458	544.29
400.837	544.52
401.215	545.65
401.594	594.91
401.972	578.19
402.351	594.69
402.729	605.53
403.107	605.76
403.486	626.55
403.864	608.02
404.242	641.47
404.62	643.05
404.999	653.22
405.377	658.19
405.755	673.1
406.133	681.01
406.511	672.88
406.889	678.3
407.267	715.59
407.645	705.87
408.023	735.93
408.401	758.07
408.779	755.14
409.156	746.77
409.534	757.85
409.912	764.17
410.29	800.56
410.667	808.24
411.045	828.13
411.422	821.57
411.8	848.92
412.178	867.45
412.555	879.43
412.933	887.79
413.31	896.15
413.687	916.04
414.065	931.18
414.442	923.04
414.819	954.23
415.197	946.54
415.574	961.01
415.951	968.46
416.328	989.93
416.705	981.12
417.082	1009.14
417.46	1055.24
417.837	1028.35
418.214	1040.33
418.591	1057.95
418.967	1063.6
419.344	1075.81
419.721	1073.55
420.098	1082.81
420.475	1108.12
420.852	1104.5
421.228	1134.79
421.605	1128.69
421.982	1152.41
422.358	1154.22
422.735	1164.39
423.111	1169.36
423.488	1187.67
423.864	1196.71
424.241	1208.23
424.617	1253.2
424.994	1267.89
425.37	1259.98
425.746	1260.21
426.123	1279.64
426.499	1293.88
426.875	1310.15
427.251	1327.78
427.627	1362.35
428.003	1358.28
428.379	1383.14
428.756	1398.06
429.132	1392.18
429.507	1429.47
429.883	1452.74
430.259	1466.08
430.635	1497.71
431.011	1480.09
431.387	1572.52
431.763	1542.91
432.138	1575.23
432.514	1570.93
432.89	1606.19
433.265	1654.77
433.641	1677.82
434.016	1692.74
434.392	1680.31
434.767	1725.05
435.143	1715.79
435.518	1738.84
435.894	1784.04
436.269	1818.38
436.644	1833.3
437.02	1824.94
437.395	1852.06
437.77	1872.62
438.145	1904.94
438.52	1925.95
438.895	1926.18
439.271	1930.02
439.646	1991.49
440.021	2007.98
440.395	2006.85
440.77	2014.09
441.145	2068.1
441.52	2063.58
441.895	2068.77
442.27	2111.26
442.645	2100.86
443.019	2123.46
443.394	2113.74
443.769	2141.09
444.143	2151.48
444.518	2228.09
444.892	2199.62
445.267	2254.08
445.641	2245.49
446.016	2256.56
446.39	2291.82
446.764	2304.25
447.139	2283.46
447.513	2359.39
447.887	2330.69
448.262	2356
448.636	2378.14
449.01	2398.03
449.384	2403.91
449.758	2470.12
450.132	2493.85
450.506	2471.47
450.88	2520.29
451.254	2502.43
451.628	2525.71
452.002	2600.96
452.376	2586.5
452.75	2617.23
453.123	2648.65
453.497	2698.14
453.871	2698.36
454.244	2758.25
454.618	2736.33
454.992	2811.13
455.365	2830.34
455.739	2892.25
456.112	2927.06
456.486	2943.33
456.859	2951.91
457.232	3033.95
457.606	3062.42
457.979	3068.52
458.352	3091.8
458.725	3209.08
459.099	3193.04
459.472	3253.6
459.845	3296.54
460.218	3293.15
460.591	3331.34
460.964	3330.21
461.337	3432.35
461.71	3479.58
462.083	3499.24
462.456	3581.5
462.829	3531.33
463.201	3564.78
463.574	3618.11
463.947	3692.46
464.32	3750.09
464.692	3756.19
465.065	3806.35
465.438	3883.41
465.81	3927.71
466.183	3955.5
466.555	4050.87
466.928	4072.34
467.3	4023.98
467.672	4137.19
468.045	4273.01
468.417	4234.59
468.789	4282.27
469.161	4288.83
469.534	4392.1
469.906	4472.55
470.278	4530.4
470.65	4604.98
471.022	4635.49
471.394	4750.96
471.766	4792.54
472.138	4843.39
472.51	4942.14
472.882	5012.88
473.253	5070.05
473.625	5138.75
473.997	5263.27
474.369	5278.41
474.74	5355.01
475.112	5421.68
475.484	5537.61
475.855	5588
476.227	5684.72
476.598	5832.52
476.97	5876.36
477.341	5989.8
477.713	6119.29
478.084	6131.72
478.455	6278.83
478.827	6326.51
479.198	6537.81
479.569	6589.56
479.94	6764.02
480.311	6838.59
480.682	6943.45
481.053	7031.35
481.424	7201.29
481.795	7265.7
482.166	7391.35
482.537	7480.83
482.908	7622.98
483.279	7742.75
483.65	7885.12
484.021	8050.54
484.391	8068.84
484.762	8157.65
485.133	8269.51
485.503	8407.82
485.874	8621.37
486.244	8707.47
486.615	8816.17
486.985	8845.54
487.356	9050.28
487.726	9157.85
488.097	9316.27
488.467	9381.12
488.837	9526.43
489.207	9702.47
489.578	9785.63
489.948	9944.95
490.318	10064.5
490.688	10135.45
491.058	10278.27
491.428	10419.29
491.798	10522.79
492.168	10743.12
492.538	10774.08
492.908	10938.82
493.278	11051.14
493.648	11100.17
494.017	11269.21
494.387	11347.4
494.757	11422.2
495.126	11569.77
495.496	11662.65
495.866	11650.22
496.235	11871.45
496.605	11966.59
496.974	12094.72
497.344	12186.93
497.713	12269.41
498.082	12405
498.452	12444.32
498.821	12543.75
499.19	12539.01
499.559	12668.04
499.928	12757.08
500.298	12883.4
500.667	13058.54
501.036	13036.17
501.405	13249.95
501.774	13164.07
502.143	13342.83
502.512	13358.87
502.88	13560.45
503.249	13533.1
503.618	13695.59
503.987	13800.44
504.356	13863.27
504.724	13913.89
505.093	14021.45
505.462	14126.08
505.83	14276.14
506.199	14370.37
506.567	14546.19
506.936	14505.73
507.304	14710.7
507.672	14780.08
508.041	14898.04
508.409	15055.78
508.777	15218.94
509.145	15208.31
509.514	15303.91
509.882	15402.66
510.25	15475.43
510.618	15693.5
510.986	15720.17
511.354	15839.03
511.722	16034.73
512.09	16103.43
512.458	16206.71
512.826	16241.28
513.193	16425.23
513.561	16476.98
513.929	16773.92
514.297	16812.57
514.664	16944.77
515.032	16996.52
515.4	17194.48
515.767	17265.66
516.135	17350.41
516.502	17379.56
516.869	17561.47
517.237	17730.73
517.604	17707.01
517.972	17934.12
518.339	18134.11
518.706	18166.2
519.073	18272.19
519.44	18311.51
519.808	18657.04
520.175	18732.06
520.542	18906.75
520.909	19024.94
521.276	19039.85
521.643	19312.84
522.009	19446.85
522.376	19484.13
522.743	19709.21
523.11	19962.99
523.477	20107.85
523.843	20131.8
524.21	20452.7
524.577	20546.93
524.943	20689.3
525.31	20787.83
525.676	20961.84
526.043	21178.78
526.409	21192.79
526.776	21450.64
527.142	21579.9
527.508	21685.88
527.874	21854.24
528.241	22093.56
528.607	22097.85
528.973	22316.6
529.339	22321.12
529.705	22563.6
530.071	22784.61
530.437	22914.55
530.803	22979.18
531.169	23102.57
531.535	23198.84
531.901	23260.31
532.267	23429.12
532.632	23620.75
532.998	23696.23
533.364	23888.76
533.73	23850.57
534.095	24124.46
534.461	24205.37
534.826	24286.95
535.192	24357.45
535.557	24494.17
535.923	24577.33
536.288	24680.61
536.653	24813.94
537.019	24772.13
537.384	24897.55
537.749	25041.28
538.114	25101.39
538.479	25188.84
538.845	25264.1
539.21	25280.37
539.575	25526.01
539.94	25539.57
540.305	25786.12
540.67	25770.3
541.034	25826.34
541.399	25921.48
541.764	26123.28
542.129	26174.35
542.494	26235.37
542.858	26368.25
543.223	26368.25
543.587	26587.68
543.952	26625.87
544.316	26608.02
544.681	26870.83
545.045	26869.7
545.41	26977.72
545.774	26972.3
546.138	27039.42
546.503	27219.75
546.867	27270.14
547.231	27465.39
547.595	27507.88
547.959	27675.78
548.324	27718.04
548.688	27775.22
549.052	27924.82
549.416	27887.3
549.779	28004.59
550.143	27995.1
550.507	28312.6
550.871	28375.65
551.235	28249.55
551.599	28532.71
551.962	28622.43
552.326	28814.28
552.689	28816.54
553.053	28762.31
553.417	28931.12
553.78	29138.34
554.143	29185.35
554.507	29323.2
554.87	29399.81
555.234	29796.86
555.597	29633.7
555.96	29708.72
556.323	29761.83
556.686	29866.01
557.05	30276.17
557.413	30235.26
557.776	30473.9
558.139	30468.03
558.502	30599.77
558.865	30617.4
559.228	30849.71
559.59	30919.31
559.953	31019.2
560.316	31339.87
560.679	31457.61
561.041	31606.08
561.404	31750.25
561.767	31890.14
562.129	31766.3
562.492	32130.36
562.854	32170.58
563.217	32165.38
563.579	32293.29
563.941	32458.93
564.304	32572.83
564.666	32822.54
565.028	32836.33
565.39	33032.48
565.753	33119.93
566.115	33308.18
566.477	33397.67
566.839	33515.18
567.201	33747.04
567.563	33700.26
567.925	33974.15
568.287	34016.41
568.648	34186.12
569.01	34254.14
569.372	34423.85
569.734	34327.59
570.095	34622.49
570.457	34744.75
570.819	34837.63
571.18	34849.15
571.542	35006.66
571.903	34982.48
572.265	35141.35
572.626	35287.56
572.987	35289.37
573.349	35454.79
573.71	35605.74
574.071	35619.76
574.432	35820.88
574.794	36079.63
575.155	35990.82
575.516	35888
575.877	36000.99
576.238	36047.77
576.599	36360.98
576.96	36132.06
577.32	36262.68
577.681	36493.86
578.042	36563.01
578.403	36459.96
578.763	36513.52
579.124	36678.94
579.485	36646.85
579.845	36801.87
580.206	36729.1
580.566	36686.62
580.927	36730.69
581.287	36949.21
581.648	36754.19
582.008	36885.26
582.368	36873.06
582.728	36986.73
583.089	37034.86
583.449	36931.59
583.809	36988.31
584.169	37014.52
584.529	36946.95
584.889	37186.27
585.249	36934.75
585.609	36902.89
585.969	37128.19
586.329	37064.46
586.688	37011.58
587.048	37088.42
587.408	37054.97
587.768	37148.3
588.127	36991.92
588.487	36823.79
588.846	37181.97
589.206	36979.27
589.565	37007.97
589.925	37178.13
590.284	37101.98
590.643	37212.26
591.003	37245.02
591.362	37219.94
591.721	37160.73
592.08	37239.6
592.44	37112.15
592.799	37200.73
593.158	37058.59
593.517	37169.77
593.876	37180.17
594.235	37144.24
594.593	37130
594.952	37235.08
595.311	37099.49
595.67	37219.49
596.029	37420.16
596.387	37451.8
596.746	37374.06
597.104	37305.59
597.463	37331.12
597.822	37307.17
598.18	37318.92
598.538	37273.05
598.897	37509.42
599.255	37182.2
599.613	37715.97
599.972	37466.49
600.33	37447.28
600.688	37394.4
601.046	37378.58
601.404	37642.08
601.762	37420.16
602.12	37689.08
602.478	37707.38
602.836	37660.61
603.194	37370.22
603.552	37587.16
603.91	37467.62
604.268	37670.55
604.625	37462.42
604.983	37669.19
605.341	37448.41
605.698	37681.17
606.056	37849.53
606.413	37647.5
606.771	37635.3
607.128	37826.93
607.485	37790.09
607.843	37756.2
608.2	37903.76
608.557	38061.05
608.914	37962.97
609.272	38001.16
609.629	37963.2
609.986	38269.63
610.343	37913.25
610.7	38480.25
611.057	38167.26
611.414	38296.75
611.771	38270.53
612.127	38334.49
612.484	38415.61
612.841	38504.65
613.198	38406.8
613.554	38458.1
613.911	38584.2
614.267	38491.77
614.624	38453.35
614.98	38570.19
615.337	38781.03
615.693	38672.1
616.05	38731.99
616.406	38805.89
616.762	38702.39
617.118	38670.3
617.475	38690.64
617.831	38952.78
618.187	38899.44
618.543	38870.29
618.899	39068.03
619.255	38990.29
619.611	39037.97
619.967	39023.96
620.323	39263.05
620.678	39095.37
621.034	39018.99
621.39	38941.25
621.746	38957.97
622.101	39494
622.457	39213.11
622.812	39292.43
623.168	39403.16
623.523	39247.23
623.879	39518.86
624.234	39171.75
624.589	39207.01
624.945	39293.11
625.3	39329.04
625.655	39221.92
626.01	39183.05
626.365	39372.65
626.72	39155.48
627.075	39137.86
627.43	39231.41
627.785	39109.61
628.14	39201.81
628.495	39110.29
628.85	39227.8
629.205	39027.12
629.559	39254.46
629.914	39046.11
630.269	39188.25
630.623	39018.54
630.978	38958.88
631.332	39140.34
631.687	39124.75
632.041	38903.74
632.396	38965.66
632.75	38804.53
633.104	38884.75
633.459	38791.65
633.813	38728.6
634.167	38734.02
634.521	38677.75
634.875	38760.46
635.229	38639.11
635.583	38323.19
635.937	38584.42
636.291	38369.06
636.645	38370.19
636.999	38379.23
637.352	38434.6
637.706	38163.87
638.06	38163.19
638.413	38094.72
638.767	38105.57
639.121	38333.81
639.474	38005.23
639.828	38004.78
640.181	38002.74
640.534	37923.65
640.888	37846.14
641.241	37566.82
641.594	37718.23
641.947	37898.34
642.301	37622.41
642.654	37740.15
643.007	37525.24
643.36	37624.9
643.713	37580.61
644.066	37612.7
644.419	37440.27
644.771	37187.17
645.124	36788.54
645.477	36715.55
645.83	36499.28
646.182	36407.98
646.535	36293.64
646.888	36320.98
647.24	36118.73
647.593	36356.01
647.945	36117.14
648.298	36152.4
648.65	36008.45
649.002	36073.75
649.355	36054.32
649.707	36007.32
650.059	36156.24
650.411	36466.51
650.763	36556.45
651.115	36852.49
651.467	36788.99
651.819	36748.99
652.171	36690.24
652.523	36652.27
652.875	36652.72
653.227	36481.88
653.578	36581.99
653.93	36534.53
654.282	36410.02
654.633	36357.14
654.985	36440.52
655.337	36433.75
655.688	36262.9
656.039	36414.99
656.391	35993.08
656.742	36044.6
657.094	36196.92
657.445	36381.09
657.796	36214.77
658.147	36069.91
658.498	36185.62
658.849	36194.88
659.2	35981.1
659.551	36036.47
659.902	35976.36
660.253	35888
660.604	36057.26
660.955	35802.35
661.306	35952.63
661.656	35761.9
662.007	35695.23
662.358	35724.39
662.708	35763.48
663.059	35570.72
663.409	35388.58
663.76	35629.47
664.11	35439.42
664.461	35504.5
664.811	35380.44
665.161	35362.36
665.511	35263.83
665.862	35154.23
666.212	35365.07
666.562	35190.39
666.912	35040.11
667.262	34825.2
667.612	34932.54
667.962	34942.26
668.312	34855.48
668.662	34991.07
669.011	34714.47
669.361	34529.39
669.711	34532.33
670.06	34369.62
670.41	34391.54
670.76	34298.89
671.109	34341.15
671.459	34210.3
671.808	34157.42
672.157	34137.99
672.507	33870.2
672.856	33890.76
673.205	33852.34
673.554	33863.64
673.904	33752.23
674.253	33834.72
674.602	33672.01
674.951	33182.98
675.3	32927.17
675.649	33544.56
675.998	33542.07
676.346	33586.14
676.695	33621.62
677.044	33333.49
677.393	33461.17
677.741	33333.71
678.09	33311.12
678.438	33229.08
678.787	33309.31
679.135	33205.81
679.484	33061.18
679.832	33309.53
680.181	33101.18
680.529	33140.27
680.877	33038.13
681.225	33094.4
681.573	33304.11
681.922	33031.35
682.27	32990.67
682.618	33048.3
682.966	32948.19
683.314	33091.46
683.661	33104.79
684.009	32871.81
684.357	32865.7
684.705	32857.57
685.053	32988.64
685.4	32979.37
685.748	32796.55
686.095	32848.53
686.443	32777.34
686.79	32800.85
687.138	32750.45
687.485	32954.74
687.832	32777.57
688.18	32876.32
688.527	32702.09
688.874	32802.65
689.221	32775.31
689.568	32730.34
689.915	32691.24
690.262	32869.09
690.609	32577.58
690.956	32486.73
691.303	32563.11
691.65	32356.56
691.997	32542.1
692.344	32275.66
692.69	32289.45
693.037	32507.75
693.383	32132.84
693.73	32331.25
694.077	32089.45
694.423	32179.17
694.769	32122.9
695.116	32052.17
695.462	31999.29
695.808	31918.38
696.155	31929.01
696.501	31753.42
696.847	31728.11
697.193	31599.3
697.539	31811.27
697.885	31437.04
698.231	31344.61
698.577	31435.23
698.923	31450.83
699.269	31312.07
699.614	31129.7
699.96	31142.59
700.306	31224.16
700.651	30968.58
700.997	30892.65
701.342	30829.15
701.688	30803.84
702.033	30722.03
702.379	30615.59
702.724	30601.81
703.069	30701.01
703.415	30291.31
703.76	30371.31
704.105	30365.2
704.45	30178.99
704.795	30084.76
705.14	30004.54
705.485	29971.09
705.83	29889.51
706.175	29858.55
706.52	29692.45
706.865	29636.64
707.209	29709.85
707.554	29585.11
707.899	29640.93
708.243	29444.32
708.588	29414.72
708.932	29229.42
709.277	29205.69
709.621	29308.28
709.966	29127.04
710.31	29085.69
710.654	28875.75
710.998	28934.96
711.342	28856.09
711.687	28790.56
712.031	28704.01
712.375	28684.8
712.719	28589.43
713.063	28574.07
713.407	28674.85
713.75	28413.17
714.094	28440.06
714.438	28339.72
714.782	28318.25
715.125	28174.75
715.469	28371.36
715.812	28189.22
716.156	27828.77
716.499	27906.29
716.843	28028.09
717.186	27914.87
717.53	27877.36
717.873	27896.34
718.216	27834.65
718.559	27778.15
718.902	27626.75
719.246	27692.05
719.589	27543.13
719.932	27455.9
720.275	27444.6
720.617	27368.9
720.96	27344.27
721.303	27364.15
721.646	27403.25
721.989	27171.84
722.331	27229.47
722.674	27127.78
723.016	27162.58
723.359	27099.98
723.701	27046.65
724.044	26961
724.386	26755.58
724.729	26874.45
725.071	26915.8
725.413	26838.29
725.755	26779.08
726.097	26689.14
726.439	26575.25
726.782	26539.09
727.124	26681.23
727.465	26567.34
727.807	26395.37
728.149	26511.07
728.491	26469.71
728.833	26480.11
729.175	26308.81
729.516	26248.48
729.858	26240.57
730.199	26362.82
730.541	26230.85
730.882	26105.66
731.224	26108.82
731.565	26020.91
731.906	26021.82
732.248	25924.64
732.589	25794.48
732.93	25861.82
733.271	25744.31
733.612	25805.1
733.953	25837.87
734.294	25742.95
734.635	25592.22
734.976	25702.5
735.317	25542.73
735.658	25599.45
735.999	25454.15
736.339	25468.84
736.68	25569.62
737.021	25433.58
737.361	25362.4
737.702	25345.9
738.042	25300.93
738.383	25368.5
738.723	25236.3
739.063	25213.93
739.404	25274.49
739.744	25031.33
740.084	25029.75
740.424	25132.8
740.764	25063.65
741.104	25095.06
741.444	24985.91
741.784	24915.86
742.124	24902.3
742.464	24824.33
742.804	24756.76
743.143	24718.8
743.483	24687.39
743.823	24693.26
744.162	24606.71
744.502	24624.56
744.841	24389.54
745.181	24613.49
745.52	24531.01
745.86	24464.12
746.199	24379.6
746.538	24440.16
746.877	24348.64
747.216	24430.67
747.556	24264.35
747.895	24245.37
748.234	24152.71
748.573	24063.22
748.911	24165.59
749.25	24043.56
749.589	24001.76
749.928	24040.62
750.267	23983.9
750.605	23844.25
750.944	23795.89
751.283	23800.63
751.621	23816.22
751.96	23716.34
752.298	23608.32
752.636	23663.01
752.975	23583.01
753.313	23394.09
753.651	23528.1
