Data from white_wall_FLMS001491_019.txt Node
Date: Tue Feb 07 11:03:43 GMT 2017
User: dcchb
Spectrometer: FLMS00149
Trigger mode: 0
Integration Time (sec): 2.000000E-2
Scans to average: 10
Electric dark correction enabled: true
Nonlinearity correction enabled: false
Boxcar width: 0
XAxis mode: Wavelengths
Number of Pixels in Spectrum: 2048
>>>>>Begin Spectral Data<<<<<
341.393	8.71
341.776	8.71
342.16	8.71
342.543	-54.79
342.927	-56.59
343.31	-75.58
343.693	-76.48
344.077	-73.54
344.46	-56.37
344.843	-48.91
345.226	-38.29
345.61	-20.21
345.993	-32.19
346.376	3.29
346.759	17.3
347.142	7.36
347.525	35.15
347.908	67.47
348.291	83.51
348.674	101.82
349.057	105.66
349.44	138.88
349.823	151.99
350.206	173.68
350.588	215.26
350.971	269.72
351.354	252.55
351.737	282.15
352.119	266.79
352.502	293.23
352.884	291.87
353.267	311.98
353.65	311.53
354.032	332.77
354.414	329.61
354.797	345.88
355.179	358.99
355.562	353.34
355.944	355.15
356.326	359.89
356.709	356.05
357.091	356.5
357.473	374.13
357.855	384.07
358.238	391.98
358.62	368.7
359.002	365.32
359.384	370.96
359.766	362.38
360.148	373.9
360.53	365.54
360.912	359.89
361.294	362.83
361.676	373
362.057	365.09
362.439	351.08
362.821	339.1
363.203	355.37
363.584	360.8
363.966	351.08
364.348	350.17
364.729	370.29
365.111	346.33
365.493	354.47
365.874	351.98
366.256	369.83
366.637	345.2
367.019	344.52
367.4	347.91
367.781	344.75
368.163	367.12
368.544	358.54
368.925	358.54
369.306	366.9
369.688	331.64
370.069	326.22
370.45	345.2
370.831	358.54
371.212	349.04
371.593	364.19
371.974	368.25
372.355	361.47
372.736	361.93
373.117	359.44
373.498	369.61
373.879	365.09
374.26	357.86
374.641	359.44
375.021	373.22
375.402	352.43
375.783	358.76
376.163	371.64
376.544	369.38
376.925	379.55
377.305	384.07
377.686	389.5
378.066	392.66
378.447	371.87
378.827	360.34
379.208	386.33
379.588	381.36
379.968	392.89
380.349	381.81
380.729	390.85
381.109	403.73
381.489	392.21
381.87	393.79
382.25	391.53
382.63	403.51
383.01	399.44
383.39	409.16
383.77	416.84
384.15	419.78
384.53	428.36
384.91	431.98
385.29	435.37
385.67	424.3
386.049	429.27
386.429	418.65
386.809	432.21
387.189	441.92
387.568	438.08
387.948	422.71
388.328	445.77
388.707	443.05
389.087	471.98
389.466	485.09
389.846	475.14
390.225	483.96
390.605	468.82
390.984	480.11
391.363	493.45
391.743	523.05
392.122	488.93
392.501	500.9
392.881	527.8
393.26	529.15
393.639	530.06
394.018	542.94
394.397	545.65
394.776	534.8
395.155	549.94
395.534	549.27
395.913	545.65
396.292	578.19
396.671	590.17
397.05	577.29
397.429	616.61
397.808	621.13
398.186	616.16
398.565	611.41
398.944	638.75
399.323	645.99
399.701	660.45
400.08	647.79
400.458	681.47
400.837	675.14
401.215	718.98
401.594	709.26
401.972	710.84
402.351	739.32
402.729	763.72
403.107	756.49
403.486	784.06
403.864	816.38
404.242	797.85
404.62	820.67
404.999	836.04
405.377	853.44
405.755	855.25
406.133	869.93
406.511	896.37
406.889	885.75
407.267	909.03
407.645	927.11
408.023	946.32
408.401	971.4
408.779	974.79
409.156	1015.02
409.534	1017.28
409.912	1055.24
410.29	1076.26
410.667	1067.22
411.045	1095.47
411.422	1073.09
411.8	1126.43
412.178	1135.69
412.555	1167.33
412.933	1170.72
413.31	1213.88
413.687	1229.93
414.065	1221.11
414.442	1267.44
414.819	1260.21
415.197	1257.27
415.574	1288.91
415.951	1332.52
416.328	1332.52
416.705	1317.61
417.082	1354.89
417.46	1379.98
417.837	1387.89
418.214	1438.28
418.591	1412.75
418.967	1438.96
419.344	1454.1
419.721	1481.22
420.098	1477.6
420.475	1509.69
420.852	1519.41
421.228	1535.45
421.605	1553.53
421.982	1568.67
422.358	1588.11
422.735	1619.29
423.111	1620.88
423.488	1643.93
423.864	1670.82
424.241	1685.05
424.617	1689.8
424.994	1703.36
425.37	1721.89
425.746	1774.54
426.123	1801.44
426.499	1819.06
426.875	1767.54
427.251	1843.69
427.627	1891.6
428.003	1883.24
428.379	1929.34
428.756	1943.13
429.132	1955.1
429.507	2002.79
429.883	2034.42
430.259	2078.26
430.635	2073.52
431.011	2066.74
431.387	2176.12
431.763	2193.74
432.138	2194.42
432.514	2227.87
432.89	2212.72
433.265	2284.36
433.641	2294.08
434.016	2323.46
434.392	2377.47
434.767	2433.96
435.143	2402.55
435.518	2418.37
435.894	2495.2
436.269	2516.22
436.644	2539.04
437.02	2574.52
437.395	2618.82
437.77	2615.88
438.145	2659.49
438.52	2699.04
438.895	2727.96
439.271	2735.2
439.646	2809.77
440.021	2823.56
440.395	2828.75
440.77	2841.86
441.145	2875.53
441.52	2903.1
441.895	2925.02
442.27	2955.53
442.645	2974.96
443.019	3021.74
443.394	2995.3
443.769	3072.81
444.143	3056.09
444.518	3126.15
444.892	3075.75
445.267	3114.85
445.641	3143.1
446.016	3181.96
446.39	3170.67
446.764	3187.16
447.139	3197.33
447.513	3266.71
447.887	3274.62
448.262	3311.9
448.636	3334.73
449.01	3425.57
449.384	3441.84
449.758	3423.54
450.132	3471.22
450.506	3510.54
450.88	3545.34
451.254	3530.88
451.628	3569.75
452.002	3682.97
452.376	3701.27
452.75	3729.52
453.123	3757.09
453.497	3835.96
453.871	3843.42
454.244	3914.6
454.618	3913.02
454.992	4030.08
455.365	4032.56
455.739	4100.13
456.112	4144.88
456.486	4204.54
456.859	4219
457.232	4284.76
457.606	4308.04
457.979	4374.48
458.352	4522.49
458.725	4522.49
459.099	4610.85
459.472	4671.64
459.845	4703.28
460.218	4705.77
460.591	4753
460.964	4821.92
461.337	4902.6
461.71	4989.83
462.083	5093.78
462.456	5105.76
462.829	5104.85
463.201	5228.46
463.574	5275.47
463.947	5355.01
464.32	5488.34
464.692	5503.94
465.065	5583.71
465.438	5657.61
465.81	5674.55
466.183	5758.62
466.555	5912.29
466.928	5928.33
467.3	5963.36
467.672	6037.03
468.045	6219.62
468.417	6197.48
468.789	6254.88
469.161	6400.18
469.534	6505.04
469.906	6632.72
470.278	6696.22
470.65	6741.42
471.022	6858.03
471.394	7053.05
471.766	7140.05
472.138	7144.12
472.51	7373.04
472.882	7491.68
473.253	7566.93
473.625	7680.6
473.997	7849.19
474.369	7914.5
474.74	7970.31
475.112	8176.41
475.484	8225.45
475.855	8464.09
476.227	8471.09
476.598	8774.13
476.97	8850.97
477.341	9073.56
477.713	9239.88
478.084	9218.42
478.455	9547.9
478.827	9609.37
479.198	9902.47
479.569	9914.22
479.94	10203.7
480.311	10242.57
480.682	10517.36
481.053	10779.05
481.424	10960.97
481.795	11071.7
482.166	11142.88
482.537	11336.78
482.908	11651.35
483.279	11801.85
483.65	11942.86
484.021	12242.29
484.391	12407.94
484.762	12512.79
485.133	12652.45
485.503	12873.91
485.874	13153
486.244	13199.78
486.615	13460.34
486.985	13693.55
487.356	13987.33
487.726	14004.05
488.097	14321.11
488.467	14443.82
488.837	14752.51
489.207	14852.62
489.578	15166.51
489.948	15293.96
490.318	15563.56
490.688	15506.84
491.058	15879.71
491.428	16083.32
491.798	16180.94
492.168	16535.96
492.538	16650.54
492.908	16719.69
493.278	17061.15
493.648	17097.53
494.017	17363.51
494.387	17527.35
494.757	17716.95
495.126	17898.41
495.496	17825.42
495.866	18081.01
496.235	18328.91
496.605	18519.41
496.974	18585.4
497.344	18803.7
497.713	19084.82
498.082	19246.17
498.452	19358.26
498.821	19421.54
499.19	19624.92
499.559	19818.36
499.928	19913.05
500.298	20020.84
500.667	20207.51
501.036	20221.52
501.405	20499.02
501.774	20546.03
502.143	20743.76
502.512	20826.47
502.88	21023.98
503.249	21165.9
503.618	21312.79
503.987	21421.26
504.356	21532.44
504.724	21808.59
505.093	21894.24
505.462	21983.5
505.83	22163.16
506.199	22366.09
506.567	22642.7
506.936	22658.06
507.304	22874.1
507.672	23140.76
508.041	23227.76
508.409	23397.03
508.777	23608.55
509.145	23743.91
509.514	23764.93
509.882	23945.71
510.25	24128.08
510.618	24314.74
510.986	24450.78
511.354	24875.86
511.722	24908.4
512.09	25161.5
512.458	25126.25
512.826	25385.22
513.193	25593.8
513.561	25644.2
513.929	25919.67
514.297	26180.23
514.664	26325.99
515.032	26441.92
515.4	26641.69
515.767	26765.98
516.135	27042.35
516.502	26798.97
516.869	27419.07
517.237	27429.46
517.604	27487.77
517.972	27845.27
518.339	27960.07
518.706	28233.74
519.073	28404.58
519.44	28501.75
519.808	28835.75
520.175	28870.55
520.542	29210.66
520.909	29545.11
521.276	29479.8
521.643	29842.96
522.009	30062.39
522.376	30242.72
522.743	30433.45
523.11	30774.69
523.477	31003.15
523.843	31253.32
524.21	31437.27
524.577	31711.38
524.943	31905.73
525.31	32028.89
525.676	32372.16
526.043	32529.44
526.409	32732.83
526.776	33098.69
527.142	33214.4
527.508	33446.71
527.874	33612.8
528.241	33937.31
528.607	33969.63
528.973	34272.45
529.339	34354.48
529.705	34865.65
530.071	34857.29
530.437	35125.53
530.803	35331.4
531.169	35440.1
531.535	35506.31
531.901	35703.14
532.267	35863.59
532.632	36157.37
532.998	36271.49
533.364	36382
533.73	36567.75
534.095	36848.88
534.461	36960.29
534.826	37141.98
535.192	37306.49
535.557	37537.45
535.923	37500.84
536.288	37751.22
536.653	37917.77
537.019	37972.24
537.384	38141.05
537.749	38319.35
538.114	38362.06
538.479	38472.79
538.845	38797.98
539.21	38758.66
539.575	38882.49
539.94	39135.6
540.305	39371.3
540.67	39312.77
541.034	39590.72
541.399	39623.94
541.764	39863.49
542.129	40064.38
542.494	40094.21
542.858	40296.69
543.223	40429.12
543.587	40514.77
543.952	40609.68
544.316	40715.44
544.681	40745.04
545.045	41109.55
545.41	41330.34
545.774	41352.94
546.138	41369.21
546.503	41697.11
546.867	41569.2
547.231	41969.87
547.595	42128.51
547.959	42287.38
548.324	42326.47
548.688	42541.38
549.052	42501.16
549.416	42579.8
549.779	42858.89
550.143	43012.78
550.507	43276.96
550.871	43414.35
551.235	43533.45
551.599	43919.2
551.962	43845.53
552.326	44118.97
552.689	44353.54
553.053	44256.59
553.417	44491.39
553.78	44872.62
554.143	44749.46
554.507	45031.94
554.87	45193.29
555.234	45664.01
555.597	45417.46
555.96	45659.49
556.323	45863.78
556.686	46009.99
557.05	46255.18
557.413	46327.27
557.776	46682.97
558.139	46750.54
558.502	47030.98
558.865	46958.44
559.228	47315.04
559.59	47501.7
559.953	47649.5
560.316	47868.47
560.679	48035.47
561.041	48142.82
561.404	48524.05
561.767	48702.35
562.129	48559.98
562.492	48996.8
562.854	48980.31
563.217	49074.32
563.579	49241.32
563.941	49398.83
564.304	49664.36
564.666	49800.4
565.028	49846.5
565.39	50098.02
565.753	50147.51
566.115	50364.45
566.477	50521.74
566.839	50636.76
567.201	50779.81
567.563	50864.1
567.925	51155.84
568.287	51032.23
568.648	51251.21
569.01	51414.59
569.372	51678.09
569.734	51492.78
570.095	51766.45
570.457	51922.38
570.819	51972.55
571.18	51972.55
571.542	52194.46
571.903	52231.07
572.265	52315.81
572.626	52298.86
572.987	52508.35
573.349	52580.67
573.71	52726.42
574.071	52802.81
574.432	52949.02
574.794	53024.04
575.155	52995.8
575.516	52989.69
575.877	53230.14
576.238	53187.2
576.599	53343.13
576.96	53350.81
577.32	53435.56
577.681	53542.9
578.042	53477.37
578.403	53593.52
578.763	53690.69
579.124	53606.4
579.485	53756
579.845	53778.6
580.206	53726.85
580.566	53805.72
580.927	53880.52
581.287	53974.75
581.648	53865.38
582.008	54006.62
582.368	53963
582.728	53956.9
583.089	53867.19
583.449	53920.97
583.809	53929.56
584.169	54051.81
584.529	53986.5
584.889	54121.64
585.249	54001.65
585.609	54037.58
585.969	54085.48
586.329	54013.4
586.688	54099.95
587.048	54024.7
587.408	54012.94
587.768	54119.61
588.127	54018.82
588.487	53955.32
588.846	54146.73
589.206	54019.72
589.565	54082.77
589.925	54247.29
590.284	54167.74
590.643	54241.19
591.003	54214.97
591.362	54401.41
591.721	54290.45
592.08	54284.58
592.44	54338.13
592.799	54327.29
593.158	54273.05
593.517	54265.82
593.876	54243.67
594.235	54194.41
594.593	54336.33
594.952	54355.08
595.311	54244.12
595.67	54326.16
596.029	54511.24
596.387	54459.03
596.746	54415.42
597.104	54311.92
597.463	54333.16
597.822	54490.22
598.18	54276.44
598.538	54438.24
598.897	54485.25
599.255	54343.11
599.613	54784.22
599.972	54560.5
600.33	54563.66
600.688	54484.34
601.046	54696.77
601.404	54729.99
601.762	54656.32
602.12	54833.94
602.478	54748.07
602.836	54779.93
603.194	54617.9
603.552	54736.09
603.91	54647.05
604.268	54841.85
604.625	54755.52
604.983	54931.11
605.341	54702.19
605.698	54932.24
606.056	54954.84
606.413	54883.88
606.771	55017.89
607.128	55006.36
607.485	54985.12
607.843	54888.85
608.2	55083.42
608.557	55160.48
608.914	55068.74
609.272	55285.91
609.629	55234.61
609.986	55400.03
610.343	55253.36
610.7	55435.73
611.057	55420.59
611.414	55379.24
611.771	55349.18
612.127	55503.53
612.484	55510.08
612.841	55585.78
613.198	55482.06
613.554	55519.12
613.911	55617.42
614.267	55567.48
614.624	55578.55
614.98	55645.67
615.337	55769.51
615.693	55703.3
616.05	55695.61
616.406	55872.1
616.762	55746.91
617.118	55765.89
617.475	55771.32
617.831	55886.57
618.187	55827.81
618.543	55890.63
618.899	55991.65
619.255	55977.64
619.611	55951.88
619.967	56044.08
620.323	56081.14
620.678	56037.3
621.034	55981.71
621.39	55988.26
621.746	55903.29
622.101	56232.77
622.457	55981.25
622.812	56107.35
623.168	56159.55
623.523	56105.32
623.879	56188.25
624.234	55966.57
624.589	56114.58
624.945	56162.04
625.3	56209.27
625.655	56177.63
626.01	56155.49
626.365	56208.82
626.72	56192.32
627.075	56209.95
627.43	56150.74
627.785	56004.53
628.14	56163.17
628.495	56103.06
628.85	56121.59
629.205	56128.59
629.559	56286.33
629.914	56046.34
630.269	56090.63
630.623	56048.6
630.978	55997.3
631.332	56026.9
631.687	56105.77
632.041	56039.78
632.396	55964.53
632.75	55924.08
633.104	55984.19
633.459	55823.07
633.813	55832.56
634.167	55855.83
634.521	55805.44
634.875	55835.72
635.229	55841.6
635.583	55691.09
635.937	55719.11
636.291	55635.95
636.645	55651.55
636.999	55621.49
637.352	55776.06
637.706	55649.96
638.06	55647.03
638.413	55594.6
638.767	55517.09
639.121	55587.82
639.474	55383.3
639.828	55366.35
640.181	55420.14
640.534	55319.35
640.888	55264.66
641.241	55148.51
641.594	55233.25
641.947	55257.43
642.301	55176.98
642.654	55123.65
643.007	55135.63
643.36	55111.9
643.713	55048.17
644.066	55103.76
644.419	54915.07
644.771	54778.35
645.124	54524.8
645.477	54517.34
645.83	54372.71
646.182	54197.8
646.535	54170.45
646.888	54114.41
647.24	53957.35
647.593	54133.17
647.945	54085.48
648.298	53936.11
648.65	53887.98
649.002	53746.06
649.355	53960.06
649.707	53826.51
650.059	54022.21
650.411	54392.14
650.763	54353.73
651.115	54657.22
651.467	54539.71
651.819	54421.52
652.171	54478.92
652.523	54391.01
652.875	54397.79
653.227	54278.02
653.578	54385.82
653.93	54326.61
654.282	54220.4
654.633	54155.31
654.985	54147.86
655.337	54279.6
655.688	54112.6
656.039	54203
656.391	53970.91
656.742	54068.76
657.094	54149.21
657.445	54157.8
657.796	54031.7
658.147	53998.26
658.498	53927.97
658.849	53986.05
659.2	53951.93
659.551	53916
659.902	54039.61
660.253	53967.97
660.604	53977.24
660.955	53821.31
661.306	53968.2
661.656	53892.27
662.007	53799.62
662.358	53865.38
662.708	53819.05
663.059	53758.71
663.409	53641.88
663.76	53778.6
664.11	53794.87
664.461	53769.11
664.811	53746.96
665.161	53733.18
665.511	53633.07
665.862	53690.92
666.212	53689.79
666.562	53777.24
666.912	53683.46
667.262	53569.57
667.612	53606.63
667.962	53576.35
668.312	53542
668.662	53713.52
669.011	53616.57
669.361	53469
669.711	53450.93
670.06	53447.54
670.41	53405.28
670.76	53389.23
671.109	53459.74
671.459	53313.75
671.808	53311.72
672.157	53399.63
672.507	53147.66
672.856	53275.34
673.205	53285.96
673.554	53275.56
673.904	53136.36
674.253	53327.09
674.602	53143.81
674.951	52689.36
675.3	52547.22
675.649	53093.87
675.998	53009.35
676.346	53027.21
676.695	53040.99
677.044	52868.57
677.393	53003.48
677.741	52951.96
678.09	52861.11
678.438	52789.02
678.787	52815.46
679.135	52811.62
679.484	52685.97
679.832	52744.05
680.181	52531.85
680.529	52585.64
680.877	52611.4
681.225	52446.21
681.573	52726.65
681.922	52415.92
682.27	52298.64
682.618	52396.94
682.966	52355.59
683.314	52461.8
683.661	52319.2
684.009	52077.4
684.357	52021.81
684.705	51944.75
685.053	52017.06
685.4	51946.33
685.748	51669.05
686.095	51757.18
686.443	51588.38
686.79	51545.21
687.138	51629.96
687.485	51656.62
687.832	51533.24
688.18	51490.75
688.527	51303.86
688.874	51225.67
689.221	51198.33
689.568	51119.01
689.915	50837.89
690.262	50907.49
690.609	50809.86
690.956	50756.31
691.303	50690.77
691.65	50594.73
691.997	50516.09
692.344	50361.97
692.69	50417.11
693.037	50307.96
693.383	49922.88
693.73	50105.93
694.077	49961.75
694.423	49853.73
694.769	49825.48
695.116	49626.84
695.462	49586.39
695.808	49539.62
696.155	49453.97
696.501	49245.16
696.847	49314.54
697.193	49131.04
697.539	49163.58
697.885	48915.23
698.231	48816.47
698.577	48833.87
698.923	48678.4
699.269	48566.08
699.614	48353.88
699.96	48298.74
700.306	48458.51
700.651	48108.47
700.997	48103.95
701.342	48011.29
701.688	47970.39
702.033	47785.54
702.379	47741.47
702.724	47794.12
703.069	47665.54
703.415	47292.67
703.76	47386.23
704.105	47319.56
704.45	47160.92
704.795	46858.33
705.14	46851.55
705.485	46837.99
705.83	46615.4
706.175	46681.16
706.52	46562.07
706.865	46333.82
707.209	46347.38
707.554	46199.59
707.899	46422.41
708.243	46065.81
708.588	46097.45
708.932	45688.19
709.277	45848.64
709.621	45772.71
709.966	45587.63
710.31	45593.5
710.654	45259.28
710.998	45303.79
711.342	45507.86
711.687	45287.3
712.031	44961.43
712.375	45032.16
712.719	45197.36
713.063	44918.04
713.407	44992.16
713.75	44854.99
714.094	44590.82
714.438	44636.69
714.782	44528
715.125	44423.37
715.469	44465.85
715.812	44208.68
716.156	43944.28
716.499	44248.23
716.843	44061.57
717.186	43751.97
717.53	44050.27
717.873	43877.62
718.216	43748.13
718.559	43696.61
718.902	43335.71
719.246	43527.57
719.589	43367.35
719.932	43121.48
720.275	43192.21
720.617	43110.86
720.96	43127.35
721.303	43085.77
721.646	42982.05
721.989	42836.74
722.331	42925.33
722.674	42744.99
723.016	42737.53
723.359	42634.26
723.701	42717.2
724.044	42313.82
724.386	42238.34
724.729	42432.68
725.071	42253.48
725.413	42181.62
725.755	42091.45
726.097	42093.26
726.439	41867.95
726.782	41961.96
727.124	42008.29
727.465	41889.2
727.807	41812.36
728.149	41727.62
728.491	41542.09
728.833	41495.31
729.175	41394.74
729.516	41412.82
729.858	41398.36
730.199	41396.78
730.541	41441.07
730.882	41350.45
731.224	41288.31
731.565	41046.96
731.906	41119.05
732.248	41037.01
732.589	40948.88
732.93	40756.34
733.271	40818.94
733.612	40850.8
733.953	40705.05
734.294	40641.54
734.635	40551.38
734.976	40675.67
735.317	40448.78
735.658	40344.83
735.999	40334.89
736.339	40359.52
736.68	40384.83
737.021	40213.76
737.361	40028.68
737.702	40252.85
738.042	40108.23
738.383	40039.3
738.723	40055.12
739.063	39772.19
739.404	39750.95
739.744	39679.54
740.084	39446.32
740.424	39569.03
740.764	39499.88
741.104	39510.95
741.444	39429.82
741.784	39329.94
742.124	39294.69
742.464	39204.97
742.804	39245.87
743.143	39110.06
743.483	39158.87
743.823	39008.14
744.162	38987.35
744.502	39105.54
744.841	38733.57
745.181	38789.62
745.52	38653.35
745.86	38776.28
746.199	38681.82
746.538	38563.86
746.877	38842.5
747.216	38638.66
747.556	38564.54
747.895	38569.73
748.234	38294.04
748.573	38135.17
748.911	38198.44
749.25	38123.87
749.589	38011.11
749.928	38050.43
750.267	38115.28
750.605	37830.77
750.944	37821.51
751.283	37694.05
751.621	37654.05
751.96	37404.34
752.298	37445.7
752.636	37423.55
752.975	37217.45
753.313	37242.31
