Data from white_poster_card_FLMS001491_00079.txt Node
Date: Wed Feb 08 11:52:00 GMT 2017
User: dcchb
Spectrometer: FLMS00149
Trigger mode: 0
Integration Time (sec): 2.000000E-2
Scans to average: 10
Electric dark correction enabled: true
Nonlinearity correction enabled: false
Boxcar width: 0
XAxis mode: Wavelengths
Number of Pixels in Spectrum: 2048
>>>>>Begin Spectral Data<<<<<
341.393	-6.24
341.776	-6.24
342.16	-6.24
342.543	-61.16
342.927	-66.58
343.31	-51.89
343.693	-83.3
344.077	-61.16
344.46	-43.3
344.843	-70.65
345.226	-49.86
345.61	-36.07
345.993	-22.06
346.376	0.76
346.759	27.88
347.142	19.97
347.525	40.76
347.908	65.39
348.291	84.15
348.674	84.6
349.057	94.77
349.44	136.58
349.823	133.41
350.206	158.5
350.588	172.06
350.971	207.99
351.354	223.81
351.737	213.86
352.119	248.44
352.502	264.26
352.884	274.2
353.267	303.13
353.65	304.03
354.032	300.42
354.414	306.07
354.797	317.14
355.179	320.08
355.562	327.08
355.944	347.65
356.326	357.82
356.709	355.1
357.091	351.94
357.473	363.69
357.855	324.37
358.238	346.06
358.62	355.56
359.002	339.96
359.384	344.71
359.766	363.01
360.148	354.88
360.53	328.66
360.912	330.47
361.294	329.12
361.676	343.35
362.057	352.84
362.439	343.8
362.821	326.86
363.203	348.78
363.584	341.77
363.966	336.35
364.348	344.48
364.729	327.31
365.111	317.14
365.493	331.38
365.874	331.15
366.256	336.57
366.637	337.48
367.019	323.92
367.4	341.77
367.781	320.75
368.163	332.73
368.544	329.34
368.925	323.24
369.306	316.69
369.688	311.26
370.069	323.24
370.45	321.43
370.831	330.47
371.212	319.17
371.593	314.88
371.974	311.04
372.355	324.37
372.736	323.24
373.117	318.04
373.498	328.66
373.879	313.07
374.26	308.33
374.641	326.63
375.021	320.53
375.402	342
375.783	339.51
376.163	332.05
376.544	332.28
376.925	350.36
377.305	343.13
377.686	346.74
378.066	335.22
378.447	355.56
378.827	352.62
379.208	348.55
379.588	358.27
379.968	353.07
380.349	359.62
380.729	334.54
381.109	356.69
381.489	340.87
381.87	349.45
382.25	358.95
382.63	357.14
383.01	374.76
383.39	375.67
383.77	353.97
384.15	348.55
384.53	365.72
384.91	364.82
385.29	364.14
385.67	372.05
386.049	372.28
386.429	358.49
386.809	370.24
387.189	379.06
387.568	395.55
387.948	394.42
388.328	361.43
388.707	378.83
389.087	390.13
389.466	374.54
389.846	375.22
390.225	398.04
390.605	397.14
390.984	408.89
391.363	416.57
391.743	420.19
392.122	403.01
392.501	411.15
392.881	418.38
393.26	426.51
393.639	415.44
394.018	447.3
394.397	426.74
394.776	438.49
395.155	431.03
395.534	393.97
395.913	433.29
396.292	445.72
396.671	421.54
397.05	468.55
397.429	441.66
397.808	459.51
398.186	456.8
398.565	434.42
398.944	450.47
399.323	459.28
399.701	455.89
400.08	463.12
400.458	470.81
400.837	458.15
401.215	471.71
401.594	464.93
401.972	477.36
402.351	470.35
402.729	487.76
403.107	487.53
403.486	504.25
403.864	482.78
404.242	504.48
404.62	499.96
404.999	511.03
405.377	519.62
405.755	534.53
406.133	532.27
406.511	514.2
406.889	552.61
407.267	566.17
407.645	553.74
408.023	586.28
408.401	546.74
408.779	583.12
409.156	615.89
409.534	602.33
409.912	605.49
410.29	621.09
410.667	661.08
411.045	659.05
411.422	635.1
411.8	643.46
412.178	675.55
412.555	700.63
412.933	706.51
413.31	731.82
413.687	758.93
414.065	750.8
414.442	750.12
414.819	791.25
415.197	788.99
415.574	819.72
415.951	836.22
416.328	821.31
416.705	851.81
417.082	884.81
417.46	888.2
417.837	897.91
418.214	903.56
418.591	915.77
418.967	949.89
419.344	949.66
419.721	951.7
420.098	977.91
420.475	1002.54
420.852	1023.56
421.228	1025.14
421.605	1069.89
421.982	1071.47
422.358	1075.08
422.735	1102.88
423.111	1050
423.488	1125.03
423.864	1145.59
424.241	1147.17
424.617	1187.4
424.994	1184.46
425.37	1195.08
425.746	1181.75
426.123	1232.37
426.499	1242.99
426.875	1259.94
427.251	1288.86
427.627	1316.43
428.003	1308.98
428.379	1337.68
428.756	1375.19
429.132	1370.67
429.507	1397.56
429.883	1411.8
430.259	1450.67
430.635	1459.03
431.011	1456.54
431.387	1495.19
431.763	1524.56
432.138	1525.02
432.514	1564.56
432.89	1558.69
433.265	1619.25
433.641	1635.07
434.016	1638.46
434.392	1678.01
434.767	1682.98
435.143	1730.43
435.518	1725.46
435.894	1728.85
436.269	1790.32
436.644	1788.29
437.02	1805.91
437.395	1846.82
437.77	1858.11
438.145	1894.95
438.52	1909.87
438.895	1924.78
439.271	1899.02
439.646	2001.39
440.021	1951.45
440.395	1974.72
440.77	1987.38
441.145	1993.7
441.52	2038.9
441.895	2047.26
442.27	2061.5
442.645	2091.56
443.019	2091.56
443.394	2092.23
443.769	2145.79
444.143	2091.78
444.518	2147.82
444.892	2144.89
445.267	2168.16
445.641	2205
446.016	2185.34
446.39	2194.6
446.764	2213.81
447.139	2256.75
447.513	2297.65
447.887	2255.39
448.262	2258.78
448.636	2250.87
449.01	2313.92
449.384	2292
449.758	2353.24
450.132	2375.62
450.506	2394.37
450.88	2372.45
451.254	2380.81
451.628	2474.37
452.002	2513.24
452.376	2495.39
452.75	2512.79
453.123	2523.18
453.497	2583.29
453.871	2558.21
454.244	2635.5
454.618	2609.28
454.992	2689.28
455.365	2679.56
455.739	2768.6
456.112	2761.82
456.486	2757.53
456.859	2811.31
457.232	2828.03
457.606	2877.75
457.979	2898.54
458.352	2949.61
458.725	2994.81
459.099	3026.45
459.472	3082.49
459.845	3090.4
460.218	3138.53
460.591	3185.99
460.964	3178.98
461.337	3199.77
461.71	3266.89
462.083	3315.25
462.456	3290.85
462.829	3323.39
463.201	3375.59
463.574	3396.15
463.947	3443.61
464.32	3538.07
464.692	3559.77
465.065	3627.56
465.438	3648.35
465.81	3689.25
466.183	3715.02
466.555	3817.16
466.928	3790.49
467.3	3799.53
467.672	3894.45
468.045	3965.63
468.417	3981.67
468.789	4030.94
469.161	4094.21
469.534	4167.21
469.906	4168.34
470.278	4241.78
470.65	4243.59
471.022	4380.31
471.394	4461.44
471.766	4471.61
472.138	4559.29
472.51	4587.53
472.882	4710.7
473.253	4768.09
473.625	4805.61
473.997	4892.16
474.369	4951.37
474.74	4997.92
475.112	5098.48
475.484	5153.17
475.855	5217.8
476.227	5258.7
476.598	5473.61
476.97	5478.13
477.341	5515.87
477.713	5627.51
478.084	5714.06
478.455	5858.46
478.827	5891.68
479.198	6025.92
479.569	6077.44
479.94	6201.05
480.311	6345.91
480.682	6376.64
481.053	6521.72
481.424	6682.62
481.795	6659.34
482.166	6810.3
482.537	6809.85
482.908	7050.75
483.279	7115.83
483.65	7249.61
484.021	7382.49
484.391	7454.8
484.762	7479.89
485.133	7589.26
485.503	7693.67
485.874	7878.75
486.244	7974.79
486.615	8086.88
486.985	8177.5
487.356	8330.49
487.726	8422.91
488.097	8538.62
488.467	8604.83
488.837	8774.77
489.207	8929.57
489.578	8997.59
489.948	9108.55
490.318	9309.67
490.688	9267.19
491.058	9457.69
491.428	9569.78
491.798	9648.42
492.168	9812.03
492.538	9812.48
492.908	9943.78
493.278	10078.01
493.648	10214.96
494.017	10262.87
494.387	10319.14
494.757	10464.67
495.126	10612.01
495.496	10624.66
495.866	10698.56
496.235	10806.81
496.605	10874.6
496.974	10997.76
497.344	11114.14
497.713	11193.24
498.082	11277.08
498.452	11412.89
498.821	11410.41
499.19	11498.09
499.559	11638.65
499.928	11680.68
500.298	11739.21
500.667	11911.86
501.036	11847.91
501.405	11971.75
501.774	12059.88
502.143	12205.64
502.512	12173.78
502.88	12347.33
503.249	12373.09
503.618	12447.44
503.987	12610.83
504.356	12657.61
504.724	12779.18
505.093	12768.79
505.462	12868.67
505.83	13023.25
506.199	13093.3
506.567	13221.66
506.936	13302.33
507.304	13412.39
507.672	13435.21
508.041	13514.53
508.409	13649.9
508.777	13733.06
509.145	13854.86
509.514	13938.7
509.882	13969.89
510.25	14123.56
510.618	14167.62
510.986	14205.59
511.354	14335.08
511.722	14490.55
512.09	14571.23
512.458	14567.39
512.826	14831.11
513.193	14990.43
513.561	14970.31
513.929	15083.3
514.297	15232
514.664	15390.64
515.032	15510.19
515.4	15594.93
515.767	15736.62
516.135	15761.03
516.502	15680.58
516.869	15950.63
517.237	16021.13
517.604	16012.09
517.972	16271.97
518.339	16354.01
518.706	16421.35
519.073	16545.64
519.44	16660.21
519.808	16834.9
520.175	16796.25
520.542	17126.64
520.909	17171.16
521.276	17167.09
521.643	17454.54
522.009	17629.23
522.376	17691.82
522.743	17818.15
523.11	17889.33
523.477	18148.08
523.843	18227.4
524.21	18443.22
524.577	18567.28
524.943	18692.47
525.31	18795.52
525.676	18957.78
526.043	19097.21
526.409	19194.16
526.776	19297.2
527.142	19472.57
527.508	19591.43
527.874	19766.57
528.241	20002.27
528.607	19938.32
528.973	20112.78
529.339	20188.48
529.705	20362.49
530.071	20573.1
530.437	20695.81
530.803	20783.27
531.169	20941.46
531.535	20814.45
531.901	20979.42
532.267	21006.99
532.632	21350.94
532.998	21390.03
533.364	21487.43
533.73	21484.94
534.095	21723.36
534.461	21857.82
534.826	21927.42
535.192	21990.92
535.557	22180.97
535.923	22212.83
536.288	22343.23
536.653	22397.24
537.019	22428.65
537.384	22642.43
537.749	22675.19
538.114	22720.84
538.479	22742.99
538.845	22865.25
539.21	22864.79
539.575	23107.27
539.94	23219.14
540.305	23251.22
540.67	23307.27
541.034	23443.99
541.399	23451.45
541.764	23663.19
542.129	23690.76
542.494	23665.45
542.858	23850.53
543.223	23722.17
543.587	23896.63
543.952	24065.44
544.316	24111.09
544.681	24144.53
545.045	24323.06
545.41	24357.18
545.774	24410.97
546.138	24554.47
546.503	24561.25
546.867	24589.27
547.231	24987.9
547.595	24853.44
547.959	25070.84
548.324	24950.16
548.688	24999.65
549.052	25113.55
549.416	25201.91
549.779	25222.47
550.143	25389.93
550.507	25683.93
550.871	25658.17
551.235	25683.03
551.599	25778.84
551.962	25942.45
552.326	26053.64
552.689	26198.72
553.053	26061.09
553.417	26114.2
553.78	26564.81
554.143	26346.74
554.507	26571.14
554.87	26697.69
555.234	26969.09
555.597	26871.24
555.96	26915.99
556.323	27054.74
556.686	27089.09
557.05	27369.76
557.413	27348.74
557.776	27431
558.139	27701.96
558.502	27847.49
558.865	27891.55
559.228	28176.97
559.59	28161.83
559.953	28366.57
560.316	28589.84
560.679	28657.18
561.041	28850.85
561.404	28802.27
561.767	29022.37
562.129	28884.07
562.492	29374.45
562.854	29263.27
563.217	29374
563.579	29509.59
563.941	29728.79
564.304	29877.72
564.666	29857.15
565.028	29935.79
565.39	30152.51
565.753	30321.1
566.115	30382.34
566.477	30480.64
566.839	30617.81
567.201	30838.82
567.563	30850.8
567.925	31052.6
568.287	31087.18
568.648	31146.61
569.01	31301.41
569.372	31572.81
569.734	31501.4
570.095	31714.05
570.457	31885.12
570.819	31992.69
571.18	31948.4
571.542	32109.75
571.903	32096.19
572.265	32335.96
572.626	32311.33
572.987	32465.45
573.349	32623.18
573.71	32592.67
574.071	32779.11
574.432	32843.74
574.794	33021.14
575.155	32905.21
575.516	32940.91
575.877	33103.17
576.238	33145.43
576.599	33314.46
576.96	33331.19
577.32	33260.68
577.681	33561.46
578.042	33645.08
578.403	33567.79
578.763	33759.88
579.124	33712.64
579.485	33874.67
579.845	33914
580.206	33881.68
580.566	33888.69
580.927	33997.16
581.287	33999.64
581.648	33978.85
582.008	34038.29
582.368	34012.52
582.728	34058.17
583.089	34057.27
583.449	34049.58
583.809	34109.02
584.169	34194.89
584.529	34199.86
584.889	34385.17
585.249	34222.24
585.609	34113.54
585.969	34364.83
586.329	34160.54
586.688	34334.32
587.048	34214.78
587.408	34175.23
587.768	34263.82
588.127	34315.79
588.487	34117.83
588.846	34488.44
589.206	34293.65
589.565	34233.76
589.925	34450.48
590.284	34405.96
590.643	34317.83
591.003	34447.77
591.362	34530.93
591.721	34423.13
592.08	34492.29
592.44	34554.2
592.799	34447.31
593.158	34504.49
593.517	34418.39
593.876	34681.88
594.235	34476.01
594.593	34539.29
594.952	34576.58
595.311	34498.61
595.67	34558.05
596.029	34758.04
596.387	34683.69
596.746	34798.94
597.104	34727.08
597.463	34624.71
597.822	34752.39
598.18	34691.6
598.538	34767.76
598.897	34942.67
599.255	34663.13
599.613	35290.68
599.972	34857.02
600.33	34880.07
600.688	34952.84
601.046	34903.8
601.404	35075.32
601.762	35078.26
602.12	35156.9
602.478	35067.64
602.836	35088.2
603.194	35064.25
603.552	35021.54
603.91	35019.73
604.268	35307.18
604.625	35003.23
604.983	35234.86
605.341	35045.94
605.698	35310.57
606.056	35481.19
606.413	35375.88
606.771	35482.32
607.128	35616.1
607.485	35297.91
607.843	35393.5
608.2	35633.27
608.557	35584.23
608.914	35513.73
609.272	35718.24
609.629	35724.8
609.986	35877.33
610.343	35691.12
610.7	36045.01
611.057	35856.09
611.414	35969.99
611.771	35914.62
612.127	36154.61
612.484	36146.48
612.841	36149.87
613.198	36050.89
613.554	36171.11
613.911	36342.41
614.267	36331.56
614.624	36248.85
614.98	36218.79
615.337	36565.45
615.693	36251.33
616.05	36362.29
616.406	36546.92
616.762	36543.98
617.118	36306.25
617.475	36427.38
617.831	36527.49
618.187	36683.64
618.543	36518.9
618.899	36715.73
619.255	36710.76
619.611	36560.48
619.967	36795.05
620.323	36791.89
620.678	36728.61
621.034	36594.38
621.39	36692
621.746	36601.38
622.101	37050.18
622.457	36794.37
622.812	36710.98
623.168	36793.24
623.523	36816.29
623.879	36957.76
624.234	36559.35
624.589	36768.84
624.945	36895.61
625.3	36979.9
625.655	36809.06
626.01	36835.95
626.365	36890.41
626.72	36812.22
627.075	36844.09
627.43	36575.17
627.785	36687.03
628.14	36742.62
628.495	36592.79
628.85	36720.25
629.205	36497.43
629.559	36738.1
629.914	36567.26
630.269	36609.74
630.623	36441.16
630.978	36495.85
631.332	36716.86
631.687	36773.13
632.041	36523.42
632.396	36532.23
632.75	36293.37
633.104	36465.57
633.459	36270.54
633.813	36175.18
634.167	36300.37
634.521	36219.02
634.875	36300.83
635.229	36127.95
635.583	35974.96
635.937	36062.87
636.291	35893.6
636.645	36035.3
636.999	35873.04
637.352	35941.29
637.706	35824.23
638.06	35976.54
638.413	35740.84
638.767	35572.71
639.121	35700.16
639.474	35460.4
639.828	35518.92
640.181	35591.47
640.534	35597.34
640.888	35356.67
641.241	35342.66
641.594	35411.58
641.947	35440.51
642.301	35251.81
642.654	35320.51
643.007	35228.54
643.36	35155.54
643.713	35159.84
644.066	35327.07
644.419	35078.94
644.771	34766.4
645.124	34461.55
645.477	34403.93
645.83	34121.45
646.182	34003.71
646.535	34049.36
646.888	33829.7
647.24	33841
647.593	34052.3
647.945	33996.03
648.298	33766.2
648.65	33729.14
649.002	33649.82
649.355	33693.89
649.707	33834.22
650.059	33891.4
650.411	34200.32
650.763	34224.04
651.115	34489.35
651.467	34418.16
651.819	34399.86
652.171	34163.25
652.523	34236.02
652.875	34248
653.227	34140.66
653.578	34295.91
653.93	34113.76
654.282	34045.74
654.633	33872.19
654.985	34003.03
655.337	33979.3
655.688	33893.2
656.039	34023.6
656.391	33728.24
656.742	33691.18
657.094	33814.56
657.445	33906.09
657.796	33746.99
658.147	33827.44
658.498	33911.51
658.849	33826.31
659.2	33796.03
659.551	33672.65
659.902	33803.49
660.253	33625.19
660.604	33733.66
660.955	33549.26
661.306	33643.49
661.656	33722.81
662.007	33599.88
662.358	33640.78
662.708	33494.12
663.059	33599.43
663.409	33158.99
663.76	33569.37
664.11	33563.04
664.461	33567.79
664.811	33430.17
665.161	33522.37
665.511	33335.71
665.862	33429.71
666.212	33479.66
666.562	33516.49
666.912	33372.77
667.262	33370.96
667.612	33394.91
667.962	33333.67
668.312	33322.37
668.662	33392.65
669.011	33234.01
669.361	33186.33
669.711	33200.34
670.06	33187.23
670.41	33002.83
670.76	33109.5
671.109	33134.81
671.459	32967.35
671.808	33058.65
672.157	33089.38
672.507	32909.28
672.856	32923.29
673.205	33046.45
673.554	33000.57
673.904	32868.37
674.253	33080.57
674.602	32779.56
674.951	32384.32
675.3	32234.49
675.649	32736.4
675.998	32721.94
676.346	32698.66
676.695	32809.17
677.044	32570.3
677.393	32683.07
677.741	32791.54
678.09	32705.89
678.438	32459.57
678.787	32614.59
679.135	32573.69
679.484	32436.29
679.832	32504.54
680.181	32270.42
680.529	32437.65
680.877	32369.63
681.225	32270.65
681.573	32597.19
681.922	32279.91
682.27	32148.17
682.618	32121.95
682.966	32010.77
683.314	32159.24
683.661	31959.24
684.009	31678.12
684.357	31855.29
684.705	31721.74
685.053	31750.66
685.4	31571.01
685.748	31577.79
686.095	31495.75
686.443	31385.47
686.79	31396.77
687.138	31386.38
687.485	31316.78
687.832	31195.42
688.18	31149.77
688.527	31023
688.874	31041.08
689.221	30966.28
689.568	30816
689.915	30869.56
690.262	30728.32
690.609	30723.8
690.956	30592.73
691.303	30423.92
691.65	30397.7
691.997	30353.64
692.344	30185.96
692.69	30154.77
693.037	30194.32
693.383	29974.44
693.73	30021.67
694.077	29939.18
694.423	29860.54
694.769	29719.3
695.116	29629.36
695.462	29597.05
695.808	29498.07
696.155	29641.11
696.501	29302.82
696.847	29344.17
697.193	29075.7
697.539	29210.62
697.885	28904.18
698.231	28989.83
698.577	28956.61
698.923	28716.62
699.269	28611.76
699.614	28524.31
699.96	28552.1
700.306	28490.18
700.651	28430.98
700.997	28289.28
701.342	28350.53
701.688	28168.38
702.033	28186.24
702.379	28222.39
702.724	28011.55
703.069	28077.76
703.415	27659.92
703.76	27811.1
704.105	27826.47
704.45	27624.67
704.795	27513.71
705.14	27413.83
705.485	27471
705.83	27317.11
706.175	27349.2
706.52	27240.27
706.865	27179.03
707.209	27104.46
707.554	26993.95
707.899	27157.56
708.243	26895.2
708.588	26850
708.932	26827.18
709.277	26669.44
709.621	26747.63
709.966	26568.43
710.31	26653.62
710.654	26446.62
710.998	26544.47
711.342	26469.45
711.687	26286.63
712.031	26237.36
712.375	26179.96
712.719	26240.98
713.063	26160.53
713.407	26251.37
713.75	25921.44
714.094	25855.68
714.438	25833.53
714.782	25893.19
715.125	25763.7
715.469	25868.33
715.812	25686.87
716.156	25527.1
716.499	25571.16
716.843	25589.02
717.186	25415.91
717.53	25512.63
717.873	25423.37
718.216	25424.73
718.559	25311.28
718.902	25096.37
719.246	25263.83
719.589	25089.14
719.932	25051.18
720.275	25134.11
720.617	25017.96
720.96	24995.81
721.303	24925.31
721.646	24851.41
721.989	24713.11
722.331	24759.66
722.674	24666.1
723.016	24740
723.359	24604.18
723.701	24600.12
724.044	24409.39
724.386	24336.62
724.729	24437.18
725.071	24332.1
725.413	24388.6
725.755	24278.77
726.097	24225.89
726.439	24059.11
726.782	24163.74
727.124	24184.31
727.465	24148.83
727.807	24000.58
728.149	23947.03
728.491	23912.22
728.833	23883.52
729.175	23807.37
729.516	23865.22
729.858	23791.1
730.199	23805.33
730.541	23697.99
730.882	23615.96
731.224	23733.92
731.565	23569.63
731.906	23667.49
732.248	23640.59
732.589	23468.62
732.93	23397.66
733.271	23387.94
733.612	23460.03
733.953	23375.06
734.294	23326.48
734.635	23295.07
734.976	23204.45
735.317	23160.83
735.658	23170.32
735.999	23220.27
736.339	23146.82
736.68	23111.57
737.021	23016.65
737.361	22882.65
737.702	23091.45
738.042	22990.89
738.383	22919.26
738.723	22953.83
739.063	22782.99
739.404	22923.1
739.744	22787.73
740.084	22655.76
740.424	22634.29
740.764	22711.13
741.104	22740.05
741.444	22439.49
741.784	22559.72
742.124	22565.14
742.464	22489.89
742.804	22395.88
743.143	22427.29
743.483	22398.37
743.823	22229.33
744.162	22197.24
744.502	22173.96
744.841	22156.79
745.181	22255.32
745.52	22204.47
745.86	22125.38
746.199	22114.31
746.538	22014.65
746.877	22051.03
747.216	22031.6
747.556	22036.12
747.895	21894.88
748.234	21822.34
748.573	21777.14
748.911	21721.77
749.25	21760.19
749.589	21695.56
749.928	21673.64
750.267	21610.82
750.605	21596.13
750.944	21562.46
751.283	21417.83
751.621	21529.69
751.96	21367.21
752.298	21326.98
752.636	21284.95
752.975	21284.95
753.313	21242.92
753.651	21145.52
753.989	21115.69
