Data from white_steel_sheet_FLMS001491_073.txt Node
Date: Tue Feb 07 10:58:26 GMT 2017
User: dcchb
Spectrometer: FLMS00149
Trigger mode: 0
Integration Time (sec): 2.000000E-2
Scans to average: 10
Electric dark correction enabled: true
Nonlinearity correction enabled: false
Boxcar width: 0
XAxis mode: Wavelengths
Number of Pixels in Spectrum: 2048
>>>>>Begin Spectral Data<<<<<
341.393	-23.62
341.776	-23.62
342.16	-23.62
342.543	-64.74
342.927	-75.37
343.31	-74.01
343.693	-65.87
344.077	-63.39
344.46	-55.25
344.843	-62.94
345.226	-31.3
345.61	-23.84
345.993	-23.16
346.376	-8.7
346.759	19.32
347.142	9.83
347.525	31.98
347.908	52.99
348.291	101.81
348.674	94.8
349.057	97.74
349.44	119.43
349.823	144.29
350.206	174.12
350.588	199.66
350.971	200.56
351.354	216.15
351.737	241.91
352.119	256.38
352.502	256.38
352.884	274.91
353.267	292.53
353.65	292.76
354.032	321.91
354.414	311.29
354.797	332.99
355.179	328.69
355.562	334.79
355.944	343.38
356.326	352.19
356.709	363.95
357.091	350.16
357.473	347
357.855	330.27
358.238	350.39
358.62	360.56
359.002	351.29
359.384	362.59
359.766	331.18
360.148	348.13
360.53	358.97
360.912	331.18
361.294	350.61
361.676	342.93
362.057	355.36
362.439	359.65
362.821	336.83
363.203	338.41
363.584	350.61
363.966	351.06
364.348	328.01
364.729	337.96
365.111	332.76
365.493	330.73
365.874	343.61
366.256	339.09
366.637	323.27
367.019	344.74
367.4	335.92
367.781	320.78
368.163	318.07
368.544	342.48
368.925	313.1
369.306	324.4
369.688	324.62
370.069	342.7
370.45	323.27
370.831	349.26
371.212	339.99
371.593	333.66
371.974	333.44
372.355	348.58
372.736	355.13
373.117	341.57
373.498	336.83
373.879	332.08
374.26	344.96
374.641	353.32
375.021	337.28
375.402	331.86
375.783	362.36
376.163	351.29
376.544	336.15
376.925	348.58
377.305	375.02
377.686	360.1
378.066	378.41
378.447	363.95
378.827	362.14
379.208	364.85
379.588	388.58
379.968	365.53
380.349	362.36
380.729	375.92
381.109	360.33
381.489	377.73
381.87	375.02
382.25	374.57
382.63	380.67
383.01	371.63
383.39	392.42
383.77	384.96
384.15	376.37
384.53	391.74
384.91	392.87
385.29	396.03
385.67	391.06
386.049	411.18
386.429	394
386.809	416.83
387.189	406.88
387.568	397.62
387.948	426.32
388.328	409.59
388.707	410.95
389.087	422.93
389.466	436.71
389.846	441.46
390.225	448.69
390.605	436.26
390.984	454.79
391.363	455.69
391.743	457.05
392.122	461.12
392.501	437.62
392.881	468.8
393.26	489.59
393.639	467.9
394.018	480.1
394.397	467.45
394.776	481.46
395.155	497.05
395.534	479.2
395.913	501.57
396.292	486.2
396.671	497.95
397.05	495.47
397.429	527.56
397.808	508.8
398.186	538.86
398.565	520.55
398.944	554.45
399.323	568.23
399.701	545.18
400.08	561.68
400.458	566.2
400.837	618.18
401.215	595.13
401.594	591.06
401.972	611.4
402.351	609.14
402.729	621.79
403.107	641.68
403.486	634.67
403.864	647.55
404.242	655.01
404.62	682.35
404.999	673.99
405.377	692.52
405.755	721.45
406.133	709.47
406.511	694.56
406.889	716.48
407.267	739.75
407.645	734.78
408.023	772.07
408.401	770.94
408.779	787.89
409.156	803.26
409.534	803.48
409.912	849.13
410.29	850.03
410.667	861.33
411.045	871.73
411.422	869.47
411.8	883.71
412.178	906.08
412.555	916.25
412.933	933.42
413.31	947.43
413.687	960.77
414.065	989.47
414.442	973.19
414.819	980.88
415.197	1000.54
415.574	1036.24
415.951	1039.86
416.328	1036.24
416.705	1037.15
417.082	1025.62
417.46	1081.44
417.837	1103.59
418.214	1125.96
418.591	1124.6
418.967	1114.89
419.344	1124.83
419.721	1154.66
420.098	1137.71
420.475	1161.89
420.852	1175.22
421.228	1193.53
421.605	1202.79
421.982	1213.19
422.358	1223.36
422.735	1244.15
423.111	1252.06
423.488	1272.4
423.864	1274.66
424.241	1310.81
424.617	1305.62
424.994	1327.31
425.37	1333.86
425.746	1368.89
426.123	1372.05
426.499	1377.03
426.875	1380.42
427.251	1434.43
427.627	1454.99
428.003	1471.26
428.379	1490.7
428.756	1482.33
429.132	1525.5
429.507	1538.15
429.883	1567.08
430.259	1562.33
430.635	1592.16
431.011	1595.55
431.387	1623.8
431.763	1692.72
432.138	1647.08
432.514	1700.18
432.89	1714.42
433.265	1744.7
433.641	1779.73
434.016	1786.51
434.392	1811.36
434.767	1857.69
435.143	1867.63
435.518	1870.12
435.894	1915.99
436.269	1937.01
436.644	1917.35
437.02	1998.25
437.395	1966.39
437.77	1985.82
438.145	2038.48
438.52	2064.69
438.895	2061.98
439.271	2083
439.646	2131.81
440.021	2158.25
440.395	2115.99
440.77	2153.5
441.145	2177.91
441.52	2200.96
441.895	2229.88
442.27	2255.42
442.645	2278.92
443.019	2272.14
443.394	2320.96
443.769	2314.4
444.143	2296.32
444.518	2333.61
444.892	2405.47
445.267	2374.51
445.641	2395.3
446.016	2421.74
446.39	2440.05
446.764	2453.38
447.139	2472.82
447.513	2478.69
447.887	2520.27
448.262	2510.1
448.636	2505.13
449.01	2576.99
449.384	2589.42
449.758	2606.37
450.132	2648.86
450.506	2671.68
450.88	2690.21
451.254	2688.86
451.628	2747.39
452.002	2726.82
452.376	2775.63
452.75	2798.91
453.123	2876.87
453.497	2920.04
453.871	2906.7
454.244	2971.11
454.618	3019.47
454.992	3041.84
455.365	3057.43
455.739	3151.67
456.112	3155.96
456.486	3153.02
456.859	3191.89
457.232	3224.89
457.606	3278.67
457.979	3312.34
458.352	3379.23
458.725	3449.74
459.099	3464.88
459.472	3540.36
459.845	3510.08
460.218	3542.39
460.591	3605.67
460.964	3610.64
461.337	3717.3
461.71	3741.94
462.083	3791.65
462.456	3814.7
462.829	3842.05
463.201	3917.07
463.574	3918.43
463.947	3963.4
464.32	4034.81
464.692	4065.99
465.065	4142.15
465.438	4191.64
465.81	4302.15
466.183	4292.88
466.555	4330.85
466.928	4413.1
467.3	4418.08
467.672	4463.27
468.045	4655.81
468.417	4640.44
468.789	4663.04
469.161	4727.67
469.534	4791.17
469.906	4912.53
470.278	4900.32
470.65	4962.69
471.022	5089.24
471.394	5177.38
471.766	5191.84
472.138	5257.83
472.51	5360.42
472.882	5469.35
473.253	5509.57
473.625	5578.05
473.997	5708.44
474.369	5746.4
474.74	5776.91
475.112	5900.97
475.484	5988.88
475.855	6060.29
476.227	6232.49
476.598	6366.73
476.97	6425.93
477.341	6595.42
477.713	6669.77
478.084	6718.81
478.455	6882.87
478.827	6937.33
479.198	7104.78
479.569	7150.43
479.94	7380.48
480.311	7392.24
480.682	7598.33
481.053	7780.93
481.424	7878.1
481.795	7920.36
482.166	8053.91
482.537	8198.09
482.908	8373.9
483.279	8496.84
483.65	8664.74
484.021	8766.66
484.391	8843.72
484.762	8969.14
485.133	9022.02
485.503	9235.8
485.874	9410.94
486.244	9486.64
486.615	9592.4
486.985	9864.03
487.356	10003.69
487.726	10078.27
488.097	10307.64
488.467	10326.85
488.837	10532.04
489.207	10626.95
489.578	10772.94
489.948	10910.11
490.318	10977.23
490.688	11031.91
491.058	11273.04
491.428	11409.3
491.798	11503.54
492.168	11762.74
492.538	11833.02
492.908	11927.93
493.278	12092.68
493.648	12196.85
494.017	12359.56
494.387	12400.46
494.757	12584.87
495.126	12736.05
495.496	12781.92
495.866	12896.72
496.235	12945.31
496.605	13217.62
496.974	13189.14
497.344	13366.54
497.713	13485.18
498.082	13544.16
498.452	13627.55
498.821	13774.44
499.19	13708.45
499.559	13964.27
499.928	14072.06
500.298	14121.32
500.667	14357.7
501.036	14287.87
501.405	14463.69
501.774	14448.32
502.143	14603.8
502.512	14711.36
502.88	14883.34
503.249	14896.22
503.618	15098.25
503.987	15095.54
504.356	15279.49
504.724	15327.39
505.093	15427.28
505.462	15394.28
505.83	15597.22
506.199	15764.22
506.567	15930.54
506.936	15995.4
507.304	16164.66
507.672	16279.23
508.041	16368.95
508.409	16520.81
508.777	16644.2
509.145	16742.72
509.514	16871.99
509.882	17006.67
510.25	17100.45
510.618	17141.13
510.986	17152.2
511.354	17360.33
511.722	17496.83
512.09	17839.64
512.458	17637.84
512.826	17961.45
513.193	18022.92
513.561	18037.83
513.929	18368.67
514.297	18450.7
514.664	18608.89
515.032	18743.8
515.4	18883.01
515.767	18913.51
516.135	19045.94
516.502	19024.92
516.869	19318.93
517.237	19502.2
517.604	19501.75
517.972	19725.02
518.339	19816.09
518.706	19886.6
519.073	19998.01
519.44	20216.3
519.808	20422.85
520.175	20510.99
520.542	20813.8
520.909	20953.01
521.276	20827.59
521.643	21223.74
522.009	21291.98
522.376	21486.55
522.743	21689.03
523.11	21801.8
523.477	22054.67
523.843	22188.23
524.21	22423.48
524.577	22596.81
524.943	22733.3
525.31	22856.46
525.676	23113.4
526.043	23303.91
526.409	23374.87
526.776	23578.25
527.142	23663.45
527.508	23799.26
527.874	24109.31
528.241	24171.91
528.607	24333.26
528.973	24537.09
529.339	24587.04
529.705	24852.57
530.071	24949.29
530.437	25124.2
530.803	25361.25
531.169	25394.93
531.535	25306.79
531.901	25650.06
532.267	25766.22
532.632	25939.32
532.998	25954.46
533.364	26158.3
533.73	26260.89
534.095	26489.36
534.461	26569.13
534.826	26761.44
535.192	26816.58
535.557	26949.23
535.923	26956.01
536.288	27179.74
536.653	27306.97
537.019	27345.83
537.384	27420.41
537.749	27473.06
538.114	27631.25
538.479	27682.55
538.845	27913.5
539.21	27755.54
539.575	27977.46
539.94	28125.25
540.305	28330.67
540.67	28250.22
541.034	28580.15
541.399	28598.23
541.764	28583.77
542.129	28788.51
542.494	28818.56
542.858	29033.93
543.223	28997.54
543.587	29267.37
543.952	29091.78
544.316	29326.35
544.681	29306.01
545.045	29511.65
545.41	29565.44
545.774	29681.59
546.138	29776.96
546.503	29849.05
546.867	29941.92
547.231	30122.94
547.595	30240.22
547.959	30354.57
548.324	30404.29
548.688	30376.72
549.052	30602.7
549.416	30725.86
549.779	30857.38
550.143	30787.78
550.507	31086.3
550.871	31149.35
551.235	31222.34
551.599	31369.01
551.962	31459.4
552.326	31616
552.689	31769.22
553.053	31581.88
553.417	31815.55
553.78	32159.04
554.143	32165.37
554.507	32208.53
554.87	32324.01
555.234	32698.91
555.597	32442.2
555.96	32713.15
556.323	32841.74
556.686	32883.99
557.05	33129.41
557.413	33321.72
557.776	33182.97
558.139	33509.29
558.502	33546.35
558.865	33476.52
559.228	33919.67
559.59	33906.11
559.953	34062.72
560.316	34426.55
560.679	34447.57
561.041	34689.14
561.404	34725.98
561.767	34884.62
562.129	34906.09
562.492	35258.39
562.854	35285.29
563.217	35198.74
563.579	35538.39
563.941	35704.26
564.304	35770.7
564.666	36019.5
565.028	35999.39
565.39	36143.12
565.753	36494.52
566.115	36480.06
566.477	36741.52
566.839	36851.12
567.201	36992.36
567.563	36966.15
567.925	37275.74
568.287	37361.39
568.648	37274.84
569.01	37581.27
569.372	37806.58
569.734	37716.86
570.095	38002.5
570.457	38129.51
570.819	38220.12
571.18	38256.28
571.542	38517.97
571.903	38526.33
572.265	38576.73
572.626	38741.69
572.987	38845.87
573.349	38909.6
573.71	39130.16
574.071	39093.77
574.432	39226.88
574.794	39536.47
575.155	39547.1
575.516	39482.24
575.877	39559.3
576.238	39651.5
576.599	39821.66
576.96	39731.72
577.32	39902.11
577.681	39959.97
578.042	40180.53
578.403	40009
578.763	40119.28
579.124	40085.84
579.485	40371.93
579.845	40285.61
580.206	40147.53
580.566	40252.39
580.927	40344.59
581.287	40509.78
581.648	40359.73
582.008	40536.45
582.368	40380.75
582.728	40600.4
583.089	40437.24
583.449	40632.94
583.809	40545.49
584.169	40789.32
584.529	40524.47
584.889	40836.55
585.249	40559.5
585.609	40473.85
585.969	40757.23
586.329	40674.75
586.688	40714.97
587.048	40627.29
587.408	40684.47
587.768	40656.45
588.127	40677.91
588.487	40584.36
588.846	40905.7
589.206	40602.89
589.565	40562.21
589.925	40820.28
590.284	40710.45
590.643	40653.51
591.003	40775.99
591.362	40806.05
591.721	40558.59
592.08	40813.28
592.44	40920.84
592.799	40808.76
593.158	40851.47
593.517	40738.7
593.876	40940.96
594.235	40726.5
594.593	40702.32
594.952	40865.48
595.311	40632.26
595.67	40818.47
596.029	40963.33
596.387	41103.66
596.746	41034.51
597.104	40877
597.463	40901.86
597.822	41075.42
598.18	40759.95
598.538	40958.81
598.897	41119.26
599.255	40769.66
599.613	41278.35
599.972	41016.44
600.33	41159.93
600.688	40885.82
601.046	41154.74
601.404	41215.53
601.762	41040.39
602.12	41300.27
602.478	41215.75
602.836	41358.8
603.194	41148.86
603.552	41146.83
603.91	41161.06
604.268	41250.78
604.625	41107.05
604.983	41257.11
605.341	41194.06
605.698	41312.47
606.056	41471.79
606.413	41474.95
606.771	41557.66
607.128	41531.22
607.485	41450.55
607.843	41414.62
608.2	41630.66
608.557	41706.59
608.914	41592.01
609.272	41840.14
609.629	41767.38
609.986	41948.61
610.343	41751.78
610.7	41892.8
611.057	41987.48
611.414	42075.84
611.771	42003.08
612.127	42160.81
612.484	42112.68
612.841	42144.99
613.198	42102.96
613.554	42140.93
613.911	42482.39
614.267	42393.12
614.624	42295.95
614.98	42493.01
615.337	42609.84
615.693	42413.46
616.05	42417.75
616.406	42599.67
616.762	42517.87
617.118	42607.35
617.475	42666.56
617.831	42748.14
618.187	42697.75
618.543	42731.19
618.899	42927.57
619.255	43001.24
619.611	42911.3
619.967	43022.71
620.323	43141.58
620.678	42923.96
621.034	42803.28
621.39	42736.16
621.746	42856.39
622.101	43307.22
622.457	43055.03
622.812	43113.1
623.168	43251.41
623.523	43245.76
623.879	43178.64
624.234	42941.81
624.589	43242.14
624.945	43090.05
625.3	43276.49
625.655	43082.37
626.01	43169.83
626.365	43154.46
626.72	43034.24
627.075	43182.25
627.43	42996.04
627.785	42904.75
628.14	43164.63
628.495	43094.35
628.85	43084.18
629.205	42928.48
629.559	43098.64
629.914	42916.72
630.269	42928.25
630.623	42944.75
630.978	42841.47
631.332	43048.25
631.687	43041.02
632.041	42843.05
632.396	42950.62
632.75	42670.4
633.104	42846.44
633.459	42499.33
633.813	42566.23
634.167	42562.38
634.521	42543.63
634.875	42583.85
635.229	42429.73
635.583	42262.5
635.937	42359
636.291	42304.99
636.645	42308.38
636.999	42214.6
637.352	42314.48
637.706	41943.87
638.06	42164.88
638.413	42013.92
638.767	41903.64
639.121	41950.2
639.474	41767.38
639.828	41741.39
640.181	41785.45
640.534	41598.79
640.888	41614.39
641.241	41421.85
641.594	41521.28
641.947	41594.95
642.301	41439.25
642.654	41434.28
643.007	41467.05
643.36	41314.05
643.713	41357.22
644.066	41379.59
644.419	41207.62
644.771	40950.9
645.124	40622.1
645.477	40376.9
645.83	40182.33
646.182	40072.05
646.535	39884.49
646.888	40139.4
647.24	39734.21
647.593	40069.79
647.945	39954.32
648.298	39641.33
648.65	39765.17
649.002	39635.23
649.355	39716.13
649.707	39612.4
650.059	39768.11
650.411	40164.03
650.763	40219.39
651.115	40661.87
651.467	40559.5
651.819	40474.08
652.171	40430.24
652.523	40253.74
652.875	40367.19
653.227	40172.84
653.578	40287.42
653.93	40259.17
654.282	40086.29
654.633	39994.77
654.985	40050.13
655.337	40090.13
655.688	40089.45
656.039	40137.36
656.391	39743.93
656.742	39711.84
657.094	39800.65
657.445	39956.8
657.796	39861.89
658.147	39802.68
658.498	39654.89
658.849	39901.44
659.2	39690.59
659.551	39597.26
659.902	39769.46
660.253	39573.76
660.604	39652.4
660.955	39349.59
661.306	39501
661.656	39513.42
662.007	39334.22
662.358	39341.45
662.708	39198.18
663.059	39161.57
663.409	38900.79
663.76	39096.71
664.11	39044.74
664.461	39227.56
664.811	39164.51
665.161	39065.53
665.511	38696.72
665.862	38872.76
666.212	38879.32
666.562	38884.06
666.912	38612.21
667.262	38646.78
667.612	38556.61
667.962	38446.56
668.312	38363.17
668.662	38412.89
669.011	38266.9
669.361	38168.6
669.711	38077.98
670.06	37864.2
670.41	37854.03
670.76	37674.83
671.109	37895.84
671.459	37810.64
671.808	37511.9
672.157	37659.01
672.507	37426.7
672.856	37407.72
673.205	37334.27
673.554	37346.48
673.904	37238.23
674.253	37461.73
674.602	37178.8
674.951	36627.4
675.3	36516.67
675.649	37038.24
675.998	36848.86
676.346	37007.28
676.695	37116.88
677.044	36683.44
677.393	36841.86
677.741	36917.33
678.09	36710.79
678.438	36712.59
678.787	36738.36
679.135	36674.18
679.484	36523.45
679.832	36677.34
680.181	36529.32
680.529	36539.72
680.877	36518.93
681.225	36437.57
681.573	36691.35
681.922	36377.24
682.27	36316.67
682.618	36550.11
682.966	36398.48
683.314	36601.41
683.661	36501.53
684.009	36414.07
684.357	36308.99
684.705	36279.61
685.053	36355.09
685.4	36241.87
685.748	36201.2
686.095	36249.33
686.443	36233.96
686.79	36260.18
687.138	36311.93
687.485	36221.31
687.832	36169.11
688.18	36292.27
688.527	36180.4
688.874	36064.02
689.221	36186.28
689.568	36141.08
689.915	35893.86
690.262	35971.14
690.609	35966.4
690.956	35789.68
691.303	35891.6
691.65	35719.85
691.997	35866.06
692.344	35649.12
692.69	35655.67
693.037	35705.84
693.383	35511.95
693.73	35681.66
694.077	35398.96
694.423	35464.49
694.769	35461.78
695.116	35345.4
695.462	35297.72
695.808	35238.51
696.155	35365.51
696.501	35036.93
696.847	35189.7
697.193	34864.96
697.539	35057.27
697.885	34794
698.231	34722.36
698.577	34509.94
698.923	34583.38
699.269	34482.82
699.614	34364.18
699.96	34358.98
700.306	34398.53
700.651	34196.73
700.997	34042.16
701.342	34051.2
701.688	34063.62
702.033	33868.83
702.379	33816.62
702.724	33875.83
703.069	33839.9
703.415	33457.99
703.76	33418.9
704.105	33429.06
704.45	33352.68
704.795	33282.85
705.14	33086.47
705.485	33128.73
705.83	32906.82
706.175	33112.24
706.52	32908.4
706.865	32774.17
707.209	32790.66
707.554	32562.87
707.899	32641.06
708.243	32406.49
708.588	32433.38
708.932	32351.8
709.277	32302.09
709.621	32356.32
709.966	32103.9
710.31	32168.76
710.654	31960.18
710.998	31969.89
711.342	32000.4
711.687	31858.48
712.031	31690.81
712.375	31686.74
712.719	31682.67
713.063	31545.95
713.407	31663.69
713.75	31402.9
714.094	31519.28
714.438	31262.12
714.782	31282.91
715.125	31126.98
715.469	31145.96
715.812	30992.52
716.156	30945.74
716.499	31100.54
716.843	30997.49
717.186	30899.19
717.53	30915.91
717.873	30872.3
718.216	30783.48
718.559	30665.52
718.902	30393.44
719.246	30535.58
719.589	30449.48
719.932	30324.51
720.275	30362.03
720.617	30292.65
720.96	30241.8
721.303	30228.24
721.646	30370.16
721.989	30085.65
722.331	30200.9
722.674	30043.84
723.016	30037.97
723.359	29995.26
723.701	29970.62
724.044	29828.48
724.386	29660.58
724.729	29774.02
725.071	29653.12
725.413	29636.62
725.755	29621.26
726.097	29451.32
726.439	29451.99
726.782	29478.66
727.124	29490.64
727.465	29282.96
727.807	29336.06
728.149	29284.09
728.491	29137.2
728.833	29233.92
729.175	29038.9
729.516	29023.08
729.858	28912.35
730.199	29017.43
730.541	28933.14
730.882	28830.32
731.224	29037.77
731.565	28740.6
731.906	28712.58
732.248	28596.2
732.589	28514.39
732.93	28511.23
733.271	28493.15
733.612	28530.89
733.953	28450.89
734.294	28413.83
734.635	28276.21
734.976	28316.43
735.317	28191.91
735.658	28289.31
735.999	28097
736.339	28080.05
736.68	28224.46
737.021	28116.44
737.361	27933.39
737.702	27937.46
738.042	27974.74
738.383	27960.96
738.723	27845.93
739.063	27867.63
739.404	27834.41
739.744	27788.99
740.084	27672.61
740.424	27816.33
740.764	27630.8
741.104	27717.8
741.444	27624.25
741.784	27458.37
742.124	27512.16
742.464	27505.38
742.804	27438.26
743.143	27335.67
743.483	27303.8
743.823	27096.8
744.162	27161.88
744.502	27267.87
744.841	27016.35
745.181	27286.4
745.52	26933.64
745.86	26972.29
746.199	27014.54
746.538	27000.76
746.877	26857.03
747.216	26945.17
747.556	26852.29
747.895	26829.46
748.234	26690.26
748.573	26723.25
748.911	26657.72
749.25	26723.93
749.589	26482.81
749.928	26608.45
750.267	26627.66
750.605	26443.26
750.944	26382.47
751.283	26319.42
751.621	26301.79
751.96	26094.79
752.298	26157.84
752.636	26132.76
752.975	25904.52
753.313	25942.48
753.651	25967.34
753.989	25842.6
