Data from white_steel_sheet_FLMS001491_059.txt Node
Date: Tue Feb 07 10:58:06 GMT 2017
User: dcchb
Spectrometer: FLMS00149
Trigger mode: 0
Integration Time (sec): 2.000000E-2
Scans to average: 10
Electric dark correction enabled: true
Nonlinearity correction enabled: false
Boxcar width: 0
XAxis mode: Wavelengths
Number of Pixels in Spectrum: 2048
>>>>>Begin Spectral Data<<<<<
341.393	-2.64
341.776	-2.64
342.16	-2.64
342.543	-61.62
342.927	-69.53
343.31	-78.35
343.693	-73.37
344.077	-70.89
344.46	-48.06
344.843	-46.26
345.226	-40.83
345.61	-37.44
345.993	-31.57
346.376	15.44
346.759	3.01
347.142	26.96
347.525	40.52
347.908	61.99
348.291	70.35
348.674	97.24
349.057	111.25
349.44	147.41
349.823	147.19
350.206	180.4
350.588	196.9
350.971	214.98
351.354	231.93
351.737	243.91
352.119	268.54
352.502	267.18
352.884	273.51
353.267	297.01
353.65	290.46
354.032	311.25
354.414	308.99
354.797	312.6
355.179	319.38
355.562	336.56
355.944	347.86
356.326	349.67
356.709	352.6
357.091	355.09
357.473	342.66
357.855	352.38
358.238	362.32
358.62	343.11
359.002	333.4
359.384	358.48
359.766	358.03
360.148	360.29
360.53	343.79
360.912	338.14
361.294	338.37
361.676	339.95
362.057	344.24
362.439	329.78
362.821	343.34
363.203	347.63
363.584	335.43
363.966	335.43
364.348	358.03
364.729	346.73
365.111	341.98
365.493	345.82
365.874	331.59
366.256	339.72
366.637	341.3
367.019	330.91
367.4	341.3
367.781	330.68
368.163	347.18
368.544	319.84
368.925	341.08
369.306	339.04
369.688	315.77
370.069	320.29
370.45	336.56
370.831	361.19
371.212	337.01
371.593	318.48
371.974	326.16
372.355	341.98
372.736	340.85
373.117	346.28
373.498	315.77
373.879	336.78
374.26	340.17
374.641	350.8
375.021	339.04
375.402	333.85
375.783	335.2
376.163	345.15
376.544	378.37
376.925	366.84
377.305	344.92
377.686	365.71
378.066	334.53
378.447	347.18
378.827	362.32
379.208	353.28
379.588	372.94
379.968	363.9
380.349	362.32
380.729	365.26
381.109	363.22
381.489	356.45
381.87	364.81
382.25	374.3
382.63	383.56
383.01	396.22
383.39	375.2
383.77	391.47
384.15	408.42
384.53	392.15
384.91	388.99
385.29	405.48
385.67	376.78
386.049	404.58
386.429	397.12
386.809	400.96
387.189	406.61
387.568	396.22
387.948	424.92
388.328	423.79
388.707	438.48
389.087	416.78
389.466	421.53
389.846	443.45
390.225	426.73
390.605	437.8
390.984	448.42
391.363	459.95
391.743	426.73
392.122	440.96
392.501	439.83
392.881	487.52
393.26	477.57
393.639	443.67
394.018	472.37
394.397	475.76
394.776	486.61
395.155	491.58
395.534	521.86
395.913	502.66
396.292	500.85
396.671	506.72
397.05	535.88
397.429	522.99
397.808	528.42
398.186	549.66
398.565	532.94
398.944	541.07
399.323	540.62
399.701	561.64
400.08	553.05
400.458	591.02
400.837	579.26
401.215	584.24
401.594	592.6
401.972	595.99
402.351	619.04
402.729	629.21
403.107	638.25
403.486	614.07
403.864	656.78
404.242	643.9
404.62	674.18
404.999	667.4
405.377	701.3
405.755	680.73
406.133	711.46
406.511	724.35
406.889	738.13
407.267	736.32
407.645	729.09
408.023	746.94
408.401	764.57
408.779	801.18
409.156	812.25
409.534	809.99
409.912	794.4
410.29	842.53
410.667	865.13
411.045	850.22
411.422	857.22
411.8	897.22
412.178	903.55
412.555	910.1
412.933	884.12
413.31	935.41
413.687	965.92
414.065	974.73
414.442	966.15
414.819	980.84
415.197	1006.6
415.574	1023.77
415.951	1045.69
416.328	1055.64
416.705	1064.68
417.082	1063.77
417.46	1062.87
417.837	1098.57
418.214	1096.09
418.591	1135.86
418.967	1092.92
419.344	1123.88
419.721	1124.79
420.098	1126.82
420.475	1143.09
420.852	1149.42
421.228	1166.14
421.605	1187.61
421.982	1220.6
422.358	1216.54
422.735	1233.03
423.111	1217.67
423.488	1263.99
423.864	1279.36
424.241	1311
424.617	1311
424.994	1316.42
425.37	1292.24
425.746	1317.55
426.123	1379.47
426.499	1353.48
426.875	1391.9
427.251	1375.18
427.627	1441.61
428.003	1468.73
428.379	1473.93
428.756	1462.86
429.132	1508.05
429.507	1543.53
429.883	1526.13
430.259	1555.51
430.635	1565.91
431.011	1598.45
431.387	1637.77
431.763	1661.95
432.138	1638.22
432.514	1661.72
432.89	1714.38
433.265	1709.4
433.641	1746.69
434.016	1775.62
434.392	1787.37
434.767	1806.8
435.143	1828.05
435.518	1879.12
435.894	1878.44
436.269	1907.37
436.644	1895.84
437.02	1952.56
437.395	1937.19
437.77	1975.16
438.145	1996.85
438.52	2006.8
438.895	2058.55
439.271	2045.67
439.646	2096.29
440.021	2101.03
440.395	2148.71
440.77	2096.29
441.145	2156.4
441.52	2196.4
441.895	2181.26
442.27	2192.78
442.645	2229.84
443.019	2250.41
443.394	2257.64
443.769	2286.11
444.143	2246.11
444.518	2327.02
444.892	2301.03
445.267	2348.03
445.641	2363.85
446.016	2397.97
446.39	2384.19
446.764	2417.18
447.139	2436.84
447.513	2479.55
447.887	2438.88
448.262	2454.7
448.636	2494.47
449.01	2564.97
449.384	2579.21
449.758	2559.33
450.132	2602.94
450.506	2666.44
450.88	2636.84
451.254	2653.56
451.628	2665.54
452.002	2762.26
452.376	2707.57
452.75	2757.74
453.123	2762.94
453.497	2833.22
453.871	2849.49
454.244	2924.51
454.618	2933.78
454.992	2947.34
455.365	2973.1
455.739	3048.58
456.112	3033.21
456.486	3107.11
456.859	3078.86
457.232	3192.76
457.606	3187.56
457.979	3268.91
458.352	3320.21
458.725	3354.56
459.099	3361.56
459.472	3397.5
459.845	3438.62
460.218	3460.09
460.591	3512.07
460.964	3518.62
461.337	3617.83
461.71	3706.19
462.083	3719.75
462.456	3721.78
462.829	3697.37
463.201	3798.16
463.574	3845.17
463.947	3857.6
464.32	3974.2
464.692	3996.58
465.065	4032.96
465.438	4061.88
465.81	4126.06
466.183	4142.56
466.555	4251.71
466.928	4292.61
467.3	4271.6
467.672	4361.54
468.045	4463.68
468.417	4484.02
468.789	4585.49
469.161	4613.28
469.534	4654.86
469.906	4757.23
470.278	4774.63
470.65	4855.54
471.022	4939.83
471.394	5009.43
471.766	5071.12
472.138	5144.57
472.51	5216.88
472.882	5331.91
473.253	5341.85
473.625	5464.79
473.997	5573.03
474.369	5596.08
474.74	5671.79
475.112	5820.71
475.484	5869.07
475.855	5982.74
476.227	6047.14
476.598	6143.19
476.97	6247.82
477.341	6358.77
477.713	6511.09
478.084	6423.86
478.455	6642.61
478.827	6718.54
479.198	6975.71
479.569	6883.28
479.94	7155.59
480.311	7205.3
480.682	7375.7
481.053	7550.61
481.424	7695.91
481.795	7751.96
482.166	7827.44
482.537	7935
482.908	8196.92
483.279	8208.22
483.65	8364.6
484.021	8481.2
484.391	8611.82
484.762	8645.04
485.133	8738.6
485.503	8875.09
485.874	9149.21
486.244	9236.21
486.615	9391.01
486.985	9453.83
487.356	9600.27
487.726	9713.49
488.097	9934.72
488.467	9917.1
488.837	10132.46
489.207	10290.42
489.578	10429.4
489.948	10472.34
490.318	10686.12
490.688	10726.12
491.058	10921.59
491.428	11006.56
491.798	11194.13
492.168	11336.27
492.538	11430.28
492.908	11520.9
493.278	11671.4
493.648	11797.05
494.017	11847.67
494.387	12001.56
494.757	12174.44
495.126	12251.95
495.496	12276.58
495.866	12313.19
496.235	12563.81
496.605	12646.52
496.974	12751.83
497.344	12922.67
497.713	13004.25
498.082	13065.94
498.452	13210.8
498.821	13361.3
499.19	13313.17
499.559	13499.38
499.928	13612.14
500.298	13686.72
500.667	13836.77
501.036	13751.57
501.405	13974.17
501.774	14087.61
502.143	14179.13
502.512	14221.39
502.88	14421.84
503.249	14380.48
503.618	14577.99
503.987	14565.56
504.356	14730.53
504.724	14826.57
505.093	14892.11
505.462	14979.56
505.83	15076.06
506.199	15300.01
506.567	15343.62
506.936	15450.51
507.304	15697.28
507.672	15727.79
508.041	15788.58
508.409	15927.56
508.777	15996.26
509.145	16203.71
509.514	16132.08
509.882	16441.22
510.25	16507.66
510.618	16591.72
510.986	16701.78
511.354	16884.37
511.722	16962.79
512.09	17083.46
512.458	17161.88
512.826	17306.28
513.193	17418.6
513.561	17487.07
513.929	17671.92
514.297	17813.16
514.664	17947.85
515.032	18026.49
515.4	18245.47
515.767	18407.72
516.135	18446.59
516.502	18406.59
516.869	18755.28
517.237	18768.62
517.604	18733.36
517.972	19019.91
518.339	19151.43
518.706	19275.95
519.073	19331.77
519.44	19537.41
519.808	19699.44
520.175	19677.52
520.542	20085.87
520.909	20127.9
521.276	20077.96
521.643	20484.28
522.009	20444.73
522.376	20770.6
522.743	20942.57
523.11	21096.69
523.477	21303.69
523.843	21425.27
524.21	21609.67
524.577	21707.3
524.943	21808.31
525.31	21996.1
525.676	22285.59
526.043	22359.93
526.409	22493.94
526.776	22721.06
527.142	22778.68
527.508	23042.63
527.874	23112.23
528.241	23350.87
528.607	23340.25
528.973	23711.09
529.339	23674.93
529.705	24010.96
530.071	24097.06
530.437	24156.05
530.803	24412.54
531.169	24478.75
531.535	24524.85
531.901	24716.71
532.267	24756.03
532.632	25044.38
532.998	25053.2
533.364	25150.14
533.73	25377.26
534.095	25565.27
534.461	25569.79
534.826	25742.9
535.192	25849.56
535.557	25994.87
535.923	26017.69
536.288	26201.42
536.653	26351.24
537.019	26216.33
537.384	26500.16
537.749	26642.99
538.114	26715.3
538.479	26786.48
538.845	26842.98
539.21	26801.4
539.575	27154.16
539.94	27122.52
540.305	27285.45
540.67	27293.14
541.034	27409.29
541.399	27509.4
541.764	27631.66
542.129	27811.77
542.494	27829.62
542.858	28022.84
543.223	27970.41
543.587	28124.75
543.952	28120.91
544.316	28265.77
544.681	28246.33
545.045	28398.65
545.41	28572.88
545.774	28634.57
546.138	28668.7
546.503	28752.53
546.867	28770.61
547.231	29063.49
547.595	28959.54
547.959	29217.16
548.324	29272.07
548.688	29387.09
549.052	29403.37
549.416	29563.81
549.779	29653.98
550.143	29752.28
550.507	29904.6
550.871	30042.9
551.235	29984.82
551.599	30287.18
551.962	30363.11
552.326	30382.32
552.689	30624.35
553.053	30426.16
553.417	30593.39
553.78	30953.38
554.143	30884.91
554.507	31102.76
554.87	31208.29
555.234	31429.07
555.597	31302.75
555.96	31417.55
556.323	31627.49
556.686	31591.1
557.05	31928.27
557.413	31869.29
557.776	32083.07
558.139	32242.39
558.502	32235.16
558.865	32526
559.228	32682.83
559.59	32786.33
559.953	32954.91
560.316	33344.05
560.679	33231.74
561.041	33396.03
561.404	33519.64
561.767	33801.22
562.129	33745.17
562.492	34142.9
562.854	33906.98
563.217	34099.51
563.579	34333.86
563.941	34452.95
564.304	34623.34
564.666	34712.38
565.028	34840.28
565.39	34985.82
565.753	35112.59
566.115	35235.75
566.477	35371.12
566.839	35532.7
567.201	35764.78
567.563	35792.35
567.925	35918.67
568.287	35965.68
568.648	36006.13
569.01	36232.79
569.372	36430.98
569.734	36379.68
570.095	36712.1
570.457	36755.26
570.819	36915.26
571.18	36905.77
571.542	37173.1
571.903	37218.53
572.265	37261.46
572.626	37295.59
572.987	37473.44
573.349	37428.24
573.71	37634.56
574.071	37646.09
574.432	37834.78
574.794	38137.6
575.155	38060.76
575.516	38061.44
575.877	38266.18
576.238	38235.22
576.599	38410.81
576.96	38357.93
577.32	38401.09
577.681	38486.97
578.042	38611.71
578.403	38752.72
578.763	38781.88
579.124	38773.97
579.485	38928.09
579.845	38953.17
580.206	38959.05
580.566	38819.84
580.927	38940.52
581.287	39132.15
581.648	38858.71
582.008	39214.86
582.368	39028.87
582.728	39199.49
583.089	39107.52
583.449	39035.2
583.809	39081.75
584.169	39146.61
584.529	39068.42
584.889	39283.56
585.249	39171.02
585.609	38932.15
585.969	39365.59
586.329	39340.05
586.688	39224.58
587.048	39284.91
587.408	39150.68
587.768	39152.94
588.127	39285.14
588.487	39139.61
588.846	39451.69
589.206	39133.96
589.565	39230.68
589.925	39354.06
590.284	39194.29
590.643	39294.4
591.003	39281.98
591.362	39347.74
591.721	39267.06
592.08	39143.67
592.44	39283.33
592.799	39367.85
593.158	39293.5
593.517	39281.52
593.876	39474.06
594.235	39429.09
594.593	39256.44
594.952	39425.7
595.311	39391.13
595.67	39371.01
596.029	39648.07
596.387	39543.66
596.746	39594.51
597.104	39384.12
597.463	39468.19
597.822	39743.66
598.18	39442.42
598.538	39351.8
598.897	39734.85
599.255	39412.14
599.613	39857.33
599.972	39603.55
600.33	39684.68
600.688	39561.06
601.046	39775.52
601.404	39711.12
601.762	39756.77
602.12	39895.07
602.478	39786.37
602.836	39859.81
603.194	39537.56
603.552	39702.3
603.91	39735.97
604.268	39900.26
604.625	39612.81
604.983	39815.07
605.341	39655.53
605.698	39789.76
606.056	39952.47
606.413	39794.5
606.771	39910.21
607.128	39981.84
607.485	39865.92
607.843	40048.51
608.2	40169.86
608.557	40121.28
608.914	40103.65
609.272	40213.93
609.629	40305.9
609.986	40460.25
610.343	40297.99
610.7	40647.14
611.057	40614.6
611.414	40447.82
611.771	40470.42
612.127	40542.96
612.484	40667.02
612.841	40848.26
613.198	40624.77
613.554	40636.97
613.911	40872.22
614.267	40905.44
614.624	40908.15
614.98	40906.11
615.337	41013.68
615.693	41003.74
616.05	41012.33
616.406	41093.68
616.762	41105.43
617.118	41171.19
617.475	41194.24
617.831	41216.16
618.187	41269.95
618.543	41169.16
618.899	41483.05
619.255	41586.1
619.611	41445.31
619.967	41499.32
620.323	41529.37
620.678	41446.21
621.034	41320.57
621.39	41335.25
621.746	41387
622.101	41724.62
622.457	41493.67
622.812	41659.09
623.168	41582.93
623.523	41652.08
623.879	41732.31
624.234	41502.71
624.589	41555.14
624.945	41690.05
625.3	41610.95
625.655	41735.47
626.01	41676.94
626.365	41714.45
626.72	41654.79
627.075	41509.71
627.43	41545.19
627.785	41523.05
628.14	41556.27
628.495	41501.8
628.85	41451.86
629.205	41312.66
629.559	41455.7
629.914	41564.63
630.269	41366.89
630.623	41411.41
630.978	41212.77
631.332	41461.35
631.687	41347.68
632.041	41210.06
632.396	41341.13
632.75	41083.51
633.104	41196.05
633.459	40946.34
633.813	41074.24
634.167	41003.74
634.521	40994.47
634.875	40981.59
635.229	41125.99
635.583	40758.55
635.937	40852.33
636.291	40589.29
636.645	40668.15
636.999	40591.55
637.352	40687.81
637.706	40466.13
638.06	40620.47
638.413	40472.23
638.767	40372.12
639.121	40376.41
639.474	40189.3
639.828	40306.36
640.181	40254.38
640.534	40308.84
640.888	40119.24
641.241	39921.51
641.594	39889.87
641.947	40025.46
642.301	39979.81
642.654	39980.94
643.007	39875.86
643.36	39862.98
643.713	39718.8
644.066	39881.28
644.419	39605.36
644.771	39340.51
645.124	38966.28
645.477	39031.36
645.83	38578.94
646.182	38528.32
646.535	38475.9
646.888	38488.1
647.24	38442.45
647.593	38557.93
647.945	38301.44
648.298	38311.15
648.65	38299.18
649.002	38188.22
649.355	38382.79
649.707	38157.94
650.059	38203.36
650.411	38724.7
650.763	38679.73
651.115	39214.18
651.467	38982.55
651.819	39048.99
652.171	38944.13
652.523	38809.45
652.875	38749.11
653.227	38604.25
653.578	38948.65
653.93	38763.35
654.282	38578.94
654.633	38535.55
654.985	38512.96
655.337	38549.79
655.688	38489.45
656.039	38540.3
656.391	38323.36
656.742	38481.54
657.094	38297.59
657.445	38571.49
657.796	38466.63
658.147	38373.98
658.498	38344.15
658.849	38413.75
659.2	38305.28
659.551	38046.53
659.902	38232.51
660.253	38153.64
660.604	38215.34
660.955	37971.5
661.306	38112.97
661.656	37939.19
662.007	37823.26
662.358	37793.43
662.708	37872.07
663.059	37768.8
663.409	37452.19
663.76	37729.47
664.11	37576.94
664.461	37605.64
664.811	37623.49
665.161	37532.64
665.511	37335.13
665.862	37280.45
666.212	37463.94
666.562	37419.65
666.912	37162.03
667.262	37096.27
667.612	36947.8
667.962	37066.44
668.312	36770.86
668.662	37013.11
669.011	36863.73
669.361	36675.26
669.711	36583.97
670.06	36385.1
670.41	36486.12
670.76	36310.75
671.109	36325.9
671.459	36427.81
671.808	36174.26
672.157	36183.3
672.507	35970.88
672.856	35951.67
673.205	35993.02
673.554	36066.01
673.904	35779.47
674.253	35976.53
674.602	35798
674.951	35310.55
675.3	35084.8
675.649	35627.38
675.998	35420.61
676.346	35625.57
676.695	35587.16
677.044	35304.68
677.393	35456.99
677.741	35519.59
678.09	35213.83
678.438	35193.5
678.787	35301.74
679.135	35286.83
679.484	35065.36
679.832	35120.73
680.181	35008.42
680.529	35123.89
680.877	35045.48
681.225	34961.19
681.573	35284.57
681.922	35086.83
682.27	34960.06
682.618	35095.87
682.966	35055.42
683.314	35090.45
683.661	35028.53
684.009	34877.57
684.357	34909.89
684.705	34901.53
685.053	34914.86
685.4	34917.34
685.748	34913.05
686.095	34822.66
686.443	34769.78
686.79	34865.37
687.138	35070.56
687.485	34840.06
687.832	34676.67
688.18	34882.09
688.527	34628.09
688.874	34740.17
689.221	34638.03
689.568	34605.49
689.915	34556.22
690.262	34606.39
690.609	34553.96
690.956	34469.9
691.303	34497.69
691.65	34412.95
691.997	34421.99
692.344	34340.86
692.69	34309
693.037	34229
693.383	34147.65
693.73	34267.19
694.077	33990.36
694.423	34085.28
694.769	34026.52
695.116	33840.31
695.462	34029.23
695.808	33850.03
696.155	33940.42
696.501	33716.02
696.847	33836.02
697.193	33539.08
697.539	33760.99
697.885	33562.58
698.231	33394.45
698.577	33394.45
698.923	33349.48
699.269	33144.51
699.614	33064.96
699.96	32942.93
700.306	32915.36
700.651	32847.57
700.997	32704.07
701.342	32685.09
701.688	32715.14
702.033	32632.88
702.379	32618.65
702.724	32411.42
703.069	32706.1
703.415	32170.75
703.76	32231.77
704.105	32087.36
704.45	32077.87
704.795	31970.76
705.14	31836.3
705.485	31779.57
705.83	31735.28
706.175	31753.36
706.52	31665.45
706.865	31516.08
707.209	31479.02
707.554	31403.76
707.899	31565.34
708.243	31187.95
708.588	31264.56
708.932	31100.04
709.277	31102.08
709.621	31226.59
709.966	30951.12
710.31	31075.41
710.654	30766.72
710.998	30798.36
711.342	30794.97
711.687	30535.76
712.031	30509.78
712.375	30394.53
712.719	30411.25
713.063	30427.29
713.407	30423.23
713.75	30165.38
714.094	30285.15
714.438	30095.1
714.782	30154.76
715.125	29927.42
715.469	30103.23
715.812	29851.94
716.156	29736.24
716.499	29746.41
716.843	29743.47
717.186	29564.49
717.53	29621.21
717.873	29725.39
718.216	29475.23
718.559	29416.7
718.902	29280.43
719.246	29253.09
719.589	29240.66
719.932	29156.37
720.275	29180.09
720.617	29017.84
720.96	29060.78
721.303	29037.5
721.646	29079.76
721.989	28767.68
722.331	28904.85
722.674	28728.13
723.016	28912.3
723.359	28835.02
723.701	28867.11
724.044	28567.68
724.386	28331.98
724.729	28613.56
725.071	28388.48
725.413	28581.01
725.755	28470.06
726.097	28272.55
726.439	28190.74
726.782	28240.91
727.124	28357.52
727.465	28142.83
727.807	28149.16
728.149	28146.22
728.491	28001.37
728.833	28078.65
729.175	27968.15
729.516	27933.12
729.858	27745.56
730.199	27825.33
730.541	27736.74
730.882	27687.25
731.224	27785.78
731.565	27658.33
731.906	27597.09
732.248	27590.76
732.589	27479.35
732.93	27334.49
733.271	27487.94
733.612	27435.51
733.953	27400.71
734.294	27280.26
734.635	27242.74
734.976	27349.86
735.317	27218.34
735.658	27109.19
735.999	27067.83
736.339	26975.63
736.68	27070.09
737.021	26995.07
737.361	26908.74
737.702	26939.93
738.042	26840.27
738.383	26818.8
738.723	26879.59
739.063	26661.74
739.404	26867.84
739.744	26569.09
740.084	26579.26
740.424	26596.89
740.764	26540.16
741.104	26672.82
741.444	26381.52
741.784	26292.94
742.124	26368.42
742.464	26420.39
742.804	26304.46
743.143	26197.57
743.483	26317.12
743.823	26166.16
744.162	26110.34
744.502	26125.03
744.841	26110.57
745.181	26143.11
745.52	26013.17
745.86	26101.08
746.199	25912.38
746.538	25769.34
746.877	25806.17
747.216	25870.58
747.556	25809.34
747.895	25840.52
748.234	25640.98
748.573	25579.06
748.911	25514.2
749.25	25528.44
749.589	25444.6
749.928	25387.88
750.267	25348.78
750.605	25325.96
750.944	25230.82
751.283	25150.6
751.621	25146.98
751.96	25110.37
752.298	25033.99
752.636	25102.91
752.975	24917.16
753.313	24888
753.651	24921.22
