Data from White_paper_FLMS001491_013.txt Node
Date: Tue Feb 07 10:34:43 GMT 2017
User: dcchb
Spectrometer: FLMS00149
Trigger mode: 0
Integration Time (sec): 2.000000E-2
Scans to average: 10
Electric dark correction enabled: true
Nonlinearity correction enabled: false
Boxcar width: 0
XAxis mode: Wavelengths
Number of Pixels in Spectrum: 2048
>>>>>Begin Spectral Data<<<<<
341.393	-5.41
341.776	-5.41
342.16	-5.41
342.543	-65.75
342.927	-69.59
343.31	-67.55
343.693	-77.5
344.077	-74.56
344.46	-45.63
344.843	-46.76
345.226	-34.34
345.61	-19.87
345.993	-22.36
346.376	-2.92
346.759	12.9
347.142	24.87
347.525	37.08
347.908	54.93
348.291	69.84
348.674	82.27
349.057	109.62
349.44	134.02
349.823	146.9
350.206	159.56
350.588	223.06
350.971	245.66
351.354	263.28
351.737	255.83
352.119	275.26
352.502	299.67
352.884	289.05
353.267	293.34
353.65	310.06
354.032	309.61
354.414	329.05
354.797	357.74
355.179	363.17
355.562	353.68
355.944	345.54
356.326	388.25
356.709	365.43
357.091	348.93
357.473	376.95
357.855	400.46
358.238	398.2
358.62	386.22
359.002	376.05
359.384	380.34
359.766	373.56
360.148	364.98
360.53	366.33
360.912	382.15
361.294	366.33
361.676	355.26
362.057	374.69
362.439	368.59
362.821	349.38
363.203	338.31
363.584	358.65
363.966	371.76
364.348	363.85
364.729	361.81
365.111	385.54
365.493	354.13
365.874	347.12
366.256	362.72
366.637	344.86
367.019	368.59
367.4	374.69
367.781	330.63
368.163	350.74
368.544	364.07
368.925	363.85
369.306	354.81
369.688	364.3
370.069	366.33
370.45	367.69
370.831	359.78
371.212	361.59
371.593	380.8
371.974	348.03
372.355	369.5
372.736	372.21
373.117	380.57
373.498	364.07
373.879	364.98
374.26	377.63
374.641	361.36
375.021	349.16
375.402	369.5
375.783	369.04
376.163	394.35
376.544	393.45
376.925	407.46
377.305	374.02
377.686	375.15
378.066	409.72
378.447	399.33
378.827	407.46
379.208	395.94
379.588	380.8
379.968	398.65
380.349	403.17
380.729	421.02
381.109	408.14
381.489	409.95
381.87	411.3
382.25	400.46
382.63	410.62
383.01	400.46
383.39	407.69
383.77	441.13
384.15	425.77
384.53	433
384.91	435.26
385.29	436.61
385.67	436.16
386.049	456.73
386.429	448.82
386.809	442.04
387.189	456.27
387.568	460.34
387.948	467.35
388.328	464.86
388.707	472.32
389.087	485.43
389.466	511.64
389.846	478.65
390.225	486.56
390.605	508.02
390.984	484.3
391.363	491.75
391.743	521.13
392.122	494.69
392.501	527.91
392.881	532.88
393.26	516.61
393.639	541.02
394.018	537.4
394.397	553.45
394.776	535.14
395.155	551.86
395.534	548.25
395.913	577.4
396.292	560.9
396.671	578.53
397.05	565.65
397.429	575.37
397.808	593.22
398.186	568.59
398.565	600.45
398.944	605.2
399.323	593.22
399.701	609.04
400.08	619.21
400.458	636.83
400.837	637.29
401.215	650.39
401.594	648.36
401.972	640.45
402.351	683.84
402.729	691.3
403.107	702.82
403.486	704.63
403.864	703.05
404.242	706.21
404.62	724.97
404.999	757.06
405.377	745.76
405.755	778.75
406.133	774.01
406.511	795.7
406.889	809.26
407.267	838.18
407.645	844.96
408.023	876.38
408.401	892.19
408.779	920.89
409.156	921.35
409.534	942.81
409.912	962.02
410.29	1000.21
410.667	1018.74
411.045	1053.09
411.422	1077.95
411.8	1099.65
412.178	1116.82
412.555	1154.11
412.933	1155.24
413.31	1223.26
413.687	1233.2
414.065	1247.89
414.442	1309.58
414.819	1328.11
415.197	1327.21
415.574	1360.43
415.951	1414.67
416.328	1419.41
416.705	1470.48
417.082	1463.48
417.46	1526.08
417.837	1561.55
418.214	1561.55
418.591	1581.67
418.967	1635.23
419.344	1630.48
419.721	1656.02
420.098	1677.26
420.475	1703.02
420.852	1731.27
421.228	1745.5
421.605	1789.57
421.982	1806.97
422.358	1877.03
422.735	1884.26
423.111	1877.93
423.488	1918.83
423.864	1939.62
424.241	1988.44
424.617	1989.57
424.994	2032.73
425.37	2070.02
425.746	2093.52
426.123	2095.55
426.499	2112.5
426.875	2137.81
427.251	2213.74
427.627	2279.5
428.003	2256.45
428.379	2323.12
428.756	2343.68
429.132	2380.74
429.507	2388.65
429.883	2448.99
430.259	2499.61
430.635	2504.36
431.011	2537.12
431.387	2588.42
431.763	2618.48
432.138	2648.76
432.514	2685.82
432.89	2725.14
433.265	2799.04
433.641	2837.68
434.016	2851.92
434.392	2920.62
434.767	2983.44
435.143	2944.12
435.518	3046.04
435.894	3055.98
436.269	3099.37
436.644	3144.34
437.02	3182.3
437.395	3167.84
437.77	3252.81
438.145	3272.7
438.52	3302.07
438.895	3368.51
439.271	3352.69
439.646	3458.23
440.021	3467.27
440.395	3485.12
440.77	3478.11
441.145	3500.04
441.52	3558.11
441.895	3568.28
442.27	3638.56
442.645	3572.8
443.019	3701.84
443.394	3696.19
443.769	3727.15
444.143	3699.13
444.518	3740.25
444.892	3753.36
445.267	3787.26
445.641	3803.08
446.016	3820.03
446.39	3854.38
446.764	3888.73
447.139	3879.69
447.513	3926.69
447.887	3948.16
448.262	4017.76
448.636	3965.56
449.01	4055.5
449.384	4114.48
449.758	4088.72
450.132	4156.52
450.506	4166.91
450.88	4181.83
451.254	4218.89
451.628	4298.43
452.002	4328.71
452.376	4320.8
452.75	4412.33
453.123	4394.47
453.497	4503.4
453.871	4494.81
454.244	4619.33
454.618	4632.89
454.992	4711.08
455.365	4659.78
455.739	4843.73
456.112	4882.82
456.486	4908.13
456.859	4909.72
457.232	5010.73
457.606	5027.23
457.979	5160.33
458.352	5202.82
458.725	5241.91
459.099	5295.69
459.472	5378.86
459.845	5445.29
460.218	5529.36
460.591	5553.54
460.964	5573.2
461.337	5686.42
461.71	5791.95
462.083	5855.91
462.456	5882.57
462.829	5902.46
463.201	5957.6
463.574	6060.19
463.947	6179.96
464.32	6276.01
464.692	6358.04
465.065	6352.39
465.438	6469.9
465.81	6542.89
466.183	6641.42
466.555	6732.04
466.928	6840.06
467.3	6804.13
467.672	6960.51
468.045	7094.06
468.417	7137.91
468.789	7180.16
469.161	7304.68
469.534	7420.61
469.906	7599.59
470.278	7591.45
470.65	7712.35
471.022	7848.62
471.394	8030.09
471.766	8049.97
472.138	8154.83
472.51	8314.6
472.882	8467.14
473.253	8519.79
473.625	8620.35
473.997	8853.11
474.369	8847.47
474.74	9053.79
475.112	9170.62
475.484	9301.01
475.855	9516.83
476.227	9581.23
476.598	9808.8
476.97	9924.72
477.341	10105.51
477.713	10300.53
478.084	10364.04
478.455	10611.94
478.827	10630.02
479.198	10998.14
479.569	11006.05
479.94	11322.65
480.311	11427.28
480.682	11707.05
481.053	11923.77
481.424	12106.14
481.795	12247.6
482.166	12326.92
482.537	12560.14
482.908	12799.23
483.279	12923.74
483.65	13169.61
484.021	13425.42
484.391	13575.48
484.762	13674.46
485.133	13824.51
485.503	14025.86
485.874	14292.52
486.244	14413.65
486.615	14729.34
486.985	14827.19
487.356	15144.93
487.726	15273.74
488.097	15597.12
488.467	15523.9
488.837	15894.74
489.207	16101.29
489.578	16248.17
489.948	16434.84
490.318	16696.52
490.688	16779.46
491.058	17004.09
491.428	17310.07
491.798	17452.89
492.168	17687.91
492.538	17755.48
492.908	18105.3
493.278	18271.17
493.648	18189.59
494.017	18416.48
494.387	18613.54
494.757	18766.3
495.126	18948.67
495.496	19157.02
495.866	19236.34
496.235	19404.48
496.605	19650.8
496.974	19652.83
497.344	19792.26
497.713	19913.84
498.082	20144.57
498.452	20378.69
498.821	20510.44
499.19	20565.12
499.559	20703.88
499.928	20849.18
500.298	20933.7
500.667	21102.51
501.036	21163.07
501.405	21438.32
501.774	21427.02
502.143	21540.46
502.512	21720.8
502.88	21921.7
503.249	21927.35
503.618	22158.3
503.987	22309.94
504.356	22361.23
504.724	22477.84
505.093	22549.7
505.462	22695.46
505.83	22771.84
506.199	23031.72
506.567	23252.51
506.936	23298.38
507.304	23534.54
507.672	23697.24
508.041	23781.76
508.409	23937.69
508.777	24106.95
509.145	24287.96
509.514	24383.33
509.882	24478.01
510.25	24602.31
510.618	24806.59
510.986	24866.48
511.354	25000.49
511.722	25224.66
512.09	25515.73
512.458	25527.48
512.826	25853.35
513.193	25840.46
513.561	25928.15
513.929	26226.9
514.297	26378.76
514.664	26577.62
515.032	26760.89
515.4	26860.55
515.767	27046.53
516.135	27223.48
516.502	27103.93
516.869	27535.79
517.237	27571.27
517.604	27652.62
517.972	27882.22
518.339	28159.95
518.706	28141.42
519.073	28427.06
519.44	28578.7
519.808	28882.87
520.175	28816.66
520.542	29284.22
520.909	29349.75
521.276	29415.51
521.643	29704.77
522.009	29869.74
522.376	30168.71
522.743	30273.57
523.11	30447.8
523.477	30746.78
523.843	31026.77
524.21	31403.71
524.577	31501.33
524.943	31615.23
525.31	31718.28
525.676	32064.71
526.043	32306.74
526.409	32393.06
526.776	32709.44
527.142	32813.84
527.508	32976.55
527.874	33177.67
528.241	33370.89
528.607	33553.93
528.973	33939.46
529.339	33913.25
529.705	34275.95
530.071	34430.52
530.437	34639.33
530.803	34815.6
531.169	34935.14
531.535	35007.91
531.901	35205.19
532.267	35340.1
532.632	35669.81
532.998	35673.2
533.364	35946.19
533.73	36081.55
534.095	36366.52
534.461	36451.94
534.826	36642.89
535.192	36689.67
535.557	36985.26
535.923	36889.44
536.288	37100.73
536.653	37276.55
537.019	37262.09
537.384	37374.4
537.749	37779.13
538.114	37835.63
538.479	37880.37
538.845	38055.96
539.21	37992.01
539.575	38286.24
539.94	38297.31
540.305	38559
540.67	38615.27
541.034	38879.22
541.399	38817.98
541.764	38948.14
542.129	39229.72
542.494	39174.13
542.858	39483.72
543.223	39522.14
543.587	39859.31
543.952	39832.41
544.316	39957.61
544.681	40004.61
545.045	40179.52
545.41	40405.51
545.774	40342
546.138	40398.05
546.503	40596.69
546.867	40553.75
547.231	41052.04
547.595	41076.45
547.959	41197.12
548.324	41266.05
548.688	41436.21
549.052	41595.98
549.416	41636.43
549.779	41832.36
550.143	41847.73
550.507	42095.63
550.871	42333.82
551.235	42186.02
551.599	42665.56
551.962	42592.11
552.326	42794.6
552.689	42879.11
553.053	42967.02
553.417	42990.97
553.78	43470.74
554.143	43265.09
554.507	43522.94
554.87	43663.27
555.234	44048.12
555.597	43837.28
555.96	44023.49
556.323	44201.11
556.686	44351.84
557.05	44537.37
557.413	44739.85
557.776	44764.71
558.139	45217.36
558.502	45023.01
558.865	45166.96
559.228	45572.38
559.59	45418.93
559.953	45549.32
560.316	45967.85
560.679	46037.9
561.041	46219.59
561.404	46431.11
561.767	46757.2
562.129	46556.76
562.492	47113.8
562.854	47054.14
563.217	47097.31
563.579	47222.95
563.941	47495.26
564.304	47596.28
564.666	47952.88
565.028	47980.67
565.39	48034.91
565.753	48203.27
566.115	48374.11
566.477	48483.03
566.839	48692.07
567.201	48883.93
567.563	48911.72
567.925	49257.48
568.287	49204.6
568.648	49400.98
569.01	49553.51
569.372	49758.25
569.734	49635.55
570.095	49868.08
570.457	50060.84
570.819	50049.77
571.18	50195.76
571.542	50393.49
571.903	50545.58
572.265	50576.31
572.626	50657.67
572.987	50829.86
573.349	50865.8
573.71	50988.05
574.071	51139.23
574.432	51146.47
574.794	51539.68
575.155	51421.94
575.516	51303.3
575.877	51532.67
576.238	51630.97
576.599	51787.35
576.96	51819.22
577.32	51767.69
577.681	51883.4
578.042	52057.85
578.403	52053.56
578.763	52143.5
579.124	52208.36
579.485	52382.82
579.845	52395.47
580.206	52467.34
580.566	52402.48
580.927	52515.24
581.287	52626.65
581.648	52491.29
582.008	52736.03
582.368	52634.11
582.728	52726.09
583.089	52698.97
583.449	52657.61
583.809	52789.81
584.169	52883.82
584.529	52811.28
584.889	53099.63
585.249	52843.14
585.609	52823.71
585.969	53080.2
586.329	52925.85
586.688	52974.67
587.048	52978.51
587.408	52951.62
587.768	52992.75
588.127	53043.14
588.487	52970.6
588.846	53316.58
589.206	52952.07
589.565	53049.24
589.925	53141.89
590.284	53140.54
590.643	53106.64
591.003	53256.92
591.362	53361.32
591.721	53314.77
592.08	53298.05
592.44	53416.91
592.799	53427.54
593.158	53333.75
593.517	53392.28
593.876	53538.95
594.235	53368.1
594.593	53364.49
594.952	53558.38
595.311	53444.03
595.67	53481.55
596.029	53621.66
596.387	53615.78
596.746	53698.72
597.104	53635.44
597.463	53553.41
597.822	53742.1
598.18	53589.57
598.538	53629.34
598.897	53816.23
599.255	53560.87
599.613	54050.8
599.972	53860.29
600.33	53984.13
600.688	53797.7
601.046	53828.2
601.404	54039.95
601.762	53933.29
602.12	54058.25
602.478	54097.35
602.836	54068.65
603.194	53966.96
603.552	54012.15
603.91	53992.72
604.268	54107.52
604.625	54014.19
604.983	54157.91
605.341	54095.77
605.698	54216.44
606.056	54251.02
606.413	54161.3
606.771	54286.95
607.128	54308.42
607.485	54254.63
607.843	54176.89
608.2	54439.94
608.557	54432.93
608.914	54389.09
609.272	54442.2
609.629	54591.57
609.986	54610.1
610.343	54498.47
610.7	54677.22
611.057	54628.63
611.414	54691.68
611.771	54620.05
612.127	54756.54
612.484	54695.3
612.841	54803.77
613.198	54687.39
613.554	54789.31
613.911	54948.17
614.267	54907.04
614.624	54864.11
614.98	54908.85
615.337	54995.4
615.693	54936.65
616.05	54919.7
616.406	55054.16
616.762	54979.13
617.118	54971.68
617.475	54925.12
617.831	55077.89
618.187	55145.91
618.543	55102.97
618.899	55226.13
619.255	55128.28
619.611	55162.63
619.967	55218
620.323	55298.45
620.678	55216.87
621.034	55106.81
621.39	55201.27
621.746	55153.14
622.101	55396.07
622.457	55197.88
622.812	55209.41
623.168	55311.33
623.523	55360.59
623.879	55374.38
624.234	55190.88
624.589	55260.03
624.945	55274.94
625.3	55367.37
625.655	55370.08
626.01	55311.33
626.365	55321.72
626.72	55323.76
627.075	55251.44
627.43	55280.37
627.785	55215.29
628.14	55289.63
628.495	55442.62
628.85	55304.32
629.205	55237.43
629.559	55401.95
629.914	55246.02
630.269	55287.83
630.623	55168.06
630.978	55225
631.332	55282.18
631.687	55388.84
632.041	55207.83
632.396	55303.64
632.75	55228.84
633.104	55210.99
633.459	55071.33
633.813	55053.26
634.167	55116.76
634.521	55063.2
634.875	55100.71
635.229	55107.49
635.583	54927.84
635.937	54989.53
636.291	54964.9
636.645	54907.5
636.999	55006.25
637.352	55037.66
637.706	54929.19
638.06	54999.02
638.413	55020.26
638.767	54903.2
639.121	54928.51
639.474	54879.25
639.828	54745.24
640.181	54846.26
640.534	54851.45
640.888	54770.1
641.241	54693.72
641.594	54732.36
641.947	54862.07
642.301	54631.35
642.654	54733.04
643.007	54741.85
643.36	54727.84
643.713	54683.32
644.066	54679.03
644.419	54540.05
644.771	54368.75
645.124	54124.69
645.477	54099.38
645.83	53962.89
646.182	53851.93
646.535	53761.54
646.888	53889.22
647.24	53690.35
647.593	53860.07
647.945	53817.81
648.298	53642.22
648.65	53585.5
649.002	53529.68
649.355	53693.74
649.707	53569.45
650.059	53794.31
650.411	54107.29
650.763	54107.07
651.115	54394.74
651.467	54380.96
651.819	54310.9
652.171	54199.49
652.523	54188.87
652.875	54174.18
653.227	54036.11
653.578	54305.93
653.93	54283.56
654.282	54094.19
654.633	54088.08
654.985	54115.43
655.337	54092.6
655.688	54108.87
656.039	54208.53
656.391	53934.19
656.742	53912.95
657.094	54018.93
657.445	54162.43
657.796	54056.67
658.147	53948.88
658.498	54054.86
658.849	53987.07
659.2	53923.79
659.551	53886.96
659.902	53990.01
660.253	53856.23
660.604	53969.44
660.955	53747.98
661.306	53891.03
661.656	53872.5
662.007	53826.17
662.358	53785.27
662.708	53843.12
663.059	53789.11
663.409	53633.41
663.76	53902.78
664.11	53822.55
664.461	53794.98
664.811	53865.49
665.161	53755.44
665.511	53587.76
665.862	53665.5
666.212	53772.61
666.562	53825.49
666.912	53670.24
667.262	53635.89
667.612	53653.97
667.962	53661.2
668.312	53634.99
668.662	53776.45
669.011	53613.97
669.361	53653.52
669.711	53608.55
670.06	53527.19
670.41	53458.5
670.76	53413.75
671.109	53500.98
671.459	53409.68
671.808	53428.21
672.157	53436.12
672.507	53281.55
672.856	53328.56
673.205	53297.37
673.554	53341.21
673.904	53262.79
674.253	53397.93
674.602	53347.09
674.951	52882.01
675.3	52677.73
675.649	53133.08
675.998	53193.64
676.346	53150.71
676.695	53307.31
677.044	53026.87
677.393	53086.3
677.741	53011.5
678.09	52966.08
678.438	52853.31
678.787	52920.2
679.135	52881.79
679.484	52771.51
679.832	52790.26
680.181	52652.87
680.529	52729.25
680.877	52592.53
681.225	52570.84
681.573	52723.37
681.922	52500.55
682.27	52376.49
682.618	52462.14
682.966	52271.41
683.314	52358.19
683.661	52305.76
684.009	52149.38
684.357	52121.81
684.705	52014.47
685.053	52055.82
685.4	51931.98
685.748	51734.02
686.095	51826.67
686.443	51671.42
686.79	51589.39
687.138	51625.78
687.485	51593.01
687.832	51367.48
688.18	51484.54
688.527	51259.01
688.874	51256.29
689.221	51151.66
689.568	51045.68
689.915	51038.22
690.262	51038.67
690.609	50771.11
690.956	50779.02
691.303	50709.64
691.65	50494.05
691.997	50597.55
692.344	50391.68
692.69	50277.11
693.037	50178.13
693.383	50018.36
693.73	50214.29
694.077	49898.59
694.423	49983.33
694.769	49688.43
695.116	49711.48
695.462	49698.14
695.808	49429.9
696.155	49604.59
696.501	49259.28
696.847	49228.78
697.193	49045.96
697.539	49030.82
697.885	49065.39
698.231	48827.43
698.577	48677.83
698.923	48664.5
699.269	48472.41
699.614	48338.4
699.96	48114.23
700.306	48405.97
700.651	48001.01
700.997	47996.94
701.342	47969.37
701.688	47818.64
702.033	47744.52
702.379	47744.07
702.724	47687.35
703.069	47680.12
703.415	47159.9
703.76	47298.88
704.105	47332.55
704.45	47077.19
704.795	46856.18
705.14	46897.09
705.485	46815.28
705.83	46674.72
706.175	46707.03
706.52	46642.4
706.865	46511.56
707.209	46329.64
707.554	46206.48
707.899	46306.14
708.243	46009.88
708.588	46034.74
708.932	45835.19
709.277	45693.05
709.621	45748.64
709.966	45440.85
710.31	45679.94
710.654	45206.28
710.998	45343.68
711.342	45387.97
711.687	45255.32
712.031	44990.47
712.375	45010.13
712.719	45020.98
713.063	45144.36
713.407	44976.68
713.75	44727.2
714.094	44760.19
714.438	44470.26
714.782	44599.07
715.125	44411.28
715.469	44422.12
715.812	44339.87
716.156	44079.31
716.499	44133.99
716.843	44143.94
717.186	43894
717.53	44050.16
717.873	44041.79
718.216	43698.75
718.559	43704.18
718.902	43612.43
719.246	43486.55
719.589	43356.39
719.932	43219.22
720.275	43299.44
720.617	43291.76
720.96	43160.01
721.303	43111.65
721.646	43146
721.989	42904.42
722.331	42934.7
722.674	42869.85
723.016	42851.54
723.359	42814.93
723.701	42633.7
724.044	42587.14
724.386	42319.58
724.729	42466.69
725.071	42418.11
725.413	42242.97
725.755	42316.64
726.097	42166.82
726.439	42054.5
726.782	41891.57
727.124	42265.34
727.465	41852.47
727.807	41910.78
728.149	41797.33
728.491	41686.6
728.833	41737.9
729.175	41628.52
729.516	41564.34
729.858	41431.92
730.199	41458.36
730.541	41414.07
730.882	41371.13
731.224	41530.45
731.565	41267.18
731.906	41313.73
732.248	41219.04
732.589	40958.94
732.93	40848.88
733.271	40850.01
733.612	41044.81
733.953	40973.85
734.294	40754.42
734.635	40759.17
734.976	40890.69
735.317	40555.56
735.658	40506.29
735.999	40485.28
736.339	40395.11
736.68	40536.58
737.021	40379.29
737.361	40233.53
737.702	40437.14
738.042	40161.9
738.383	40144.72
738.723	40247.77
739.063	40068.57
739.404	40091.62
739.744	40068.11
740.084	39921.22
740.424	39874.45
740.764	39723.94
741.104	40003.93
741.444	39701.34
741.784	39609.59
742.124	39746.77
742.464	39676.26
742.804	39373.89
743.143	39398.98
743.483	39374.35
743.823	39295.7
744.162	39287.57
744.502	39297.74
744.841	39129.15
745.181	39387.45
745.52	39124.41
745.86	39179.32
746.199	39062.04
746.538	39083.96
746.877	39012.1
747.216	38986.33
747.556	38857.75
747.895	38896.84
748.234	38693.91
748.573	38657.08
748.911	38538.66
749.25	38431.09
749.589	38251.66
749.928	38453.92
750.267	38476.52
750.605	38277.2
750.944	38270.19
751.283	38066.36
751.621	38218.9
751.96	37971.22
752.298	37898.9
752.636	37967.38
