Data from White_paper_FLMS001491_016.txt Node
Date: Tue Feb 07 10:34:44 GMT 2017
User: dcchb
Spectrometer: FLMS00149
Trigger mode: 0
Integration Time (sec): 2.000000E-2
Scans to average: 10
Electric dark correction enabled: true
Nonlinearity correction enabled: false
Boxcar width: 0
XAxis mode: Wavelengths
Number of Pixels in Spectrum: 2048
>>>>>Begin Spectral Data<<<<<
341.393	-15.83
341.776	-15.83
342.16	-15.83
342.543	-53.12
342.927	-61.03
343.31	-79.11
343.693	-84.98
344.077	-68.26
344.46	-53.57
344.843	-61.26
345.226	-30.52
345.61	-16.74
345.993	-19.45
346.376	-5.21
346.759	4.28
347.142	31.85
347.525	38.18
347.908	62.58
348.291	72.3
348.674	89.02
349.057	120.89
349.44	115.24
349.823	145.52
350.206	166.54
350.588	238.62
350.971	218.74
351.354	256.93
351.737	245.63
352.119	283.37
352.502	293.99
352.884	291.5
353.267	345.74
353.65	317.72
354.032	334.44
354.414	339.86
354.797	338.28
355.179	369.24
355.562	366.53
355.944	356.36
356.326	369.02
356.709	370.15
357.091	360.65
357.473	381.22
357.855	378.51
358.238	362.24
358.62	369.92
359.002	365.4
359.384	373.54
359.766	371.28
360.148	374.67
360.53	401.11
360.912	368.11
361.294	361.56
361.676	365.4
362.057	381.9
362.439	353.2
362.821	373.08
363.203	343.03
363.584	367.21
363.966	359.98
364.348	345.51
364.729	376.47
365.111	345.51
365.493	354.33
365.874	348.23
366.256	352.07
366.637	351.16
367.019	355.46
367.4	364.5
367.781	352.29
368.163	364.04
368.544	335.34
368.925	357.72
369.306	376.7
369.688	370.82
370.069	360.88
370.45	358.85
370.831	361.11
371.212	385.74
371.593	360.43
371.974	364.5
372.355	386.64
372.736	380.99
373.117	365.63
373.498	369.92
373.879	390.94
374.26	361.56
374.641	366.98
375.021	381.22
375.402	386.64
375.783	374.67
376.163	404.04
376.544	395.68
376.925	384.16
377.305	372.63
377.686	397.04
378.066	384.16
378.447	388.45
378.827	379.18
379.208	382.35
379.588	398.39
379.968	406.3
380.349	413.99
380.729	424.16
381.109	415.79
381.489	413.08
381.87	408.34
382.25	411.95
382.63	423.7
383.01	429.35
383.39	426.64
383.77	441.1
384.15	406.98
384.53	443.36
384.91	444.95
385.29	411.5
385.67	438.84
386.049	435
386.429	451.73
386.809	441.78
387.189	467.77
387.568	448.11
387.948	447.21
388.328	452.18
388.707	488.33
389.087	501.89
389.466	491.05
389.846	511.84
390.225	512.74
390.605	475.91
390.984	507.54
391.363	503.02
391.743	519.75
392.122	508.9
392.501	524.27
392.881	536.24
393.26	533.76
393.639	515.9
394.018	537.6
394.397	529.46
394.776	525.4
395.155	543.25
395.534	540.54
395.913	557.03
396.292	563.81
396.671	570.82
397.05	572.4
397.429	580.08
397.808	562.91
398.186	559.29
398.565	607.2
398.944	600.65
399.323	610.59
399.701	610.14
400.08	609.46
400.458	632.06
400.837	623.47
401.215	661.66
401.594	667.76
401.972	645.84
402.351	669.12
402.729	685.17
403.107	706.18
403.486	705.5
403.864	715.9
404.242	719.29
404.62	729.91
404.999	746.41
405.377	744.15
405.755	755.45
406.133	790.02
406.511	766.29
406.889	822.79
407.267	828.89
407.645	846.52
408.023	866.86
408.401	905.72
408.779	931.94
409.156	938.27
409.534	939.17
409.912	963.8
410.29	999.28
410.667	1019.62
411.045	1024.14
411.422	1078.38
411.8	1121.31
412.178	1140.07
412.555	1159.5
412.933	1150.92
413.31	1208.09
413.687	1241.76
414.065	1246.51
414.442	1293.96
414.819	1320.4
415.197	1364.7
415.574	1370.12
415.951	1400.63
416.328	1412.38
416.705	1470
417.082	1479.04
417.46	1514.75
417.837	1529.21
418.214	1585.03
418.591	1595.65
418.967	1601.98
419.344	1651.92
419.721	1653.05
420.098	1677
420.475	1768.07
420.852	1754.97
421.228	1766.27
421.605	1826.83
421.982	1808.07
422.358	1852.14
422.735	1872.25
423.111	1860.05
423.488	1921.74
423.864	1926.71
424.241	1993.61
424.617	2015.75
424.994	2053.94
425.37	2060.5
425.746	2076.32
426.123	2114.96
426.499	2114.28
426.875	2150.66
427.251	2213.04
427.627	2273.6
428.003	2234.28
428.379	2311.56
428.756	2308.85
429.132	2370.09
429.507	2425.68
429.883	2425.01
430.259	2490.77
430.635	2503.65
431.011	2563.99
431.387	2567.38
431.763	2677.2
432.138	2633.14
432.514	2725.79
432.89	2739.57
433.265	2808.5
433.641	2823.19
434.016	2827.71
434.392	2914.94
434.767	2991.77
435.143	2979.79
435.518	2993.58
435.894	3031.32
436.269	3049.17
436.644	3137.76
437.02	3175.27
437.395	3193.12
437.77	3224.76
438.145	3312.22
438.52	3285.55
438.895	3350.86
439.271	3367.58
439.646	3476.96
440.021	3456.39
440.395	3504.3
440.77	3466.56
441.145	3474.92
441.52	3564.86
441.895	3586.33
442.27	3624.98
442.645	3650.06
443.019	3684.18
443.394	3668.59
443.769	3679.21
444.143	3701.13
444.518	3742.26
444.892	3755.59
445.267	3760.34
445.641	3828.13
446.016	3842.6
446.39	3852.31
446.764	3907.68
447.139	3884.86
447.513	3959.66
447.887	3974.12
448.262	3937.06
448.636	3998.07
449.01	4064.74
449.384	4085.08
449.758	4069.71
450.132	4156.94
450.506	4213.89
450.88	4203.27
451.254	4234.45
451.628	4271.96
452.002	4332.08
452.376	4346.54
452.75	4366.65
453.123	4470.15
453.497	4473.77
453.871	4526.65
454.244	4577.04
454.618	4642.58
454.992	4688.45
455.365	4752.4
455.739	4846.41
456.112	4832.63
456.486	4903.36
456.859	4936.13
457.232	5019.97
457.606	4980.65
457.979	5099.51
458.352	5185.16
458.725	5262.45
459.099	5298.83
459.472	5372.05
459.845	5466.51
460.218	5500.18
460.591	5529.56
460.964	5660.4
461.337	5710.12
461.71	5772.94
462.083	5885.25
462.456	5908.53
462.829	5932.94
463.201	6014.52
463.574	6037.57
463.947	6116.66
464.32	6232.82
464.692	6324.57
465.065	6398.46
465.438	6416.54
465.81	6570.43
466.183	6645.23
466.555	6762.29
466.928	6831.44
467.3	6808.62
467.672	6927.26
468.045	7080.48
468.417	7094.94
468.789	7179.46
469.161	7335.61
469.534	7456.06
469.906	7572.22
470.278	7602.95
470.65	7675.94
471.022	7873
471.394	7961.13
471.766	8057.18
472.138	8239.77
472.51	8354.34
472.882	8503.04
473.253	8540.33
473.625	8631.62
473.997	8822.13
474.369	8901.67
474.74	8982.12
475.112	9164.49
475.484	9313.19
475.855	9501.43
476.227	9551.6
476.598	9843.34
476.97	9878.37
477.341	10068.87
477.713	10235.87
478.084	10331.69
478.455	10577.79
478.827	10687.61
479.198	10999.02
479.569	10975.06
479.94	11334.83
480.311	11406.69
480.682	11659.57
481.053	12014.13
481.424	12047.35
481.795	12255.48
482.166	12394.01
482.537	12592.2
482.908	12830.83
483.279	12964.16
483.65	13243.48
484.021	13449.8
484.391	13541.32
484.762	13660.42
485.133	13813.63
485.503	14011.82
485.874	14274.86
486.244	14412.94
486.615	14709.88
486.985	14845.25
487.356	15032.81
487.726	15238.23
488.097	15501.27
488.467	15610.65
488.837	15955.27
489.207	16084.31
489.578	16232.33
489.948	16481.36
490.318	16691.98
490.688	16774.23
491.058	17110.72
491.428	17275.46
491.798	17467.78
492.168	17673.65
492.538	17763.36
492.908	17991.83
493.278	18248.32
493.648	18146.18
494.017	18466.84
494.387	18715.2
494.757	18774.18
495.126	18912.71
495.496	19043.1
495.866	19150.44
496.235	19413.71
496.605	19532.13
496.974	19653.71
497.344	19828.84
497.713	19994.94
498.082	20132.56
498.452	20326.68
498.821	20375.72
499.19	20453.23
499.559	20664.53
499.928	20842.83
500.298	20921.47
500.667	21136.61
501.036	21149.71
501.405	21375.24
501.774	21367.33
502.143	21648.91
502.512	21727.55
502.88	21911.27
503.249	21881.9
503.618	22058.61
503.987	22207.76
504.356	22413.86
504.724	22515.33
505.093	22572.5
505.462	22584.7
505.83	22957.35
506.199	23030.34
506.567	23398.69
506.936	23292.03
507.304	23553.72
507.672	23646.82
508.041	23785.12
508.409	23929.53
508.777	24096.08
509.145	24261.27
509.514	24314.6
509.882	24613.58
510.25	24620.36
510.618	24789.84
510.986	24875.72
511.354	25136.05
511.722	25338.53
512.09	25510.5
512.458	25570.16
512.826	25828.01
513.193	25919.53
513.561	26047.44
513.929	26279.29
514.297	26464.6
514.664	26628.66
515.032	26630.25
515.4	26831.14
515.767	26978.03
516.135	27235.2
516.502	27046.51
516.869	27535.31
517.237	27713.16
517.604	27610.33
517.972	27871.57
518.339	28091.9
518.706	28188.62
519.073	28391.33
519.44	28600.14
519.808	28876.74
520.175	28779.34
520.542	29380.46
520.909	29394.69
521.276	29434.47
521.643	29755.81
522.009	29903.83
522.376	30020.67
522.743	30265.18
523.11	30693.87
523.477	30836.92
523.843	31094.54
524.21	31278.26
524.577	31366.84
524.943	31675.31
525.31	31676.89
525.676	32137.9
526.043	32296.76
526.409	32425.12
526.776	32782.4
527.142	32899.69
527.508	33087.48
527.874	33234.82
528.241	33466.68
528.607	33675.94
528.973	33855.14
529.339	33890.62
529.705	34305.52
530.071	34385.52
530.437	34591.84
530.803	34735.12
531.169	35020.76
531.535	34946.19
531.901	35135.11
532.267	35302.79
532.632	35632.04
532.998	35696
533.364	35841.53
533.73	35914.75
534.095	36373.94
534.461	36371.46
534.826	36588.18
535.192	36688.96
535.557	36864.55
535.923	36956.53
536.288	37079.24
536.653	37238.1
537.019	37311.1
537.384	37466.35
537.749	37573.01
538.114	37761.25
538.479	37762.16
538.845	38003.96
539.21	38155.37
539.575	38347.68
539.94	38317.85
540.305	38590.38
540.67	38490.27
541.034	38843.48
541.399	38974.55
541.764	39007.32
542.129	39335.67
542.494	39283.47
542.858	39479.85
543.223	39539.06
543.587	39795.78
543.952	39785.83
544.316	39964.58
544.681	39874.64
545.045	40229.89
545.41	40223.11
545.774	40492.25
546.138	40558.69
546.503	40628.07
546.867	40724.79
547.231	41025.12
547.595	41169.52
547.959	41263.53
548.324	41233.7
548.688	41409.52
549.052	41540.81
549.416	41645.22
549.779	41751.88
550.143	41910.07
550.507	42219.44
550.871	42314.81
551.235	42133.79
551.599	42506.44
551.962	42609.26
552.326	42749.6
552.689	43029.36
553.053	42766.32
553.417	42999.76
553.78	43458.73
554.143	43210.6
554.507	43617.14
554.87	43752.51
555.234	43963.8
555.597	43830.92
555.96	44187.98
556.323	44269.56
556.686	44319.05
557.05	44665.03
557.413	44583.67
557.776	44798.36
558.139	45099.14
558.502	45070.44
558.865	45228.63
559.228	45476.53
559.59	45596.75
559.953	45634.49
560.316	45943.18
560.679	46039.23
561.041	46362.61
561.404	46375.26
561.767	46612.32
562.129	46626.78
562.492	47076.94
562.854	46922.82
563.217	47065.87
563.579	47130.27
563.941	47484.39
564.304	47574.33
564.666	47866.52
565.028	47848.22
565.39	48047.31
565.753	48249.56
566.115	48478.26
566.477	48565.26
566.839	48732.04
567.201	48878.47
567.563	48954.63
567.925	49186.72
568.287	49265.13
568.648	49255.41
569.01	49488.18
569.372	49729.53
569.734	49643.2
570.095	49910.99
570.457	50080.93
570.819	50204.54
571.18	50244.54
571.542	50417.87
571.903	50402.28
572.265	50595.49
572.626	50731.99
572.987	50767.69
573.349	50834.81
573.71	51007.91
574.071	51125.65
574.432	51167.68
574.794	51546.2
575.155	51479.76
575.516	51363.61
575.877	51520.67
576.238	51617.61
576.599	51748.68
576.96	51839.3
577.32	51899.64
577.681	52015.12
578.042	52071.84
578.403	52098.5
578.763	52068.9
579.124	52205.39
579.485	52326.75
579.845	52433.86
580.206	52388.66
580.566	52432.73
580.927	52394.09
581.287	52632.73
581.648	52503.01
582.008	52721.99
582.368	52686.06
582.728	52761.31
583.089	52674.31
583.449	52717.24
583.809	52873.62
584.169	52853.51
584.529	52812.38
584.889	53026.16
585.249	52863
585.609	52885.83
585.969	53013.73
586.329	52932.61
586.688	53004.47
587.048	53008.31
587.408	53039.27
587.768	52953.17
588.127	52988.88
588.487	53025.48
588.846	53209.66
589.206	53047.86
589.565	53067.07
589.925	53177.8
590.284	53163.56
590.643	53217.12
591.003	53316.55
591.362	53377.34
591.721	53373.95
592.08	53323.78
592.44	53330.11
592.799	53353.16
593.158	53298.7
593.517	53338.24
593.876	53490.56
594.235	53311.35
594.593	53402.42
594.952	53539.6
595.311	53371.01
595.67	53484.68
596.029	53621.85
596.387	53689.42
596.746	53778.01
597.104	53606.26
597.463	53602.87
597.822	53772.58
598.18	53623.21
598.538	53612.81
598.897	53770.1
599.255	53534.62
599.613	54032.24
599.972	53856.42
600.33	53849.87
600.688	53780.04
601.046	53840.83
601.404	54042.63
601.762	53970.77
602.12	54114.95
602.478	54118.11
602.836	54069.52
603.194	53848.74
603.552	54076.53
603.91	53920.6
604.268	54160.37
604.625	54058.9
604.983	54122.86
605.341	54024.33
605.698	54207.15
606.056	54267.94
606.413	54199.01
606.771	54352
607.128	54371.66
607.485	54124.44
607.843	54238.33
608.2	54397.2
608.557	54499.57
608.914	54380.48
609.272	54448.72
609.629	54529.4
609.986	54669.73
610.343	54476.97
610.7	54747.02
611.057	54633.35
611.414	54604.43
611.771	54638.55
612.127	54727.13
612.484	54674.03
612.841	54789.96
613.198	54723.74
613.554	54697.53
613.911	54917.64
614.267	54893.91
614.624	54867.7
614.98	54910.63
615.337	54970.52
615.693	54925.55
616.05	54895.72
616.406	55083.96
616.762	54927.81
617.118	54910.86
617.475	55080.8
617.831	55053.68
618.187	55119.44
618.543	55036.73
618.899	55208.03
619.255	55150.85
619.611	55199.21
619.967	55206.67
620.323	55286.89
620.678	55190.63
621.034	55165.99
621.39	55106.56
621.746	55164.19
622.101	55429.49
622.457	55156.05
622.812	55288.02
623.168	55300.23
623.523	55242.6
623.879	55364.63
624.234	55187.01
624.589	55281.92
624.945	55312.88
625.3	55266.56
625.655	55311.53
626.01	55315.59
626.365	55347.23
626.72	55218.87
627.075	55308.36
627.43	55311.98
627.785	55279.66
628.14	55280.11
628.495	55359.21
628.85	55335.71
629.205	55224.52
629.559	55421.81
629.914	55209.61
630.269	55330.06
630.623	55230.85
630.978	55168.03
631.332	55357.17
631.687	55321.92
632.041	55206.22
632.396	55203.28
632.75	55204.86
633.104	55267.01
633.459	55056.62
633.813	55082.61
634.167	55037.63
634.521	55119.21
634.875	55174.81
635.229	55121.93
635.583	54938.2
635.937	54953.57
636.291	55009.16
636.645	54920.8
636.999	54957.41
637.352	55018.2
637.706	54856.17
638.06	55016.84
638.413	54904.3
638.767	54856.62
639.121	54936.62
639.474	54860.46
639.828	54816.62
640.181	54813.01
640.534	54850.75
640.888	54740.69
641.241	54639.45
641.594	54687.36
641.947	54786.79
642.301	54689.62
642.654	54751.77
643.007	54732.11
643.36	54683.29
643.713	54678.77
644.066	54716.74
644.419	54567.59
644.771	54307.71
645.124	54071.11
645.477	54113.14
645.83	53939.81
646.182	53806.71
646.535	53776.88
646.888	53858.91
647.24	53699.59
647.593	53883.77
647.945	53787.05
648.298	53718.8
648.65	53567.62
649.002	53499.82
649.355	53672.7
649.707	53628.63
650.059	53703.21
650.411	54067.72
650.763	54150.65
651.115	54495.95
651.467	54292.8
651.819	54311.1
652.171	54244.21
652.523	54227.49
652.875	54170.76
653.227	54102.52
653.578	54277.65
653.93	54220.26
654.282	54121.27
654.633	54007.83
654.985	54163.31
655.337	54071.78
655.688	54062.07
656.039	54211.89
656.391	53914.5
656.742	54002.18
657.094	53940.04
657.445	54159.69
657.796	53983.43
658.147	54001.05
658.498	53916.08
658.849	53917.44
659.2	53954.95
659.551	53935.06
659.902	54005.12
660.253	53931.68
660.604	53898.23
660.955	53746.82
661.306	53926.93
661.656	53876.99
662.007	53838.12
662.358	53779.59
662.708	53758.35
663.059	53834.5
663.409	53637.22
663.76	53759.93
664.11	53779.14
664.461	53807.38
664.811	53828.63
665.161	53790.66
665.511	53627.95
665.862	53705.92
666.212	53740.72
666.562	53792.7
666.912	53678.35
667.262	53630.44
667.612	53608.75
667.962	53649.65
668.312	53722.42
668.662	53828.18
669.011	53629.76
669.361	53621.85
669.711	53603.32
670.06	53567.16
670.41	53509.09
670.76	53409.88
671.109	53561.29
671.459	53504.57
671.808	53411.01
672.157	53439.48
672.507	53298.25
672.856	53326.49
673.205	53291.47
673.554	53413.27
673.904	53305.7
674.253	53383.44
674.602	53319.94
674.951	52866.62
675.3	52573.29
675.649	53149.77
675.998	53095.09
676.346	53106.39
676.695	53201.52
677.044	52932.83
677.393	53033.62
677.741	53025.03
678.09	52906.62
678.438	52853.96
678.787	52956.56
679.135	52931.25
679.484	52719.05
679.832	52745.27
680.181	52504.37
680.529	52634.31
680.877	52620.98
681.225	52596.12
681.573	52749.56
681.922	52462.79
682.27	52416.23
682.618	52345.28
682.966	52312.73
683.314	52327.2
683.661	52354.77
684.009	52065.06
684.357	52055.57
684.705	51997.49
685.053	52030.93
685.4	52020.31
685.748	51797.72
686.095	51654.22
686.443	51738.29
686.79	51545.3
687.138	51599.08
687.485	51619.87
687.832	51477.95
688.18	51543.94
688.527	51283.84
688.874	51220.11
689.221	51177.17
689.568	51072.77
689.915	50987.8
690.262	50956.39
690.609	50991.87
690.956	50818.31
691.303	50763.62
691.65	50588.26
691.997	50499.22
692.344	50351.2
692.69	50259.46
693.037	50217.2
693.383	50072.57
693.73	50113.92
694.077	49997.99
694.423	49842.74
694.769	49762.52
695.116	49710.09
695.462	49519.81
695.808	49541.06
696.155	49562.07
696.501	49286.37
696.847	49191.91
697.193	49063.78
697.539	49151.91
697.885	48882.77
698.231	48856.78
698.577	48774.52
698.923	48651.81
699.269	48531.37
699.614	48351.03
699.96	48303.35
700.306	48255.44
700.651	48180.64
700.997	48001.89
701.342	47918.5
701.688	47872.85
702.033	47676.47
702.379	47665.17
702.724	47634.21
703.069	47701.33
703.415	47138.41
703.76	47295.01
704.105	47290.95
704.45	47157.62
704.795	46991.29
705.14	46898.19
705.485	46820.22
705.83	46600.12
706.175	46744.75
706.52	46590.63
706.865	46435.15
707.209	46400.35
707.554	46250.3
707.899	46327.81
708.243	46105.67
708.588	45942.96
708.932	45685.56
709.277	45779.35
709.621	45751.33
709.966	45490.32
710.31	45564.66
710.654	45244.22
710.998	45485.8
711.342	45372.8
711.687	45213.03
712.031	45030.21
712.375	44926.94
712.719	44975.75
713.063	44961.52
713.407	44990.44
713.75	44768.98
714.094	44798.13
714.438	44627.74
714.782	44554.97
715.125	44402.66
715.469	44467.52
715.812	44166.28
716.156	44119.73
716.499	44041.54
716.843	43996.34
717.186	43858.49
717.53	43961.54
717.873	43989.11
718.216	43781.21
718.559	43700.76
718.902	43412.63
719.246	43447.21
719.589	43464.83
719.932	43234.1
720.275	43158.85
720.617	43215.8
720.96	43255.8
721.303	43177.16
721.646	43069.14
721.989	42871.63
722.331	42991.4
722.674	42823.94
723.016	42938.52
723.359	42665.76
723.701	42804.96
724.044	42511.86
724.386	42372.43
724.729	42418.53
725.071	42588.02
725.413	42353.9
725.755	42249.5
726.097	42207.01
726.439	41945.55
726.782	41978.77
727.124	42242.26
727.465	41891.99
727.807	41972.89
728.149	41845.89
728.491	41869.39
728.833	41806.8
729.175	41494.49
729.516	41571.55
729.858	41596.86
730.199	41498.1
730.541	41496.07
730.882	41374.72
731.224	41481.16
731.565	41165.23
731.906	41179.24
732.248	41295.85
732.589	40991
732.93	40989.87
733.271	40969.98
733.612	41038.68
733.953	41012.24
734.294	40752.13
734.635	40772.93
734.976	40768.18
735.317	40590.78
735.658	40549.65
735.999	40508.98
736.339	40451.35
736.68	40370.9
737.021	40190.79
737.361	40346.5
737.702	40507.17
738.042	40332.26
738.383	40222.66
738.723	40130.91
739.063	40077.8
739.404	40230.34
739.744	40061.98
740.084	39869.22
740.424	39819.28
740.764	39717.59
741.104	40011.59
741.444	39636.46
741.784	39620.86
742.124	39633.97
742.464	39593.3
742.804	39459.97
743.143	39502.9
743.483	39538.83
743.823	39274.43
744.162	39247.32
744.502	39350.14
744.841	39167.09
745.181	39284.83
745.52	39130.03
745.86	39271.95
746.199	38963.03
746.538	39006.64
746.877	38908.57
747.216	39056.59
747.556	38722.58
747.895	38826.54
748.234	38580.89
748.573	38527.11
748.911	38615.92
749.25	38593.1
749.589	38448.69
749.928	38471.74
750.267	38502.7
750.605	38279.88
750.944	38309.49
751.283	38079.44
751.621	38156.27
751.96	38022.04
752.298	37915.83
752.636	37933.23
752.975	37751.54
