Data from White_reflection_standard_FLMS001491_095.txt Node
Date: Tue Feb 07 10:32:14 GMT 2017
User: dcchb
Spectrometer: FLMS00149
Trigger mode: 0
Integration Time (sec): 2.000000E-2
Scans to average: 10
Electric dark correction enabled: true
Nonlinearity correction enabled: false
Boxcar width: 0
XAxis mode: Wavelengths
Number of Pixels in Spectrum: 2048
>>>>>Begin Spectral Data<<<<<
341.393	-17.75
341.776	-17.75
342.16	-17.75
342.543	-56.85
342.927	-79
343.31	-69.5
343.693	-73.35
344.077	-65.21
344.46	-49.17
344.843	-58.43
345.226	-39.67
345.61	-46
345.993	-13.91
346.376	-21.14
346.759	9.36
347.142	23.38
347.525	53.2
347.908	65.86
348.291	81.9
348.674	88.46
349.057	114.22
349.44	106.08
349.823	134.56
350.206	161.9
350.588	210.04
350.971	236.93
351.354	258.17
351.737	283.48
352.119	304.72
352.502	313.31
352.884	330.71
353.267	314.89
353.65	356.25
354.032	361.45
354.414	360.77
354.797	342.46
355.179	350.37
355.562	361.67
355.944	359.86
356.326	396.25
356.709	387.89
357.091	388.11
357.473	406.19
357.855	384.72
358.238	393.99
358.62	392.86
359.002	397.15
359.384	369.81
359.766	405.74
360.148	395.57
360.53	391.28
360.912	391.73
361.294	390.15
361.676	412.29
362.057	423.82
362.439	403.93
362.821	394.66
363.203	411.84
363.584	384.27
363.966	435.12
364.348	393.76
364.729	408.68
365.111	411.61
365.493	397.38
365.874	417.49
366.256	429.24
366.637	431.95
367.019	405.51
367.4	427.66
367.781	419.07
368.163	421.33
368.544	424.49
368.925	416.81
369.306	415.68
369.688	405.29
370.069	429.92
370.45	428.34
370.831	434.44
371.212	429.69
371.593	435.79
371.974	465.62
372.355	441.22
372.736	437.83
373.117	455
373.498	457.26
373.879	441.9
374.26	456.13
374.641	417.94
375.021	448.45
375.402	459.75
375.783	482.8
376.163	520.76
376.544	506.53
376.925	506.07
377.305	479.86
377.686	499.52
378.066	493.65
378.447	488
378.827	487.54
379.208	497.71
379.588	513.08
379.968	495
380.349	502.01
380.729	531.61
381.109	530.25
381.489	546.98
381.87	525.73
382.25	536.36
382.63	531.16
383.01	562.12
383.39	551.5
383.77	586.98
384.15	560.54
384.53	578.84
384.91	607.99
385.29	597.6
385.67	622.46
386.049	619.29
386.429	602.57
386.809	601.89
387.189	629.23
387.568	620.87
387.948	611.61
388.328	649.12
388.707	648.22
389.087	658.39
389.466	666.52
389.846	661.78
390.225	703.58
390.605	692.51
390.984	708.55
391.363	706.97
391.743	734.09
392.122	721.89
392.501	722.79
392.881	755.33
393.26	735.9
393.639	735.22
394.018	738.16
394.397	756.46
394.776	779.51
395.155	775.22
395.534	772.28
395.913	806.86
396.292	820.42
396.671	840.53
397.05	810.47
397.429	824.03
397.808	829.91
398.186	855.9
398.565	838.27
398.944	836.69
399.323	861.09
399.701	890.02
400.08	884.82
400.458	901.77
400.837	932.28
401.215	919.62
401.594	940.87
401.972	960.98
402.351	958.94
402.729	974.99
403.107	1001.43
403.486	992.84
403.864	989.23
404.242	999.39
404.62	995.55
404.999	1045.72
405.377	1006.4
405.755	1044.37
406.133	1071.71
406.511	1083.91
406.889	1093.86
407.267	1085.04
407.645	1111.48
408.023	1134.53
408.401	1159.39
408.779	1150.13
409.156	1175.21
409.534	1190.35
409.912	1205.04
410.29	1225.83
410.667	1260.86
411.045	1277.35
411.422	1276
411.8	1287.97
412.178	1287.75
412.555	1375.43
412.933	1363.45
413.31	1374.75
413.687	1426.5
414.065	1408.65
414.442	1441.87
414.819	1438.25
415.197	1467.63
415.574	1476.22
415.951	1510.79
416.328	1494.07
416.705	1501.08
417.082	1536.78
417.46	1553.28
417.837	1559.83
418.214	1562.54
418.591	1636.44
418.967	1623.33
419.344	1617.46
419.721	1638.7
420.098	1691.58
420.475	1687.51
420.852	1725.48
421.228	1686.61
421.605	1738.81
421.982	1741.75
422.358	1796.89
422.735	1813.84
423.111	1799.15
423.488	1840.05
423.864	1847.06
424.241	1901.97
424.617	1916.43
424.994	1940.16
425.37	1912.36
425.746	1943.78
426.123	1946.94
426.499	2019.25
426.875	1999.37
427.251	2066.03
427.627	2109.87
428.003	2127.73
428.379	2137.22
428.756	2169.31
429.132	2184.67
429.507	2265.12
429.883	2259.93
430.259	2273.71
430.635	2334.27
431.011	2328.4
431.387	2418.34
431.763	2436.64
432.138	2444.78
432.514	2519.35
432.89	2525.91
433.265	2587.38
433.641	2597.77
434.016	2645
434.392	2661.05
434.767	2699.69
435.143	2707.15
435.518	2744.89
435.894	2767.03
436.269	2817.88
436.644	2878.67
437.02	2868.27
437.395	2904.66
437.77	2953.02
438.145	3000.7
438.52	3002.73
438.895	3070.07
439.271	3088.83
439.646	3117.98
440.021	3143.52
440.395	3167.47
440.77	3145.33
441.145	3217.64
441.52	3219.45
441.895	3247.47
442.27	3270.07
442.645	3313.23
443.019	3397.07
443.394	3363.63
443.769	3425.55
444.143	3374.25
444.518	3460.57
444.892	3472.32
445.267	3486.33
445.641	3530.63
446.016	3565.65
446.39	3584.86
446.764	3590.29
447.139	3597.97
447.513	3640.91
447.887	3690.17
448.262	3715.26
448.636	3705.54
449.01	3783.05
449.384	3823.5
449.758	3872.77
450.132	3909.83
450.506	3922.93
450.88	3950.73
451.254	3955.02
451.628	4019.2
452.002	4077.28
452.376	4131.97
452.75	4119.76
453.123	4169.93
453.497	4246.54
453.871	4263.72
454.244	4374.67
454.618	4352.75
454.992	4481.11
455.365	4480.89
455.739	4559.3
456.112	4637.04
456.486	4710.03
456.859	4708.45
457.232	4826.19
457.606	4819.86
457.979	4836.81
458.352	4984.83
458.725	5043.81
459.099	5063.47
459.472	5118.38
459.845	5230.92
460.218	5284.25
460.591	5369.45
460.964	5350.01
461.337	5502.55
461.71	5533.51
462.083	5601.31
462.456	5660.74
462.829	5692.83
463.201	5763.79
463.574	5846.95
463.947	5873.62
464.32	6067.51
464.692	6081.52
465.065	6117.23
465.438	6253.49
465.81	6326.94
466.183	6372.13
466.555	6549.31
466.928	6559.02
467.3	6645.8
467.672	6665.69
468.045	6866.13
468.417	6910.65
468.789	6942.74
469.161	6963.53
469.534	7220.93
469.906	7340.24
470.278	7385.89
470.65	7408.04
471.022	7651.88
471.394	7781.14
471.766	7745.66
472.138	7910.17
472.51	8056.16
472.882	8170.05
473.253	8287.11
473.625	8393.55
473.997	8554.22
474.369	8666.31
474.74	8767.33
475.112	8930.03
475.484	9095
475.855	9284.37
476.227	9346.75
476.598	9591.49
476.97	9595.1
477.341	9894.08
477.713	10031.93
478.084	10132.26
478.455	10430.56
478.827	10480.95
479.198	10802.98
479.569	10760.49
479.94	11162.97
480.311	11242.74
480.682	11454.71
481.053	11731.54
481.424	11987.35
481.795	12100.12
482.166	12201.13
482.537	12395.93
482.908	12639.99
483.279	12848.12
483.65	13109.36
484.021	13265.96
484.391	13422.34
484.762	13527.43
485.133	13681.55
485.503	13903.24
485.874	14218.48
486.244	14375.31
486.615	14588.42
486.985	14725.59
487.356	15038.12
487.726	15190.43
488.097	15560.14
488.467	15493.25
488.837	15933.47
489.207	16090.75
489.578	16309.73
489.948	16469.04
490.318	16663.84
490.688	16728.47
491.058	17110.61
491.428	17215.01
491.798	17468.11
492.168	17796.92
492.538	17781.33
492.908	18061.32
493.278	18245.04
493.648	18330.24
494.017	18578.37
494.387	18717.57
494.757	18971.13
495.126	19187.62
495.496	19290.89
495.866	19331.79
496.235	19602.75
496.605	19741.27
496.974	19833.48
497.344	20064.88
497.713	20156.86
498.082	20345.55
498.452	20634.36
498.821	20604.75
499.19	20783.73
499.559	20901.7
499.928	21160.67
500.298	21214.46
500.667	21408.58
501.036	21562.47
501.405	21740.09
501.774	21707.55
502.143	22014.21
502.512	22043.36
502.88	22281.77
503.249	22314.31
503.618	22598.37
503.987	22634.76
504.356	22782.32
504.724	23010.57
505.093	23081.75
505.462	23192.71
505.83	23429.09
506.199	23648.52
506.567	23902.52
506.936	23924.22
507.304	24237.2
507.672	24314.94
508.041	24413.69
508.409	24742.73
508.777	24690.07
509.145	24928.48
509.514	24997.18
509.882	25209.38
510.25	25355.82
510.618	25472.65
510.986	25741.79
511.354	25930.04
511.722	26199.86
512.09	26476.46
512.458	26475.33
512.826	26627.87
513.193	26820.41
513.561	26934.31
513.929	27223.56
514.297	27455.42
514.664	27567.28
515.032	27637.34
515.4	27870.1
515.767	28153.93
516.135	28196.19
516.502	28171.56
516.869	28870.98
517.237	28851.54
517.604	28873.24
517.972	29304.41
518.339	29367.46
518.706	29616.27
519.073	29636.16
519.44	29923.38
519.808	30196.14
520.175	30230.26
520.542	30666.86
520.909	30903.47
521.276	30842.9
521.643	31328.09
522.009	31479.72
522.376	31684.92
522.743	31892.14
523.11	32228.4
523.477	32514.95
523.843	32756.53
524.21	33092.56
524.577	33229.28
524.943	33445.1
525.31	33596.73
525.676	33935.93
526.043	34121.91
526.409	34333.66
526.776	34775.91
527.142	34856.81
527.508	35001.89
527.874	35329.57
528.241	35492.5
528.607	35672.61
528.973	35985.37
529.339	36011.36
529.705	36458.58
530.071	36630.32
530.437	36878.45
530.803	37039.35
531.169	37236.63
531.535	37355.05
531.901	37313.47
532.267	37555.95
532.632	37835.49
532.998	37940.34
533.364	38287.45
533.73	38371.52
534.095	38608.35
534.461	38812.19
534.826	38743.03
535.192	39159.07
535.557	39262.8
535.923	39266.64
536.288	39551.15
536.653	39729.45
537.019	39672.5
537.384	40023.68
537.749	40126.73
538.114	40238.36
538.479	40358.36
538.845	40574.17
539.21	40620.95
539.575	40671.57
539.94	40785.02
540.305	41207.15
540.67	41099.36
541.034	41280.14
541.399	41385.68
541.764	41632.68
542.129	41742.5
542.494	41799.9
542.858	42076.51
543.223	42141.82
543.587	42214.81
543.952	42237.18
544.316	42488.93
544.681	42559.43
545.045	42761.69
545.41	43040.78
545.774	43093.88
546.138	43111.06
546.503	43362.12
546.867	43350.6
547.231	43706.07
547.595	43746.52
547.959	44036.46
548.324	43909.23
548.688	44179.73
549.052	44341.98
549.416	44440.74
549.779	44410.46
550.143	44625.14
550.507	44827.85
550.871	44966.83
551.235	44991.46
551.599	45432.8
551.962	45438.9
552.326	45594.15
552.689	45798.67
553.053	45592.57
553.417	45865.33
553.78	46378.99
554.143	46175.83
554.507	46472.78
554.87	46505.32
555.234	46913.67
555.597	46744.18
555.96	46874.35
556.323	47049.26
556.686	47142.36
557.05	47576.48
557.413	47576.48
557.776	47582.12
558.139	48063.02
558.502	48042.23
558.865	48205.16
559.228	48561.08
559.59	48557.47
559.953	48530.35
560.316	49146.38
560.679	48984.57
561.041	49296.66
561.404	49478.8
561.767	49647.38
562.129	49431.12
562.492	49933.93
562.854	49952.23
563.217	49978.9
563.579	50195.84
563.941	50380.24
564.304	50507.02
564.666	50786.79
565.028	50786.56
565.39	51052.32
565.753	51163.73
566.115	51274.68
566.477	51319.43
566.839	51445.07
567.201	51730.94
567.563	51775.69
567.925	52011.84
568.287	52072.63
568.648	52063.14
569.01	52260.42
569.372	52509.9
569.734	52343.13
570.095	52554.2
570.457	52651.14
570.819	52729.56
571.18	52756
571.542	52998.48
571.903	52971.14
572.265	53208.64
572.626	53183.79
572.987	53256.78
573.349	53374.97
573.71	53494.96
574.071	53503.55
574.432	53608.86
574.794	53857.21
575.155	53830.55
575.516	53738.8
575.877	53941.05
576.238	53967.72
576.599	54107.83
576.96	54040.03
577.32	54105.79
577.681	54226.47
578.042	54305.79
578.403	54299.69
578.763	54374.49
579.124	54398.22
579.485	54477.31
579.845	54638.21
580.206	54522.06
580.566	54549.85
580.927	54612.67
581.287	54668.27
581.648	54597.53
582.008	54726.57
582.368	54643.63
582.728	54762.05
583.089	54624.2
583.449	54757.98
583.809	54728.6
584.169	54794.59
584.529	54691.99
584.889	54929.05
585.249	54769.28
585.609	54720.92
585.969	54865.32
586.329	54842.72
586.688	54827.58
587.048	54768.38
587.408	54825.55
587.768	54779.22
588.127	54828.71
588.487	54714.14
588.846	54950.52
589.206	54763.86
589.565	54769.28
589.925	54949.39
590.284	54819
590.643	54842.72
591.003	54951.87
591.362	54966.56
591.721	54941.71
592.08	54936.28
592.44	54980.12
592.799	55055.83
593.158	54960.69
593.517	54947.58
593.876	55018.99
594.235	54914.36
594.593	54985.55
594.952	54977.18
595.311	55002.27
595.67	55025.32
596.029	55170.17
596.387	55153.9
596.746	55251.3
597.104	55073
597.463	55182.15
597.822	55203.17
598.18	55082.27
598.538	55041.82
598.897	55251.98
599.255	55057.63
599.613	55350.73
599.972	55255.14
600.33	55318.19
600.688	55230.74
601.046	55304.63
601.404	55426.66
601.762	55394.8
602.12	55473.89
602.478	55440.22
602.836	55504.18
603.194	55405.65
603.552	55410.85
603.91	55437.96
604.268	55513.22
604.625	55489.94
604.983	55536.04
605.341	55436.83
605.698	55632.99
606.056	55690.84
606.413	55629.82
606.771	55676.15
607.128	55706.66
607.485	55651.06
607.843	55715.02
608.2	55782.59
608.557	55893.32
608.914	55789.37
609.272	55901.23
609.629	55938.74
609.986	56098.06
610.343	55993.43
610.7	56105.06
611.057	56082.92
611.414	56011.06
611.771	56082.69
612.127	56166.53
612.484	56133.09
612.841	56239.75
613.198	56107.32
613.554	56080.88
613.911	56277.04
614.267	56341.44
614.624	56202.01
614.98	56279.07
615.337	56451.72
615.693	56391.61
616.05	56306.64
616.406	56525.39
616.762	56360.65
617.118	56360.65
617.475	56362.46
617.831	56459.41
618.187	56450.37
618.543	56517.71
618.899	56597.48
619.255	56594.99
619.611	56542.79
619.967	56615.33
620.323	56660.08
620.678	56617.82
621.034	56529.91
621.39	56518.39
621.746	56510.7
622.101	56782.11
622.457	56547.54
622.812	56589.8
623.168	56619.85
623.523	56609.23
623.879	56693.52
624.234	56520.42
624.589	56656.69
624.945	56699.62
625.3	56606.52
625.655	56611.94
626.01	56688.33
626.365	56623.24
626.72	56569.91
627.075	56522.68
627.43	56550.93
627.785	56558.16
628.14	56579.63
628.495	56608.55
628.85	56529.46
629.205	56463.7
629.559	56586.41
629.914	56475.68
630.269	56431.16
630.623	56455.79
630.978	56397.03
631.332	56437.48
631.687	56519.74
632.041	56376.7
632.396	56378.96
632.75	56315.91
633.104	56399.52
633.459	56192.29
633.813	56200.43
634.167	56181.45
634.521	56139.41
634.875	56200.66
635.229	56137.15
635.583	55936.93
635.937	56005.18
636.291	55966.54
636.645	55922.7
636.999	55900.1
637.352	55948.23
637.706	55803.15
638.06	55820.78
638.413	55915.69
638.767	55762.47
639.121	55796.82
639.474	55596.38
639.828	55691.52
640.181	55596.38
640.534	55711.4
640.888	55520.9
641.241	55404.52
641.594	55562.48
641.947	55563.38
642.301	55450.17
642.654	55494.23
643.007	55381.02
643.36	55341.24
643.713	55280.91
644.066	55402.48
644.419	55178.76
644.771	55041.82
645.124	54759.79
645.477	54524.77
645.83	54537.87
646.182	54390.31
646.535	54297.2
646.888	54356.86
647.24	54194.38
647.593	54354.6
647.945	54271.67
648.298	54149.64
648.65	54024.44
649.002	53996.87
649.355	54072.8
649.707	54088.85
650.059	54251.1
650.411	54561.15
650.763	54589.85
651.115	54814.25
651.467	54590.53
651.819	54665.33
652.171	54578.1
652.523	54524.54
652.875	54510.08
653.227	54307.15
653.578	54575.61
653.93	54445.22
654.282	54402.28
654.633	54216.53
654.985	54265.79
655.337	54286.81
655.688	54258.56
656.039	54377.2
656.391	54073.71
656.742	54119.58
657.094	54144.89
657.445	54190.76
657.796	54139.69
658.147	54049.75
658.498	54043.88
658.849	54091.56
659.2	54006.59
659.551	53979.47
659.902	54148.73
660.253	53957.32
660.604	54000.94
660.955	53868.96
661.306	53985.35
661.656	53914.16
662.007	53920.04
662.358	53853.15
662.708	53842.98
663.059	53802.98
663.409	53739.02
663.76	53868.06
664.11	53850.89
664.461	53848.63
664.811	53766.59
665.161	53724.11
665.511	53661.96
665.862	53674.62
666.212	53829.42
666.562	53751.91
666.912	53736.09
667.262	53621.74
667.612	53593.72
667.962	53614.73
668.312	53568.86
668.662	53809.08
669.011	53617.45
669.361	53551.46
669.711	53482.31
670.06	53370.45
670.41	53408.86
670.76	53355.76
671.109	53484.79
671.459	53373.61
671.808	53374.74
672.157	53421.52
672.507	53207.29
672.856	53193.28
673.205	53228.76
673.554	53341.52
673.904	53202.99
674.253	53357.11
674.602	53136.55
674.951	52744.02
675.3	52624.93
675.649	53040.06
675.998	53045.71
676.346	53031.92
676.695	53136.55
677.044	52943.79
677.393	52990.12
677.741	53107.4
678.09	52906.28
678.438	52908.31
678.787	52889.33
679.135	52847.3
679.484	52547.19
679.832	52793.51
680.181	52603.24
680.529	52720.97
680.877	52584.03
681.225	52506.06
681.573	52735.89
681.922	52399.4
682.27	52370.7
682.618	52382
682.966	52240.76
683.314	52329.57
683.661	52232.85
684.009	52134.32
684.357	52032.63
684.705	51921.9
685.053	52035.79
685.4	51921.45
685.748	51793.31
686.095	51772.52
686.443	51624.5
686.79	51606.43
687.138	51594.45
687.485	51519.42
687.832	51385.64
688.18	51451.85
688.527	51198.3
688.874	51273.1
689.221	51193.56
689.568	51059.55
689.915	50900
690.262	51012.32
690.609	50847.35
690.956	50732.1
691.303	50719.9
691.65	50562.39
691.997	50557.19
692.344	50270.19
692.69	50259.79
693.037	50234.48
693.383	49993.36
693.73	50112.23
694.077	49987.26
694.423	49850.09
694.769	49725.12
695.116	49578.91
695.462	49624.1
695.808	49461.85
696.155	49467.72
696.501	49222.53
696.847	49161.74
697.193	48966.27
697.539	49060.96
697.885	48865.93
698.231	48737.8
698.577	48735.54
698.923	48595.21
699.269	48447.19
699.614	48248.55
699.96	48275.67
700.306	48237.93
700.651	48049.68
700.997	47849.69
701.342	47913.42
701.688	47777.15
702.033	47669.13
702.379	47588.9
702.724	47541.9
703.069	47589.58
703.415	47201.12
703.76	47078.41
704.105	47043.38
704.45	46989.37
704.795	46669.61
705.14	46625.77
705.485	46680
705.83	46518.2
706.175	46461.02
706.52	46364.3
706.865	46249.5
707.209	46117.3
707.554	46034.82
707.899	46042.96
708.243	45816.52
708.588	45713.25
708.932	45591.44
709.277	45495.17
709.621	45571.33
709.966	45216.31
710.31	45306.93
710.654	44960.5
710.998	45084.79
711.342	45024.45
711.687	44903.78
712.031	44700.84
712.375	44529.1
712.719	44591.69
713.063	44631.69
713.407	44622.88
713.75	44396.22
714.094	44438.7
714.438	44116.45
714.782	44241.65
715.125	43927.31
715.469	44188.54
715.812	43925.72
716.156	43675.33
716.499	43660.19
716.843	43661.55
717.186	43445.51
717.53	43572.51
717.873	43461.55
718.216	43455.23
718.559	43274.67
718.902	42970.49
719.246	43074.22
719.589	42870.84
719.932	42857.05
720.275	42676.49
720.617	42861.12
720.96	42687.34
721.303	42534.12
721.646	42538.87
721.989	42310.4
722.331	42616.15
722.674	42338.87
723.016	42310.85
723.359	42303.85
723.701	42188.82
724.044	41874.03
724.386	41735.05
724.729	41983.18
725.071	41737.53
725.413	41867.92
725.755	41765.78
726.097	41566.24
726.439	41262.74
726.782	41409.86
727.124	41590.87
727.465	41285.57
727.807	41349.29
728.149	41287.6
728.491	41136.64
728.833	41297.32
729.175	41088.96
729.516	40855.3
729.858	40789.53
730.199	40894.84
730.541	40687.16
730.882	40656.88
731.224	40785.69
731.565	40456.44
731.906	40432.03
732.248	40460.28
732.589	40345.03
732.93	40234.75
733.271	40196.78
733.612	40305.25
733.953	40179.61
734.294	40048.76
734.635	39847.19
734.976	39993.62
735.317	39756.12
735.658	39812.16
735.999	39665.5
736.339	39641.32
736.68	39671.82
737.021	39445.39
737.361	39374.43
737.702	39617.14
738.042	39404.03
738.383	39230.25
738.723	39301.66
739.063	39086.53
739.404	39129.01
739.744	39240.87
740.084	38931.05
740.424	38971.28
740.764	38933.09
741.104	38969.7
741.444	38670.04
741.784	38728.12
742.124	38655.35
742.464	38527
742.804	38583.04
743.143	38371.97
743.483	38487.45
743.823	38167
744.162	38265.76
744.502	38359.99
744.841	37981.47
745.181	38189.15
745.52	37990.51
745.86	38048.14
746.199	38025.09
746.538	38076.39
746.877	37859.67
747.216	37821.48
747.556	37754.81
747.895	37713.68
748.234	37515.72
748.573	37412.45
748.911	37509.17
749.25	37361.83
749.589	37280.93
749.928	37233.02
750.267	37138.33
750.605	37227.82
750.944	37075.28
751.283	36879.13
751.621	36876.64
751.96	36686.37
752.298	36728.17
