Data from white_steel_sheet_FLMS001491_079.txt Node
Date: Tue Feb 07 10:58:27 GMT 2017
User: dcchb
Spectrometer: FLMS00149
Trigger mode: 0
Integration Time (sec): 2.000000E-2
Scans to average: 10
Electric dark correction enabled: true
Nonlinearity correction enabled: false
Boxcar width: 0
XAxis mode: Wavelengths
Number of Pixels in Spectrum: 2048
>>>>>Begin Spectral Data<<<<<
341.393	-26.16
341.776	-26.16
342.16	-26.16
342.543	-61.86
342.927	-63.22
343.31	-78.13
343.693	-68.87
344.077	-52.6
344.46	-58.25
344.843	-55.76
345.226	-36.78
345.61	-52.37
345.993	-24.8
346.376	-4.69
346.759	-1.98
347.142	52.48
347.525	34.18
347.908	68.98
348.291	87.96
348.674	91.58
349.057	99.04
349.44	145.82
349.823	148.53
350.206	165.25
350.588	212.25
350.971	210.9
351.354	220.62
351.737	228.98
352.119	260.84
352.502	266.26
352.884	279.6
353.267	294.96
353.65	293.61
354.032	294.06
354.414	325.02
354.797	319.82
355.179	325.92
355.562	333.38
355.944	339.26
356.326	337.9
356.709	358.92
357.091	345.58
357.473	345.81
357.855	358.24
358.238	354.17
358.62	362.53
359.002	338.8
359.384	371.35
359.766	364.34
360.148	350.56
360.53	326.83
360.912	349.65
361.294	364.57
361.676	364.79
362.057	340.39
362.439	341.97
362.821	338.58
363.203	334.28
363.584	334.51
363.966	356.66
364.348	341.52
364.729	326.83
365.111	336.77
365.493	348.75
365.874	348.07
366.256	324.57
366.637	341.06
367.019	329.31
367.4	327.51
367.781	349.65
368.163	345.13
368.544	327.96
368.925	331.35
369.306	370.67
369.688	335.19
370.069	344.23
370.45	331.35
370.831	325.7
371.212	351.46
371.593	318.69
371.974	329.09
372.355	330.22
372.736	334.28
373.117	334.74
373.498	333.38
373.879	336.09
374.26	328.86
374.641	315.3
375.021	351.46
375.402	340.84
375.783	358.92
376.163	353.72
376.544	374.51
376.925	338.8
377.305	334.51
377.686	358.01
378.066	362.31
378.447	354.85
378.827	352.36
379.208	368.63
379.588	340.16
379.968	366.83
380.349	371.12
380.729	386.71
381.109	368.41
381.489	355.75
381.87	357.34
382.25	374.51
382.63	364.11
383.01	372.25
383.39	372.7
383.77	382.42
384.15	386.49
384.53	393.94
384.91	384.23
385.29	389.2
385.67	400.95
386.049	414.51
386.429	398.46
386.809	423.77
387.189	403.21
387.568	387.62
387.948	401.4
388.328	421.97
388.707	411.8
389.087	410.22
389.466	419.03
389.846	428.75
390.225	429.2
390.605	429.88
390.984	434.85
391.363	429.2
391.743	442.76
392.122	443.89
392.501	476.43
392.881	458.58
393.26	468.07
393.639	470.78
394.018	481.85
394.397	483.43
394.776	486.82
395.155	489.08
395.534	479.82
395.913	492.92
396.292	513.49
396.671	512.13
397.05	518.01
397.429	541.06
397.808	511.23
398.186	523.43
398.565	525.92
398.944	538.57
399.323	551.45
399.701	535.86
400.08	571.79
400.458	553.94
400.837	560.49
401.215	585.58
401.594	592.13
401.972	606.14
402.351	624.22
402.729	618.12
403.107	633.26
403.486	649.76
403.864	645.69
404.242	665.35
404.62	690.43
404.999	696.08
405.377	708.29
405.755	676.87
406.133	694.05
406.511	732.47
406.889	742.18
407.267	739.47
407.645	741.51
408.023	775.4
408.401	793.71
408.779	789.64
409.156	811.79
409.534	815.4
409.912	815.4
410.29	849.07
410.667	865.12
411.045	872.8
411.422	866.7
411.8	891.33
412.178	910.09
412.555	929.98
412.933	942.63
413.31	949.64
413.687	985.12
414.065	964.78
414.442	1003.42
414.819	999.8
415.197	1001.16
415.574	1013.82
415.951	1052.01
416.328	1046.36
416.705	1053.81
417.082	1032.8
417.46	1068.5
417.837	1087.71
418.214	1108.05
418.591	1110.08
418.967	1123.87
419.344	1117.54
419.721	1142.85
420.098	1174.49
420.475	1183.75
420.852	1193.47
421.228	1187.82
421.605	1202.28
421.982	1208.84
422.358	1235.96
422.735	1206.58
423.111	1274.15
423.488	1283.64
423.864	1288.38
424.241	1282.73
424.617	1300.14
424.994	1344.2
425.37	1349.63
425.746	1325.9
426.123	1356.63
426.499	1382.17
426.875	1410.87
427.251	1410.41
427.627	1454.71
428.003	1448.15
428.379	1473.69
428.756	1500.13
429.132	1538.32
429.507	1542.61
429.883	1539.68
430.259	1556.4
430.635	1601.82
431.011	1600.01
431.387	1631.65
431.763	1659.22
432.138	1688.83
432.514	1724.98
432.89	1701.71
433.265	1749.16
433.641	1776.05
434.016	1783.29
434.392	1822.38
434.767	1832.55
435.143	1853.34
435.518	1908.03
435.894	1925.43
436.269	1927.69
436.644	1957.29
437.02	1956.62
437.395	1968.37
437.77	2023.51
438.145	2028.48
438.52	2066.22
438.895	2096.95
439.271	2091.75
439.646	2129.27
440.021	2161.13
440.395	2178.98
440.77	2140.57
441.145	2188.25
441.52	2228.25
441.895	2233.44
442.27	2254.01
442.645	2250.17
443.019	2292.65
443.394	2288.58
443.769	2303.72
444.143	2284.74
444.518	2367.45
444.892	2373.1
445.267	2368.13
445.641	2444.96
446.016	2439.31
446.39	2435.47
446.764	2483.16
447.139	2453.78
447.513	2541.68
447.887	2521.57
448.262	2521.8
448.636	2543.49
449.01	2569.71
449.384	2615.35
449.758	2638.41
450.132	2691.06
450.506	2651.29
450.88	2671.17
451.254	2687.22
451.628	2757.5
452.002	2749.36
452.376	2812.19
452.75	2821.68
453.123	2849.7
453.497	2912.07
453.871	2951.84
454.244	2996.14
454.618	2971.96
454.992	3043.59
455.365	3047.43
455.739	3076.36
456.112	3153.19
456.486	3165.17
456.859	3216.92
457.232	3250.14
457.606	3295.11
457.979	3304.6
458.352	3395.67
458.725	3425.05
459.099	3449.46
459.472	3458.95
459.845	3551.38
460.218	3564.48
460.591	3618.04
460.964	3608.78
461.337	3719.51
461.71	3749.79
462.083	3804.02
462.456	3847.86
462.829	3839.96
463.201	3923.34
463.574	3934.42
463.947	3980.29
464.32	4048.31
464.692	4115.65
465.065	4118.14
465.438	4211.92
465.81	4241.3
466.183	4272.26
466.555	4387.51
466.928	4421.18
467.3	4369.21
467.672	4523.1
468.045	4564
468.417	4594.29
468.789	4644.23
469.161	4738.69
469.534	4787.95
469.906	4886.71
470.278	4940.27
470.65	4980.49
471.022	5027.27
471.394	5150.88
471.766	5198.56
472.138	5237.88
472.51	5410.54
472.882	5470.42
473.253	5514.71
473.625	5579.34
473.997	5722.17
474.369	5694.14
474.74	5825.44
475.112	5911.09
475.484	6049.61
475.855	6133.45
476.227	6190.85
476.598	6333.68
476.97	6378.87
477.341	6542.26
477.713	6618.19
478.084	6726.21
478.455	6861.12
478.827	6910.38
479.198	7108.34
479.569	7124.16
479.94	7338.62
480.311	7414.78
480.682	7612.51
481.053	7829
481.424	7894.09
481.795	7974.99
482.166	8108.09
482.537	8193.97
482.908	8331.59
483.279	8518.48
483.65	8665.14
484.021	8718.02
484.391	8875.08
484.762	8996.43
485.133	9067.61
485.503	9216.54
485.874	9422.63
486.244	9477.77
486.615	9639.58
486.985	9733.59
487.356	9933.35
487.726	10048.83
488.097	10246.11
488.467	10295.15
488.837	10487.92
489.207	10601.13
489.578	10731.53
489.948	10855.14
490.318	11007.22
490.688	11077.28
491.058	11242.92
491.428	11389.81
491.798	11553.65
492.168	11801.55
492.538	11733.76
492.908	11996.8
493.278	12162.9
493.648	12166.97
494.017	12238.15
494.387	12370.35
494.757	12464.14
495.126	12733.51
495.496	12723.11
495.866	12822.77
496.235	13020.05
496.605	13097.57
496.974	13151.35
497.344	13305.92
497.713	13423.88
498.082	13503.88
498.452	13617.33
498.821	13671.79
499.19	13784.33
499.559	13982.51
499.928	14032.91
500.298	14175.73
500.667	14242.62
501.036	14248.27
501.405	14438.55
501.774	14509.96
502.143	14724.42
502.512	14691.87
502.88	14836.73
503.249	14916.5
503.618	15075.37
503.987	15109.26
504.356	15301.12
504.724	15295.02
505.093	15467.9
505.462	15497.95
505.83	15613.88
506.199	15757.61
506.567	16055.45
506.936	15921.45
507.304	16226.97
507.672	16252.96
508.041	16332.96
508.409	16454.54
508.777	16669.9
509.145	16706.51
509.514	16749.9
509.882	16895.43
510.25	17004.81
510.618	17226.27
510.986	17291.13
511.354	17442.99
511.722	17553.95
512.09	17704.22
512.458	17731.34
512.826	17969.98
513.193	18060.6
513.561	18125.68
513.929	18289.29
514.297	18543.98
514.664	18657.65
515.032	18742.16
515.4	18856.51
515.767	18974.25
516.135	19151.64
516.502	19122.27
516.869	19314.8
517.237	19448.58
517.604	19307.12
517.972	19681.57
518.339	19884.51
518.706	19859.65
519.073	20046.08
519.44	20303.7
519.808	20482.46
520.175	20347.77
520.542	20750.02
520.909	20905.27
521.276	20889
521.643	21141.65
522.009	21429.55
522.376	21486.5
522.743	21602.43
523.11	21868.63
523.477	22142.75
523.843	22114.73
524.21	22476.98
524.577	22476.08
524.943	22744.77
525.31	22967.36
525.676	23036.96
526.043	23141.59
526.409	23324.64
526.776	23527.12
527.142	23617.06
527.508	23846.66
527.874	24044.85
528.241	24178.4
528.607	24271.51
528.973	24507.89
529.339	24610.48
529.705	24865.39
530.071	25029.68
530.437	25138.15
530.803	25359.84
531.169	25464.7
531.535	25444.59
531.901	25584.47
532.267	25723
532.632	25937.45
532.998	26014.97
533.364	26102.65
533.73	26245.92
534.095	26488.63
534.461	26534.5
534.826	26676.87
535.192	26881.84
535.557	27012.45
535.923	26972
536.288	27088.84
536.653	27082.06
537.019	27259.9
537.384	27455.83
537.749	27509.16
538.114	27588.94
538.479	27809.95
538.845	27820.57
539.21	27917.51
539.575	27921.81
539.94	28004.52
540.305	28325.19
540.67	28369.03
541.034	28456.71
541.399	28549.14
541.764	28667.78
542.129	28661.22
542.494	28779.41
542.858	28997.26
543.223	28947.32
543.587	29190.25
543.952	29135.79
544.316	29487.42
544.681	29291.72
545.045	29424.59
545.41	29617.58
545.774	29634.31
546.138	29792.04
546.503	29858.25
546.867	29834.07
547.231	30225.02
547.595	30074.29
547.959	30357.45
548.324	30380.5
548.688	30408.3
549.052	30559.25
549.416	30688.97
549.779	30783.65
550.143	30650.55
550.507	30965.57
550.871	31131.67
551.235	31118.56
551.599	31392.45
551.962	31484.88
552.326	31562.84
552.689	31723.52
553.053	31573.69
553.417	31785.66
553.78	32180.23
554.143	31957.86
554.507	32174.13
554.87	32392.2
555.234	32550.84
555.597	32480.33
555.96	32728.91
556.323	32695.47
556.686	32906.08
557.05	33075.35
557.413	33118.28
557.776	33315.34
558.139	33546.07
558.502	33529.8
558.865	33545.16
559.228	33787.19
559.59	34009.56
559.953	34028.09
560.316	34327.97
560.679	34406.38
561.041	34512.14
561.404	34769.54
561.767	34969.98
562.129	34864
562.492	35320.26
562.854	35220.6
563.217	35326.36
563.579	35398.9
563.941	35743.52
564.304	35786.01
564.666	36069.39
565.028	36037.53
565.39	36170.4
565.753	36440.23
566.115	36475.93
566.477	36819.43
566.839	36797.28
567.201	36942.81
567.563	37050.38
567.925	37256.48
568.287	37228.46
568.648	37309.58
569.01	37607.43
569.372	37801.32
569.734	37696.92
570.095	38008.1
570.457	38096.23
570.819	38196.11
571.18	38189.11
571.542	38514.52
571.903	38462.1
572.265	38575.99
572.626	38825.25
572.987	38723.56
573.349	38804.91
573.71	39126.71
574.071	39144.11
574.432	39322.19
574.794	39436.08
575.155	39507.04
575.516	39367.83
575.877	39701.39
576.238	39679.24
576.599	39624.78
576.96	39784.77
577.32	39755.4
577.681	39960.81
578.042	39936.18
578.403	40096.63
578.763	40142.28
579.124	40076.29
579.485	40303.63
579.845	40319
580.206	40212.11
580.566	40253.91
580.927	40417.52
581.287	40382.72
581.648	40318.32
582.008	40485.32
582.368	40478.09
582.728	40683.28
583.089	40608.03
583.449	40509.5
583.809	40525.32
584.169	40541.14
584.529	40677.41
584.889	40982.93
585.249	40563.06
585.609	40455.49
585.969	40712.88
586.329	40521.7
586.688	40676.5
587.048	40600.34
587.408	40591.31
587.768	40612.55
588.127	40638.08
588.487	40533.91
588.846	40780.68
589.206	40532.32
589.565	40545.88
589.925	40668.59
590.284	40678.08
590.643	40698.2
591.003	40812.99
591.362	40720.34
591.721	40765.54
592.08	40714.69
592.44	40840.56
592.799	40738.42
593.158	40753.79
593.517	40587.24
593.876	40748.36
594.235	40697.74
594.593	40720.57
594.952	40853.45
595.311	40676.73
595.67	40768.25
596.029	40963.5
596.387	41071.29
596.746	41062.25
597.104	40923.5
597.463	40950.39
597.822	41050.95
598.18	40855.48
598.538	40913.11
598.897	41085.08
599.255	40714.47
599.613	41249.82
599.972	40994.68
600.33	41115.13
600.688	40947.91
601.046	41038.07
601.404	41146.55
601.762	41134.12
602.12	41247.11
602.478	41214.57
602.836	41098.18
603.194	41076.49
603.552	41095.93
603.91	41123.95
604.268	41222.7
604.625	41133.44
604.983	41296.15
605.341	41080.11
605.698	41437.39
606.056	41487.78
606.413	41321.91
606.771	41472.41
607.128	41546.76
607.485	41370.95
607.843	41400.78
608.2	41514.45
608.557	41707.66
608.914	41604.16
609.272	41747.66
609.629	41758.28
609.986	41994.88
610.343	41664.95
610.7	41980.42
611.057	41948.33
611.414	41947.88
611.771	42003.7
612.127	42118.27
612.484	42052.96
612.841	42183.58
613.198	42031.04
613.554	42154.43
613.911	42424.48
614.267	42388.77
614.624	42230.36
614.98	42362.78
615.337	42572.95
615.693	42436.91
616.05	42500.18
616.406	42518.03
616.762	42468.77
617.118	42582.67
617.475	42612.5
617.831	42613.17
618.187	42763.45
618.543	42858.59
618.899	42957.8
619.255	42962.77
619.611	42812.04
619.967	42822.21
620.323	43024.91
620.678	42893.17
621.034	42788.76
621.39	42753.73
621.746	42816.33
622.101	43325.47
622.457	42975.88
622.812	43003.67
623.168	43220.16
623.523	43028.76
623.879	43189.66
624.234	42912.37
624.589	43053.84
624.945	43176.77
625.3	43165.7
625.655	43217.45
626.01	43171.58
626.365	43115.31
626.72	43069.21
627.075	43091.13
627.43	43021.07
627.785	43082.09
628.14	43189.88
628.495	43115.76
628.85	42988.08
629.205	42829.44
629.559	43182.88
629.914	42983.33
630.269	43042.54
630.623	42803.9
630.978	42809.1
631.332	42910.34
631.687	42869.89
632.041	42818.14
632.396	42853.62
632.75	42676.9
633.104	42761.42
633.459	42640.52
633.813	42600.97
634.167	42537.7
634.521	42377.47
634.875	42577.69
635.229	42435.55
635.583	42374.99
635.937	42246.63
636.291	42189.68
636.645	42177.25
636.999	42186.97
637.352	42347.87
637.706	41991.27
638.06	42125.5
638.413	41977.71
638.767	41879.63
639.121	42019.29
639.474	41648
639.828	41767.77
640.181	41640.09
640.534	41762.8
640.888	41543.82
641.241	41462.92
641.594	41377.27
641.947	41526.87
642.301	41364.62
642.654	41467.44
643.007	41270.16
643.36	41307.9
643.713	41198.97
644.066	41391.74
644.419	41229.71
644.771	40900
645.124	40557.41
645.477	40399.45
645.83	40189.51
646.182	40033.13
646.535	39966.24
646.888	39999.23
647.24	39649.64
647.593	40115.16
647.945	39952.23
648.298	39667.04
648.65	39760.82
649.002	39645.34
649.355	39775.96
649.707	39617.09
650.059	39762.17
650.411	40143.63
650.763	40305.66
651.115	40588.37
651.467	40450.74
651.819	40545.66
652.171	40340.92
652.523	40309.96
652.875	40262.27
653.227	40121.26
653.578	40304.31
653.93	40312.89
654.282	40010.76
654.633	39987.48
654.985	40186.12
655.337	40093.01
655.688	40039.46
656.039	40039.68
656.391	39797.2
656.742	39775.96
657.094	39820.25
657.445	39920.59
657.796	39825.9
658.147	39879.23
658.498	39709.29
658.849	39863.64
659.2	39755.4
659.551	39605.57
659.902	39726.02
660.253	39556.98
660.604	39599.24
660.955	39333.94
661.306	39450.77
661.656	39357.44
662.007	39307.95
662.358	39255.3
662.708	39312.92
663.059	39118.8
663.409	38899.15
663.76	39272.02
664.11	39147.05
664.461	39033.38
664.811	39159.7
665.161	39032.02
665.511	38914.29
665.862	38825.7
666.212	38841.07
666.562	38852.82
666.912	38608.98
667.262	38494.41
667.612	38554.97
667.962	38433.17
668.312	38361.31
668.662	38420.74
669.011	38288.99
669.361	38119.05
669.711	38052.84
670.06	37912.28
670.41	37825.5
670.76	37828.67
671.109	37823.02
671.459	37792.51
671.808	37589.58
672.157	37592.97
672.507	37251.96
672.856	37328.34
673.205	37315.69
673.554	37393.2
673.904	37148.91
674.253	37300.09
674.602	37146.2
674.951	36716.15
675.3	36380.34
675.649	36957.05
675.998	36981.68
676.346	36957.5
676.695	37011.74
677.044	36671.86
677.393	36728.81
677.741	36914.34
678.09	36738.98
678.438	36545.76
678.787	36683.84
679.135	36705.31
679.484	36668.24
679.832	36659.21
680.181	36480.68
680.529	36665.53
680.877	36411.75
681.225	36463.28
681.573	36725.64
681.922	36450.17
682.27	36357.07
682.618	36463.28
682.966	36424.18
683.314	36537.85
683.661	36527.01
684.009	36196.39
684.357	36326.11
684.705	36394.58
685.053	36328.82
685.4	36225.54
685.748	36160.91
686.095	36279.55
686.443	36195.49
686.79	36150.07
687.138	36272.78
687.485	36255.37
687.832	36137.64
688.18	36210.4
688.527	36084.98
688.874	36102.61
689.221	36044.98
689.568	36051.31
689.915	35873.24
690.262	36032.56
690.609	35946.68
690.956	35879.57
691.303	35817.19
691.65	35785.1
691.997	35837.31
692.344	35616.97
692.69	35604.32
693.037	35703.07
693.383	35525.68
693.73	35660.36
694.077	35477.54
694.423	35460.14
694.769	35277.55
695.116	35315.74
695.462	35273.25
695.808	35310.09
696.155	35340.82
696.501	35092.47
696.847	35007.72
697.193	34856.99
697.539	35149.87
697.885	34639.15
698.231	34758.92
698.577	34696.77
698.923	34671.69
699.269	34396.89
699.614	34341.75
699.96	34302.66
700.306	34387.63
700.651	34206.39
700.997	34068.09
701.342	33991.71
701.688	33909
702.033	33824.03
702.379	33934.31
702.724	33751.26
703.069	33862.22
703.415	33443.92
703.76	33478.95
704.105	33532.06
704.45	33391.49
704.795	33138.62
705.14	33098.17
705.485	33002.58
705.83	32883.94
706.175	33039.19
706.52	32920.55
706.865	32691.85
707.209	32741.34
707.554	32620.67
707.899	32755.81
708.243	32554.68
708.588	32454.57
708.932	32248.02
709.277	32201.92
709.621	32332.09
709.966	32165.31
710.31	32249.38
710.654	31907.01
710.998	31963.28
711.342	32070.63
711.687	31852.33
712.031	31636.06
712.375	31654.14
712.719	31724.19
713.063	31700.47
713.407	31670.64
713.75	31474.94
714.094	31505.67
714.438	31348.16
714.782	31376.18
715.125	31228.16
715.469	31220.48
715.812	31063.42
716.156	30904.1
716.499	30940.71
716.843	30898.68
717.186	30768.29
717.53	30890.77
717.873	30921.5
718.216	30811.45
718.559	30667.95
718.902	30469.31
719.246	30497.56
719.589	30469.54
719.932	30269.54
720.275	30297.56
720.617	30423.21
720.96	30230.22
721.303	30316.55
721.646	30217.79
721.989	30001.98
722.331	30123.11
722.674	30150
723.016	30075.65
723.359	29934.86
723.701	29985.48
724.044	29865.26
724.386	29712.27
724.729	29787.3
725.071	29694.19
725.413	29689.67
725.755	29680.63
726.097	29563.35
726.439	29374.65
726.782	29436.12
727.124	29569.67
727.465	29303.01
727.807	29343.47
728.149	29309.12
728.491	29193.64
728.833	29307.08
729.175	29123.81
729.516	29051.72
729.858	29037.26
730.199	28971.72
730.541	28898.96
730.882	28855.79
731.224	28952.74
731.565	28690.38
731.906	28667.33
732.248	28705.74
732.589	28495.13
732.93	28491.74
733.271	28418.52
733.612	28532.64
733.953	28404.51
734.294	28407.22
734.635	28391.4
734.976	28375.81
735.317	28261.69
735.658	28203.16
735.999	28120.67
736.339	28025.99
736.68	28222.82
737.021	28105.31
737.361	27776.28
737.702	28030.96
738.042	27965.2
738.383	27960
738.723	27835.48
739.063	27845.65
739.404	27865.31
739.744	27749.38
740.084	27658.31
740.424	27732.21
740.764	27634.13
741.104	27651.98
741.444	27561.59
741.784	27518.2
742.124	27473.68
742.464	27413.57
742.804	27299.9
743.143	27342.16
743.483	27324.08
743.823	27156.86
744.162	27393.69
744.502	27318.89
744.841	27187.14
745.181	27160.92
745.52	26988.95
745.86	27123.86
746.199	27176.74
746.538	26939.01
746.877	26915.96
747.216	26910.54
747.556	26798
747.895	26801.61
748.234	26706.47
748.573	26797.77
748.911	26638.45
749.25	26549.41
749.589	26433.71
749.928	26496.08
750.267	26429.87
750.605	26389.65
750.944	26387.84
751.283	26245.69
751.621	26249.54
751.96	26134.51
752.298	26157.79
752.636	26189.42
752.975	26023.1
753.313	25935.87
753.651	26004.57
