Data from White_paper_FLMS001491_027.txt Node
Date: Tue Feb 07 10:34:52 GMT 2017
User: dcchb
Spectrometer: FLMS00149
Trigger mode: 0
Integration Time (sec): 2.000000E-2
Scans to average: 10
Electric dark correction enabled: true
Nonlinearity correction enabled: false
Boxcar width: 0
XAxis mode: Wavelengths
Number of Pixels in Spectrum: 2048
>>>>>Begin Spectral Data<<<<<
341.393	-14.08
341.776	-14.08
342.16	-14.08
342.543	-66.74
342.927	-58.83
343.31	-68.77
343.693	-60.63
344.077	-43.46
344.46	-66.51
344.843	-70.35
345.226	-50.92
345.61	-18.83
345.993	-38.26
346.376	-21.76
346.759	2.64
347.142	20.04
347.525	53.71
347.908	53.49
348.291	83.54
348.674	109.08
349.057	116.99
349.44	127.61
349.823	121.96
350.206	196.31
350.588	230.21
350.971	250.77
351.354	241.28
351.737	260.26
352.119	273.82
352.502	282.63
352.884	298.9
353.267	310.88
353.65	320.82
354.032	330.32
354.414	335.97
354.797	348.85
355.179	343.88
355.562	339.13
355.944	363.54
356.326	358.79
356.709	358.79
357.091	386.36
357.473	375.51
357.855	353.82
358.238	384.55
358.62	379.13
359.002	378.9
359.384	376.64
359.766	366.02
360.148	356.98
360.53	366.25
360.912	386.36
361.294	360.15
361.676	375.74
362.057	362.86
362.439	367.83
362.821	364.21
363.203	352.24
363.584	342.29
363.966	362.63
364.348	371.45
364.729	354.04
365.111	364.67
365.493	371.9
365.874	357.21
366.256	375.74
366.637	365.34
367.019	376.64
367.4	354.72
367.781	357.89
368.163	356.76
368.544	353.37
368.925	360.37
369.306	375.74
369.688	354.95
370.069	372.57
370.45	365.8
370.831	378.9
371.212	344.78
371.593	355.63
371.974	348.39
372.355	373.7
372.736	377.32
373.117	386.59
373.498	400.37
373.879	354.5
374.26	355.4
374.641	365.57
375.021	377.32
375.402	396.98
375.783	379.58
376.163	373.7
376.544	427.26
376.925	370.77
377.305	403.99
377.686	380.26
378.066	393.14
378.447	392.91
378.827	390.2
379.208	390.65
379.588	408.96
379.968	398.11
380.349	419.81
380.729	404.21
381.109	392.01
381.489	422.97
381.87	425.45
382.25	426.13
382.63	412.35
383.01	406.92
383.39	416.64
383.77	414.61
384.15	430.88
384.53	442.18
384.91	438.56
385.29	416.64
385.67	427.26
386.049	447.15
386.429	446.47
386.809	446.92
387.189	459.35
387.568	441.5
387.948	474.95
388.328	484.89
388.707	469.52
389.087	472.23
389.466	494.38
389.846	476.08
390.225	503.64
390.605	494.83
390.984	494.38
391.363	507.26
391.743	537.99
392.122	541.61
392.501	528.5
392.881	537.32
393.26	531.21
393.639	522.85
394.018	514.49
394.397	562.85
394.776	552.01
395.155	552.68
395.534	547.94
395.913	573.7
396.292	548.84
396.671	547.71
397.05	579.58
397.429	567.82
397.808	581.83
398.186	581.16
398.565	593.81
398.944	603.08
399.323	617.77
399.701	597.65
400.08	624.09
400.458	632.68
400.837	644.66
401.215	644.43
401.594	666.8
401.972	661.61
402.351	672
402.729	673.58
403.107	719.91
403.486	699.57
403.864	715.62
404.242	742.73
404.62	733.02
404.999	758.78
405.377	771.21
405.755	773.92
406.133	805.78
406.511	810.76
406.889	822.05
407.267	830.42
407.645	872
408.023	906.12
408.401	877.65
408.779	928.94
409.156	933.01
409.534	956.97
409.912	997.42
410.29	1024.54
410.667	1040.13
411.045	1063.18
411.422	1070.86
411.8	1105.21
412.178	1142.27
412.555	1161.48
412.933	1212.33
413.31	1213.46
413.687	1245.32
414.065	1264.08
414.442	1300.46
414.819	1321.02
415.197	1340.91
415.574	1405.99
415.951	1422.72
416.328	1444.64
416.705	1434.02
417.082	1458.2
417.46	1497.74
417.837	1534.8
418.214	1557.85
418.591	1593.56
418.967	1614.12
419.344	1616.16
419.721	1646.44
420.098	1713.56
420.475	1703.61
420.852	1730.51
421.228	1772.76
421.605	1782.48
421.982	1791.07
422.358	1841.69
422.735	1891.86
423.111	1890.5
423.488	1933.66
423.864	1925.3
424.241	1969.37
424.617	2011.63
424.994	1974.34
425.37	2039.2
425.746	2025.64
426.123	2081.46
426.499	2097.5
426.875	2127.11
427.251	2201.45
427.627	2250.49
428.003	2260.89
428.379	2271.28
428.756	2298.63
429.132	2357.16
429.507	2392.41
429.883	2439.19
430.259	2477.83
430.635	2478.06
431.011	2537.94
431.387	2588.56
431.763	2617.71
432.138	2612.52
432.514	2671.95
432.89	2687.77
433.265	2771.38
433.641	2812.06
434.016	2855.22
434.392	2868.78
434.767	2918.5
435.143	2929.12
435.518	2956.69
435.894	3030.81
436.269	3046.85
436.644	3122.11
437.02	3151.48
437.395	3153.52
437.77	3195.1
438.145	3256.11
438.52	3269.67
438.895	3304.7
439.271	3345.38
439.646	3433.29
440.021	3445.04
440.395	3449.1
440.77	3388.31
441.145	3490.69
441.52	3533.85
441.895	3505.6
442.27	3578.59
442.645	3588.08
443.019	3624.24
443.394	3617.91
443.769	3666.27
444.143	3670.79
444.518	3724.13
444.892	3703.11
445.267	3749.66
445.641	3813.84
446.016	3815.42
446.39	3892.71
446.764	3840.05
447.139	3867.4
447.513	3914.4
447.887	3913.72
448.262	3947.4
448.636	3978.58
449.01	4039.15
449.384	4077.34
449.758	4049.09
450.132	4117.79
450.506	4158.01
450.88	4158.24
451.254	4113.27
451.628	4236.43
452.002	4306.93
452.376	4331.34
452.75	4361.17
453.123	4354.17
453.497	4470.32
453.871	4506.03
454.244	4610.43
454.618	4578.34
454.992	4657.66
455.365	4664.89
455.739	4757.54
456.112	4844.77
456.486	4880.93
456.859	4884.09
457.232	5045.22
457.606	4987.82
457.979	5021.04
458.352	5143.07
458.725	5215.61
459.099	5262.16
459.472	5336.06
459.845	5405.89
460.218	5484.3
460.591	5466.45
460.964	5553
461.337	5622.83
461.71	5717.29
462.083	5825.76
462.456	5837.29
462.829	5827.8
463.201	5957.74
463.574	5960.45
463.947	6097.85
464.32	6249.03
464.692	6252.65
465.065	6271.63
465.438	6416.03
465.81	6477.05
466.183	6536.48
466.555	6693.09
466.928	6741.67
467.3	6767.21
467.672	6912.06
468.045	7028.22
468.417	7039.29
468.789	7094.43
469.161	7230.47
469.534	7374.65
469.906	7514.53
470.278	7577.13
470.65	7634.98
471.022	7763.79
471.394	7920.4
471.766	8032.71
472.138	8008.76
472.51	8266.83
472.882	8373.04
473.253	8376.66
473.625	8559.7
473.997	8788.4
474.369	8834.73
474.74	8945
475.112	9131.89
475.484	9279.69
475.855	9409.4
476.227	9500.92
476.598	9758.54
476.97	9815.26
477.341	10048.03
477.713	10162.15
478.084	10239.66
478.455	10569.82
478.827	10587
479.198	10970.04
479.569	10868.8
479.94	11236.47
480.311	11291.16
480.682	11577.93
481.053	11811.37
481.424	12014.3
481.795	12071.25
482.166	12347.4
482.537	12481.86
482.908	12683.44
483.279	12847.28
483.65	13126.36
484.021	13314.38
484.391	13450.88
484.762	13503.76
485.133	13725.9
485.503	13897.42
485.874	14220.8
486.244	14269.16
486.615	14625.08
486.985	14675.93
487.356	14903.72
487.726	15103.71
488.097	15436.13
488.467	15468.45
488.837	15832.96
489.207	15974.88
489.578	16120.86
489.948	16390.91
490.318	16539.83
490.688	16657.57
491.058	16903.89
491.428	16995.41
491.798	17267.5
492.168	17597.43
492.538	17703.87
492.908	17907.03
493.278	18064.99
493.648	18060.25
494.017	18346.57
494.387	18471.99
494.757	18613
495.126	18809.15
495.496	18878.76
495.866	19055.02
496.235	19296.82
496.605	19380.66
496.974	19465.63
497.344	19646.64
497.713	19747.21
498.082	20012.51
498.452	20226.52
498.821	20229.45
499.19	20301.99
499.559	20521.2
499.928	20720.74
500.298	20725.26
500.667	20927.29
501.036	20954.63
501.405	21232.37
501.774	21219.26
502.143	21461.96
502.512	21552.81
502.88	21744.22
503.249	21769.3
503.618	21932.23
503.987	22077.31
504.356	22241.38
504.724	22321.15
505.093	22318.44
505.462	22475.5
505.83	22673.01
506.199	22981.7
506.567	23222.14
506.936	23110.51
507.304	23362.93
507.672	23532.64
508.041	23605.86
508.409	23787.78
508.777	23896.25
509.145	24119.52
509.514	24198.84
509.882	24376.46
510.25	24320.19
510.618	24636.34
510.986	24702.56
511.354	24891.25
511.722	25073.17
512.09	25414.18
512.458	25311.81
512.826	25653.94
513.193	25628.18
513.561	25837.67
513.929	25953.6
514.297	26170.99
514.664	26408.05
515.032	26523.3
515.4	26684.88
515.767	26865.44
516.135	26942.72
516.502	26851.88
516.869	27381.36
517.237	27471.3
517.604	27362.37
517.972	27850.04
518.339	27859.76
518.706	28002.13
519.073	28023.15
519.44	28322.35
519.808	28725.05
520.175	28664.03
520.542	29056.34
520.909	29202.55
521.276	29152.61
521.643	29535.88
522.009	29721.41
522.376	29883.21
522.743	30162.53
523.11	30422.18
523.477	30612.68
523.843	30793.02
524.21	31055.61
524.577	31305.77
524.943	31497.86
525.31	31543.96
525.676	31965.19
526.043	32062.14
526.409	32149.14
526.776	32552.75
527.142	32583.71
527.508	32846.98
527.874	33067.99
528.241	33204.25
528.607	33293.29
528.973	33719.72
529.339	33725.82
529.705	34014.63
530.071	34244.68
530.437	34400.38
530.803	34640.37
531.169	34818
531.535	34740.94
531.901	35087.59
532.267	35223.86
532.632	35406.46
532.998	35525.32
533.364	35583.63
533.73	35797.18
534.095	36078.53
534.461	36135.7
534.826	36279.43
535.192	36424.06
535.557	36806.42
535.923	36811.84
536.288	36851.62
536.653	37209.8
537.019	37057.71
537.384	37232.62
537.749	37602.33
538.114	37549.22
538.479	37650.92
538.845	37786.05
539.21	37796.45
539.575	38111.47
539.94	38090.68
540.305	38381.52
540.67	38288.19
541.034	38412.48
541.399	38674.39
541.764	38839.13
542.129	39056.76
542.494	39075.06
542.858	39207.71
543.223	39263.98
543.587	39580.13
543.952	39455.84
544.316	39830.07
544.681	39697.42
545.045	40000.91
545.41	40150.51
545.774	40202.71
546.138	40218.08
546.503	40426.44
546.867	40541.69
547.231	40840.21
547.595	40920.21
547.959	40895.8
548.324	41159.53
548.688	41075.69
549.052	41395.23
549.416	41495.56
549.779	41724.71
550.143	41665.73
550.507	41965.83
550.871	42048.09
551.235	41998.37
551.599	42259.16
551.962	42506.61
552.326	42491.92
552.689	42762.19
553.053	42633.16
553.417	42844.68
553.78	43341.84
554.143	43123.77
554.507	43219.58
554.87	43373.03
555.234	43775.05
555.597	43605.11
555.96	43783.64
556.323	43950.86
556.686	44063.63
557.05	44320.35
557.413	44443.96
557.776	44452.32
558.139	44798.3
558.502	44905.42
558.865	44877.85
559.228	45297.95
559.59	45385.18
559.953	45408.9
560.316	45790.14
560.679	45915.78
561.041	46169.79
561.404	46233.29
561.767	46418.14
562.129	46382.44
562.492	46768.42
562.854	46808.87
563.217	46701.3
563.579	47004.57
563.941	47093.38
564.304	47253.6
564.666	47563.42
565.028	47576.98
565.39	47797.77
565.753	48068.95
566.115	48159.57
566.477	48230.75
566.839	48540.57
567.201	48710.51
567.563	48553.23
567.925	48952.99
568.287	48967.91
568.648	49049.26
569.01	49293.1
569.372	49526.76
569.734	49431.85
570.095	49858.05
570.457	49893.08
570.819	49915.45
571.18	49975.11
571.542	50235.44
571.903	50268.89
572.265	50347.31
572.626	50537.36
572.987	50633.85
573.349	50689.44
573.71	50901.19
574.071	50889.21
574.432	50997.23
574.794	51303.89
575.155	51211.46
575.516	51134.86
575.877	51359.48
576.238	51454.85
576.599	51545.69
576.96	51639.7
577.32	51722.41
577.681	51834.05
578.042	51842.86
578.403	51955.17
578.763	51947.26
579.124	51967.6
579.485	52170.31
579.845	52358.55
580.206	52225.45
580.566	52238.78
580.927	52328.05
581.287	52388.83
581.648	52340.02
582.008	52470.64
582.368	52441.26
582.728	52551.09
583.089	52514.03
583.449	52549.06
583.809	52536.18
584.169	52584.76
584.529	52526.23
584.889	52905.88
585.249	52655.04
585.609	52578.66
585.969	52873.57
586.329	52653.23
586.688	52751.08
587.048	52745.44
587.408	52716.96
587.768	52758.54
588.127	52764.19
588.487	52781.82
588.846	53053.9
589.206	52817.98
589.565	52854.36
589.925	53065.65
590.284	52900.46
590.643	53032.89
591.003	53062.26
591.362	53180.9
591.721	53039.21
592.08	53159.66
592.44	53178.19
592.799	53118.76
593.158	53052.09
593.517	53101.58
593.876	53189.94
594.235	53253.9
594.593	53272.2
594.952	53309.26
595.311	53166.67
595.67	53356.72
596.029	53463.83
596.387	53438.52
596.746	53561.01
597.104	53384.06
597.463	53377.51
597.822	53538.63
598.18	53416.38
598.538	53462.7
598.897	53585.87
599.255	53371.18
599.613	53848.68
599.972	53591.74
600.33	53658.86
600.688	53582.48
601.046	53736.6
601.404	53831.28
601.762	53785.18
602.12	53858.85
602.478	53853.88
602.836	53928.23
603.194	53744.73
603.552	53797.16
603.91	53733.43
604.268	53900.43
604.625	53919.19
604.983	54024.27
605.341	53880.32
605.698	53923.94
606.056	53998.96
606.413	53906.76
606.771	54015.23
607.128	54059.3
607.485	54022.24
607.843	54108.11
608.2	54190.59
608.557	54286.64
608.914	54084.38
609.272	54248.9
609.629	54326.18
609.986	54408.89
610.343	54273.53
610.7	54503.81
611.057	54439.18
611.414	54397.6
611.771	54511.26
612.127	54593.75
612.484	54577.7
612.841	54621.32
613.198	54560.75
613.554	54578.83
613.911	54723.24
614.267	54633.52
614.624	54746.74
614.98	54686.4
615.337	54769.11
615.693	54812.5
616.05	54677.36
616.406	54932.95
616.762	54779.05
617.118	54775.66
617.475	54816.12
617.831	54883.23
618.187	54878.94
618.543	54879.62
618.899	55075.32
619.255	55021.76
619.611	54968.88
619.967	55054.98
620.323	55087.29
620.678	55045.71
621.034	54960.52
621.39	54948.09
621.746	54985.15
622.101	55261.53
622.457	55016.79
622.812	55069.22
623.168	55125.94
623.523	55134.75
623.879	55263.79
624.234	54994.19
624.589	55137.69
624.945	55083.68
625.3	55186.73
625.655	55153.28
626.01	55115.77
626.365	55156.9
626.72	55105.15
627.075	55134.52
627.43	55104.92
627.785	55079.39
628.14	55121.87
628.495	55073.51
628.85	55095.2
629.205	55046.84
629.559	55232.15
629.914	55061.76
630.269	55073.96
630.623	55029.67
630.978	55011.14
631.332	55131.81
631.687	55137.01
632.041	54986.96
632.396	55126.16
632.75	55052.04
633.104	55067.63
633.459	54996.45
633.813	54918.03
634.167	54876.45
634.521	54930.01
634.875	54978.82
635.229	54932.04
635.583	54785.61
635.937	54845.72
636.291	54710.81
636.645	54772.5
636.999	54730.92
637.352	54805.95
637.706	54677.14
638.06	54846.62
638.413	54734.99
638.767	54606.18
639.121	54723.24
639.474	54593.3
639.828	54578.83
640.181	54652.96
640.534	54601.66
640.888	54579.29
641.241	54500.87
641.594	54528.67
641.947	54600.75
642.301	54493.64
642.654	54578.38
643.007	54530.7
643.36	54491.6
643.713	54473.98
644.066	54570.7
644.419	54374.32
644.771	54170.03
645.124	53878.29
645.477	53813.88
645.83	53671.51
646.182	53680.55
646.535	53613.21
646.888	53675.58
647.24	53448.02
647.593	53606.66
647.945	53603.49
648.298	53495.47
648.65	53433.33
649.002	53254.57
649.355	53460.67
649.707	53316.04
650.059	53568.46
650.411	53943.14
650.763	53949.47
651.115	54287.32
651.467	54120.31
651.819	54095.68
652.171	54025.18
652.523	54045.51
652.875	54083.25
653.227	53842.36
653.578	54042.58
653.93	54019.75
654.282	53873.09
654.633	53816.14
654.985	53880.55
655.337	53896.82
655.688	53850.72
656.039	53935.46
656.391	53658.63
656.742	53836.03
657.094	53769.14
657.445	53885.97
657.796	53810.49
658.147	53833.09
658.498	53757.61
658.849	53772.98
659.2	53754.67
659.551	53706.54
659.902	53761.91
660.253	53685.3
660.604	53819.98
660.955	53631.97
661.306	53764.84
661.656	53753.09
662.007	53634.45
662.358	53637.62
662.708	53724.39
663.059	53666.31
663.409	53440.78
663.76	53685.75
664.11	53627.67
664.461	53648.24
664.811	53641.68
665.161	53606.43
665.511	53527.11
665.862	53597.16
666.212	53601.46
666.562	53618.63
666.912	53574.57
667.262	53534.57
667.612	53483.27
667.962	53484.62
668.312	53520.1
668.662	53584.06
669.011	53472.2
669.361	53424.29
669.711	53409.15
670.06	53396.94
670.41	53243.73
670.76	53230.17
671.109	53391.07
671.459	53403.72
671.808	53264.97
672.157	53315.82
672.507	53117.63
672.856	53100.68
673.205	53195.14
673.554	53194.46
673.904	53036.5
674.253	53202.6
674.602	53017.52
674.951	52629.73
675.3	52392.68
675.649	52976.84
675.998	52910.85
676.346	52953.34
676.695	53004.19
677.044	52755.38
677.393	52940.23
677.741	52954.47
678.09	52782.27
678.438	52719.22
678.787	52744.98
679.135	52752.67
679.484	52549.28
679.832	52677.41
680.181	52400.13
680.529	52526.01
680.877	52376.63
681.225	52369.85
681.573	52481.94
681.922	52328.05
682.27	52220.48
682.618	52276.75
682.966	52088.28
683.314	52147.03
683.661	52173.25
684.009	51839.47
684.357	51902.75
684.705	51825.23
685.053	51805.8
685.4	51785.01
685.748	51584.11
686.095	51648.97
686.443	51402.87
686.79	51385.24
687.138	51418.46
687.485	51421.85
687.832	51293.27
688.18	51284.91
688.527	51092.82
688.874	51090.79
689.221	50871.81
689.568	50894.41
689.915	50746.62
690.262	50700.74
690.609	50596.11
690.956	50601.08
691.303	50537.58
691.65	50275.67
691.997	50183.92
692.344	50128.55
692.69	50108.44
693.037	50140.08
693.383	49859.86
693.73	50038.61
694.077	49669.58
694.423	49726.31
694.769	49508.01
695.116	49534.22
695.462	49512.3
695.808	49275.47
696.155	49237.73
696.501	49065.98
696.847	49057.4
697.193	48844.97
697.539	48880.45
697.885	48594.81
698.231	48498.77
698.577	48463.51
698.923	48385.32
699.269	48297.64
699.614	48116.86
699.96	48082.51
700.306	48086.57
700.651	47840.71
700.997	47732.46
701.342	47734.72
701.688	47708.73
702.033	47568.85
702.379	47339.02
702.724	47370.89
703.069	47368.18
703.415	46987.62
703.76	47025.36
704.105	46986.72
704.45	46852.93
704.795	46686.39
705.14	46598.93
705.485	46607.07
705.83	46361.87
706.175	46451.14
706.52	46244.14
706.865	46269.67
707.209	46175.21
707.554	45925.28
707.899	46054.54
708.243	45878.72
708.588	45862.23
708.932	45403.03
709.277	45566.87
709.621	45479.19
709.966	45154.45
710.31	45384.5
710.654	44994.68
710.998	45094.79
711.342	45158.52
711.687	44932.76
712.031	44723.05
712.375	44648.92
712.719	44608.25
713.063	44700.45
713.407	44598.76
713.75	44551.3
714.094	44454.13
714.438	44300.46
714.782	44404.19
715.125	44090.52
715.469	44183.85
715.812	43891.43
716.156	43767.37
716.499	43734.82
716.843	43865.67
717.186	43552.23
717.53	43809.62
717.873	43649.86
718.216	43616.64
718.559	43412.8
718.902	43081.96
719.246	43360.37
719.589	43080.83
719.932	42951.12
720.275	42995.18
720.617	43014.62
720.96	43000.15
721.303	42817.11
721.646	42979.82
721.989	42584.35
722.331	42804.68
722.674	42670.9
723.016	42562.65
723.359	42465.25
723.701	42482.2
724.044	42196.33
724.386	42143.68
724.729	42248.54
725.071	42170.12
725.413	42063
725.755	41973.97
726.097	41890.13
726.439	41795.89
726.782	41818.72
727.124	41830.69
727.465	41687.42
727.807	41624.37
728.149	41533.3
728.491	41529.68
728.833	41513.64
729.175	41226.64
729.516	41168.79
729.858	41154.55
730.199	41197.49
730.541	41207.21
730.882	41176.93
731.224	41270.26
731.565	40938.06
731.906	40944.39
732.248	40954.11
732.589	40761.12
732.93	40597.28
733.271	40720.21
733.612	40718.41
733.953	40701.46
734.294	40479.32
734.635	40497.85
734.976	40583.5
735.317	40278.87
735.658	40246.78
735.999	40232.32
736.339	40069.61
736.68	40325.2
737.021	40150.29
737.361	39983.51
737.702	40122.72
738.042	40030.74
738.383	39949.16
738.723	40021.25
739.063	39623.75
739.404	39970.86
739.744	39618.77
740.084	39610.64
740.424	39554.37
740.764	39602.05
741.104	39681.6
741.444	39313.7
741.784	39192.35
742.124	39395.28
742.464	39289.52
742.804	39161.84
743.143	39163.19
743.483	39173.36
743.823	39060.37
744.162	38986.93
744.502	39122.97
744.841	38902.41
745.181	38893.14
745.52	38809.3
745.86	38880.94
746.199	38689.53
746.538	38547.16
746.877	38814.5
747.216	38614.06
747.556	38576.32
747.895	38492.02
748.234	38396.89
748.573	38314.63
748.911	38320.28
749.25	38400.73
749.589	38106.95
749.928	38049.55
750.267	38174.74
750.605	38126.84
750.944	37851.82
751.283	37802.78
751.621	37938.59
751.96	37692.05
752.298	37610.69
752.636	37671.26
