Data from white_steel_sheet_FLMS001491_090.txt Node
Date: Tue Feb 07 10:58:38 GMT 2017
User: dcchb
Spectrometer: FLMS00149
Trigger mode: 0
Integration Time (sec): 2.000000E-2
Scans to average: 10
Electric dark correction enabled: true
Nonlinearity correction enabled: false
Boxcar width: 0
XAxis mode: Wavelengths
Number of Pixels in Spectrum: 2048
>>>>>Begin Spectral Data<<<<<
341.393	-9.89
341.776	-9.89
342.16	-9.89
342.543	-59.15
342.927	-57.12
343.31	-76.1
343.693	-77.46
344.077	-63.22
344.46	-64.12
344.843	-62.99
345.226	-26.84
345.61	-20.28
345.993	-14.18
346.376	-2.66
346.759	0.06
347.142	8.19
347.525	62.88
347.908	62.43
348.291	91.35
348.674	78.92
349.057	104.01
349.44	123.9
349.823	133.84
350.206	158.92
350.588	182.42
350.971	214.29
351.354	234.17
351.737	257
352.119	261.97
352.502	275.08
352.884	285.92
353.267	255.42
353.65	323.44
354.032	316.88
354.414	328.64
354.797	319.82
355.179	311.91
355.562	345.13
355.944	332.25
356.326	327.73
356.709	356.66
357.091	354.62
357.473	375.64
357.855	344.91
358.238	355.53
358.62	343.78
359.002	346.04
359.384	358.47
359.766	369.99
360.148	346.71
360.53	356.43
360.912	360.95
361.294	337.22
361.676	360.95
362.057	355.3
362.439	336.09
362.821	339.93
363.203	324.12
363.584	332.7
363.966	343.78
364.348	326.6
364.729	334.06
365.111	327.96
365.493	335.64
365.874	343.55
366.256	321.4
366.637	326.38
367.019	332.48
367.4	310.78
367.781	317.56
368.163	334.96
368.544	327.51
368.925	332.93
369.306	331.8
369.688	314.17
370.069	334.06
370.45	343.32
370.831	341.06
371.212	336.54
371.593	324.12
371.974	346.49
372.355	337
372.736	313.49
373.117	333.61
373.498	338.13
373.879	340.39
374.26	320.5
374.641	338.35
375.021	336.09
375.402	346.04
375.783	338.8
376.163	342.87
376.544	364.57
376.925	346.71
377.305	345.36
377.686	361.18
378.066	366.83
378.447	368.63
378.827	340.61
379.208	336.09
379.588	338.8
379.968	383.1
380.349	361.18
380.729	378.8
381.109	366.37
381.489	371.8
381.87	374.06
382.25	365.92
382.63	377.9
383.01	391.23
383.39	377.22
383.77	365.02
384.15	381.06
384.53	396.88
384.91	367.96
385.29	376.77
385.67	394.4
386.049	399.82
386.429	406.15
386.809	403.89
387.189	392.59
387.568	415.86
387.948	401.85
388.328	420.84
388.707	417.45
389.087	427.84
389.466	418.12
389.846	434.62
390.225	424.23
390.605	434.85
390.984	429.2
391.363	426.26
391.743	443.43
392.122	435.07
392.501	453.6
392.881	470.33
393.26	476.2
393.639	479.82
394.018	448.18
394.397	454.96
394.776	485.02
395.155	490.44
395.534	502.64
395.913	502.42
396.292	506.94
396.671	496.99
397.05	480.72
397.429	495.64
397.808	527.5
398.186	532.92
398.565	533.83
398.944	546.03
399.323	556.43
399.701	574.73
400.08	544.67
400.458	568.63
400.837	563.43
401.215	594.17
401.594	590.78
401.972	619.7
402.351	607.5
402.729	626.93
403.107	629.42
403.486	628.51
403.864	619.02
404.242	652.92
404.62	653.37
404.999	670.1
405.377	658.57
405.755	710.09
406.133	692.24
406.511	726.14
406.889	721.62
407.267	723.2
407.645	749.42
408.023	738.79
408.401	795.97
408.779	762.97
409.156	787.38
409.534	819.7
409.912	800.49
410.29	829.19
410.667	835.97
411.045	843.88
411.422	875.74
411.8	877.55
412.178	902.41
412.555	911.67
412.933	940.6
413.31	925.68
413.687	938.56
414.065	964.32
414.442	938.34
414.819	984.66
415.197	971.1
415.574	1030.31
415.951	1006.81
416.328	1005.68
416.705	1035.51
417.082	1030.54
417.46	1035.74
417.837	1062.4
418.214	1092.01
418.591	1100.82
418.967	1103.76
419.344	1099.69
419.721	1120.93
420.098	1143.53
420.475	1151.44
420.852	1148.27
421.228	1171.78
421.605	1181.72
421.982	1196.18
422.358	1205.67
422.735	1242.51
423.111	1209.52
423.488	1253.36
423.864	1231.44
424.241	1267.82
424.617	1276.63
424.994	1313.69
425.37	1297.88
425.746	1333.58
426.123	1320.47
426.499	1340.13
426.875	1367.25
427.251	1400.47
427.627	1373.13
428.003	1411.77
428.379	1459.91
428.756	1462.39
429.132	1468.27
429.507	1510.75
429.883	1524.54
430.259	1534.93
430.635	1539.9
431.011	1564.99
431.387	1612.44
431.763	1621.93
432.138	1644.53
432.514	1672.33
432.89	1665.78
433.265	1684.53
433.641	1748.94
434.016	1723.85
434.392	1789.39
434.767	1818.99
435.143	1769.28
435.518	1827.35
435.894	1849.95
436.269	1867.8
436.644	1876.84
437.02	1903.96
437.395	1926.33
437.77	1960.46
438.145	2007.46
438.52	2007.01
438.895	2044.07
439.271	2027.8
439.646	2047.23
440.021	2086.56
440.395	2077.74
440.77	2087.46
441.145	2120.68
441.52	2151.64
441.895	2128.14
442.27	2175.59
442.645	2166.78
443.019	2204.74
443.394	2238.42
443.769	2235.48
444.143	2237.51
444.518	2290.17
444.892	2299.88
445.267	2313.89
445.641	2304.85
446.016	2334.01
446.39	2393.21
446.764	2369.49
447.139	2383.72
447.513	2434.34
447.887	2420.33
448.262	2469.6
448.636	2458.97
449.01	2461.46
449.384	2523.15
449.758	2541.68
450.132	2547.33
450.506	2592.76
450.88	2603.6
451.254	2614
451.628	2654
452.002	2664.39
452.376	2708.01
452.75	2726.99
453.123	2788.01
453.497	2775.58
453.871	2843.15
454.244	2893.31
454.618	2933.99
454.992	2925.63
455.365	2946.42
455.739	2979.41
456.112	3043.82
456.486	3078.39
456.859	3085.85
457.232	3138.51
457.606	3169.01
457.979	3187.32
458.352	3250.59
458.725	3319.74
459.099	3289.01
459.472	3344.83
459.845	3437.48
460.218	3435.67
460.591	3437.25
460.964	3489.91
461.337	3551.83
461.71	3612.39
462.083	3670.47
462.456	3669.11
462.829	3672.05
463.201	3743.46
463.574	3780.52
463.947	3831.14
464.32	3934.64
464.692	3925.38
465.065	3961.31
465.438	4036.33
465.81	4061.19
466.183	4143.45
466.555	4197.46
466.928	4263.67
467.3	4215.09
467.672	4294.86
468.045	4406.04
468.417	4468.87
468.789	4486.94
469.161	4517.45
469.534	4611.01
469.906	4662.31
470.278	4754.06
470.65	4803.32
471.022	4909.76
471.394	4965.12
471.766	4957.89
472.138	5076.08
472.51	5127.61
472.882	5252.57
473.253	5265
473.625	5382.51
473.997	5447.82
474.369	5507.71
474.74	5574.83
475.112	5662.73
475.484	5788.6
475.855	5862.28
476.227	5912.22
476.598	6067.02
476.97	6174.81
477.341	6231.98
477.713	6370.74
478.084	6442.37
478.455	6588.13
478.827	6635.14
479.198	6805.53
479.569	6819.76
479.94	7032.64
480.311	7059.76
480.682	7260.2
481.053	7324.16
481.424	7517.6
481.795	7659.97
482.166	7746.29
482.537	7847.08
482.908	8037.13
483.279	8053.4
483.65	8266.28
484.021	8378.14
484.391	8478.48
484.762	8548.98
485.133	8697
485.503	8788.75
485.874	8985.58
486.244	9071
486.615	9256.76
486.985	9343.99
487.356	9459.02
487.726	9600.48
488.097	9777.2
488.467	9803.41
488.837	10067.81
489.207	10104.2
489.578	10291.31
489.948	10381.93
490.318	10517.75
490.688	10614.92
491.058	10701.02
491.428	10861.01
491.798	10932.42
492.168	11205.41
492.538	11256.94
492.908	11430.04
493.278	11585.97
493.648	11579.19
494.017	11799.52
494.387	11913.19
494.757	11929.91
495.126	12115.9
495.496	12132.84
495.866	12224.59
496.235	12376.45
496.605	12564.7
496.974	12602.66
497.344	12727.63
497.713	12873.16
498.082	12891.02
498.452	13051.46
498.821	13070.9
499.19	13154.96
499.559	13298.92
499.928	13425.92
500.298	13444.67
500.667	13689.64
501.036	13615.97
501.405	13757.43
501.774	13836.53
502.143	13970.99
502.512	14035.39
502.88	14179.12
503.249	14213.92
503.618	14311.54
503.987	14446.68
504.356	14474.03
504.724	14546.79
505.093	14659.33
505.462	14756.28
505.83	14896.61
506.199	15032.88
506.567	15142.94
506.936	15283.95
507.304	15332.08
507.672	15436.71
508.041	15581.79
508.409	15682.36
508.777	15809.13
509.145	15928.9
509.514	15914.21
509.882	16022.23
510.25	16168.44
510.618	16276.24
510.986	16297.48
511.354	16619.05
511.722	16671.26
512.09	16854.3
512.458	16847.3
512.826	17053.85
513.193	17246.38
513.561	17192.6
513.929	17375.87
514.297	17471.46
514.664	17612.93
515.032	17718.46
515.4	17913.71
515.767	18049.3
516.135	18214.72
516.502	18054.72
516.869	18348.5
517.237	18445.67
517.604	18484.54
517.972	18691.77
518.339	18907.58
518.706	18963.17
519.073	19061.7
519.44	19245.2
519.808	19402.94
520.175	19425.53
520.542	19720.22
520.909	19788.24
521.276	19833.43
521.643	20037.5
522.009	20269.13
522.376	20429.8
522.743	20556.35
523.11	20772.39
523.477	20858.04
523.843	21149.1
524.21	21308.42
524.577	21320.63
524.943	21573.27
525.31	21631.13
525.676	21898.24
526.043	22075.63
526.409	22195.63
526.776	22453.25
527.142	22559.69
527.508	22617.77
527.874	22789.51
528.241	22906.57
528.607	23045.33
528.973	23281.03
529.339	23192.89
529.705	23608.48
530.071	23724.18
530.437	23728.92
530.803	23962.82
531.169	24152.87
531.535	24117.61
531.901	24270.38
532.267	24464.05
532.632	24595.34
532.998	24641.89
533.364	24748.33
533.73	24825.62
534.095	25056.35
534.461	25172.73
534.826	25446.17
535.192	25440.29
535.557	25558.25
535.923	25632.83
536.288	25741.98
536.653	25865.14
537.019	25864.01
537.384	25940.39
537.749	26213.6
538.114	26272.59
538.479	26339.25
538.845	26364.56
539.21	26440.27
539.575	26663.31
539.94	26583.99
540.305	26790.99
540.67	26720.71
541.034	27006.8
541.399	27053.36
541.764	27091.55
542.129	27192.11
542.494	27301.03
542.858	27416.28
543.223	27502.84
543.587	27670.29
543.952	27661.7
544.316	27823.28
544.681	27816.73
545.045	28021.24
545.41	28128.58
545.774	28209.94
546.138	28218.07
546.503	28335.36
546.867	28388.46
547.231	28533.09
547.595	28737.38
547.959	28832.07
548.324	28868
548.688	28911.39
549.052	28942.8
549.416	29093.75
549.779	29110.48
550.143	29275.22
550.507	29411.71
550.871	29573.74
551.235	29598.15
551.599	29842.44
551.962	29856.45
552.326	29909.78
552.689	30029.55
553.053	30050.11
553.417	30062.77
553.78	30532.14
554.143	30361.97
554.507	30647.61
554.87	30681.28
555.234	31073.14
555.597	30661.17
555.96	31019.13
556.323	31056.87
556.686	31169.86
557.05	31424.31
557.413	31509.06
557.776	31676.29
558.139	31824.08
558.502	31845.32
558.865	31934.13
559.228	32231.75
559.59	32333.22
559.953	32447.34
560.316	32622.7
560.679	32764.39
561.041	32957.16
561.404	32991.51
561.767	33223.59
562.129	33148.11
562.492	33563.02
562.854	33601.43
563.217	33470.59
563.579	33795.78
563.941	33887.75
564.304	34024.47
564.666	34272.38
565.028	34271.92
565.39	34331.58
565.753	34649.77
566.115	34765.92
566.477	34900.83
566.839	34944
567.201	35172.01
567.563	35126.14
567.925	35464.66
568.287	35503.3
568.648	35595.96
569.01	35756.86
569.372	35975.16
569.734	35751.43
570.095	36139.45
570.457	36280.01
570.819	36451.53
571.18	36467.12
571.542	36646.32
571.903	36609.49
572.265	36696.72
572.626	36966.99
572.987	36897.17
573.349	37009.03
573.71	37092.87
574.071	37255.12
574.432	37390.03
574.794	37559.75
575.155	37540.99
575.516	37419.41
575.877	37674.55
576.238	37684.49
576.599	37778.72
576.96	37662.57
577.32	37772.62
577.681	37996.8
578.042	38050.36
578.403	38062.11
578.763	38045.16
579.124	38125.61
579.485	38105.04
579.845	38289.9
580.206	38252.16
580.566	38226.62
580.927	38409.22
581.287	38492.15
581.648	38310.69
582.008	38444.24
582.368	38428.42
582.728	38475.88
583.089	38536.22
583.449	38571.25
583.809	38600.17
584.169	38657.8
584.529	38556.78
584.889	38747.29
585.249	38561.75
585.609	38451.7
585.969	38813.5
586.329	38611.7
586.688	38669.32
587.048	38597.23
587.408	38630.45
587.768	38673.16
588.127	38589.78
588.487	38454.19
588.846	38888.53
589.206	38664.8
589.565	38590.23
589.925	38782.54
590.284	38631.81
590.643	38711.58
591.003	38778.92
591.362	38885.36
591.721	38696.89
592.08	38621.87
592.44	38732.6
592.799	38750.45
593.158	38870.67
593.517	38645.14
593.876	38772.14
594.235	38745.48
594.593	38592.26
594.952	38834.97
595.311	38768.53
595.67	38897.79
596.029	38929.88
596.387	38983.44
596.746	39043.78
597.104	38821.63
597.463	38888.98
597.822	39037.45
598.18	38869.54
598.538	38822.76
598.897	39034.96
599.255	38736.67
599.613	39382.3
599.972	39132.81
600.33	38991.12
600.688	38986.83
601.046	39046.94
601.404	39187.95
601.762	39093.72
602.12	39213.49
602.478	39200.38
602.836	39060.27
603.194	38988.86
603.552	39143.89
603.91	38914.29
604.268	39069.54
604.625	39079.25
604.983	39209.2
605.341	38926.94
605.698	39291.68
606.056	39345.91
606.413	39250.32
606.771	39345.69
607.128	39454.39
607.485	39288.97
607.843	39336.65
608.2	39560.15
608.557	39661.84
608.914	39387.95
609.272	39758.33
609.629	39651.22
609.986	39892.57
610.343	39724.89
610.7	39850.31
611.057	39966.92
611.414	39863.87
611.771	39857.09
612.127	39986.12
612.484	39923.98
612.841	40245.55
613.198	40050.75
613.554	39892.79
613.911	40285.32
614.267	40231.09
614.624	40231.54
614.98	40282.84
615.337	40514.47
615.693	40435.6
616.05	40328.49
616.406	40596.96
616.762	40347.7
617.118	40391.54
617.475	40439.45
617.831	40531.19
618.187	40559.44
618.543	40596.28
618.899	40721.02
619.255	40779.78
619.611	40642.15
619.967	40843.5
620.323	40913.33
620.678	40791.98
621.034	40758.76
621.39	40675.15
621.746	40774.58
622.101	41301.12
622.457	40844.41
622.812	40931.18
623.168	40994.23
623.523	40890.51
623.879	41006.44
624.234	40727.8
624.589	40964.18
624.945	41009.37
625.3	41121.01
625.655	41031.75
626.01	41023.84
626.365	40977.96
626.72	40932.31
627.075	40907.23
627.43	40926.21
627.785	40809.83
628.14	40882.82
628.495	40940.67
628.85	40900.9
629.205	40784.52
629.559	40971.86
629.914	40677.86
630.269	40783.39
630.623	40742.26
630.978	40548.14
631.332	40829.72
631.687	40859.77
632.041	40495.04
632.396	40814.35
632.75	40554.24
633.104	40476.73
633.459	40288.04
633.813	40198.32
634.167	40351.31
634.521	40281.03
634.875	40328.04
635.229	40263.18
635.583	40126.91
635.937	40076.29
636.291	40080.36
636.645	40000.59
636.999	39928.27
637.352	40001.26
637.706	39807.15
638.06	39929.18
638.413	39734.6
638.767	39734.15
639.121	39651.67
639.474	39459.36
639.828	39530.99
640.181	39476.53
640.534	39512.69
640.888	39311.79
641.241	39256.65
641.594	39323.54
641.947	39522.41
642.301	39335.75
642.654	39338.68
643.007	39292.58
643.36	39216.65
643.713	39095.07
644.066	39365.12
644.419	39007.62
644.771	38794.29
645.124	38390.46
645.477	38303.68
645.83	37998.15
646.182	37894.65
646.535	37870.47
646.888	37943.47
647.24	37707.09
647.593	37883.58
647.945	37898.5
648.298	37736.92
648.65	37794.32
649.002	37498.05
649.355	37763.36
649.707	37491.05
650.059	37712.06
650.411	38042.67
650.763	38062.11
651.115	38527.18
651.467	38315.89
651.819	38359.95
652.171	38212.61
652.523	38188.2
652.875	38234.76
653.227	38047.64
653.578	38220.29
653.93	38104.82
654.282	37893.98
654.633	37854.88
654.985	37797.03
655.337	37872.51
655.688	37933.75
656.039	37894.65
656.391	37664.38
656.742	37669.12
657.094	37664.38
657.445	37920.42
657.796	37813.07
658.147	37642
658.498	37673.42
658.849	37561.33
659.2	37592.97
659.551	37485.17
659.902	37583.25
660.253	37511.61
660.604	37521.78
660.955	37247.89
661.306	37410.15
661.656	37262.13
662.007	37229.36
662.358	37259.87
662.708	37176.48
663.059	37025.75
663.409	36806.09
663.76	37060.78
664.11	37008.57
664.461	36931.29
664.811	36915.92
665.161	36916.83
665.511	36709.83
665.862	36668.7
666.212	36761.8
666.562	36658.08
666.912	36591.86
667.262	36444.52
667.612	36437.29
667.962	36320.01
668.312	36270.74
668.662	36280.68
669.011	36080.69
669.361	36026.91
669.711	35916.85
670.06	35753.47
670.41	35772.45
670.76	35524.77
671.109	35728.83
671.459	35622.17
671.808	35503.76
672.157	35515.96
672.507	35275.74
672.856	35273.25
673.205	35278.22
673.554	35195.97
673.904	35051.79
674.253	35348.51
674.602	35113.71
674.951	34586.72
675.3	34411.58
675.649	34998.68
675.998	34788.97
676.346	34870.33
676.695	34997.78
677.044	34738.8
677.393	34833.49
677.741	34859.25
678.09	34709.65
678.438	34626.26
678.787	34738.35
679.135	34528.19
679.484	34453.61
679.832	34617
680.181	34507.85
680.529	34488.19
680.877	34542.88
681.225	34416.1
681.573	34676.66
681.922	34374.07
682.27	34358.48
682.618	34477.79
682.966	34428.08
683.314	34566.15
683.661	34343.79
684.009	34408.64
684.357	34238.25
684.705	34279.38
685.053	34308.53
685.4	34286.39
685.748	34170.23
686.095	34277.35
686.443	34159.38
686.79	34203.22
687.138	34295.2
687.485	34261.53
687.832	34190.8
688.18	34231.25
688.527	34022.66
688.874	34235.99
689.221	34263.11
689.568	34156.22
689.915	34184.69
690.262	34006.39
690.609	33976.79
690.956	33951.93
691.303	33933.4
691.65	33767.76
691.997	33880.52
692.344	33670.81
692.69	33770.69
693.037	33788.32
693.383	33463.36
693.73	33656.12
694.077	33478.95
694.423	33491.15
694.769	33392.85
695.116	33389.91
695.462	33363.47
695.808	33288.9
696.155	33255.91
696.501	33075.8
696.847	33118.51
697.193	32863.15
697.539	33055.68
697.885	32761.23
698.231	32661.8
698.577	32683.94
698.923	32687.33
699.269	32464.06
699.614	32397.4
699.96	32401.92
700.306	32414.8
700.651	32216.16
700.997	32165.99
701.342	32126.44
701.688	32188.36
702.033	31928.48
702.379	31966.45
702.724	31878.09
703.069	32037.86
703.415	31624.08
703.76	31717.41
704.105	31712.89
704.45	31422.96
704.795	31261.61
705.14	31213.93
705.485	31281.72
705.83	31111.33
706.175	31116.3
706.52	31086.92
706.865	30965.34
707.209	30941.16
707.554	30881.28
707.899	30853.03
708.243	30668.18
708.588	30672.7
708.932	30459.82
709.277	30551.34
709.621	30524.23
709.966	30343.21
710.31	30333.95
710.654	30221.63
710.998	30154.97
711.342	30213.27
711.687	30173.73
712.031	30061.64
712.375	29778.48
712.719	29849.22
713.063	29838.14
713.407	29918.14
713.75	29623.68
714.094	29681.54
714.438	29625.94
714.782	29642.44
715.125	29425.72
715.469	29496.46
715.812	29365.61
716.156	29255.56
716.499	29305.05
716.843	29314.31
717.186	29104.15
717.53	29176.69
717.873	29107.99
718.216	29063.02
718.559	28990.71
718.902	28699.41
719.246	28809.69
719.589	28733.99
719.932	28669.13
720.275	28571.06
720.617	28638.63
720.96	28421.46
721.303	28596.82
721.646	28566.31
721.989	28390.04
722.331	28409.93
722.674	28201.8
723.016	28378.29
723.359	28268.47
723.701	28291.97
724.044	28106.21
724.386	27925.42
724.729	27974.91
725.071	27927.46
725.413	27943.95
725.755	27992.99
726.097	27807.46
726.439	27634.13
726.782	27629.84
727.124	27782.83
727.465	27557.75
727.807	27638.2
728.149	27508.49
728.491	27480.01
728.833	27486.34
729.175	27455.15
729.516	27343.74
729.858	27223.52
730.199	27498.77
730.541	27295.16
730.882	27325.89
731.224	27333.8
731.565	27185.33
731.906	27170.42
732.248	27148.95
732.589	26949.63
732.93	26815.17
733.271	26839.58
733.612	26891.78
733.953	26845.23
734.294	26693.37
734.635	26752.12
734.976	26773.14
735.317	26505.8
735.658	26608.62
735.999	26667.38
736.339	26539.92
736.68	26632.58
737.021	26480.49
737.361	26421.73
737.702	26501.73
738.042	26339.93
738.383	26247.73
738.723	26324.79
739.063	26212.25
739.404	26214.51
739.744	26224.9
740.084	26038.92
740.424	26146.71
740.764	26109.43
741.104	26139.48
741.444	25996.89
741.784	25880.28
742.124	25991.24
742.464	25798.93
742.804	25765.25
743.143	25786.27
743.483	25871.92
743.823	25595.54
744.162	25668.08
744.502	25627.63
744.841	25500.63
745.181	25579.27
745.52	25453.85
745.86	25479.61
746.199	25528.65
746.538	25361.42
746.877	25351.48
747.216	25283.91
747.556	25253.86
747.895	25177.7
748.234	25168.43
748.573	25106.51
748.911	25084.82
749.25	25118.04
749.589	24897.03
749.928	25038.04
750.267	24938.84
750.605	24847.09
750.944	24908.1
751.283	24790.59
751.621	24776.13
751.96	24616.58
752.298	24676.02
752.636	24634.66
752.975	24542.91
753.313	24339.08
753.651	24487.1
