Data from white_steel_sheet_FLMS001491_080.txt Node
Date: Tue Feb 07 10:58:27 GMT 2017
User: dcchb
Spectrometer: FLMS00149
Trigger mode: 0
Integration Time (sec): 2.000000E-2
Scans to average: 10
Electric dark correction enabled: true
Nonlinearity correction enabled: false
Boxcar width: 0
XAxis mode: Wavelengths
Number of Pixels in Spectrum: 2048
>>>>>Begin Spectral Data<<<<<
341.393	-25.88
341.776	-25.88
342.16	-25.88
342.543	-79.88
342.927	-51.19
343.31	-74.46
343.693	-84.63
344.077	-69.04
344.46	-47.8
344.843	-37.17
345.226	-37.85
345.61	-42.6
345.993	-3.5
346.376	-22.94
346.759	12.54
347.142	14.35
347.525	44.63
347.908	65.65
348.291	89.15
348.674	103.84
349.057	89.83
349.44	128.02
349.823	132.54
350.206	147.68
350.588	204.4
350.971	217.28
351.354	249.15
351.737	262.03
352.119	247.56
352.502	255.25
352.884	288.92
353.267	288.47
353.65	298.86
354.032	332.53
354.414	316.26
354.797	311.52
355.179	336.38
355.562	342.93
355.944	344.74
356.326	349.71
356.709	344.74
357.091	344.51
357.473	346.54
357.855	366.66
358.238	349.26
358.62	346.77
359.002	355.36
359.384	379.54
359.766	351.52
360.148	345.19
360.53	344.96
360.912	358.75
361.294	329.82
361.676	351.52
362.057	323.04
362.439	324.4
362.821	336.15
363.203	335.92
363.584	347
363.966	331.4
364.348	349.26
364.729	345.64
365.111	333.66
365.493	331.18
365.874	352.19
366.256	338.41
366.637	334.34
367.019	329.82
367.4	327.34
367.781	329.14
368.163	324.4
368.544	311.74
368.925	351.06
369.306	338.64
369.688	344.06
370.069	328.01
370.45	330.5
370.831	338.18
371.212	349.03
371.593	343.83
371.974	329.14
372.355	341.12
372.736	335.7
373.117	327.79
373.498	340.89
373.879	334.57
374.26	319.43
374.641	326.21
375.021	337.28
375.402	339.77
375.783	362.82
376.163	357.39
376.544	351.29
376.925	356.94
377.305	352.87
377.686	337.51
378.066	356.04
378.447	374.79
378.827	364.85
379.208	357.62
379.588	359.65
379.968	369.59
380.349	362.14
380.729	349.26
381.109	368.92
381.489	358.97
381.87	367.79
382.25	370.05
382.63	371.4
383.01	396.71
383.39	356.71
383.77	372.08
384.15	373.44
384.53	391.74
384.91	415.24
385.29	394.23
385.67	376.6
386.049	391.74
386.429	412.31
386.809	412.53
387.189	383.15
387.568	406.2
387.948	411.18
388.328	406.66
388.707	422.7
389.087	423.15
389.466	434.68
389.846	441.68
390.225	425.86
390.605	427.9
390.984	423.38
391.363	424.06
391.743	454.56
392.122	439.65
392.501	455.02
392.881	488.46
393.26	464.51
393.639	493.21
394.018	502.92
394.397	485.98
394.776	490.04
395.155	500.66
395.534	490.95
395.913	499.76
396.292	496.37
396.671	518.52
397.05	518.74
397.429	537.73
397.808	536.6
398.186	517.61
398.565	563.71
398.944	539.76
399.323	543.6
399.701	565.52
400.08	593.09
400.458	557.39
400.837	594.67
401.215	599.87
401.594	600.32
401.972	593.32
402.351	608.91
402.729	618.18
403.107	651.4
403.486	642.36
403.864	680.77
404.242	649.81
404.62	658.85
404.999	707.44
405.377	685.74
405.755	718.96
406.133	697.95
406.511	733.43
406.889	752.86
407.267	757.16
407.645	773.2
408.023	752.64
408.401	774.33
408.779	777.72
409.156	808
409.534	824.05
409.912	811.84
410.29	847.1
410.667	850.26
411.045	874.89
411.422	861.33
411.8	888.23
412.178	905.17
412.555	938.17
412.933	935.91
413.31	938.39
413.687	942.24
414.065	976.81
414.442	997.15
414.819	963.93
415.197	1005.74
415.574	1048.67
415.951	1027.88
416.328	1054.77
416.705	1050.93
417.082	1039.63
417.46	1079.63
417.837	1084.83
418.214	1090.93
418.591	1123.47
418.967	1103.36
419.344	1132.06
419.721	1160.99
420.098	1167.09
420.475	1142.68
420.852	1185.17
421.228	1179.97
421.605	1189.46
421.982	1212.28
422.358	1250.48
422.735	1245.28
423.111	1238.05
423.488	1275.56
423.864	1276.01
424.241	1328.67
424.617	1311.94
424.994	1302.23
425.37	1357.37
425.746	1350.13
426.123	1366.4
426.499	1375.22
426.875	1382.68
427.251	1403.47
427.627	1449.11
428.003	1464.48
428.379	1525.04
428.756	1483.69
429.132	1508.55
429.507	1516.23
429.883	1529.79
430.259	1587.87
430.635	1583.35
431.011	1616.57
431.387	1629
431.763	1668.09
432.138	1666.06
432.514	1680.29
432.89	1747.64
433.265	1770.91
433.641	1758.48
434.016	1761.65
434.392	1817.47
434.767	1868.31
435.143	1845.49
435.518	1889.33
435.894	1878.26
436.269	1916.9
436.644	1956.22
437.02	1953.73
437.395	2002.55
437.77	1962.32
438.145	2040.74
438.52	2063.11
438.895	2084.35
439.271	2084.58
439.646	2138.81
440.021	2191.47
440.395	2177.46
440.77	2147.18
441.145	2174.07
441.52	2200.73
441.895	2242.31
442.27	2256.32
442.645	2250
443.019	2271.69
443.394	2289.54
443.769	2358.47
444.143	2292.48
444.518	2367.96
444.892	2368.86
445.267	2382.42
445.641	2407.06
446.016	2419.26
446.39	2430.11
446.764	2442.53
447.139	2470.56
447.513	2485.92
447.887	2487.05
448.262	2537.9
448.636	2534.51
449.01	2594.17
449.384	2635.75
449.758	2567.5
450.132	2633.94
450.506	2645.02
450.88	2698.35
451.254	2706.93
451.628	2755.97
452.002	2771.57
452.376	2780.6
452.75	2812.02
453.123	2837.55
453.497	2865.12
453.871	2901.51
454.244	2990.54
454.618	2991.45
454.992	3053.37
455.365	3034.38
455.739	3136.53
456.112	3146.92
456.486	3135.4
456.859	3181.72
457.232	3259.69
457.606	3254.94
457.979	3283.64
458.352	3375.84
458.725	3431.21
459.099	3382.85
459.472	3510.3
459.845	3517.08
460.218	3548.95
460.591	3595.95
460.964	3642.5
461.337	3692.67
461.71	3731.99
462.083	3829.16
462.456	3790.52
462.829	3848.83
463.201	3911.87
463.574	3890.18
463.947	4008.14
464.32	4064.19
464.692	4087.92
465.065	4136.95
465.438	4202.26
465.81	4256.05
466.183	4242.04
466.555	4397.74
466.928	4369.72
467.3	4403.84
467.672	4485.19
468.045	4584.85
468.417	4573.78
468.789	4612.65
469.161	4726.99
469.534	4745.75
469.906	4858.29
470.278	4913.88
470.65	4945.75
471.022	5104.84
471.394	5133.54
471.766	5214.67
472.138	5238.62
472.51	5350.48
472.882	5443.81
473.253	5512.74
473.625	5564.94
473.997	5707.08
474.369	5751.6
474.74	5837.02
475.112	5940.52
475.484	6018.03
475.855	6097.35
476.227	6159.95
476.598	6312.26
476.97	6394.07
477.341	6526.27
477.713	6655.08
478.084	6670.45
478.455	6870.67
478.827	6910.89
479.198	7131.45
479.569	7179.59
479.94	7330.09
480.311	7429.97
480.682	7603.08
481.053	7764.43
481.424	7879
481.795	7985.21
482.166	8092.33
482.537	8206.68
482.908	8409.84
483.279	8458.87
483.65	8552.88
484.021	8789.49
484.391	8875.59
484.762	8952.19
485.133	8985.87
485.503	9148.12
485.874	9361
486.244	9507.43
486.615	9680.76
486.985	9830.36
487.356	9923.47
487.726	10055.67
488.097	10217.92
488.467	10274.87
488.837	10555.32
489.207	10564.35
489.578	10789.66
489.948	10941.07
490.318	11038.69
490.688	11067.84
491.058	11216.32
491.428	11353.03
491.798	11574.5
492.168	11796.86
492.538	11803.64
492.908	11931.78
493.278	12108.95
493.648	12174.71
494.017	12295.16
494.387	12431.42
494.757	12571.31
495.126	12692.43
495.496	12682.94
495.866	12812.66
496.235	13007.45
496.605	13101.46
496.974	13174.23
497.344	13345.52
497.713	13439.76
498.082	13451.74
498.452	13660.09
498.821	13777.6
499.19	13757.04
499.559	13927.66
499.928	14085.17
500.298	14150.02
500.667	14263.24
501.036	14344.37
501.405	14504.82
501.774	14451.71
502.143	14671.82
502.512	14700.07
502.88	14844.24
503.249	14846.73
503.618	15012.83
503.987	15106.16
504.356	15237.68
504.724	15338.01
505.093	15415.3
505.462	15450.55
505.83	15585.47
506.199	15795.4
506.567	16020.93
506.936	16012.12
507.304	16158.11
507.672	16237.43
508.041	16359.23
508.409	16578.43
508.777	16570.75
509.145	16732.1
509.514	16815.94
509.882	17055.03
510.25	17052.09
510.618	17161.24
510.986	17233.78
511.354	17386.77
511.722	17542.25
512.09	17779.76
512.458	17720.33
512.826	17930.26
513.193	18046.19
513.561	18101.78
513.929	18253.87
514.297	18379.74
514.664	18613.41
515.032	18645.95
515.4	18900.63
515.767	19040.52
516.135	18981.76
516.502	18987.64
516.869	19430.79
517.237	19453.61
517.604	19522.54
517.972	19745.36
518.339	19909.19
518.706	19905.58
519.073	20154.39
519.44	20205.01
519.808	20372.46
520.175	20439.8
520.542	20781.49
520.909	20773.58
521.276	20791.66
521.643	21154.81
522.009	21327.46
522.376	21446.33
522.743	21703.05
523.11	21808.13
523.477	22014.22
523.843	22049.25
524.21	22438.85
524.577	22511.84
524.943	22700.76
525.31	22860.98
525.676	23150.01
526.043	23254.64
526.409	23425.94
526.776	23591.58
527.142	23642.43
527.508	23795.87
527.874	24089.42
528.241	24077.9
528.607	24270.44
528.973	24519.92
529.339	24493.71
529.705	24739.35
530.071	24963.3
530.437	25074.93
530.803	25290.3
531.169	25475.38
531.535	25349.73
531.901	25525.77
532.267	25738.87
532.632	25830.39
532.998	26008.69
533.364	26290.5
533.73	26266.09
534.095	26508.57
534.461	26501.11
534.826	26642.12
535.192	26860.88
535.557	26966.86
535.923	27019.29
536.288	27145.39
536.653	27224.26
537.019	27229.45
537.384	27459.73
537.749	27533.17
538.114	27669.89
538.479	27658.14
538.845	27972.26
539.21	27827.18
539.575	27970
539.94	28138.13
540.305	28397.56
540.67	28286.15
541.034	28433.49
541.399	28482.3
541.764	28591.9
542.129	28773.14
542.494	28934.04
542.858	28937.66
543.223	29007.49
543.587	29215.39
543.952	29180.59
544.316	29372.67
544.681	29332.45
545.045	29437.98
545.41	29614.02
545.774	29737.86
546.138	29720.24
546.503	29790.52
546.867	29888.82
547.231	30177.85
547.595	30186.44
547.959	30259.66
548.324	30299.43
548.688	30465.98
549.052	30646.31
549.416	30627.78
549.779	30905.29
550.143	30855.57
550.507	31126.75
550.871	31080.88
551.235	31132.63
551.599	31326.07
551.962	31427.31
552.326	31567.19
552.689	31702.33
553.053	31650.58
553.417	31796.34
553.78	32087.4
554.143	32022.55
554.507	32144.58
554.87	32308.42
555.234	32684.23
555.597	32420.96
555.96	32623.21
556.323	32900.49
556.686	32916.08
557.05	33092.8
557.413	33237.88
557.776	33234.49
558.139	33422.06
558.502	33597.87
558.865	33584.99
559.228	33813.46
559.59	33961.71
559.953	33999.9
560.316	34342.49
560.679	34224.98
561.041	34607.56
561.404	34690.27
561.767	34978.18
562.129	34908.12
562.492	35275.8
562.854	35287.32
563.217	35446.41
563.579	35555.56
563.941	35758.49
564.304	35790.13
564.666	35997.13
565.028	35879.85
565.39	36284.58
565.753	36506.05
566.115	36500.62
566.477	36742.88
566.839	36749.2
567.201	36992.59
567.563	37157.1
567.925	37359.58
568.287	37238.68
568.648	37229.64
569.01	37532.46
569.372	37740.82
569.734	37683.87
570.095	38029.85
570.457	38271.42
570.819	38287.92
571.18	38230.97
571.542	38427.13
571.903	38486.11
572.265	38633
572.626	38751.18
572.987	38903.72
573.349	38824.4
573.71	39044.06
574.071	39245.41
574.432	39213.55
574.794	39604.95
575.155	39411.28
575.516	39353.88
575.877	39551.84
576.238	39575.34
576.599	39753.42
576.96	39902.11
577.32	39707.54
577.681	39877.48
578.042	40050.36
578.403	40032.96
578.763	40040.87
579.124	40051.49
579.485	40065.73
579.845	40336
580.206	40237.93
580.566	40283.35
580.927	40315.44
581.287	40439.5
581.648	40295.55
582.008	40442.44
582.368	40442.44
582.728	40460.07
583.089	40554.53
583.449	40568.31
583.809	40518.6
584.169	40611.47
584.529	40618.71
584.889	40847.4
585.249	40533.51
585.609	40416.9
585.969	40809.44
586.329	40501.65
586.688	40673.17
587.048	40649.21
587.408	40624.36
587.768	40556.79
588.127	40545.26
588.487	40636.56
588.846	40792.94
589.206	40606.05
589.565	40528.31
589.925	40775.09
590.284	40629.33
590.643	40705.94
591.003	40780.51
591.362	40822.32
591.721	40763.11
592.08	40759.72
592.44	40811.92
592.799	40753.17
593.158	40785.26
593.517	40735.09
593.876	40667.97
594.235	40773.96
594.593	40767.85
594.952	41048.75
595.311	40683.56
595.67	40815.99
596.029	40943.22
596.387	40954.06
596.746	41080.84
597.104	40910
597.463	41029.77
597.822	40958.36
598.18	40883.78
598.538	40769.21
598.897	41153.83
599.255	40762.43
599.613	41267.5
599.972	41033.16
600.33	41060.73
600.688	40912.48
601.046	41041.07
601.404	41132.59
601.762	41099.82
602.12	41328.74
602.478	41240.38
602.836	41320.83
603.194	41006.04
603.552	41148.18
603.91	41004.01
604.268	41267.5
604.625	41085.13
604.983	41278.35
605.341	41033.38
605.698	41265.47
606.056	41381.17
606.413	41282.87
606.771	41461.85
607.128	41418.91
607.485	41315.86
607.843	41367.16
608.2	41503.65
608.557	41718.56
608.914	41629.07
609.272	41702.97
609.629	41967.15
609.986	41914.72
610.343	41652.58
610.7	42068.16
611.057	41916.75
611.414	41914.94
611.771	41953.81
612.127	41946.35
612.484	42142.51
612.841	42090.76
613.198	42066.8
613.554	42087.14
613.911	42296.18
614.267	42333.01
614.624	42302.5
614.98	42426.34
615.337	42673.79
615.693	42440.35
616.05	42450.75
616.406	42683.74
616.762	42503.18
617.118	42620.01
617.475	42566.23
617.831	42627.69
618.187	42665.43
618.543	42747.24
618.899	42952.43
619.255	42877.86
619.611	42801.25
619.967	42984.07
620.323	43040.11
620.678	42929.15
621.034	42811.42
621.39	42917.63
621.746	42749.95
622.101	43167.34
622.457	42890.51
622.812	42982.94
623.168	43148.36
623.523	43092.31
623.879	43203.04
624.234	42898.87
624.589	43142.48
624.945	43135.02
625.3	43206.21
625.655	43227.68
626.01	43065.87
626.365	43169.37
626.72	43114.23
627.075	43071.07
627.43	43016.61
627.785	42894.35
628.14	42976.61
628.495	43064.29
628.85	42958.08
629.205	42944.52
629.559	43151.75
629.914	42882.83
630.269	43002.82
630.623	42777.52
630.978	42751.08
631.332	42802.83
631.687	42937.29
632.041	42703.17
632.396	42940.9
632.75	42589.05
633.104	42750.18
633.459	42470.63
633.813	42568.94
634.167	42649.16
634.521	42617.75
634.875	42414.14
635.229	42486.68
635.583	42228.38
635.937	42362.84
636.291	42148.84
636.645	42167.59
636.999	42142.73
637.352	42322.84
637.706	41996.52
638.06	42238.1
638.413	41988.61
638.767	41775.06
639.121	41941.38
639.474	41709.52
639.828	41692.12
640.181	41851.44
640.534	41662.97
640.888	41713.82
641.241	41380.04
641.594	41537.78
641.947	41585.69
642.301	41481.73
642.654	41436.54
643.007	41339.37
643.36	41348.86
643.713	41145.92
644.066	41402.64
644.419	41214.17
644.771	40927.4
645.124	40564.47
645.477	40472.95
645.83	40212.39
646.182	39954.09
646.535	40032.05
646.888	40030.92
647.24	39812.17
647.593	40109.11
647.945	39998.61
648.298	39768.11
648.65	39689.92
649.002	39646.98
649.355	39681.33
649.707	39569.02
650.059	39687.66
650.411	40211.49
650.763	40296.91
651.115	40773.73
651.467	40424.36
651.819	40468.65
652.171	40328.09
652.523	40176.91
652.875	40248.32
653.227	40084.48
653.578	40229.56
653.93	40158.83
654.282	40066.63
654.633	40035.9
654.985	40008.55
655.337	39952.28
655.688	39963.58
656.039	40081.09
656.391	39796.35
656.742	39845.39
657.094	39745.96
657.445	39995.67
657.796	39767.65
658.147	39719.75
658.498	39619.64
658.849	39796.13
659.2	39611.73
659.551	39623.48
659.902	39808.78
660.253	39450.15
660.604	39630.03
660.955	39386.2
661.306	39365.63
661.656	39485.63
662.007	39449.7
662.358	39242.7
662.708	39296.93
663.059	39401.11
663.409	38856.94
663.76	39122.02
664.11	39131.29
664.461	39146.43
664.811	39145.07
665.161	38925.19
665.511	38787.34
665.862	38788.7
666.212	38836.15
666.562	38883.61
666.912	38648.14
667.262	38619.44
667.612	38525.65
667.962	38484.75
668.312	38349.61
668.662	38380.12
669.011	38283.4
669.361	38276.85
669.711	38021.03
670.06	37981.49
670.41	37774.71
670.76	37794.15
671.109	37835.73
671.459	37833.69
671.808	37636.64
672.157	37644.55
672.507	37300.83
672.856	37315.29
673.205	37295.18
673.554	37203.43
673.904	37162.53
674.253	37360.94
674.602	37158.46
674.951	36667.85
675.3	36351.25
675.649	36915.53
675.998	36933.83
676.346	36913.49
676.695	37068.74
677.044	36768.86
677.393	36779.48
677.741	36970.44
678.09	36746.27
678.438	36600.73
678.787	36751.01
679.135	36702.2
679.484	36567.51
679.832	36742.65
680.181	36546.5
680.529	36596.66
680.877	36432.15
681.225	36466.27
681.573	36601.64
681.922	36534.97
682.27	36246.17
682.618	36434.64
682.966	36545.14
683.314	36496.55
683.661	36469.89
684.009	36344.92
684.357	36406.39
684.705	36283.9
685.053	36269.22
685.4	36285.49
685.748	36159.16
686.095	36217.24
686.443	36045.49
686.79	36132.27
687.138	36144.02
687.485	36147.64
687.832	36237.13
688.18	36294.53
688.527	36006.4
688.874	36006.17
689.221	36117.13
689.568	36063.12
689.915	36045.72
690.262	35864.25
690.609	35888.66
690.956	35724.37
691.303	35800.3
691.65	35737.93
691.997	35793.3
692.344	35722.34
692.69	35639.18
693.037	35576.8
693.383	35526.41
693.73	35509.24
694.077	35341.1
694.423	35398.73
694.769	35393.53
695.116	35378.62
695.462	35423.36
695.808	35271.05
696.155	35224.72
696.501	35168
696.847	35046.65
697.193	34854.56
697.539	35001.9
697.885	34771.4
698.231	34675.81
698.577	34669.94
698.923	34676.04
699.269	34477.62
699.614	34264.3
699.96	34419.32
700.306	34392.2
700.651	34162.83
700.997	34046
701.342	34161.7
701.688	33984.53
702.033	33777.08
702.379	33955.38
702.724	33775.04
703.069	33870.63
703.415	33456.41
703.76	33465.22
704.105	33413.47
704.45	33413.7
704.795	33176.19
705.14	33032.69
705.485	32931.68
705.83	32922.41
706.175	32984.33
706.52	32783.43
706.865	32660.27
707.209	32706.82
707.554	32640.16
707.899	32708.86
708.243	32449.2
708.588	32456.21
708.932	32331.92
709.277	32268.42
709.621	32261.41
709.966	32209.21
710.31	32191.58
710.654	32043.56
710.998	31854.19
711.342	32109.78
711.687	31872.95
712.031	31713.86
712.375	31589.11
712.719	31745.04
713.063	31623.46
713.407	31739.62
713.75	31436.57
714.094	31545.5
714.438	31366.97
714.782	31362.9
715.125	31114.78
715.469	31185.06
715.812	31078.17
716.156	30909.58
716.499	30976.93
716.843	31024.83
717.186	30717.5
717.53	30960.88
717.873	30864.39
718.216	30882.92
718.559	30543.72
718.902	30528.12
719.246	30697.84
719.589	30409.03
719.932	30325.64
720.275	30472.08
720.617	30341.01
720.96	30307.56
721.303	30122.94
721.646	30127.91
721.989	30006.33
722.331	30248.81
722.674	29981.7
723.016	29937.63
723.359	29939.21
723.701	30021.47
724.044	29761.36
724.386	29671.2
724.729	29841.59
725.071	29648.82
725.413	29614.7
725.755	29581.71
726.097	29590.3
726.439	29413.58
726.782	29337.42
727.124	29587.58
727.465	29395.95
727.807	29394.37
728.149	29185.56
728.491	29064.66
728.833	29230.3
729.175	28992.12
729.516	29020.14
729.858	28887.26
730.199	29006.13
730.541	28870.31
730.882	28848.17
731.224	28937.21
731.565	28647.04
731.906	28680.49
732.248	28676.87
732.589	28529.98
732.93	28468.97
733.271	28524.56
733.612	28522.07
733.953	28439.14
734.294	28307.39
734.635	28218.58
734.976	28365.47
735.317	28122.31
735.658	28271.23
735.999	28254.74
736.339	28202.76
736.68	28223.1
737.021	28028.53
737.361	27894.52
737.702	28044.12
738.042	27936.78
738.383	27837.8
738.723	28014.97
739.063	27709.67
739.404	27797.35
739.744	27677.58
740.084	27628.31
740.424	27647.75
740.764	27701.98
741.104	27690.01
741.444	27504.02
741.784	27473.51
742.124	27415.21
742.464	27351.71
742.804	27320.3
743.143	27343.35
743.483	27410.47
743.823	27221.54
744.162	27183.81
744.502	27262.45
744.841	26990.59
745.181	27174.99
745.52	27058.38
745.86	27135.9
746.199	26949.23
746.538	26935.68
746.877	27012.51
747.216	26862.46
747.556	26837.83
747.895	26770.03
748.234	26604.61
748.573	26689.81
748.911	26650.26
749.25	26648.23
749.589	26421.11
749.928	26573.88
750.267	26498.4
750.605	26375.01
750.944	26390.38
751.283	26227.9
751.621	26300.44
751.96	26127.11
752.298	26033.78
752.636	26130.73
752.975	25995.14
753.313	25981.12
