Data from white_poster_card_FLMS001491_00037.txt Node
Date: Wed Feb 08 11:51:26 GMT 2017
User: dcchb
Spectrometer: FLMS00149
Trigger mode: 0
Integration Time (sec): 2.000000E-2
Scans to average: 10
Electric dark correction enabled: true
Nonlinearity correction enabled: false
Boxcar width: 0
XAxis mode: Wavelengths
Number of Pixels in Spectrum: 2048
>>>>>Begin Spectral Data<<<<<
341.393	-25.15
341.776	-25.15
342.16	-25.15
342.543	-70.35
342.927	-66.06
343.31	-34.87
343.693	-73.74
344.077	-52.27
344.46	-85.04
344.843	-63.35
345.226	-31.93
345.61	-10.92
345.993	-10.92
346.376	-19.96
346.759	10.78
347.142	16.65
347.525	37.22
347.908	58.23
348.291	71.11
348.674	86.03
349.057	102.98
349.44	119.25
349.823	137.1
350.206	165.57
350.588	197.21
350.971	197.89
351.354	222.3
351.737	257.1
352.119	237.44
352.502	242.41
352.884	260.26
353.267	272.46
353.65	282.86
354.032	297.77
354.414	312.69
354.797	335.51
355.179	316.76
355.562	304.55
355.944	315.18
356.326	348.39
356.709	349.07
357.091	321.73
357.473	326.25
357.855	346.81
358.238	357.89
358.62	364.89
359.002	349.52
359.384	333.25
359.766	316.98
360.148	320.6
360.53	340.49
360.912	336.42
361.294	341.62
361.676	323.76
362.057	307.04
362.439	321.28
362.821	322.63
363.203	326.47
363.584	328.96
363.966	333.48
364.348	320.82
364.729	330.77
365.111	316.53
365.493	320.15
365.874	326.7
366.256	305.01
366.637	318.57
367.019	311.56
367.4	314.5
367.781	293.93
368.163	329.41
368.544	319.92
368.925	314.5
369.306	325.34
369.688	322.86
370.069	329.86
370.45	325.34
370.831	301.84
371.212	321.05
371.593	326.25
371.974	300.49
372.355	319.92
372.736	310.2
373.117	320.82
373.498	331.9
373.879	304.33
374.26	299.58
374.641	321.5
375.021	338.23
375.402	303.88
375.783	328.06
376.163	336.87
376.544	348.17
376.925	350.2
377.305	331.9
377.686	342.07
378.066	346.81
378.447	339.81
378.827	330.77
379.208	319.24
379.588	343.65
379.968	347.04
380.349	333.93
380.729	343.2
381.109	345.46
381.489	340.71
381.87	345.01
382.25	339.81
382.63	339.81
383.01	363.31
383.39	351.11
383.77	360.37
384.15	334.61
384.53	356.08
384.91	345.68
385.29	353.37
385.67	362.41
386.049	348.62
386.429	378.45
386.809	359.92
387.189	367.38
387.568	350.2
387.948	364.89
388.328	377.32
388.707	382.97
389.087	357.43
389.466	395.63
389.846	375.51
390.225	395.85
390.605	376.19
390.984	383.65
391.363	392.46
391.743	406.7
392.122	384.33
392.501	408.28
392.881	384.55
393.26	376.64
393.639	404.21
394.018	380.94
394.397	417.77
394.776	410.99
395.155	398.79
395.534	423.65
395.913	406.47
396.292	431.1
396.671	428.84
397.05	416.42
397.429	439.92
397.808	434.49
398.186	437.66
398.565	413.93
398.944	433.82
399.323	426.58
399.701	428.62
400.08	455.74
400.458	425.91
400.837	452.35
401.215	465.91
401.594	458.67
401.972	443.31
402.351	455.51
402.729	475.85
403.107	457.32
403.486	486.02
403.864	456.41
404.242	480.37
404.62	484.21
404.999	468.84
405.377	486.7
405.755	478.33
406.133	496.87
406.511	507.49
406.889	479.69
407.267	533.02
407.645	514.04
408.023	509.52
408.401	537.54
408.779	541.61
409.156	557.88
409.534	549.75
409.912	564.66
410.29	581.61
410.667	594.72
411.045	612.79
411.422	618.22
411.8	632.91
412.178	629.07
412.555	639.46
412.933	654.83
413.31	667.26
413.687	688.27
414.065	709.52
414.442	708.16
414.819	719.46
415.197	728.95
415.574	742.06
415.951	774.82
416.328	756.52
416.705	784.99
417.082	813.02
417.46	801.72
417.837	835.61
418.214	848.27
418.591	853.47
418.967	861.6
419.344	873.8
419.721	896.18
420.098	889.62
420.475	926.91
420.852	941.37
421.228	944.76
421.605	970.07
421.982	979.79
422.358	990.19
422.735	1000.36
423.111	991.54
423.488	1015.04
423.864	1039.9
424.241	1066.34
424.617	1079.22
424.994	1076.96
425.37	1101.14
425.746	1110.86
426.123	1081.93
426.499	1122.16
426.875	1171.2
427.251	1169.84
427.627	1173.46
428.003	1205.1
428.379	1231.08
428.756	1247.13
429.132	1240.12
429.507	1277.18
429.883	1297.3
430.259	1314.7
430.635	1322.61
431.011	1290.74
431.387	1382.04
431.763	1394.69
432.138	1395.82
432.514	1442.83
432.89	1429.5
433.265	1479.66
433.641	1503.62
434.016	1506.33
434.392	1561.47
434.767	1538.65
435.143	1561.24
435.518	1587.91
435.894	1578.87
436.269	1631.52
436.644	1642.15
437.02	1645.99
437.395	1652.09
437.77	1700.68
438.145	1712.43
438.52	1700.22
438.895	1766.44
439.271	1725.76
439.646	1810.5
440.021	1794.01
440.395	1818.41
440.77	1817.51
441.145	1815.93
441.52	1846.43
441.895	1859.09
442.27	1880.56
442.645	1881.01
443.019	1913.33
443.394	1911.07
443.769	1917.39
444.143	1914
444.518	1955.81
444.892	1947.45
445.267	1933.21
445.641	1959.43
446.016	1990.16
446.39	2026.99
446.764	2030.38
447.139	2021.35
447.513	2059.76
447.887	2049.14
448.262	2050.04
448.636	2057.73
449.01	2109.03
449.384	2140.21
449.758	2142.7
450.132	2139.99
450.506	2154
450.88	2172.3
451.254	2174.79
451.628	2208.46
452.002	2233.32
452.376	2250.49
452.75	2276.48
453.123	2305.18
453.497	2349.92
453.871	2313.09
454.244	2363.48
454.618	2382.47
454.992	2431.96
455.365	2410.71
455.739	2488.23
456.112	2511.73
456.486	2553.76
456.859	2512.63
457.232	2603.93
457.606	2577.71
457.979	2629.46
458.352	2689.35
458.725	2730.93
459.099	2701.55
459.472	2754.66
459.845	2789.23
460.218	2820.19
460.591	2819.06
460.964	2875.56
461.337	2923.69
461.71	2940.87
462.083	3005.5
462.456	2989.23
462.829	2981.09
463.201	3086.4
463.574	3052.73
463.947	3128.43
464.32	3214.53
464.692	3203.69
465.065	3215.21
465.438	3324.59
465.81	3328.66
466.183	3368.65
466.555	3447.07
466.928	3409.56
467.3	3454.98
467.672	3517.35
468.045	3557.8
468.417	3609.55
468.789	3605.48
469.161	3670.34
469.534	3711.92
469.906	3800.73
470.278	3837.34
470.65	3890
471.022	3932.93
471.394	3996.21
471.766	4000.05
472.138	4074.85
472.51	4129.31
472.882	4215.41
473.253	4295.41
473.625	4318.23
473.997	4367.5
474.369	4430.32
474.74	4445.01
475.112	4526.82
475.484	4609.98
475.855	4729.07
476.227	4716.19
476.598	4887.03
476.97	4854.49
477.341	5028.5
477.713	5030.98
478.084	5101.26
478.455	5210.87
478.827	5266.23
479.198	5428.26
479.569	5461.71
479.94	5561.59
480.311	5616.96
480.682	5717.97
481.053	5849.04
481.424	5926.1
481.795	5984.86
482.166	6071.41
482.537	6201.57
482.908	6272.98
483.279	6344.4
483.65	6451.06
484.021	6600.66
484.391	6684.5
484.762	6825.96
485.133	6784.16
485.503	6920.43
485.874	7060.31
486.244	7100.76
486.615	7216.24
486.985	7372.62
487.356	7444.93
487.726	7549.11
488.097	7704.36
488.467	7689.44
488.837	7867.75
489.207	7938.25
489.578	8069.77
489.948	8155.87
490.318	8298.92
490.688	8264.8
491.058	8425.24
491.428	8524.45
491.798	8659.59
492.168	8815.97
492.538	8882.63
492.908	8865.46
493.278	9046.02
493.648	9039.69
494.017	9182.74
494.387	9296.18
494.757	9405.56
495.126	9501.15
495.496	9523.52
495.866	9560.13
496.235	9695.04
496.605	9753.8
496.974	9804.42
497.344	9908.14
497.713	9984.53
498.082	10121.02
498.452	10125.31
498.821	10250.73
499.19	10269.04
499.559	10373.89
499.928	10510.16
500.298	10469.48
500.667	10651.63
501.036	10648.46
501.405	10812.3
501.774	10772.3
502.143	10887.33
502.512	10920.55
502.88	11087.77
503.249	11094.1
503.618	11140.88
503.987	11225.4
504.356	11346.52
504.724	11377.03
505.093	11451.61
505.462	11461.55
505.83	11538.38
506.199	11646.85
506.567	11836.23
506.936	11854.08
507.304	12033.74
507.672	12043
508.041	12142.89
508.409	12141.31
508.777	12315.31
509.145	12449.32
509.514	12397.12
509.882	12464.23
510.25	12581.07
510.618	12687.73
510.986	12715.08
511.354	12916.43
511.722	12939.93
512.09	13065.12
512.458	13139.7
512.826	13295.17
513.193	13330.88
513.561	13358
513.929	13454.49
514.297	13566.58
514.664	13696.74
515.032	13800.92
515.4	13925.89
515.767	13983.97
516.135	13985.1
516.502	13961.6
516.869	14264.64
517.237	14294.69
517.604	14377.86
517.972	14460.34
518.339	14594.12
518.706	14584.4
519.073	14759.77
519.44	14842.03
519.808	15071.62
520.175	15056.03
520.542	15245.63
520.909	15319.75
521.276	15391.62
521.643	15513.19
522.009	15655.34
522.376	15726.3
522.743	15936.01
523.11	16023.24
523.477	16167.64
523.843	16247.41
524.21	16345.04
524.577	16553.17
524.943	16681.98
525.31	16749.77
525.676	16971.23
526.043	17100.04
526.409	17116.09
526.776	17293.03
527.142	17385.46
527.508	17465.01
527.874	17565.12
528.241	17758.78
528.607	17893.24
528.973	17968.72
529.339	18041.71
529.705	18235.38
530.071	18307.92
530.437	18396.51
530.803	18636.05
531.169	18605.99
531.535	18660.46
531.901	18782.26
532.267	18795.82
532.632	18933.67
532.998	19122.36
533.364	19229.93
533.73	19218.41
534.095	19417.27
534.461	19533.2
534.826	19674.44
535.192	19652.07
535.557	19881.44
535.923	19860.65
536.288	19895.9
536.653	20056.58
537.019	19895
537.384	20086.63
537.749	20314.88
538.114	20187.2
538.479	20327.53
538.845	20445.27
539.21	20433.06
539.575	20610.91
539.94	20587.64
540.305	20741.53
540.67	20699.27
541.034	20864.69
541.399	21026.5
541.764	20948.98
542.129	21073.05
542.494	21093.61
542.858	21311.01
543.223	21247.05
543.587	21476.65
543.952	21466.94
544.316	21465.35
544.681	21562.98
545.045	21686.14
545.41	21779.24
545.774	21906.47
546.138	21948.5
546.503	22014.72
546.867	21974.27
547.231	22189.63
547.595	22223.07
547.959	22396.63
548.324	22230.08
548.688	22296.97
549.052	22450.41
549.416	22492.22
549.779	22572.67
550.143	22633.91
550.507	22833.91
550.871	22884.75
551.235	22956.16
551.599	23087.91
551.962	23100.79
552.326	23109.83
552.689	23415.81
553.053	23225.08
553.417	23335.14
553.78	23622.36
554.143	23569.25
554.507	23727.67
554.87	23849.25
555.234	23953.42
555.597	23932.41
555.96	24027.55
556.323	24193.87
556.686	24252.63
557.05	24390.7
557.413	24461.21
557.776	24469.34
558.139	24762.67
558.502	24804.7
558.865	24752.95
559.228	25008.09
559.59	25178.93
559.953	25204.69
560.316	25454.63
560.679	25420.5
561.041	25645.36
561.404	25698.01
561.767	25923.32
562.129	25807.84
562.492	26184.33
562.854	26142.07
563.217	26120.37
563.579	26297.09
563.941	26473.58
564.304	26612.56
564.666	26701.83
565.028	26669.28
565.39	26860.47
565.753	27019.56
566.115	27111.98
566.477	27197.41
566.839	27404.63
567.201	27443.73
567.563	27439.66
567.925	27583.16
568.287	27686.43
568.648	27774.79
569.01	27882.59
569.372	28138.62
569.734	28059.08
570.095	28383.59
570.457	28315.12
570.819	28511.27
571.18	28556.24
571.542	28561.66
571.903	28643.47
572.265	28754.88
572.626	28846.85
572.987	28988.55
573.349	29099.5
573.71	29092.5
574.071	29149.22
574.432	29265.83
574.794	29528.19
575.155	29453.17
575.516	29412.04
575.877	29624.46
576.238	29703.1
576.599	29833.5
576.96	29809.54
577.32	29761.18
577.681	29936.77
578.042	30064.9
578.403	30025.58
578.763	30059.93
579.124	30083.66
579.485	30252.92
579.845	30338.34
580.206	30187.38
580.566	30339.92
580.927	30378.57
581.287	30382.18
581.648	30305.35
582.008	30491.11
582.368	30447.94
582.728	30457.43
583.089	30456.76
583.449	30426.47
583.809	30470.99
584.169	30593.93
584.529	30553.02
584.889	30693.59
585.249	30578.33
585.609	30397.1
585.969	30614.27
586.329	30472.35
586.688	30584.66
587.048	30463.54
587.408	30562.74
587.768	30566.81
588.127	30582.85
588.487	30563.42
588.846	30784.66
589.206	30523.42
589.565	30619.92
589.925	30682.96
590.284	30576.07
590.643	30674.6
591.003	30731.78
591.362	30885.22
591.721	30706.92
592.08	30708.05
592.44	30767.03
592.799	30846.8
593.158	30784.88
593.517	30794.15
593.876	30765.9
594.235	30677.77
594.593	30728.61
594.952	30959.79
595.311	30720.93
595.67	30829.63
596.029	30945.56
596.387	30970.19
596.746	31021.03
597.104	30897.42
597.463	30839.34
597.822	31210.86
598.18	30985.1
598.538	30875.95
598.897	31187.36
599.255	30840.7
599.613	31365.66
599.972	31200.69
600.33	31290.63
600.688	31127.47
601.046	31210.86
601.404	31358.65
601.762	31233.91
602.12	31498.31
602.478	31454.47
602.836	31487.46
603.194	31385.54
603.552	31302.84
603.91	31317.75
604.268	31475.94
604.625	31413.11
604.983	31449.27
605.341	31314.59
605.698	31665.54
606.056	31586.44
606.413	31624.41
606.771	31752.77
607.128	31732.2
607.485	31518.87
607.843	31576.73
608.2	31792.31
608.557	31752.77
608.914	31769.72
609.272	31884.97
609.629	32047.67
609.986	31936.72
610.343	31926.32
610.7	32112.98
611.057	32155.69
611.414	32059.43
611.771	32020.56
612.127	32199.76
612.484	32175.35
612.841	32212.87
613.198	32152.3
613.554	32208.57
613.911	32398.4
614.267	32379.42
614.624	32303.71
614.98	32214
615.337	32518.62
615.693	32459.87
616.05	32373.32
616.406	32632.97
616.762	32464.16
617.118	32520.66
617.475	32456.7
617.831	32582.8
618.187	32537.15
618.543	32621.22
618.899	32754.1
619.255	32806.98
619.611	32753.19
619.967	32888.78
620.323	32752.74
620.678	32798.84
621.034	32681.1
621.39	32720.2
621.746	32571.95
622.101	32970.14
622.457	32708
622.812	32865.51
623.168	32910.25
623.523	32799.29
623.879	33079.51
624.234	32797.71
624.589	32859.4
624.945	32898.05
625.3	32907.54
625.655	32899.18
626.01	32866.18
626.365	32898.5
626.72	32872.74
627.075	32853.75
627.43	32906.18
627.785	32697.83
628.14	32876.35
628.495	32826.18
628.85	32684.95
629.205	32670.26
629.559	32896.69
629.914	32611.73
630.269	32782.8
630.623	32617.6
630.978	32477.04
631.332	32623.25
631.687	32742.35
632.041	32532.86
632.396	32626.87
632.75	32468
633.104	32378.74
633.459	32352.07
633.813	32323.83
634.167	32438.4
634.521	32267.78
634.875	32369.93
635.229	32299.65
635.583	32131.06
635.937	32119.31
636.291	32126.09
636.645	32124.96
636.999	31941.24
637.352	32240.44
637.706	31882.93
638.06	31952.08
638.413	31924.74
638.767	31808.36
639.121	31787.12
639.474	31695.82
639.828	31718.64
640.181	31776.27
640.534	31675.93
640.888	31570.17
641.241	31563.85
641.594	31559.78
641.947	31529.04
642.301	31308.71
642.654	31418.76
643.007	31536.73
643.36	31306.45
643.713	31229.62
644.066	31402.95
644.419	31154.59
644.771	31053.12
645.124	30717.31
645.477	30607.71
645.83	30402.29
646.182	30381.73
646.535	30399.58
646.888	30344.89
647.24	30198.23
647.593	30214.05
647.945	30240.49
648.298	30084.11
648.65	29994.85
649.002	29864.45
649.355	30087.27
649.707	30099.02
650.059	30129.08
650.411	30393.25
650.763	30489.98
651.115	30787.82
651.467	30687.71
651.819	30504.89
652.171	30633.25
652.523	30485.23
652.875	30382.41
653.227	30378.34
653.578	30587.6
653.93	30515.51
654.282	30338.79
654.633	30235.52
654.985	30303.31
655.337	30308.06
655.688	30325.01
656.039	30408.85
656.391	30087.27
656.742	30156.88
657.094	30092.7
657.445	30275.52
657.796	30061.74
658.147	29999.14
658.498	29985.13
658.849	30134.5
659.2	30089.31
659.551	30016.77
659.902	30048.86
660.253	30058.8
660.604	29967.5
660.955	29860.39
661.306	30023.77
661.656	29917.56
662.007	29979.48
662.358	29858.58
662.708	29884.57
663.059	29654.29
663.409	29638.47
663.76	29844.34
664.11	29848.41
664.461	29708.98
664.811	29853.83
665.161	29745.36
665.511	29715.53
665.862	29678.25
666.212	29780.16
666.562	29761.41
666.912	29680.73
667.262	29527.29
667.612	29611.13
667.962	29685.25
668.312	29555.76
668.662	29800.28
669.011	29610.68
669.361	29541.53
669.711	29539.72
670.06	29486.39
670.41	29560.73
670.76	29534.29
671.109	29533.16
671.459	29409.78
671.808	29416.78
672.157	29433.28
672.507	29285.94
672.856	29327.52
673.205	29425.37
673.554	29410.91
673.904	29434.18
674.253	29437.12
674.602	29324.58
674.951	28784.48
675.3	28670.14
675.649	29224.92
675.998	29062.67
676.346	29146.06
676.695	29190.12
677.044	28944.48
677.393	29158.71
677.741	29063.12
678.09	28985.61
678.438	28896.8
678.787	28950.35
679.135	28981.77
679.484	28819.51
679.832	28943.35
680.181	28721.43
680.529	28826.52
680.877	28782.22
681.225	28681.44
681.573	28815.89
681.922	28567.31
682.27	28458.84
682.618	28627.65
682.966	28407.32
683.314	28406.64
683.661	28365.06
684.009	28094.11
684.357	28295.68
684.705	28141.34
685.053	28130.72
685.4	28140.66
685.748	28048.46
686.095	27992.64
686.443	27822.7
686.79	27789.71
687.138	27930.04
687.485	27885.98
687.832	27814.79
688.18	27743.15
688.527	27613.44
688.874	27598.07
689.221	27465.2
689.568	27480.56
689.915	27352.66
690.262	27272.21
690.609	27296.39
690.956	27001.93
691.303	27228.59
691.65	26958.77
691.997	27073.34
692.344	26904.53
692.69	26919
693.037	26852.1
693.383	26561.26
693.73	26824.31
694.077	26606.46
694.423	26577.08
694.769	26420.7
695.116	26390.65
695.462	26388.61
695.808	26244.44
696.155	26341.38
696.501	26125.57
696.847	26184.55
697.193	25914.73
697.539	25981.17
697.885	25897.55
698.231	25761.74
698.577	25775.52
698.923	25706.6
699.269	25583.89
699.614	25563.1
699.96	25454.63
700.306	25489.88
700.651	25270
700.997	25297.12
701.342	25208.98
701.688	25134.41
702.033	25078.59
702.379	24971.93
702.724	25105.94
703.069	25039.72
703.415	24863.46
703.76	24840.41
704.105	24773.06
704.45	24733.52
704.795	24553.41
705.14	24520.19
705.485	24510.02
705.83	24385.95
706.175	24359.51
706.52	24147.32
706.865	24189.8
707.209	24091.5
707.554	24086.3
707.899	24110.03
708.243	23940.32
708.588	23919.98
708.932	23678.63
709.277	23805.41
709.621	23770.38
709.966	23537.16
710.31	23672.08
710.654	23362.48
710.998	23488.13
711.342	23547.56
711.687	23392.76
712.031	23293.55
712.375	23247.68
712.719	23293.1
713.063	23219.88
713.407	23339.65
713.75	23085.65
714.094	23059.44
714.438	23035.26
714.782	23001.81
715.125	22891.08
715.469	22875.03
715.812	22774.25
716.156	22725.21
716.499	22769.27
716.843	22664.42
717.186	22646.57
717.53	22691.76
717.873	22620.8
718.216	22491.32
718.559	22465.55
718.902	22263.98
719.246	22294.94
719.589	22258.1
719.932	22108.95
720.275	22238.21
720.617	22149.4
720.96	22082.29
721.303	22108.27
721.646	22187.82
721.989	21891.56
722.331	22078.22
722.674	21880.71
723.016	21993.7
723.359	21860.37
723.701	21893.14
724.044	21688.85
724.386	21722.75
724.729	21833.48
725.071	21601.4
725.413	21730.21
725.755	21678.68
726.097	21602.75
726.439	21449.99
726.782	21384.9
727.124	21566.37
727.465	21386.94
727.807	21258.35
728.149	21308.52
728.491	21343.55
728.833	21325.24
729.175	21126.61
729.516	21159.15
729.858	21136.32
730.199	21112.37
730.541	21101.75
730.882	21113.5
731.224	21131.8
731.565	20920.74
731.906	20979.04
732.248	20971.13
732.589	20880.96
732.93	20880.51
733.271	20752.6
733.612	20760.06
733.953	20745.15
734.294	20663.79
734.635	20643.23
734.976	20768.42
735.317	20558.03
735.658	20526.17
735.999	20533.17
736.339	20469.9
736.68	20519.39
737.021	20502.44
737.361	20403.01
737.702	20447.53
738.042	20436
738.383	20359.39
738.723	20363.24
739.063	20293.86
739.404	20306.97
739.744	20151.49
740.084	20023.81
740.424	20207.76
740.764	20128.44
741.104	20223.35
741.444	20041.66
741.784	19971.61
742.124	19978.84
742.464	19945.85
742.804	19871.95
743.143	19905.85
743.483	19869.46
743.823	19783.36
744.162	19814.1
744.502	19834.44
744.841	19688.9
745.181	19784.27
745.52	19766.19
745.86	19634.89
746.199	19645.74
746.538	19577.95
746.877	19605.74
747.216	19654.78
747.556	19572.97
747.895	19443.71
748.234	19432.64
748.573	19359.19
748.911	19250.27
749.25	19358.06
749.589	19196.26
749.928	19354.45
750.267	19248.01
750.605	19173.44
750.944	19189.48
751.283	19110.84
751.621	19122.59
751.96	18981.8
752.298	19000.56
752.636	18956.72
752.975	18814.8
753.313	18801.02
753.651	18871.52
753.989	18744.07
754.327	18704.3
754.666	18593.79
