Data from white_steel_sheet_FLMS001491_031.txt Node
Date: Tue Feb 07 10:57:45 GMT 2017
User: dcchb
Spectrometer: FLMS00149
Trigger mode: 0
Integration Time (sec): 2.000000E-2
Scans to average: 10
Electric dark correction enabled: true
Nonlinearity correction enabled: false
Boxcar width: 0
XAxis mode: Wavelengths
Number of Pixels in Spectrum: 2048
>>>>>Begin Spectral Data<<<<<
341.393	1.61
341.776	1.61
342.16	1.61
342.543	-57.82
342.927	-71.83
343.31	-70.25
343.693	-58.95
344.077	-53.98
344.46	-75.68
344.843	-53.3
345.226	-46.98
345.61	-47.43
345.993	-36.58
346.376	0.25
346.759	-6.98
347.142	29.18
347.525	52.23
347.908	57.88
348.291	77.54
348.674	126.8
349.057	106.24
349.44	157.09
349.823	153.24
350.206	160.48
350.588	170.87
350.971	220.81
351.354	219.46
351.737	249.51
352.119	247.48
352.502	259.23
352.884	281.15
353.267	273.24
353.65	294.94
354.032	299
354.414	328.16
354.797	315.73
355.179	320.7
355.562	338.32
355.944	326.8
356.326	354.6
356.709	338.1
357.091	352.11
357.473	351.66
357.855	336.29
358.238	353.69
358.62	352.56
359.002	334.71
359.384	334.26
359.766	332
360.148	350.75
360.53	348.49
360.912	345.33
361.294	346.69
361.676	321.38
362.057	333.58
362.439	332
362.821	349.17
363.203	317.76
363.584	332.67
363.966	335.16
364.348	329.74
364.729	324.54
365.111	338.32
365.493	324.09
365.874	339.68
366.256	322.73
366.637	312.11
367.019	320.47
367.4	321.6
367.781	314.6
368.163	303.98
368.544	312.11
368.925	332.45
369.306	319.79
369.688	335.39
370.069	329.51
370.45	335.84
370.831	319.79
371.212	318.89
371.593	320.47
371.974	333.35
372.355	330.87
372.736	319.79
373.117	326.8
373.498	339
373.879	318.44
374.26	327.48
374.641	320.7
375.021	319.79
375.402	343.75
375.783	337.42
376.163	333.8
376.544	341.04
376.925	345.78
377.305	349.62
377.686	348.04
378.066	350.08
378.447	362.73
378.827	355.05
379.208	342.84
379.588	344.2
379.968	334.93
380.349	343.07
380.729	351.43
381.109	353.24
381.489	357.31
381.87	354.82
382.25	361.15
382.63	357.76
383.01	350.53
383.39	376.52
383.77	363.41
384.15	356.63
384.53	363.86
384.91	373.35
385.29	366.8
385.67	390.53
386.049	380.36
386.429	398.89
386.809	376.97
387.189	391.66
387.568	378.78
387.948	388.27
388.328	410.19
388.707	398.44
389.087	389.17
389.466	391.2
389.846	411.09
390.225	418.32
390.605	433.69
390.984	414.48
391.363	426.01
391.743	444.76
392.122	431.88
392.501	441.37
392.881	444.76
393.26	412.67
393.639	449.51
394.018	436.63
394.397	453.12
394.776	472.78
395.155	463.29
395.534	489.51
395.913	465.78
396.292	477.3
396.671	491.77
397.05	485.21
397.429	484.99
397.808	491.77
398.186	503.07
398.565	503.74
398.944	508.04
399.323	520.92
399.701	520.69
400.08	514.59
400.458	544.42
400.837	554.59
401.215	548.26
401.594	569.73
401.972	576.74
402.351	568.15
402.729	555.72
403.107	576.06
403.486	583.52
403.864	607.24
404.242	614.02
404.62	621.93
404.999	621.03
405.377	636.85
405.755	660.8
406.133	690.18
406.511	680.46
406.889	685.89
407.267	689.73
407.645	684.53
408.023	709.84
408.401	712.1
408.779	725.43
409.156	752.1
409.534	769.05
409.912	771.53
410.29	772.44
410.667	771.08
411.045	797.75
411.422	835.03
411.8	841.59
412.178	832.1
412.555	827.13
412.933	850.63
413.31	844.07
413.687	871.19
414.065	872.77
414.442	896.73
414.819	924.98
415.197	920.91
415.574	938.76
415.951	938.76
416.328	964.07
416.705	953
417.082	999.1
417.46	973.34
417.837	991.19
418.214	1017.85
418.591	1045.42
418.967	1067.8
419.344	1058.53
419.721	1051.98
420.098	1039.55
420.475	1086.1
420.852	1103.5
421.228	1087.46
421.605	1094.46
421.982	1099.43
422.358	1119.09
422.735	1135.59
423.111	1128.13
423.488	1141.02
423.864	1178.3
424.241	1187.57
424.617	1204.29
424.994	1196.61
425.37	1230.5
425.746	1233.67
426.123	1236.83
426.499	1258.98
426.875	1263.95
427.251	1319.54
427.627	1297.17
428.003	1326.32
428.379	1338.07
428.756	1336.94
429.132	1383.49
429.507	1380.33
429.883	1392.31
430.259	1435.47
430.635	1444.06
431.011	1458.97
431.387	1461.46
431.763	1485.41
432.138	1506.66
432.514	1555.47
432.89	1560.21
433.265	1605.18
433.641	1583.26
434.016	1642.02
434.392	1639.76
434.767	1666.43
435.143	1698.97
435.518	1700.77
435.894	1726.31
436.269	1742.36
436.644	1757.72
437.02	1785.29
437.395	1763.82
437.77	1816.25
438.145	1856.48
438.52	1851.28
438.895	1894.67
439.271	1911.16
439.646	1925.18
440.021	1908.9
440.395	1972.63
440.77	1945.29
441.145	1992.07
441.52	2026.19
441.895	2018.73
442.27	2023.48
442.645	2044.04
443.019	2071.39
443.394	2072.29
443.769	2080.43
444.143	2058.51
444.518	2107.09
444.892	2124.27
445.267	2145.73
445.641	2169.24
446.016	2218.05
446.39	2190.48
446.764	2238.39
447.139	2205.85
447.513	2232.29
447.887	2260.08
448.262	2316.13
448.636	2305.05
449.01	2318.39
449.384	2327.2
449.758	2344.6
450.132	2388.44
450.506	2416.01
450.88	2400.19
451.254	2376.69
451.628	2463.24
452.002	2467.53
452.376	2472.96
452.75	2543.69
453.123	2550.02
453.497	2604.25
453.871	2599.06
454.244	2663.69
454.618	2662.56
454.992	2707.3
455.365	2720.86
455.739	2841.31
456.112	2824.81
456.486	2852.38
456.859	2833.85
457.232	2909.78
457.606	2910.01
457.979	2930.35
458.352	3002.44
458.725	3047.86
459.099	3017.35
459.472	3135.31
459.845	3156.33
460.218	3150.68
460.591	3192.71
460.964	3222.54
461.337	3255.76
461.71	3370.11
462.083	3364.23
462.456	3382.31
462.829	3425.47
463.201	3477.68
463.574	3463.21
463.947	3525.13
464.32	3636.99
464.692	3634.28
465.065	3693.26
465.438	3694.85
465.81	3752.92
466.183	3794.96
466.555	3888.29
466.928	3864.33
467.3	3915.63
467.672	3956.99
468.045	4064.55
468.417	4054.61
468.789	4156.76
469.161	4149.75
469.534	4240.59
469.906	4344.55
470.278	4356.3
470.65	4383.19
471.022	4462.51
471.394	4547.25
471.766	4565.33
472.138	4669.06
472.51	4742.28
472.882	4820.92
473.253	4904.76
473.625	4970.75
473.997	5065.88
474.369	5134.36
474.74	5169.16
475.112	5218.65
475.484	5331.87
475.855	5432.2
476.227	5448.02
476.598	5611.41
476.97	5655.92
477.341	5761.01
477.713	5856.82
478.084	5906.99
478.455	6095.24
478.827	6144.73
479.198	6258.39
479.569	6292.52
479.94	6468.11
480.311	6516.47
480.682	6626.07
481.053	6797.82
481.424	6900.86
481.795	7005.27
482.166	7103.12
482.537	7179.95
482.908	7313.28
483.279	7470.11
483.65	7527.97
484.021	7660.39
484.391	7811.57
484.762	7893.38
485.133	7967.28
485.503	8035.75
485.874	8260.6
486.244	8253.14
486.615	8438
486.985	8560.71
487.356	8725
487.726	8773.36
488.097	8963.63
488.467	9035.72
488.837	9190.75
489.207	9280.91
489.578	9444.98
489.948	9509.83
490.318	9698.98
490.688	9696.27
491.058	9867.11
491.428	10033.21
491.798	10136.71
492.168	10308.91
492.538	10290.61
492.908	10518.4
493.278	10623.93
493.648	10563.82
494.017	10795.45
494.387	10815.79
494.757	10966.52
495.126	11134.2
495.496	11139.17
495.866	11200.64
496.235	11402.44
496.605	11510.46
496.974	11551.59
497.344	11671.13
497.713	11756.78
498.082	11831.58
498.452	11959.04
498.821	12024.12
499.19	12106.15
499.559	12283.32
499.928	12292.81
500.298	12365.13
500.667	12492.58
501.036	12572.13
501.405	12688.06
501.774	12693.25
502.143	12839.01
502.512	12926.02
502.88	13049.18
503.249	13053.92
503.618	13147.93
503.987	13349.28
504.356	13319.68
504.724	13434.93
505.093	13541.59
505.462	13522.61
505.83	13708.59
506.199	13735.94
506.567	13967.57
506.936	13980.45
507.304	14071.3
507.672	14121.92
508.041	14260.67
508.409	14519.87
508.777	14558.29
509.145	14669.93
509.514	14707.66
509.882	14778.85
510.25	14879.86
510.618	15047.09
510.986	15090.48
511.354	15245.05
511.722	15328.44
512.09	15508.77
512.458	15543.12
512.826	15633.06
513.193	15668.99
513.561	15835.09
513.929	16030.12
514.297	16195.31
514.664	16226.27
515.032	16280.05
515.4	16493.61
515.767	16489.31
516.135	16699.7
516.502	16644.79
516.869	16962.07
517.237	16973.82
517.604	17010.88
517.972	17279.57
518.339	17366.13
518.706	17471.66
519.073	17520.25
519.44	17680.02
519.808	17859.22
520.175	17876.39
520.542	18169.72
520.909	18338.98
521.276	18276.38
521.643	18449.71
522.009	18628.46
522.376	18748.24
522.743	18853.54
523.11	19058.96
523.477	19321.1
523.843	19366.3
524.21	19540.53
524.577	19715.89
524.943	19778.49
525.31	19961.76
525.676	20204.24
526.043	20360.4
526.409	20408.98
526.776	20644.68
527.142	20721.52
527.508	20832.7
527.874	21028.85
528.241	21129.87
528.607	21192.92
528.973	21427.94
529.339	21418.22
529.705	21675.16
530.071	21917.42
530.437	21915.38
530.803	22132.1
531.169	22100.01
531.535	22208.03
531.901	22306.56
532.267	22426.33
532.632	22531.19
532.998	22675.59
533.364	22860.44
533.73	22881.91
534.095	23143.6
534.461	23233.09
534.826	23348.79
535.192	23450.71
535.557	23546.75
535.923	23596.7
536.288	23646.19
536.653	23882.34
537.019	23845.73
537.384	23960.53
537.749	24093.86
538.114	24184.25
538.479	24203.69
538.845	24357.81
539.21	24307.19
539.575	24477.8
539.94	24555.77
540.305	24751.02
540.67	24736.55
541.034	24781.98
541.399	24991.24
541.764	25023.55
542.129	25203.66
542.494	25160.72
542.858	25265.8
543.223	25294.5
543.587	25436.2
543.952	25552.58
544.316	25614.5
544.681	25634.83
545.045	25766.58
545.41	25905.56
545.774	26022.39
546.138	26044.99
546.503	26237.98
546.867	26069.85
547.231	26419.22
547.595	26422.61
547.959	26572.89
548.324	26552.55
548.688	26703.73
549.052	26758.42
549.416	26768.82
549.779	26907.8
550.143	27043.84
550.507	27198.41
550.871	27142.82
551.235	27133.33
551.599	27468.01
551.962	27545.29
552.326	27562.69
552.689	27703.48
553.053	27680.88
553.417	27832.06
553.78	28159.51
554.143	27964.94
554.507	28181.21
554.87	28275.44
555.234	28543.01
555.597	28413.52
555.96	28530.35
556.323	28740.97
556.686	28723.34
557.05	28964.46
557.413	28993.84
557.776	29242.42
558.139	29344.12
558.502	29384.34
558.865	29347.51
559.228	29670.66
559.59	29839.47
559.953	29827.72
560.316	30109.97
560.679	30203.08
561.041	30379.34
561.404	30352.22
561.767	30694.36
562.129	30636.28
562.492	30986.11
562.854	30935.49
563.217	30923.06
563.579	31127.35
563.941	31353.78
564.304	31469.03
564.666	31702.47
565.028	31684.84
565.39	31768.46
565.753	31963.26
566.115	32014.55
566.477	32140.65
566.839	32231.72
567.201	32400.76
567.563	32453.41
567.925	32633.52
568.287	32770.24
568.648	32868.54
569.01	32983.34
569.372	33115.54
569.734	33039.16
570.095	33312.82
570.457	33455.19
570.819	33479.6
571.18	33494.97
571.542	33679.82
571.903	33746.26
572.265	33812.47
572.626	33953.26
572.987	34053.6
573.349	34103.76
573.71	34235.06
574.071	34392.57
574.432	34357.77
574.794	34664.88
575.155	34546.24
575.516	34483.64
575.877	34693.35
576.238	34596.41
576.599	34871.2
576.96	34814.93
577.32	35000.69
577.681	35059.22
578.042	35077.98
578.403	35087.69
578.763	35008.6
579.124	35080.69
579.485	35320.23
579.845	35199.1
580.206	35201.59
580.566	35305.31
580.927	35487.46
581.287	35526.1
581.648	35424.86
582.008	35470.73
582.368	35458.98
582.728	35614.91
583.089	35571.07
583.449	35469.6
583.809	35530.39
584.169	35509.6
584.529	35605.65
584.889	35795.25
585.249	35476.38
585.609	35412.43
585.969	35750.05
586.329	35577.62
586.688	35766.77
587.048	35606.78
587.408	35578.53
587.768	35679.32
588.127	35610.62
588.487	35650.62
588.846	35803.38
589.206	35538.53
589.565	35645.87
589.925	35790.73
590.284	35581.24
590.643	35570.39
591.003	35743.72
591.362	35767.9
591.721	35668.69
592.08	35747.79
592.44	35741.46
592.799	35735.59
593.158	35621.92
593.517	35762.93
593.876	35775.36
594.235	35730.61
594.593	35689.94
594.952	35713.89
595.311	35637.06
595.67	35714.57
596.029	35866.88
596.387	35959.99
596.746	35981.23
597.104	35841.12
597.463	35792.31
597.822	35907.33
598.18	35805.41
598.538	35745.98
598.897	36069.59
599.255	35804.28
599.613	36202.69
599.972	35939.42
600.33	36060.77
600.688	35956.14
601.046	36233.43
601.404	36186.42
601.762	35990.49
602.12	36210.83
602.478	36192.3
602.836	36177.61
603.194	35942.13
603.552	36157.5
603.91	35996.6
604.268	36203.14
604.625	36116.14
604.983	36199.75
605.341	35999.53
605.698	36350.03
606.056	36342.12
606.413	36420.54
606.771	36423.48
607.128	36524.49
607.485	36299.41
607.843	36281.11
608.2	36544.83
608.557	36473.87
608.914	36424.61
609.272	36704.15
609.629	36724.94
609.986	36705.05
610.343	36595.68
610.7	36842.9
611.057	36778.5
611.414	36727.2
611.771	36855.78
612.127	36869.79
612.484	36882
612.841	37018.94
613.198	36966.97
613.554	36971.49
613.911	37143.46
614.267	37061.43
614.624	37205.6
614.98	37184.81
615.337	37342.78
615.693	37302.55
616.05	37174.19
616.406	37448.08
616.762	37230.01
617.118	37286.05
617.475	37348.88
617.831	37465.03
618.187	37383.45
618.543	37416.9
618.899	37591.58
619.255	37541.19
619.611	37635.87
619.967	37717
620.323	37737.57
620.678	37563.79
621.034	37450.79
621.39	37616.67
621.746	37484.47
622.101	37965.58
622.457	37572.37
622.812	37730.34
623.168	37767.85
623.523	37659.38
623.879	37827.96
624.234	37578.25
624.589	37719.04
624.945	37738.92
625.3	37783.67
625.655	37710.68
626.01	37863.67
626.365	37829.32
626.72	37811.01
627.075	37812.82
627.43	37751.58
627.785	37722.2
628.14	37827.06
628.495	37969.43
628.85	37722.88
629.205	37519.27
629.559	37864.57
629.914	37619.38
630.269	37694.86
630.623	37605.82
630.978	37394.07
631.332	37621.41
631.687	37659.6
632.041	37556.78
632.396	37517.23
632.75	37458.03
633.104	37394.98
633.459	37236.34
633.813	37366.73
634.167	37282.21
634.521	37219.84
634.875	37271.14
635.229	37259.61
635.583	37096.23
635.937	37060.07
636.291	37032.27
636.645	36903.24
636.999	36887.65
637.352	37056.68
637.706	36696.92
638.06	36943.01
638.413	36778.95
638.767	36724.71
639.121	36712.96
639.474	36498.05
639.828	36399.98
640.181	36561.55
640.534	36392.74
640.888	36446.98
641.241	36307.55
641.594	36274.78
641.947	36331.05
642.301	36270.49
642.654	36237.04
643.007	36287.89
643.36	36232.97
643.713	36028.01
644.066	36182.58
644.419	36067.78
644.771	35796.83
645.124	35451.3
645.477	35351.64
645.83	35108.03
646.182	34910.52
646.535	34963.85
646.888	35013.8
647.24	34789.85
647.593	34967.02
647.945	34950.52
648.298	34774.71
648.65	34659.91
649.002	34640.02
649.355	34653.58
649.707	34688.16
650.059	34621.94
650.411	35081.37
650.763	35113.46
651.115	35477.06
651.467	35383.28
651.819	35314.81
652.171	35414.46
652.523	35353
652.875	35189.16
653.227	35095.83
653.578	35334.69
653.93	35276.16
654.282	35114.59
654.633	35001.37
654.985	35052.67
655.337	34997.07
655.688	35006.57
656.039	35143.74
656.391	34743.3
656.742	34840.24
657.094	34937.41
657.445	34958.43
657.796	34926.12
658.147	34774.03
658.498	34874.14
658.849	34729.51
659.2	34742.62
659.551	34610.42
659.902	34631.21
660.253	34484.09
660.604	34476.86
660.955	34401.38
661.306	34419.24
661.656	34407.94
662.007	34416.52
662.358	34258.34
662.708	34223.08
663.059	34164.1
663.409	33996.2
663.76	34273.25
664.11	34142.63
664.461	34146.93
664.811	34124.55
665.161	34012.24
665.511	33948.06
665.862	33889.53
666.212	33885.01
666.562	33924.11
666.912	33729.99
667.262	33669.88
667.612	33420.39
667.962	33593.27
668.312	33324.58
668.662	33401.86
669.011	33353.95
669.361	33258.59
669.711	33149.21
670.06	32940.18
670.41	32915.77
670.76	32863.12
671.109	32929.33
671.459	32773.4
671.808	32892.04
672.157	32736.57
672.507	32526.18
672.856	32666.06
673.205	32476.46
673.554	32653.63
673.904	32357.37
674.253	32404.15
674.602	32488.21
674.951	31873.09
675.3	31722.36
675.649	32181.1
675.998	32140.65
676.346	32264.94
676.695	32242.57
677.044	32012.29
677.393	32165.06
677.741	32077.15
678.09	31944.73
678.438	31941.34
678.787	32009.58
679.135	31936.36
679.484	31690.95
679.832	31960.54
680.181	31693.66
680.529	31753.32
680.877	31739.08
681.225	31734.79
681.573	31912.86
681.922	31800.32
682.27	31669.7
682.618	31756.71
682.966	31746.31
683.314	31714.67
683.661	31769.14
684.009	31571.4
684.357	31640.33
684.705	31583.83
685.053	31591.51
685.4	31613.21
685.748	31547.9
686.095	31590.16
686.443	31419.99
686.79	31473.78
687.138	31514.68
687.485	31627.9
687.832	31510.61
688.18	31632.19
688.527	31488.47
688.874	31444.17
689.221	31468.58
689.568	31459.77
689.915	31330.28
690.262	31383.84
690.609	31350.84
690.956	31348.13
691.303	31335.93
691.65	31152.66
691.997	31154.24
692.344	31115.59
692.69	31030.4
693.037	31184.75
693.383	30960.34
693.73	31115.14
694.077	30913.79
694.423	30910.85
694.769	30864.3
695.116	30808.71
695.462	30887.13
695.808	30620.69
696.155	30794.92
696.501	30408.27
696.847	30520.81
697.193	30407.14
697.539	30564.2
697.885	30236.75
698.231	30203.53
698.577	30127.37
698.923	30225.67
699.269	30154.94
699.614	29892.58
699.96	29933.93
700.306	29898.23
700.651	29811.45
700.997	29834.05
701.342	29691.68
701.688	29706.14
702.033	29505.47
702.379	29506.6
702.724	29410.55
703.069	29536.65
703.415	29183.89
703.76	29280.84
704.105	29237
704.45	29077.68
704.795	28910.45
705.14	28834.98
705.485	28946.84
705.83	28741.65
706.175	28870.46
706.52	28757.92
706.865	28586.62
707.209	28600.63
707.554	28535.1
707.899	28592.72
708.243	28362.9
708.588	28385.72
708.932	28077.48
709.277	28072.06
709.621	28153.86
709.966	28006.75
710.31	28099.63
710.654	27943.7
710.998	27901.22
711.342	27888.11
711.687	27848.79
712.031	27685.18
712.375	27665.06
712.719	27687.66
713.063	27592.75
713.407	27607.66
713.75	27435.47
714.094	27481.34
714.438	27260.78
714.782	27394.56
715.125	27149.14
715.469	27284.06
715.812	26999.54
716.156	26963.16
716.499	27008.58
716.843	27034.57
717.186	26877.51
717.53	27022.37
717.873	27004.97
718.216	26894.69
718.559	26851.53
718.902	26600.46
719.246	26656.5
719.589	26515.94
719.932	26407.24
720.275	26427.58
720.617	26458.32
720.96	26408.83
721.303	26331.54
721.646	26366.11
721.989	26127.93
722.331	26233.69
722.674	26101.49
723.016	26284.76
723.359	26121.38
723.701	26063.3
724.044	25895.17
724.386	25773.14
724.729	26040.7
725.071	25835.51
725.413	25864.88
725.755	25736.3
726.097	25729.52
726.439	25550.99
726.782	25508.96
727.124	25626.25
727.465	25509.19
727.807	25468.96
728.149	25412.02
728.491	25400.26
728.833	25466.7
729.175	25383.77
729.516	25331.11
729.858	25341.51
730.199	25189.2
730.541	25172.25
730.882	25224
731.224	25117.33
731.565	24883.89
731.906	25022.42
732.248	24969.32
732.589	24899.26
732.93	24761.86
733.271	24898.58
733.612	24842.54
733.953	24836.66
734.294	24562.09
734.635	24715.99
734.976	24741.3
735.317	24651.81
735.658	24490.68
735.999	24520.97
736.339	24478.93
736.68	24438.03
737.021	24436.9
737.361	24366.85
737.702	24391.48
738.042	24358.48
738.383	24239.39
738.723	24252.5
739.063	24215.44
739.404	24318.94
739.744	24165.95
740.084	24154.42
740.424	24137.92
740.764	24099.51
741.104	24069.23
741.444	23993.3
741.784	24017.25
742.124	24012.96
742.464	24009.79
742.804	23886.63
743.143	23846.41
743.483	23793.98
743.823	23692.29
744.162	23647.54
744.502	23656.81
744.841	23654.55
745.181	23704.26
745.52	23495.23
745.86	23619.75
746.199	23537.26
746.538	23435.12
746.877	23530.71
747.216	23537.26
747.556	23432.18
747.895	23446.42
748.234	23274.9
748.573	23152.64
748.911	23211.17
749.25	23228.34
749.589	23075.35
749.928	23065.41
750.267	23069.25
750.605	23012.53
750.944	22839.43
751.283	22894.34
751.621	22994.23
751.96	22767.11
752.298	22820.45
752.636	22783.84
752.975	22589.04
753.313	22551.3
753.651	22679.88
753.989	22511.53
