Data from whiteboard_FLMS001491_00056.txt Node
Date: Wed Feb 08 11:27:06 GMT 2017
User: dcchb
Spectrometer: FLMS00149
Trigger mode: 0
Integration Time (sec): 2.000000E-2
Scans to average: 10
Electric dark correction enabled: true
Nonlinearity correction enabled: false
Boxcar width: 0
XAxis mode: Wavelengths
Number of Pixels in Spectrum: 2048
>>>>>Begin Spectral Data<<<<<
341.393	-22.16
341.776	-22.16
342.16	-22.16
342.543	-68.26
342.927	-80.24
343.31	-94.25
343.693	-67.58
344.077	-66.68
344.46	-69.84
344.843	-59.9
345.226	-35.49
345.61	-38.66
345.993	-35.04
346.376	-1.37
346.759	7.67
347.142	21.68
347.525	45.41
347.908	84.5
348.291	97.84
348.674	110.49
349.057	101.23
349.44	132.41
349.823	178.74
350.206	200.66
350.588	207.66
350.971	216.48
351.354	243.6
351.737	252.18
352.119	282.24
352.502	288.34
352.884	294.67
353.267	306.87
353.65	315.01
354.032	310.03
354.414	335.8
354.797	356.36
355.179	348.68
355.562	336.93
355.944	363.14
356.326	353.87
356.709	356.36
357.091	377.38
357.473	351.16
357.855	341.45
358.238	366.98
358.62	373.76
359.002	367.21
359.384	379.41
359.766	390.94
360.148	384.38
360.53	367.21
360.912	370.6
361.294	364.72
361.676	354.55
362.057	366.98
362.439	364.72
362.821	371.95
363.203	383.03
363.584	372.63
363.966	376.7
364.348	358.39
364.729	390.71
365.111	349.36
365.493	365.4
365.874	357.04
366.256	378.28
366.637	344.38
367.019	365.63
367.4	357.04
367.781	360.88
368.163	381.44
368.544	371.05
368.925	357.04
369.306	362.01
369.688	338.28
370.069	361.56
370.45	350.71
370.831	362.01
371.212	369.47
371.593	360.43
371.974	371.73
372.355	383.48
372.736	370.37
373.117	370.6
373.498	357.26
373.879	379.41
374.26	366.3
374.641	379.18
375.021	384.83
375.402	369.24
375.783	395.91
376.163	384.83
376.544	372.86
376.925	391.39
377.305	401.56
377.686	366.08
378.066	394.33
378.447	411.73
378.827	416.7
379.208	405.17
379.588	401.56
379.968	405.62
380.349	412.4
380.729	420.31
381.109	422.12
381.489	422.8
381.87	430.71
382.25	411.73
382.63	425.06
383.01	438.17
383.39	428.9
383.77	423.7
384.15	456.47
384.53	449.69
384.91	453.31
385.29	459.63
385.67	470.48
386.049	452.4
386.429	459.41
386.809	460.76
387.189	490.37
387.568	477.71
387.948	482.91
388.328	477.49
388.707	502.12
389.087	496.92
389.466	512.74
389.846	512.06
390.225	518.84
390.605	523.81
390.984	517.49
391.363	524.04
391.743	541.44
392.122	554.55
392.501	548.9
392.881	553.64
393.26	568.78
393.639	574.43
394.018	557.26
394.397	574.43
394.776	589.57
395.155	597.26
395.534	608.78
395.913	619.86
396.292	636.35
396.671	637.94
397.05	626.41
397.429	653.98
397.808	667.54
398.186	655.79
398.565	679.52
398.944	653.75
399.323	706.41
399.701	690.82
400.08	710.02
400.458	729.01
400.837	724.94
401.215	755.67
401.594	746.86
401.972	784.37
402.351	779.63
402.729	787.08
403.107	799.29
403.486	850.81
403.864	817.59
404.242	849.68
404.62	857.14
404.999	885.16
405.377	856.69
405.755	902.56
406.133	918.15
406.511	940.98
406.889	976.46
407.267	977.81
407.645	1009.68
408.023	1014.2
408.401	995.89
408.779	1033.63
409.156	1084.93
409.534	1097.81
409.912	1117.92
410.29	1140.52
410.667	1138.94
411.045	1199.05
411.422	1176
411.8	1196.56
412.178	1224.59
412.555	1277.01
412.933	1296.67
413.31	1301.87
413.687	1319.5
414.065	1361.98
414.442	1382.55
414.819	1430.23
415.197	1422.1
415.574	1448.99
415.951	1463.45
416.328	1451.02
416.705	1470.68
417.082	1524.92
417.46	1546.84
417.837	1532.37
418.214	1574.86
418.591	1588.19
418.967	1608.98
419.344	1642.65
419.721	1654.41
420.098	1657.12
420.475	1719.49
420.852	1724.91
421.228	1733.5
421.605	1750.45
421.982	1758.58
422.358	1808.98
422.735	1801.75
423.111	1829.09
423.488	1886.94
423.864	1875.19
424.241	1891.69
424.617	1934.4
424.994	1931.69
425.37	1971.01
425.746	1989.09
426.123	2024.11
426.499	2065.24
426.875	2067.95
427.251	2145.69
427.627	2146.37
428.003	2152.47
428.379	2194.96
428.756	2242.19
429.132	2258.46
429.507	2293.26
429.883	2320.6
430.259	2391.11
430.635	2390.88
431.011	2398.79
431.387	2463.2
431.763	2543.42
432.138	2561.95
432.514	2563.76
432.89	2585.68
433.265	2631.78
433.641	2670.42
434.016	2719.46
434.392	2759.91
434.767	2775.73
435.143	2801.04
435.518	2857.31
435.894	2881.49
436.269	2930.08
436.644	2991.55
437.02	2986.12
437.395	3013.92
437.77	3074.48
438.145	3096.18
438.52	3148.15
438.895	3153.8
439.271	3212.56
439.646	3278.77
440.021	3280.13
440.395	3300.24
440.77	3278.32
441.145	3314.02
441.52	3401.25
441.895	3431.31
442.27	3441.7
442.645	3408.94
443.019	3480.57
443.394	3505.66
443.769	3582.04
444.143	3509.95
444.518	3557.18
444.892	3573.68
445.267	3641.7
445.641	3695.93
446.016	3704.52
446.39	3764.63
446.764	3734.12
447.139	3765.99
447.513	3817.06
447.887	3829.04
448.262	3838.75
448.636	3912.65
449.01	3970.05
449.384	3979.54
449.758	4000.11
450.132	4048.92
450.506	4058.41
450.88	4111.06
451.254	4109.26
451.628	4210.72
452.002	4242.13
452.376	4237.61
452.75	4356.93
453.123	4385.18
453.497	4468.34
453.871	4459.98
454.244	4545.18
454.618	4587.89
454.992	4686.64
455.365	4681.9
455.739	4807.54
456.112	4854.1
456.486	4877.15
456.859	4945.17
457.232	5040.31
457.606	5038.72
457.979	5079.4
458.352	5216.8
458.725	5292.73
459.099	5285.95
459.472	5414.31
459.845	5439.39
460.218	5564.13
460.591	5618.37
460.964	5582.44
461.337	5738.82
461.71	5840.96
462.083	5919.38
462.456	5872.83
462.829	5994.63
463.201	6051.58
463.574	6137.45
463.947	6198.69
464.32	6285.7
464.692	6398.01
465.065	6485.01
465.438	6563.43
465.81	6705.57
466.183	6700.37
466.555	6918.9
466.928	6905.12
467.3	6942.18
467.672	7060.59
468.045	7259.23
468.417	7274.6
468.789	7356.4
469.161	7433.24
469.534	7562.05
469.906	7769.5
470.278	7754.58
470.65	7866.67
471.022	8061.69
471.394	8179.88
471.766	8285.19
472.138	8386.88
472.51	8570.61
472.882	8720.89
473.253	8821.67
473.625	8917.04
473.997	9111.84
474.369	9176.92
474.74	9335.11
475.112	9460.3
475.484	9600.19
475.855	9766.28
476.227	9848.54
476.598	10117.01
476.97	10198.81
477.341	10388.87
477.713	10594.51
478.084	10745.92
478.455	10983.65
478.827	11083.99
479.198	11419.57
479.569	11496.18
479.94	11803.07
480.311	11858.43
480.682	12150.85
481.053	12405.08
481.424	12587.23
481.795	12700.89
482.166	12944.73
482.537	13006.2
482.908	13389.46
483.279	13502.91
483.65	13738.16
484.021	13981.54
484.391	14174.53
484.762	14205.94
485.133	14421.3
485.503	14667.4
485.874	14983.77
486.244	15113.03
486.615	15415.63
486.985	15534.04
487.356	15821.26
487.726	16076.85
488.097	16384.19
488.467	16369.27
488.837	16884.29
489.207	16941.46
489.578	17246.31
489.948	17524.04
490.318	17663.25
490.688	17816.92
491.058	18090.13
491.428	18267.53
491.798	18472.49
492.168	18837.46
492.538	18994.29
492.908	19108.18
493.278	19411
493.648	19448.74
494.017	19737.77
494.387	19885.34
494.757	20088.72
495.126	20361.26
495.496	20365.1
495.866	20623.62
496.235	20796.73
496.605	20924.86
496.974	21069.04
497.344	21298.41
497.713	21457.73
498.082	21540.89
498.452	21802.8
498.821	21781.79
499.19	22011.84
499.559	22228.55
499.928	22363.47
500.298	22513.97
500.667	22690.91
501.036	22763
501.405	23071.92
501.774	22960.06
502.143	23375.64
502.512	23372.25
502.88	23575.41
503.249	23543.1
503.618	23763.2
503.987	23918.23
504.356	24052.46
504.724	24156.41
505.093	24251.33
505.462	24391.21
505.83	24684.08
506.199	24758.2
506.567	25199.78
506.936	25171.75
507.304	25518.41
507.672	25496.26
508.041	25794.11
508.409	25933.77
508.777	26102.8
509.145	26268.67
509.514	26353.87
509.882	26739.4
510.25	26735.78
510.618	26960.86
510.986	27133.51
511.354	27394.29
511.722	27473.16
512.09	27814.17
512.458	27872.25
512.826	28061.62
513.193	28389.3
513.561	28400.82
513.929	28628.61
514.297	29006.91
514.664	29322.15
515.032	29293.23
515.4	29563.5
515.767	29709.04
516.135	29915.13
516.502	29856.38
516.869	30257.27
517.237	30434.89
517.604	30381.79
517.972	30922.34
518.339	30993.3
518.706	31120.07
519.073	31262.89
519.44	31500.17
519.808	31807.29
520.175	31847.74
520.542	32272.36
520.909	32527.49
521.276	32541.28
521.643	32933.58
522.009	33120.24
522.376	33266.68
522.743	33590.74
523.11	33934.23
523.477	34223.49
523.843	34430.72
524.21	34733.08
524.577	34963.59
524.943	35109.57
525.31	35355.89
525.676	35649.9
526.043	35935.54
526.409	36028.64
526.776	36444
527.142	36524.45
527.508	36631.57
527.874	37129.63
528.241	37204.43
528.607	37320.81
528.973	37573.46
529.339	37766.45
529.705	38029.72
530.071	38236.04
530.437	38532.76
530.803	38738.4
531.169	38988.79
531.535	38789.47
531.901	39084.38
532.267	39249.35
532.632	39443.24
532.998	39639.62
533.364	39896.34
533.73	40073.73
534.095	40302.43
534.461	40377.91
534.826	40557.11
535.192	40819.7
535.557	41127.04
535.923	41155.06
536.288	41273.7
536.653	41434.83
537.019	41384.21
537.384	41702.62
537.749	41842.73
538.114	42165.66
538.479	42212.44
538.845	42389.38
539.21	42411.75
539.575	42682.25
539.94	42847.9
540.305	43057.61
540.67	42910.72
541.034	43200.43
541.399	43594.09
541.764	43479.52
542.129	43784.37
542.494	43943.01
542.858	44174.87
543.223	44259.39
543.587	44404.92
543.952	44315.66
544.316	44599.27
544.681	44665.93
545.045	44803.78
545.41	45229.98
545.774	45146.6
546.138	45410.32
546.503	45414.84
546.867	45372.13
547.231	45748.16
547.595	45936.18
547.959	45948.83
548.324	46072.9
548.688	46163.52
549.052	46373.46
549.416	46409.16
549.779	46370.07
550.143	46515.37
550.507	46732.77
550.871	46871.3
551.235	46856.15
551.599	47222.25
551.962	47094.57
552.326	47353.32
552.689	47436.7
553.053	47388.12
553.417	47456.59
553.78	47949.23
554.143	47882.57
554.507	47894.32
554.87	48023.13
555.234	48607.75
555.597	48184.26
555.96	48551.48
556.323	48547.18
556.686	48661.31
557.05	48895.2
557.413	48963.22
557.776	49219.48
558.139	49243.44
558.502	49360.5
558.865	49407.95
559.228	49744.21
559.59	49843.65
559.953	49958.9
560.316	50296.97
560.679	50318.44
561.041	50600.01
561.404	50765.43
561.767	50974.01
562.129	50828.93
562.492	51190.28
562.854	51155.48
563.217	51238.64
563.579	51437.96
563.941	51708.91
564.304	51850.37
564.666	52019.64
565.028	52087.88
565.39	52134.89
565.753	52382.34
566.115	52448.55
566.477	52624.59
566.839	52634.53
567.201	52907.97
567.563	52981.64
567.925	53265.93
568.287	53194.07
568.648	53385.93
569.01	53476.32
569.372	53634.96
569.734	53520.61
570.095	53762.41
570.457	53848.97
570.819	53954.5
571.18	53865.01
571.542	54206.02
571.903	54260.93
572.265	54364.88
572.626	54351.1
572.987	54369.86
573.349	54561.04
573.71	54608.95
574.071	54759.22
574.432	54873.8
574.794	55020.91
575.155	54947.47
575.516	55011.42
575.877	55087.8
576.238	55107.24
576.599	55286.44
576.96	55276.05
577.32	55275.59
577.681	55364.41
578.042	55400.56
578.403	55423.84
578.763	55405.08
579.124	55485.08
579.485	55543.84
579.845	55610.28
580.206	55569.6
580.566	55598.52
580.927	55617.51
581.287	55716.49
581.648	55619.54
582.008	55691.85
582.368	55735.47
582.728	55741.12
583.089	55666.54
583.449	55742.93
583.809	55799.65
584.169	55794.9
584.529	55697.73
584.889	55856.37
585.249	55716.71
585.609	55718.52
585.969	55912.41
586.329	55760.33
586.688	55804.62
587.048	55716.94
587.408	55722.14
587.768	55762.14
588.127	55769.82
588.487	55724.62
588.846	55880.55
589.206	55644.17
589.565	55761.46
589.925	55760.1
590.284	55760.78
590.643	55723.72
591.003	55831.29
591.362	55874
591.721	55787.22
592.08	55794.23
592.44	55860.21
592.799	55882.58
593.158	55791.06
593.517	55788.8
593.876	55899.98
594.235	55788.58
594.593	55853.21
594.952	55925.52
595.311	55803.49
595.67	55884.62
596.029	55986.31
596.387	56053.43
596.746	56122.8
597.104	55982.69
597.463	56031.73
597.822	56154.67
598.18	56078.06
598.538	56185.85
598.897	56285.74
599.255	56158.74
599.613	56501.78
599.972	56310.82
600.33	56345.4
600.688	56312.63
601.046	56426.98
601.404	56524.15
601.762	56425.39
602.12	56564.6
602.478	56551.49
602.836	56588.55
603.194	56462.23
603.552	56577.26
603.91	56459.74
604.268	56611.38
604.625	56565.73
604.983	56650.7
605.341	56487.54
605.698	56678.95
606.056	56763.69
606.413	56640.76
606.771	56789.91
607.128	56786.52
607.485	56623.58
607.843	56650.47
608.2	56859.06
608.557	56923.01
608.914	56821.09
609.272	57010.69
609.629	56988.09
609.986	57116.45
610.343	56951.93
610.7	57081.42
611.057	57019.28
611.414	57040.29
611.771	56999.62
612.127	57110.35
612.484	57063.57
612.841	57144.92
613.198	57095.43
613.554	57082.1
613.911	57229.67
614.267	57214.3
614.624	57110.57
614.98	57153.06
615.337	57281.19
615.693	57211.36
616.05	57138.6
616.406	57299.04
616.762	57221.76
617.118	57129.11
617.475	57165.49
617.831	57232.15
618.187	57242.77
618.543	57263.79
618.899	57381.08
619.255	57318.93
619.611	57290.68
619.967	57361.42
620.323	57381.3
620.678	57309.89
621.034	57203
621.39	57222.89
621.746	57188.76
622.101	57438.93
622.457	57170.46
622.812	57202.32
623.168	57268.99
623.523	57265.82
623.879	57358.03
624.234	57215.88
624.589	57247.75
624.945	57220.18
625.3	57327.07
625.655	57268.54
626.01	57269.21
626.365	57289.55
626.72	57226.73
627.075	57216.79
627.43	57259.27
627.785	57117.35
628.14	57215.2
628.495	57186.05
628.85	57135.88
629.205	57088.88
629.559	57239.16
629.914	57118.48
630.269	57114.87
630.623	57052.05
630.978	56946.74
631.332	57104.47
631.687	57167.97
632.041	57024.7
632.396	57032.61
632.75	56965.72
633.104	57004.59
633.459	56898.83
633.813	56902.22
634.167	56902.9
634.521	56940.64
634.875	56979.73
635.229	56908.77
635.583	56879.39
635.937	56845.27
636.291	56789.45
636.645	56813.86
636.999	56780.19
637.352	56903.12
637.706	56736.35
638.06	56921.2
638.413	56793.52
638.767	56671.94
639.121	56741.09
639.474	56659.51
639.828	56669.91
640.181	56611.83
640.534	56635.56
640.888	56532.51
641.241	56471.72
641.594	56519.86
641.947	56638.5
642.301	56583.13
642.654	56522.12
643.007	56571.61
643.36	56501.33
643.713	56486.86
644.066	56488.44
644.419	56309.47
644.771	56177.49
645.124	55909.7
645.477	55848.23
645.83	55636.04
646.182	55497.06
646.535	55389.04
646.888	55451.41
647.24	55306.33
647.593	55463.16
647.945	55428.13
648.298	55223.39
648.65	55139.33
649.002	55057.07
649.355	55166.9
649.707	55076.28
650.059	55134.13
650.411	55547.9
650.763	55490.5
651.115	55778.86
651.467	55591.29
651.819	55605.76
652.171	55467.23
652.523	55494.8
652.875	55441.47
653.227	55381.81
653.578	55516.72
653.93	55471.07
654.282	55269.04
654.633	55243.05
654.985	55196.73
655.337	55185.88
655.688	55237.18
656.039	55256.61
656.391	55033.79
656.742	55024.53
657.094	55095.94
657.445	55201.47
657.796	55119.21
658.147	55021.36
658.498	54980.46
658.849	55077.18
659.2	54872.22
659.551	54896.17
659.902	54900.01
660.253	54885.1
660.604	54991.31
660.955	54816.62
661.306	54869.28
661.656	54779.79
662.007	54835.38
662.358	54767.13
662.708	54745.21
663.059	54695.5
663.409	54558.1
663.76	54759
664.11	54754.93
664.461	54701.6
664.811	54631.09
665.161	54696.85
665.511	54561.49
665.862	54533.24
666.212	54583.41
666.562	54590.64
666.912	54529.63
667.262	54495.05
667.612	54467.25
667.962	54447.14
668.312	54441.72
668.662	54570.08
669.011	54348.84
669.361	54394.04
669.711	54437.65
670.06	54345.68
670.41	54277.2
670.76	54223.87
671.109	54281.72
671.459	54198.11
671.808	54234.72
672.157	54197.66
672.507	54013.48
672.856	54026.36
673.205	54010.77
673.554	54176.41
673.904	54100.26
674.253	54254.6
674.602	54067.26
674.951	53599.71
675.3	53449.88
675.649	53905.69
675.998	53837.67
676.346	53835.63
676.695	53918.34
677.044	53676.09
677.393	53872.47
677.741	53841.73
678.09	53849.19
678.438	53786.14
678.787	53783.66
679.135	53778.46
679.484	53541.18
679.832	53699.82
680.181	53565.36
680.529	53687.61
680.877	53470.9
681.225	53534.17
681.573	53608.75
681.922	53373.72
682.27	53265.7
682.618	53336.66
682.966	53307.28
683.314	53283.78
683.661	53223.22
684.009	53147.74
684.357	53121.75
684.705	53164.92
685.053	53118.82
685.4	53112.49
685.748	52855.55
686.095	52987.97
686.443	52847.64
686.79	52819.61
687.138	52962.21
687.485	52818.26
687.832	52751.37
688.18	52839.73
688.527	52620.3
688.874	52495.33
689.221	52482
689.568	52424.37
689.915	52405.84
690.262	52401.32
690.609	52304.15
690.956	52132.4
691.303	52073.19
691.65	52001.33
691.997	51829.81
692.344	51707.55
692.69	51666.88
693.037	51728.12
693.383	51498.97
693.73	51563.6
694.077	51252.42
694.423	51199.77
694.769	51057.63
695.116	51040.9
695.462	50995.26
695.808	50837.52
696.155	50983.05
696.501	50631.2
696.847	50539.45
697.193	50299.45
697.539	50459.68
697.885	50138.1
698.231	50042.51
698.577	50057.88
698.923	49901.05
699.269	49731.56
699.614	49406.82
699.96	49365.47
700.306	49374.51
700.651	49138.58
700.997	48938.59
701.342	48915.54
701.688	48718.48
702.033	48633.28
702.379	48532.72
702.724	48476
703.069	48570.69
703.415	47990.14
703.76	47976.13
704.105	47958.72
704.45	47894.09
704.795	47630.6
705.14	47347.67
705.485	47534.56
705.83	47271.74
706.175	47348.8
706.52	47276.26
706.865	47068.13
707.209	46984.74
707.554	46755.37
707.899	46879.21
708.243	46643.51
708.588	46670.17
708.932	46286.9
709.277	46271.54
709.621	46272.89
709.966	46106.8
710.31	46134.14
710.654	45735.96
710.998	45789.74
711.342	45710.87
711.687	45560.82
712.031	45555.17
712.375	45415.97
712.719	45412.58
713.063	45245.58
713.407	45432.01
713.75	45092.36
714.094	45190.44
714.438	44963.1
714.782	45069.76
715.125	44865.02
715.469	44999.03
715.812	44573.73
716.156	44403.56
716.499	44477.69
716.843	44498.25
717.186	44401.98
717.53	44419.38
717.873	44332.83
718.216	44392.49
718.559	44059.17
718.902	43834.99
719.246	44022.56
719.589	43811.26
719.932	43665.05
720.275	43814.88
720.617	43728.55
720.96	43578.28
721.303	43624.83
721.646	43648.56
721.989	43301.67
722.331	43559.07
722.674	43293.31
723.016	43332.86
723.359	43242.46
723.701	43268.9
724.044	43139.87
724.386	42934.45
724.729	43027.78
725.071	42859.42
725.413	42839.09
725.755	42776.26
726.097	42698.98
726.439	42520.22
726.782	42587.57
727.124	42720.44
727.465	42335.6
727.807	42329.95
728.149	42315.71
728.491	42102.38
728.833	42156.84
729.175	42073
729.516	42125.88
729.858	42020.8
730.199	41942.84
730.541	41842.05
730.882	41838.21
731.224	41927.02
731.565	41676.63
731.906	41771.77
732.248	41783.07
732.589	41534.04
732.93	41457.88
733.271	41348.73
733.612	41377.43
733.953	41346.92
734.294	41191.9
734.635	41083.88
734.976	41262.4
735.317	40995.52
735.658	40982.64
735.999	41037.1
736.339	40699.93
736.68	40873.94
737.021	40623.55
737.361	40517.34
737.702	40683.21
738.042	40518.24
738.383	40492.48
738.723	40544
739.063	40271.47
739.404	40274.18
739.744	40239.61
740.084	40168.2
740.424	40393.27
740.764	40195.09
741.104	40237.8
741.444	39905.15
741.784	39714.2
742.124	39840.52
742.464	39778.37
742.804	39679.17
743.143	39490.47
743.483	39569.79
743.823	39324.15
744.162	39351.95
744.502	39314.66
744.841	39144.72
745.181	39326.86
745.52	39113.08
745.86	39084.61
746.199	39010.49
746.538	38939.53
746.877	39064.27
747.216	38856.59
747.556	38821.79
747.895	38687.1
748.234	38561.01
748.573	38479.43
748.911	38486.66
749.25	38260.22
749.589	38159.89
749.928	38162.37
750.267	38180
750.605	38057.97
750.944	37877.63
751.283	37728.03
751.621	37675.15
751.96	37624.08
752.298	37614.82
752.636	37444.2
752.975	37259.12
