Data from White_paper_FLMS001491_010.txt Node
Date: Tue Feb 07 10:34:35 GMT 2017
User: dcchb
Spectrometer: FLMS00149
Trigger mode: 0
Integration Time (sec): 2.000000E-2
Scans to average: 10
Electric dark correction enabled: true
Nonlinearity correction enabled: false
Boxcar width: 0
XAxis mode: Wavelengths
Number of Pixels in Spectrum: 2048
>>>>>Begin Spectral Data<<<<<
341.393	-3.5
341.776	-3.5
342.16	-3.5
342.543	-61.13
342.927	-67.91
343.31	-73.56
343.693	-65.65
344.077	-59.55
344.46	-67.23
344.843	-40.79
345.226	-29.94
345.61	-20.23
345.993	-28.81
346.376	-8.25
346.759	-3.05
347.142	28.81
347.525	49.6
347.908	51.64
348.291	71.52
348.674	83.5
349.057	111.97
349.44	104.97
349.823	124.18
350.206	180.67
350.588	228.36
350.971	244.4
351.354	255.25
351.737	264.51
352.119	251.41
352.502	271.07
352.884	292.53
353.267	281.24
353.65	320.78
354.032	332.31
354.414	332.53
354.797	357.62
355.179	368.01
355.562	350.16
355.944	377.5
356.326	368.01
356.709	353.32
357.091	376.6
357.473	377.28
357.855	382.93
358.238	380.67
358.62	365.3
359.002	358.97
359.384	373.44
359.766	384.28
360.148	367.11
360.53	401.68
360.912	375.7
361.294	388.35
361.676	371.63
362.057	364.85
362.439	369.82
362.821	361.91
363.203	355.13
363.584	349.48
363.966	361.69
364.348	360.33
364.729	352.65
365.111	358.52
365.493	366.21
365.874	353.78
366.256	378.63
366.637	345.87
367.019	364.17
367.4	347.22
367.781	325.08
368.163	360.33
368.544	362.59
368.925	355.58
369.306	368.92
369.688	368.46
370.069	351.52
370.45	354.45
370.831	361.69
371.212	378.18
371.593	344.74
371.974	370.72
372.355	368.69
372.736	357.39
373.117	355.81
373.498	391.52
373.879	375.24
374.26	382.25
374.641	387.22
375.021	382.48
375.402	398.75
375.783	399.88
376.163	398.75
376.544	384.51
376.925	389.71
377.305	383.61
377.686	386.09
378.066	393.77
378.447	398.75
378.827	411.4
379.208	402.36
379.588	387.9
379.968	384.51
380.349	401.01
380.729	391.52
381.109	427.22
381.489	420.44
381.87	414.34
382.25	431.06
382.63	431.97
383.01	430.16
383.39	429.93
383.77	430.61
384.15	428.58
384.53	441.68
384.91	443.72
385.29	446.43
385.67	450.04
386.049	441.01
386.429	461.12
386.809	473.55
387.189	474.68
387.568	461.57
387.948	482.36
388.328	505.64
388.707	462.47
389.087	477.39
389.466	483.94
389.846	490.04
390.225	486.2
390.605	500.21
390.984	515.58
391.363	508.12
391.743	504.73
392.122	510.83
392.501	523.72
392.881	530.27
393.26	524.39
393.639	533.66
394.018	531.4
394.397	535.69
394.776	545.41
395.155	566.88
395.534	541.34
395.913	576.82
396.292	569.36
396.671	574.79
397.05	597.61
397.429	594.9
397.808	601.23
398.186	599.87
398.565	609.14
398.944	612.53
399.323	624.05
399.701	630.83
400.08	644.62
400.458	638.97
400.837	643.94
401.215	662.02
401.594	665.86
401.972	683.03
402.351	703.15
402.729	674.45
403.107	704.73
403.486	746.53
403.864	740.21
404.242	723.03
404.62	735.23
404.999	760.77
405.377	791.96
405.755	779.53
406.133	793.99
406.511	828.57
406.889	850.94
407.267	832.18
407.645	870.37
408.023	871.5
408.401	871.95
408.779	932.97
409.156	930.26
409.534	957.6
409.912	979.75
410.29	1019.52
410.667	1052.29
411.045	1088.9
411.422	1070.37
411.8	1101.55
412.178	1142.46
412.555	1183.58
412.933	1183.81
413.31	1204.38
413.687	1231.49
414.065	1303.13
414.442	1311.04
414.819	1348.33
415.197	1349.23
415.574	1397.36
415.951	1434.88
416.328	1448.44
416.705	1487.53
417.082	1491.83
417.46	1533.63
417.837	1522.56
418.214	1565.95
418.591	1605.72
418.967	1628.77
419.344	1682.1
419.721	1678.94
420.098	1674.19
420.475	1718.71
420.852	1736.79
421.228	1779.05
421.605	1793.51
421.982	1813.4
422.358	1846.84
422.735	1875.77
423.111	1884.13
423.488	1894.75
423.864	1956.22
424.241	1978.59
424.617	1989.44
424.994	2031.47
425.37	2052.49
425.746	2057.23
426.123	2112.37
426.499	2106.72
426.875	2168.42
427.251	2177.23
427.627	2248.19
428.003	2254.52
428.379	2309.88
428.756	2306.49
429.132	2348.07
429.507	2389.2
429.883	2419.71
430.259	2461.29
430.635	2478.24
431.011	2535.19
431.387	2594.17
431.763	2625.58
432.138	2672.13
432.514	2661.29
432.89	2696.77
433.265	2813.82
433.641	2840.04
434.016	2854.28
434.392	2908.96
434.767	2941.05
435.143	2951.45
435.518	3002.29
435.894	3023.31
436.269	3104.44
436.644	3121.61
437.02	3184.21
437.395	3158.9
437.77	3255.85
438.145	3317.31
438.52	3300.14
438.895	3302.63
439.271	3315.96
439.646	3457.65
440.021	3448.61
440.395	3471.21
440.77	3464.2
441.145	3473.24
441.52	3553.69
441.895	3537.87
442.27	3550.08
442.645	3589.4
443.019	3633.24
443.394	3659.68
443.769	3727.7
444.143	3671.88
444.518	3743.97
444.892	3722.05
445.267	3745.1
445.641	3828.49
446.016	3849.05
446.39	3870.52
446.764	3925.66
447.139	3843.85
447.513	3913.68
447.887	3947.35
448.262	3938.09
448.636	3978.09
449.01	4006.11
449.384	4053.57
449.758	4069.38
450.132	4166.78
450.506	4165.43
450.88	4208.36
451.254	4218.76
451.628	4228.93
452.002	4324.97
452.376	4312.99
452.75	4411.07
453.123	4360.45
453.497	4484.97
453.871	4534.23
454.244	4643.61
454.618	4665.53
454.992	4689.71
455.365	4656.49
455.739	4841.79
456.112	4849.25
456.486	4939.42
456.859	4938.06
457.232	5034.56
457.606	5056.93
457.979	5121.79
458.352	5230.94
458.725	5282.46
459.099	5336.7
459.472	5406.98
459.845	5451.04
460.218	5541.21
460.591	5506.63
460.964	5580.98
461.337	5735.78
461.71	5807.19
462.083	5857.36
462.456	5811.71
462.829	5924.25
463.201	6019.39
463.574	6021.88
463.947	6152.27
464.32	6281.98
464.692	6311.36
465.065	6373.28
465.438	6461.41
465.81	6506.61
466.183	6604.91
466.555	6778.92
466.928	6794.96
467.3	6820.5
467.672	6896.43
468.045	7098.68
468.417	7112.92
468.789	7198.34
469.161	7223.65
469.534	7421.61
469.906	7500.93
470.278	7606.01
470.65	7714.71
471.022	7792.45
471.394	8002.84
471.766	8066.34
472.138	8207.58
472.51	8362.38
472.882	8496.84
473.253	8539.55
473.625	8681.01
473.997	8892.99
474.369	8959.65
474.74	8976.37
475.112	9188.57
475.484	9365.74
475.855	9422.24
476.227	9556.92
476.598	9838.05
476.97	9961.88
477.341	10142.45
477.713	10299.96
478.084	10397.35
478.455	10668.76
478.827	10763.45
479.198	11020.39
479.569	11018.58
479.94	11344.45
480.311	11478
480.682	11744.21
481.053	11927.26
481.424	12140.13
481.795	12256.97
482.166	12465.55
482.537	12630.97
482.908	12876.84
483.279	13009.94
483.65	13215.81
484.021	13468.01
484.391	13622.35
484.762	13780.09
485.133	13879.97
485.503	14011.72
485.874	14405.61
486.244	14440.19
486.615	14757.92
486.985	14860.97
487.356	15145.7
487.726	15310.9
488.097	15615.3
488.467	15645.58
488.837	15962.86
489.207	16158.56
489.578	16336.41
489.948	16439.23
490.318	16755.83
490.688	16837.64
491.058	17136.61
491.428	17286.21
491.798	17541.8
492.168	17782.7
492.538	17763.71
492.908	17994.44
493.278	18297.71
493.648	18246.64
494.017	18623.35
494.387	18730.69
494.757	18858.83
495.126	18953.51
495.496	19101.08
495.866	19295.2
496.235	19482.09
496.605	19682.31
496.974	19825.81
497.344	19887.05
497.713	20060.83
498.082	20228.73
498.452	20432.8
498.821	20407.26
499.19	20516.64
499.559	20738.32
499.928	21023.74
500.298	21094.47
500.667	21207.01
501.036	21156.84
501.405	21367.46
501.774	21429.83
502.143	21624.18
502.512	21809.71
502.88	21994.79
503.249	21944.62
503.618	22240.66
503.987	22199.53
504.356	22401.56
504.724	22485.4
505.093	22693.3
505.462	22792.28
505.83	22889.68
506.199	23143.23
506.567	23538.25
506.936	23449.67
507.304	23613.5
507.672	23747.74
508.041	23924.91
508.409	23961.29
508.777	24206.03
509.145	24414.61
509.514	24498
509.882	24660.71
510.25	24788.16
510.618	24969.17
510.986	24982.96
511.354	25251.88
511.722	25374.59
512.09	25716.05
512.458	25710.17
512.826	26020.9
513.193	26066.55
513.561	26058.41
513.929	26356.26
514.297	26558.28
514.664	26629.24
515.032	26872.17
515.4	27045.05
515.767	27153.52
516.135	27310.36
516.502	27140.42
516.869	27717.8
517.237	27706.73
517.604	27685.03
517.972	28096.55
518.339	28120.73
518.706	28300.16
519.073	28511
519.44	28708.06
519.808	28897.43
520.175	29098.56
520.542	29369.74
520.909	29481.82
521.276	29510.52
521.643	29812.44
522.009	29991.64
522.376	30205.87
522.743	30421.01
523.11	30766.08
523.477	30819.64
523.843	31171.72
524.21	31462.11
524.577	31555.89
524.943	31824.59
525.31	31886.73
525.676	32245.59
526.043	32410.11
526.409	32536.66
526.776	32767.16
527.142	32936.65
527.508	33203.53
527.874	33463.41
528.241	33592.9
528.607	33752.45
528.973	34011.87
529.339	34019.78
529.705	34529.6
530.071	34578.64
530.437	34761.01
530.803	35067.89
531.169	35205.29
531.535	35143.14
531.901	35383.59
532.267	35549.46
532.632	35677.37
532.998	35898.6
533.364	36111.93
533.73	35988.77
534.095	36436.44
534.461	36611.13
534.826	36814.06
535.192	36876.43
535.557	37100.38
535.923	37179.02
536.288	37425.12
536.653	37572.68
537.019	37463.31
537.384	37591.67
537.749	37899
538.114	37982.84
538.479	38091.77
538.845	38322.27
539.21	38279.56
539.575	38405.66
539.94	38603.17
540.305	38737.4
540.67	38756.16
541.034	38965.19
541.399	39120.67
541.764	39314.79
542.129	39399.3
542.494	39523.37
542.858	39625.74
543.223	39677.49
543.587	39895.34
543.952	39898.5
544.316	40167.64
544.681	40164.03
545.045	40397.69
545.41	40660.06
545.774	40752.04
546.138	40778.02
546.503	40880.62
546.867	40820.51
547.231	41236.32
547.595	41282.87
547.959	41499.81
548.324	41560.15
548.688	41625.01
549.052	41671.33
549.416	41912.68
549.779	41970.99
550.143	42011.89
550.507	42341.6
550.871	42437.42
551.235	42438.09
551.599	42785.43
551.962	42803.73
552.326	43135.02
552.689	43085.31
553.053	43165.76
553.417	43217.73
553.78	43717.83
554.143	43474.9
554.507	43651.85
554.87	43896.13
555.234	44260.64
555.597	43986.3
555.96	44397.59
556.323	44541.99
556.686	44451.83
557.05	44878.71
557.413	44850.01
557.776	44939.72
558.139	45320.28
558.502	45379.71
558.865	45329.09
559.228	45662.19
559.59	45866.48
559.953	45861.28
560.316	46219.01
560.679	46334.49
561.041	46468.95
561.404	46623.07
561.767	46889.05
562.129	46803.85
562.492	47194.58
562.854	47191.41
563.217	47174.24
563.579	47411.3
563.941	47627.56
564.304	47848.57
564.666	48009.7
565.028	48046.53
565.39	48257.6
565.753	48442
566.115	48580.53
566.477	48636.12
566.839	48858.72
567.201	49176
567.563	49107.97
567.925	49235.65
568.287	49462.77
568.648	49492.82
569.01	49655.53
569.372	49937.78
569.734	49825.7
570.095	49934.17
570.457	50255.29
570.819	50293.93
571.18	50424.32
571.542	50568.5
571.903	50732.79
572.265	50734.6
572.626	51026.12
572.987	50989.96
573.349	51108.83
573.71	51238.31
574.071	51285.32
574.432	51305.2
574.794	51611.86
575.155	51537.06
575.516	51575.71
575.877	51732.99
576.238	51819.09
576.599	51874.68
576.96	51943.15
577.32	51985.64
577.681	52177.05
578.042	52243.94
578.403	52215.01
578.763	52288
579.124	52446.87
579.485	52397.38
579.845	52495
580.206	52613.64
580.566	52584.27
580.927	52650.03
581.287	52791.04
581.648	52638.05
582.008	52834.66
582.368	52758.27
582.728	52886.18
583.089	52889.12
583.449	52841.89
583.809	52879.63
584.169	53014.76
584.529	52906.97
584.889	53270.58
585.249	53029.45
585.609	52976.8
585.969	53160.07
586.329	53090.47
586.688	53151.03
587.048	53237.13
587.408	53176.34
587.768	53144.03
588.127	53208.21
588.487	53148.77
588.846	53332.04
589.206	53265.83
589.565	53220.41
589.925	53364.81
590.284	53214.31
590.643	53407.07
591.003	53492.72
591.362	53463.57
591.721	53433.96
592.08	53467.63
592.44	53623.11
592.799	53503.34
593.158	53449.78
593.517	53621.98
593.876	53583.56
594.235	53532.26
594.593	53560.96
594.952	53673.05
595.311	53658.36
595.67	53689.32
596.029	53732.03
596.387	53774.97
596.746	53784.01
597.104	53756.21
597.463	53737.23
597.822	53912.14
598.18	53806.16
598.538	53666.95
598.897	54008.64
599.255	53849.32
599.613	54180.16
599.972	53985.81
600.33	54054.28
600.688	53918.47
601.046	54018.81
601.404	54089.31
601.762	54026.49
602.12	54203.66
602.478	54178.12
602.836	54238.23
603.194	54095.41
603.552	54157.33
603.91	54108.29
604.268	54251.34
604.625	54157.56
604.983	54359.59
605.341	54214.96
605.698	54331.57
606.056	54360.04
606.413	54316.2
606.771	54417.89
607.128	54444.11
607.485	54324.33
607.843	54343.77
608.2	54464.44
608.557	54600.71
608.914	54504.44
609.272	54588.28
609.629	54744.89
609.986	54767.49
610.343	54685.45
610.7	54827.82
611.057	54769.07
611.414	54829.86
611.771	54816.52
612.127	54899.91
612.484	54886.58
612.841	54971.32
613.198	54847.71
613.554	54887.71
613.911	55000.7
614.267	54989.85
614.624	55050.42
614.98	55027.82
615.337	55194.59
615.693	55104.65
616.05	55053.58
616.406	55183.07
616.762	55114.82
617.118	55176.06
617.475	55107.36
617.831	55306.68
618.187	55341.48
618.543	55251.77
618.899	55448.37
619.255	55301.48
619.611	55312.56
619.967	55384.19
620.323	55459.22
620.678	55434.81
621.034	55378.77
621.39	55332.67
621.746	55274.59
622.101	55616.05
622.457	55360.92
622.812	55464.87
623.168	55463.97
623.523	55521.82
623.879	55569.27
624.234	55373.35
624.589	55570.4
624.945	55524.98
625.3	55489.05
625.655	55479.11
626.01	55575.15
626.365	55512.1
626.72	55503.06
627.075	55488.6
627.43	55504.42
627.785	55398.43
628.14	55485.21
628.495	55491.31
628.85	55463.06
629.205	55413.35
629.559	55612.89
629.914	55426.9
630.269	55492.67
630.623	55379
630.978	55371.54
631.332	55472.1
631.687	55521.82
632.041	55407.7
632.396	55425.77
632.75	55374.02
633.104	55421.03
633.459	55330.18
633.813	55305.33
634.167	55299.9
634.521	55323.4
634.875	55354.82
635.229	55256.97
635.583	55244.54
635.937	55248.6
636.291	55139.45
636.645	55124.54
636.999	55142.62
637.352	55240.24
637.706	55130.87
638.06	55101.72
638.413	55062.85
638.767	55113.01
639.121	55153.69
639.474	54988.95
639.828	54964.54
640.181	55031.66
640.534	55085.22
640.888	54918.67
641.241	54803.87
641.594	54947.37
641.947	54982.17
642.301	54875.51
642.654	54960.7
643.007	54895.84
643.36	54898.33
643.713	54853.36
644.066	54957.76
644.419	54740.14
644.771	54597.77
645.124	54374.28
645.477	54295.18
645.83	54068.07
646.182	53940.16
646.535	53976.77
646.888	54063.78
647.24	53883.67
647.593	54048.18
647.945	53950.78
648.298	53850.9
648.65	53845.7
649.002	53697.68
649.355	53812.48
649.707	53740.85
650.059	53989.88
650.411	54364.56
650.763	54230.55
651.115	54605.46
651.467	54463.99
651.819	54520.26
652.171	54423.54
652.523	54414.73
652.875	54399.13
653.227	54300.83
653.578	54503.99
653.93	54381.28
654.282	54298.12
654.633	54197.78
654.985	54315.07
655.337	54299.25
655.688	54287.05
656.039	54304.9
656.391	54162.76
656.742	54060.61
657.094	54184.9
657.445	54355.75
657.796	54111.46
658.147	54194.17
658.498	54179.71
658.849	54291.57
659.2	54226.48
659.551	54086.37
659.902	54187.84
660.253	54137.9
660.604	54099.48
660.955	54024.68
661.306	54111.01
661.656	54057.67
662.007	54067.39
662.358	53984
662.708	54021.52
663.059	53978.58
663.409	53824.01
663.76	54073.95
664.11	54021.74
664.461	54003.21
664.811	54012.48
665.161	53933.16
665.511	53912.14
665.862	53947.85
666.212	54065.81
666.562	54035.53
666.912	53902.2
667.262	53889.09
667.612	53970.9
667.962	53934.06
668.312	53951.24
668.662	54061.52
669.011	53852.93
669.361	53868.3
669.711	53827.17
670.06	53755.99
670.41	53647.52
670.76	53696.1
671.109	53782.65
671.459	53692.26
671.808	53636.44
672.157	53757.12
672.507	53407.52
672.856	53572.04
673.205	53613.84
673.554	53615.88
673.904	53511.7
674.253	53560.74
674.602	53518.25
674.951	53189.22
675.3	53019.74
675.649	53456.56
675.998	53392.83
676.346	53404.13
676.695	53479.16
677.044	53323.68
677.393	53383.34
677.741	53276.68
678.09	53207.08
678.438	53195.55
678.787	53210.92
679.135	53164.36
679.484	52969.12
679.832	53061.99
680.181	52898.61
680.529	52934.99
680.877	52940.64
681.225	52783.36
681.573	53032.16
681.922	52733.87
682.27	52638.28
682.618	52687.32
682.966	52610.26
683.314	52670.14
683.661	52491.61
684.009	52346.08
684.357	52355.35
684.705	52247.78
685.053	52299.75
685.4	52088.23
685.748	52107.67
686.095	52000.78
686.443	51990.38
686.79	51869.71
687.138	51895.25
687.485	51892.76
687.832	51606.44
688.18	51757.62
688.527	51514.01
688.874	51503.84
689.221	51437.4
689.568	51350.4
689.915	51215.49
690.262	51252.55
690.609	51136.62
690.956	51034.03
691.303	50924.88
691.65	50735.28
691.997	50832
692.344	50640.82
692.69	50630.87
693.037	50544.32
693.383	50301.16
693.73	50421.16
694.077	50236.31
694.423	50126.93
694.769	50047.38
695.116	49998.8
695.462	49945.69
695.808	49838.12
696.155	49855.98
696.501	49520.17
696.847	49595.42
697.193	49388.64
697.539	49359.27
697.885	49202.44
698.231	49129.22
698.577	49036.34
698.923	48947.07
699.269	48829.11
699.614	48573.75
699.96	48540.53
700.306	48590.02
700.651	48440.2
700.997	48314.55
701.342	48312.06
701.688	48252.18
702.033	48073.65
702.379	48136.7
702.724	47941.68
703.069	47982.13
703.415	47581.23
703.76	47547.79
704.105	47627.11
704.45	47487.68
704.795	47263.05
705.14	47139.66
705.485	47068.48
705.83	47040.68
706.175	47128.14
706.52	46819.67
706.865	46937.64
707.209	46799.11
707.554	46512.11
707.899	46662.39
708.243	46426.24
708.588	46359.12
708.932	46203.19
709.277	46063.53
709.621	46172.91
709.966	45860.15
710.31	45993.93
710.654	45648.4
710.998	45676.65
711.342	45812.92
711.687	45569.31
712.031	45289.77
712.375	45186.72
712.719	45235.31
713.063	45214.52
713.407	45424
713.75	45071.24
714.094	45035.54
714.438	44865.83
714.782	44877.13
715.125	44594.42
715.469	44722.1
715.812	44489.79
716.156	44373.41
716.499	44417.48
716.843	44395.1
717.186	44158.5
717.53	44326.18
717.873	44272.85
718.216	44111.72
718.559	44045.96
718.902	43728.91
719.246	43695.69
719.589	43580.44
719.932	43531.4
720.275	43693.43
720.617	43579.76
720.96	43491.4
721.303	43506.77
721.646	43331.85
721.989	43131.18
722.331	43267.45
722.674	43089.6
723.016	43231.07
723.359	43057.96
723.701	43069.26
724.044	42766.9
724.386	42639.67
724.729	42786.56
725.071	42689.16
725.413	42673.57
725.755	42636.51
726.097	42486.68
726.439	42248.27
726.782	42379.79
727.124	42479.45
727.465	42206.01
727.807	42152.22
728.149	42081.04
728.491	42172.79
728.833	42169.4
729.175	41895.73
729.516	41809.64
729.858	41787.26
730.199	41870.2
730.541	41813.7
730.882	41593.37
731.224	41776.19
731.565	41461.17
731.906	41549.53
732.248	41541.39
732.589	41371.68
732.93	41311.57
733.271	41324.22
733.612	41481.51
733.953	41276.77
734.294	40962.2
734.635	41105.92
734.976	41173.49
735.317	40815.09
735.658	40980.5
735.999	40920.84
736.339	40639.5
736.68	40887.17
737.021	40660.96
737.361	40539.39
737.702	40797.01
738.042	40561.31
738.383	40473.63
738.723	40494.42
739.063	40285.16
739.404	40450.57
739.744	40385.27
740.084	40210.13
740.424	40209
740.764	40260.07
741.104	40324.48
741.444	39867.09
741.784	39849.01
742.124	40152.73
742.464	39792.29
742.804	39893.08
743.143	39730.37
743.483	39794.77
743.823	39552.75
744.162	39620.54
744.502	39648.79
744.841	39318.63
745.181	39591.16
745.52	39323.15
745.86	39340.77
746.199	39387.78
746.538	39217.61
746.877	39310.72
747.216	39320.44
747.556	39151.17
747.895	39009.48
748.234	38975.36
748.573	38917.06
748.911	38789.83
749.25	38830.96
749.589	38530.17
749.928	38702.15
750.267	38703.95
750.605	38560.68
750.944	38571.98
751.283	38349.84
751.621	38388.71
751.96	38163.18
752.298	38280.69
752.636	38273
752.975	37993.46
