Data from white_poster_card_FLMS001491_00038.txt Node
Date: Wed Feb 08 11:51:26 GMT 2017
User: dcchb
Spectrometer: FLMS00149
Trigger mode: 0
Integration Time (sec): 2.000000E-2
Scans to average: 10
Electric dark correction enabled: true
Nonlinearity correction enabled: false
Boxcar width: 0
XAxis mode: Wavelengths
Number of Pixels in Spectrum: 2048
>>>>>Begin Spectral Data<<<<<
341.393	10.44
341.776	10.44
342.16	10.44
342.543	-50.13
342.927	-63.01
343.31	-79.96
343.693	-78.83
344.077	-72.05
344.46	-63.01
344.843	-56.91
345.226	-35.21
345.61	-34.08
345.993	-11.93
346.376	10.89
346.759	4.79
347.142	19.48
347.525	48.4
347.908	54.5
348.291	75.52
348.674	107.61
349.057	110.77
349.44	117.78
349.823	151.9
350.206	160.49
350.588	204.56
350.971	228.51
351.354	219.25
351.737	219.47
352.119	247.72
352.502	262.41
352.884	281.62
353.267	283.42
353.65	299.7
354.032	308.51
354.414	313.25
354.797	330.2
355.179	290.43
355.562	315.06
355.944	336.98
356.326	333.37
356.709	339.69
357.091	330.2
357.473	359.35
357.855	338.11
358.238	338.79
358.62	338.79
359.002	330.66
359.384	322.75
359.766	358.68
360.148	335.17
360.53	346.25
360.912	326.36
361.294	325.46
361.676	335.63
362.057	349.41
362.439	350.32
362.821	336.53
363.203	324.1
363.584	343.76
363.966	341.05
364.348	326.59
364.729	326.14
365.111	324.55
365.493	299.47
365.874	336.3
366.256	315.97
366.637	321.16
367.019	306.02
367.4	312.35
367.781	319.58
368.163	291.33
368.544	317.55
368.925	330.66
369.306	329.07
369.688	318.68
370.069	329.07
370.45	316.64
370.831	317.1
371.212	323.88
371.593	308.51
371.974	314.16
372.355	299.47
372.736	315.06
373.117	308.96
373.498	323.2
373.879	325.23
374.26	312.35
374.641	327.49
375.021	297.21
375.402	313.93
375.783	330.2
376.163	343.99
376.544	341.28
376.925	333.59
377.305	356.19
377.686	322.29
378.066	342.18
378.447	351.67
378.827	345.34
379.208	345.34
379.588	343.99
379.968	308.96
380.349	337.21
380.729	348.73
381.109	359.35
381.489	341.28
381.87	339.47
382.25	348.51
382.63	334.04
383.01	352.12
383.39	351.45
383.77	370.65
384.15	341.5
384.53	359.35
384.91	352.58
385.29	346.7
385.67	346.02
386.049	359.58
386.429	381.28
386.809	363.2
387.189	366.36
387.568	384.44
387.948	381.73
388.328	377.89
388.707	370.88
389.087	378.34
389.466	392.35
389.846	407.49
390.225	390.99
390.605	374.95
390.984	381.73
391.363	388.51
391.743	379.69
392.122	379.47
392.501	416.3
392.881	410.88
393.26	404.78
393.639	412.23
394.018	397.77
394.397	404.55
394.776	420.82
395.155	405.68
395.534	419.24
395.913	407.04
396.292	393.03
396.671	446.58
397.05	422.86
397.429	420.82
397.808	416.98
398.186	414.27
398.565	430.54
398.944	445.68
399.323	434.16
399.701	460.6
400.08	458.79
400.458	449.97
400.837	466.47
401.215	475.28
401.594	466.24
401.972	449.97
402.351	453.59
402.729	457.88
403.107	484.32
403.486	458.79
403.864	474.61
404.242	469.63
404.62	454.49
404.999	484.1
405.377	496.98
405.755	503.08
406.133	496.3
406.511	510.54
406.889	508.96
407.267	522.51
407.645	531.33
408.023	523.42
408.401	529.52
408.779	539.92
409.156	560.25
409.534	574.04
409.912	576.98
410.29	579.01
410.667	598.67
411.045	593.93
411.422	602.29
411.8	632.79
412.178	644.32
412.555	642.74
412.933	647.26
413.31	666.01
413.687	678.89
414.065	723.19
414.442	734.26
414.819	717.54
415.197	746.46
415.574	756.41
415.951	721.15
416.328	763.19
416.705	813.58
417.082	783.98
417.46	834.82
417.837	832.11
418.214	854.48
418.591	833.92
418.967	881.83
419.344	880.47
419.721	885.89
420.098	903.07
420.475	932
420.852	941.94
421.228	949.4
421.605	960.24
421.982	972.45
422.358	968.83
422.735	1005.44
423.111	1005.21
423.488	1047.7
423.864	1037.98
424.241	1048.38
424.617	1078.66
424.994	1067.58
425.37	1102.16
425.746	1089.73
426.123	1110.75
426.499	1141.03
426.875	1150.07
427.251	1200.24
427.627	1190.97
428.003	1217.86
428.379	1202.04
428.756	1262.61
429.132	1282.04
429.507	1259.22
429.883	1290.4
430.259	1297.18
430.635	1329.05
431.011	1334.47
431.387	1365.43
431.763	1410.63
432.138	1404.98
432.514	1424.64
432.89	1454.92
433.265	1513.67
433.641	1484.52
434.016	1480.68
434.392	1507.8
434.767	1582.15
435.143	1579.66
435.518	1580.34
435.894	1627.12
436.269	1626.89
436.644	1630.96
437.02	1641.58
437.395	1653.56
437.77	1688.13
438.145	1738.75
438.52	1718.42
438.895	1761.8
439.271	1751.41
439.646	1773.78
440.021	1785.76
440.395	1769.26
440.77	1800
441.145	1845.19
441.52	1827.79
441.895	1856.72
442.27	1883.16
442.645	1889.94
443.019	1925.19
443.394	1922.03
443.769	1915.47
444.143	1911.86
444.518	1942.59
444.892	1942.82
445.267	1970.84
445.641	1986.66
446.016	2004.51
446.39	1999.76
446.764	2009.48
447.139	1989.37
447.513	2042.7
447.887	2055.58
448.262	2086.99
448.636	2098.52
449.01	2104.62
449.384	2135.58
449.758	2167.67
450.132	2147.33
450.506	2178.74
450.88	2188.91
451.254	2174.45
451.628	2180.55
452.002	2239.08
452.376	2233.66
452.75	2304.16
453.123	2301
453.497	2351.62
453.871	2377.83
454.244	2403.59
454.618	2392.52
454.992	2429.36
455.365	2413.09
455.739	2493.76
456.112	2489.24
456.486	2545.29
456.859	2530.15
457.232	2594.78
457.606	2559.98
457.979	2596.36
458.352	2679.29
458.725	2741.67
459.099	2731.95
459.472	2781.66
459.845	2778.05
460.218	2798.84
460.591	2873.87
460.964	2828.44
461.337	2882
461.71	2926.75
462.083	3006.74
462.456	2959.74
462.829	2988.89
463.201	3106.18
463.574	3105.27
463.947	3126.51
464.32	3219.39
464.692	3218.49
465.065	3267.75
465.438	3312.95
465.81	3312.5
466.183	3362.67
466.555	3398.15
466.928	3464.13
467.3	3470.91
467.672	3514.53
468.045	3544.81
468.417	3581.19
468.789	3612.83
469.161	3702.09
469.534	3720.85
469.906	3827.51
470.278	3806.95
470.65	3879.94
471.022	3945.7
471.394	3996.55
471.766	3988.41
472.138	4111.12
472.51	4166.71
472.882	4172.59
473.253	4208.29
473.625	4302.08
473.997	4403.77
474.369	4405.58
474.74	4441.96
475.112	4573.93
475.484	4643.54
475.855	4683.31
476.227	4720.82
476.598	4834.49
476.97	4945
477.341	4997.65
477.713	5088.04
478.084	5091.66
478.455	5219.57
478.827	5300.92
479.198	5412.78
479.569	5470.63
479.94	5574.36
480.311	5634.47
480.682	5788.36
481.053	5877.4
481.424	5970.28
481.795	6022.03
482.166	6102.48
482.537	6200.11
482.908	6268.8
483.279	6376.82
483.65	6477.16
484.021	6636.93
484.391	6676.7
484.762	6742.46
485.133	6790.15
485.503	6945.85
485.874	7039.63
486.244	7153.3
486.615	7199.18
486.985	7364.59
487.356	7433.97
487.726	7542.89
488.097	7626.73
488.467	7693.85
488.837	7850.01
489.207	7976.33
489.578	8070.56
489.948	8120.28
490.318	8243.67
490.688	8282.31
491.058	8447.5
491.428	8569.08
491.798	8604.79
492.168	8812.92
492.538	8849.98
492.908	8908.06
493.278	9030.99
493.648	9060.14
494.017	9213.81
494.387	9326.35
494.757	9352.56
495.126	9427.82
495.496	9477.53
495.866	9628.72
496.235	9694.48
496.605	9831.42
496.974	9772.89
497.344	9848.82
497.713	9925.21
498.082	10115.26
498.452	10204.07
498.821	10262.82
499.19	10288.36
499.559	10460.11
499.928	10489.26
500.298	10519.09
500.667	10711.17
501.036	10602.48
501.405	10809.7
501.774	10761.57
502.143	10839.08
502.512	10873.88
502.88	11030.94
503.249	11097.15
503.618	11147.77
503.987	11203.59
504.356	11332.4
504.724	11358.16
505.093	11378.95
505.462	11531.04
505.83	11619.62
506.199	11693.29
506.567	11865.72
506.936	11789.79
507.304	11952.5
507.672	11958.6
508.041	12115.2
508.409	12176.9
508.777	12279.04
509.145	12469.77
509.514	12468.19
509.882	12497.34
510.25	12528.53
510.618	12663.89
510.986	12740.27
511.354	12876.77
511.722	12936.43
512.09	13073.37
512.458	13163.54
512.826	13171.67
513.193	13284.89
513.561	13394.04
513.929	13510.2
514.297	13663.86
514.664	13742.96
515.032	13765.1
515.4	13873.12
515.767	13938.66
516.135	14107.92
516.502	13995.15
516.869	14177.97
517.237	14262.72
517.604	14368.48
517.972	14567.12
518.339	14575.25
518.706	14645.31
519.073	14683.05
519.44	14820.9
519.808	14959.88
520.175	15076.48
520.542	15239.87
520.909	15357.38
521.276	15329.13
521.643	15559.63
522.009	15609.35
522.376	15737.48
522.743	15824.03
523.11	15950.13
523.477	16214.08
523.843	16208.66
524.21	16434.86
524.577	16626.72
524.943	16618.81
525.31	16812.26
525.676	16920.5
526.043	17052.48
526.409	17105.58
526.776	17369.08
527.142	17320.26
527.508	17517.32
527.874	17672.12
528.241	17715.28
528.607	17797.77
528.973	17991.89
529.339	18032.79
529.705	18237.3
530.071	18364.31
530.437	18483.17
530.803	18536.73
531.169	18654.24
531.535	18721.81
531.901	18796.61
532.267	18849.72
532.632	19053.78
532.998	19050.84
533.364	19276.15
533.73	19243.15
534.095	19418.74
534.461	19510.72
534.826	19510.49
535.192	19684.5
535.557	19754.78
535.923	19861.22
536.288	19809.92
536.653	19974.21
537.019	19964.72
537.384	20131.94
537.749	20223.69
538.114	20206.74
538.479	20281.99
538.845	20457.81
539.21	20437.02
539.575	20534.42
539.94	20589.11
540.305	20729.89
540.67	20735.32
541.034	20765.15
541.399	20933.73
541.764	21099.37
542.129	21071.8
542.494	21145.48
542.858	21198.13
543.223	21277
543.587	21375.53
543.952	21487.16
544.316	21498.69
544.681	21548.85
545.045	21720.38
545.41	21852.58
545.774	21938.22
546.138	21814.16
546.503	21865.91
546.867	22019.12
547.231	22165.79
547.595	22212.34
547.959	22303.18
548.324	22367.59
548.688	22331.66
549.052	22388.61
549.416	22597.64
549.779	22556.74
550.143	22614.59
550.507	22794.47
550.871	22846
551.235	22880.57
551.599	23148.13
551.962	23125.31
552.326	23176.83
552.689	23307
553.053	23339.77
553.417	23362.37
553.78	23611.17
554.143	23562.36
554.507	23740.44
554.87	23740.21
555.234	24019.98
555.597	23916.7
555.96	24006.19
556.323	24245.28
556.686	24192.63
557.05	24402.79
557.413	24560.98
557.776	24494.09
558.139	24721.43
558.502	24672.84
558.865	24849.33
559.228	24955.77
559.59	25018.14
559.953	25170.68
560.316	25405.48
560.679	25529.77
561.041	25646.83
561.404	25697.45
561.767	25845.01
562.129	25831.23
562.492	26126.36
562.854	26080.71
563.217	26064.44
563.579	26222.86
563.941	26362.29
564.304	26473.02
564.666	26648.38
565.028	26662.39
565.39	26839.11
565.753	26971.31
566.115	27152.1
566.477	27270.74
566.839	27231.64
567.201	27411.3
567.563	27510.05
567.925	27670.05
568.287	27710.27
568.648	27827.79
569.01	27965.86
569.372	28053.32
569.734	28006.54
570.095	28298.28
570.457	28334.44
570.819	28455.79
571.18	28537.82
571.542	28628.44
571.903	28625.5
572.265	28820.3
572.626	28805.16
572.987	28935.55
573.349	28977.59
573.71	29033.4
574.071	29145.04
574.432	29389.78
574.794	29597.68
575.155	29440.62
575.516	29544.12
575.877	29595.42
576.238	29637.68
576.599	29753.61
576.96	29734.4
577.32	29840.84
577.681	29945.47
578.042	30017.78
578.403	30047.39
578.763	30112.47
579.124	30071.34
579.485	30249.19
579.845	30248.74
580.206	30192.92
580.566	30210.1
580.927	30264.33
581.287	30450.09
581.648	30338.91
582.008	30393.82
582.368	30448.28
582.728	30406.93
583.089	30383.65
583.449	30460.71
583.809	30466.81
584.169	30489.41
584.529	30454.38
584.889	30721.04
585.249	30530.77
585.609	30466.59
585.969	30666.58
586.329	30540.93
586.688	30580.03
587.048	30566.02
587.408	30650.54
587.768	30447.6
588.127	30547.71
588.487	30414.16
588.846	30820.02
589.206	30608.73
589.565	30456.42
589.925	30855.28
590.284	30710.42
590.643	30798.33
591.003	30735.96
591.362	30954.26
591.721	30747.26
592.08	30732.12
592.44	30823.86
592.799	30853.92
593.158	30888.72
593.517	30730.31
593.876	30844.43
594.235	30750.42
594.593	30791.32
594.952	30905.44
595.311	30860.7
595.67	30832.9
596.029	31080.36
596.387	31066.57
596.746	31010.53
597.104	30959.91
597.463	30913.13
597.822	31157.87
598.18	31023.18
598.538	31081.71
598.897	31192.67
599.255	30837.2
599.613	31373.45
599.972	31082.61
600.33	31259.33
600.688	31173.23
601.046	31360.12
601.404	31451.19
601.762	31311.08
602.12	31464.3
602.478	31400.12
602.836	31394.25
603.194	31270.86
603.552	31329.61
603.91	31329.61
604.268	31534.13
604.625	31414.13
604.983	31498.88
605.341	31436.5
605.698	31523.06
606.056	31509.5
606.413	31631.98
606.771	31664.97
607.128	31630.4
607.485	31570.29
607.843	31595.6
608.2	31788.81
608.557	31758.53
608.914	31772.99
609.272	31971.18
609.629	31855.7
609.986	32050.73
610.343	31852.54
610.7	32094.79
611.057	32077.17
611.414	32153.55
611.771	32091.18
612.127	32170.04
612.484	32203.26
612.841	32201.23
613.198	32175.24
613.554	32281.45
613.911	32468.79
614.267	32355.8
614.624	32321.68
614.98	32356.71
615.337	32501.79
615.693	32379.3
616.05	32388.34
616.406	32588.56
616.762	32361.68
617.118	32523.93
617.475	32461.79
617.831	32627.43
618.187	32620.65
618.543	32613.2
618.899	32814.55
619.255	32639.86
619.611	32756.92
619.967	32819.97
620.323	32790.37
620.678	32689.8
621.034	32666.3
621.39	32794.89
621.746	32679.18
622.101	32979.06
622.457	32758.73
622.812	32768.67
623.168	32881.21
623.523	32760.31
623.879	32883.02
624.234	32696.36
624.589	32961.21
624.945	32816.58
625.3	32993.07
625.655	32824.72
626.01	32855
626.365	32974.32
626.72	32831.04
627.075	32809.58
627.43	32792.63
627.785	32685.96
628.14	32737.49
628.495	32801.89
628.85	32734.32
629.205	32681.89
629.559	32761.67
629.914	32657.04
630.269	32646.64
630.623	32632.63
630.978	32571.39
631.332	32599.86
631.687	32580.2
632.041	32501.56
632.396	32727.32
632.75	32405.74
633.104	32406.87
633.459	32355.12
633.813	32435.57
634.167	32288.91
634.521	32292.75
634.875	32459.75
635.229	32299.53
635.583	32132.3
635.937	32170.5
636.291	32096.83
636.645	32125.07
636.999	31989.94
637.352	32025.64
637.706	31871.07
638.06	31947
638.413	31983.38
638.767	31738.42
639.121	31887.57
639.474	31595.82
639.828	31625.43
640.181	31766.21
640.534	31582.71
640.888	31624.97
641.241	31446.9
641.594	31440.35
641.947	31542.94
642.301	31472.44
642.654	31452.77
643.007	31390.4
643.36	31343.63
643.713	31316.06
644.066	31436.05
644.419	31229.28
644.771	31005.33
645.124	30749.97
645.477	30585.23
645.83	30485.34
646.182	30256.42
646.535	30334.16
646.888	30295.74
647.24	30160.61
647.593	30219.13
647.945	30130.78
648.298	29998.12
648.65	29985.02
649.002	30013.26
649.355	30043.77
649.707	29950.89
650.059	29975.3
650.411	30413.25
650.763	30437.66
651.115	30750.19
651.467	30597.66
651.819	30574.38
652.171	30612.34
652.523	30514.95
652.875	30559.92
653.227	30200.6
653.578	30529.86
653.93	30512.46
654.282	30375.29
654.633	30382.97
654.985	30302.75
655.337	30229.3
655.688	30182.53
656.039	30312.47
656.391	30002.19
656.742	30136.88
657.094	30239.02
657.445	30140.72
657.796	30173.94
658.147	30071.12
658.498	30088.52
658.849	30107.27
659.2	29978.24
659.551	29906.6
659.902	30049.65
660.253	30007.16
660.604	29995.86
660.955	29816.89
661.306	30035.18
661.656	29836.77
662.007	29817.56
662.358	29880.16
662.708	29812.37
663.059	29863.89
663.409	29578.02
663.76	29852.36
664.11	29834.29
664.461	29864.34
664.811	29744.8
665.161	29705.93
665.511	29676.32
665.862	29656.21
666.212	29729.43
666.562	29743.44
666.912	29686.49
667.262	29705.93
667.612	29619.6
667.962	29607.17
668.312	29564.01
668.662	29762.65
669.011	29518.59
669.361	29536.67
669.711	29588.87
670.06	29491.47
670.41	29381.19
670.76	29446.5
671.109	29585.71
671.459	29478.59
671.808	29400.4
672.157	29422.09
672.507	29241.08
672.856	29223
673.205	29290.8
673.554	29391.59
673.904	29329.21
674.253	29372.38
674.602	29199.5
674.951	28717.71
675.3	28753.86
675.649	29244.47
675.998	29099.62
676.346	29162.67
676.695	29168.31
677.044	28994.53
677.393	29168.54
677.741	29111.37
678.09	29006.96
678.438	29044.93
678.787	28970.58
679.135	28872.05
679.484	28778.72
679.832	28926.51
680.181	28766.74
680.529	28833.18
680.877	28655.11
681.225	28690.59
681.573	28704.15
681.922	28564.72
682.27	28540.53
682.618	28596.13
682.966	28425.96
683.314	28298.51
683.661	28356.13
684.009	28179.64
684.357	28218.51
684.705	28075.24
685.053	28121.11
685.4	28211.05
685.748	27970.38
686.095	28024.16
686.443	27754.34
686.79	27814
687.138	27825.53
687.485	27879.99
687.832	27750.95
688.18	27734
688.527	27523.39
688.874	27609.71
689.221	27543.27
689.568	27392.54
689.915	27353.67
690.262	27256.5
690.609	27262.38
690.956	27124.75
691.303	27095.6
691.65	27051.31
691.997	26976.73
692.344	26831.43
692.69	26768.15
693.037	26797.98
693.383	26641.38
693.73	26749.17
694.077	26537.2
694.423	26551.43
694.769	26517.76
695.116	26390.08
695.462	26416.07
695.808	26272.35
696.155	26348.95
696.501	26142.63
696.847	26075.97
697.193	25954.61
697.539	26018.34
697.885	25844.33
698.231	25704.45
698.577	25869.19
698.923	25764.56
699.269	25555.75
699.614	25471.91
699.96	25424.01
700.306	25372.93
700.651	25325.03
700.997	25213.39
701.342	25176.56
701.688	25126.39
702.033	25157.12
702.379	25112.38
702.724	24872.61
703.069	25034.86
703.415	24752.16
703.76	24767.07
704.105	24686.17
704.45	24697.25
704.795	24589.68
705.14	24475.56
705.485	24419.74
705.83	24280.08
706.175	24393.3
706.52	24269.69
706.865	24211.16
707.209	24027.66
707.554	24086.19
707.899	24150.37
708.243	23973.42
708.588	23877.15
708.932	23805.97
709.277	23690.27
709.621	23737.27
709.966	23655.24
710.31	23634.68
710.654	23481.01
710.998	23483.04
711.342	23415.92
711.687	23449.82
712.031	23333.67
712.375	23222.48
712.719	23225.87
713.063	23203.27
713.407	23177.96
713.75	23064.97
714.094	23124.18
714.438	22905.65
714.782	22953.34
715.125	22774.81
715.469	22894.81
715.812	22673.12
716.156	22650.75
716.499	22727.81
716.843	22679.22
717.186	22578.43
717.53	22648.49
717.873	22705.66
718.216	22558.32
718.559	22472.9
718.902	22321.04
719.246	22290.3
719.589	22271.55
719.932	22148.39
720.275	22137.77
720.617	22175.73
720.96	22093.47
721.303	22119.46
721.646	22226.12
721.989	21997.2
722.331	22072.46
722.674	21953.59
723.016	22040.37
723.359	21788.62
723.701	21894.61
724.044	21794.27
724.386	21723.76
724.729	21760.6
725.071	21568.74
725.413	21659.13
725.755	21592.69
726.097	21416.88
726.439	21592.92
726.782	21498.46
727.124	21578.23
727.465	21351.12
727.807	21418.24
728.149	21298.69
728.491	21339.14
728.833	21383.89
729.175	21272.7
729.516	21135.98
729.858	21144.57
730.199	21090.79
730.541	21090.56
730.882	21034.74
731.224	21087.4
731.565	20888.53
731.906	20941.86
732.248	20898.02
732.589	20816.44
732.93	20769.89
733.271	20773.28
733.612	20824.13
733.953	20769.21
734.294	20573.51
734.635	20669.56
734.976	20697.13
735.317	20540.07
735.658	20573.51
735.999	20568.09
736.339	20623
736.68	20584.36
737.021	20416.23
737.361	20302.79
737.702	20542.78
738.042	20309.56
738.383	20212.62
738.723	20441.09
739.063	20343.24
739.404	20384.14
739.744	20272.28
740.084	20197.48
740.424	20132.39
740.764	20163.81
741.104	20199.51
741.444	19980.99
741.784	19984.83
742.124	20078.38
742.464	20035.67
742.804	19980.76
743.143	19848.11
743.483	19952.06
743.823	19810.14
744.162	19780.54
744.502	19743.48
744.841	19660.99
745.181	19778.73
745.52	19583.03
745.86	19653.76
746.199	19573.09
746.538	19555.23
746.877	19580.54
747.216	19665.06
747.556	19529.47
747.895	19414.9
748.234	19433.43
748.573	19417.84
748.911	19323.15
749.25	19338.97
749.589	19283.83
749.928	19239.54
750.267	19305.52
750.605	19202.25
750.944	19139.2
751.283	19068.47
751.621	19129.48
751.96	18877.29
752.298	19034.34
752.636	18981.01
752.975	18771.75
753.313	18828.25
753.651	18839.1
753.989	18820.79
754.327	18727.01
754.666	18615.6
