Data from white_steel_sheet_FLMS001491_099.txt Node
Date: Tue Feb 07 10:58:51 GMT 2017
User: dcchb
Spectrometer: FLMS00149
Trigger mode: 0
Integration Time (sec): 2.000000E-2
Scans to average: 10
Electric dark correction enabled: true
Nonlinearity correction enabled: false
Boxcar width: 0
XAxis mode: Wavelengths
Number of Pixels in Spectrum: 2048
>>>>>Begin Spectral Data<<<<<
341.393	-16.75
341.776	-16.75
342.16	-16.75
342.543	-47.48
342.927	-53.13
343.31	-64.89
343.693	-85.9
344.077	-39.8
344.46	-60.37
344.843	-68.73
345.226	-43.87
345.61	-29.86
345.993	-29.18
346.376	-11.33
346.759	19.86
347.142	31.61
347.525	27.99
347.908	74.09
348.291	84.72
348.674	86.75
349.057	108.9
349.44	138.95
349.823	143.47
350.206	165.84
350.588	182.34
350.971	219.18
351.354	215.11
351.737	224.37
352.119	272.05
352.502	260.08
352.884	260.76
353.267	287.42
353.65	309.12
354.032	276.35
354.414	309.34
354.797	319.06
355.179	322.68
355.562	331.94
355.944	314.99
356.326	344.82
356.709	337.82
357.091	340.3
357.473	349.34
357.855	352.5
358.238	349.57
358.62	338.49
359.002	353.41
359.384	346.86
359.766	345.27
360.148	329
360.53	352.5
360.912	353.18
361.294	336.91
361.676	332.17
362.057	344.14
362.439	358.15
362.821	333.75
363.203	336.23
363.584	331.49
363.966	325.39
364.348	342.11
364.729	352.05
365.111	324.93
365.493	323.58
365.874	323.13
366.256	334.65
366.637	318.83
367.019	314.09
367.4	329.91
367.781	311.38
368.163	330.36
368.544	345.27
368.925	308.44
369.306	320.64
369.688	319.29
370.069	310.02
370.45	338.04
370.831	314.09
371.212	343.24
371.593	329.68
371.974	327.19
372.355	329.68
372.736	332.62
373.117	325.16
373.498	326.74
373.879	326.29
374.26	324.03
374.641	353.18
375.021	326.97
375.402	343.92
375.783	335.1
376.163	355.44
376.544	333.07
376.925	351.6
377.305	347.31
377.686	329.68
378.066	352.73
378.447	337.36
378.827	359.51
379.208	340.53
379.588	334.65
379.968	357.7
380.349	349.79
380.729	353.41
381.109	349.12
381.489	361.77
381.87	343.69
382.25	369.23
382.63	343.69
383.01	360.87
383.39	374.43
383.77	380.53
384.15	394.54
384.53	369.23
384.91	349.79
385.29	388.44
385.67	378.27
386.049	387.53
386.429	375.33
386.809	394.54
387.189	384.14
387.568	372.84
387.948	403.58
388.328	384.14
388.707	403.35
389.087	395.67
389.466	409
389.846	424.14
390.225	420.53
390.605	410.58
390.984	426.18
391.363	416.23
391.743	425.95
392.122	425.95
392.501	442.67
392.881	428.21
393.26	454.2
393.639	442.22
394.018	452.39
394.397	463.01
394.776	466.85
395.155	452.39
395.534	456.68
395.913	461.65
396.292	476.8
396.671	498.94
397.05	491.94
397.429	472.05
397.808	470.92
398.186	496.23
398.565	506.17
398.944	504.59
399.323	504.59
399.701	506.85
400.08	536
400.458	523.12
400.837	524.93
401.215	552.27
401.594	552.95
401.972	564.02
402.351	585.95
402.729	567.87
403.107	604.48
403.486	591.59
403.864	584.36
404.242	615.77
404.62	628.2
404.999	628.43
405.377	642.21
405.755	627.07
406.133	627.75
406.511	660.97
406.889	655.1
407.267	658.26
407.645	698.48
408.023	724.7
408.401	710.24
408.779	719.5
409.156	737.13
409.534	725.38
409.912	735.77
410.29	756.34
410.667	762.21
411.045	802.66
411.422	796.56
411.8	801.08
412.178	821.87
412.555	850.12
412.933	859.61
413.31	828.65
413.687	853.51
414.065	868.88
414.442	897.35
414.819	885.15
415.197	914.75
415.574	916.33
415.951	944.13
416.328	929.21
416.705	933.73
417.082	962.88
417.46	968.76
417.837	976.44
418.214	988.87
418.591	1001.3
418.967	983.22
419.344	1013.73
419.721	1015.54
420.098	1044.46
420.475	1029.78
420.852	1052.83
421.228	1053.28
421.605	1075.65
421.982	1101.19
422.358	1080.4
422.735	1126.27
423.111	1128.08
423.488	1117
423.864	1154.29
424.241	1135.08
424.617	1149.32
424.994	1175.76
425.37	1174.86
425.746	1199.71
426.123	1210.56
426.499	1196.1
426.875	1217.11
427.251	1271.8
427.627	1285.81
428.003	1301.41
428.379	1309.54
428.756	1353.38
429.132	1341.63
429.507	1361.07
429.883	1362.87
430.259	1400.61
430.635	1381.18
431.011	1392.48
431.387	1427.5
431.763	1450.33
432.138	1480.16
432.514	1488.52
432.89	1478.58
433.265	1551.34
433.641	1575.52
434.016	1574.85
434.392	1591.79
434.767	1636.54
435.143	1623.66
435.518	1643.54
435.894	1669.76
436.269	1676.09
436.644	1701.4
437.02	1714.5
437.395	1712.92
437.77	1745.91
438.145	1788.85
438.52	1794.05
438.895	1782.3
439.271	1841.51
439.646	1852.8
440.021	1864.33
440.395	1893.71
440.77	1866.59
441.145	1907.04
441.52	1933.25
441.895	1931.9
442.27	1955.63
442.645	1941.84
443.019	1989.98
443.394	2004.89
443.769	2026.36
444.143	2042.63
444.518	2058.67
444.892	2050.54
445.267	2057.77
445.641	2075.62
446.016	2104.55
446.39	2134.83
446.764	2128.5
447.139	2166.47
447.513	2188.16
447.887	2163.08
448.262	2162.85
448.636	2195.85
449.01	2238.33
449.384	2267.26
449.758	2265.9
450.132	2283.53
450.506	2333.24
450.88	2354.26
451.254	2374.82
451.628	2385.45
452.002	2395.84
452.376	2437.65
452.75	2417.08
453.123	2455.27
453.497	2528.49
453.871	2537.53
454.244	2568.72
454.618	2594.93
454.992	2634.03
455.365	2591.54
455.739	2641.26
456.112	2707.02
456.486	2726.68
456.859	2740.24
457.232	2760.8
457.606	2813.91
457.979	2846.45
458.352	2945.43
458.725	2914.25
459.099	2969.16
459.472	3019.1
459.845	3043.28
460.218	3045.77
460.591	3091.87
460.964	3106.78
461.337	3156.72
461.71	3214.35
462.083	3265.2
462.456	3236.04
462.829	3291.64
463.201	3376.83
463.574	3368.7
463.947	3411.63
464.32	3491.18
464.692	3504.96
465.065	3483.27
465.438	3568.69
465.81	3626.54
466.183	3663.6
466.555	3756.48
466.928	3786.99
467.3	3754.22
467.672	3838.97
468.045	3928.68
468.417	3889.36
468.789	3976.82
469.161	3999.64
469.534	4098.17
469.906	4137.26
470.278	4196.7
470.65	4196.25
471.022	4290.48
471.394	4385.85
471.766	4428.1
472.138	4466.07
472.51	4565.28
472.882	4622.45
473.253	4635.1
473.625	4739.96
473.997	4878.04
474.369	4878.49
474.74	4941.99
475.112	5089.1
475.484	5129.1
475.855	5227.63
476.227	5224.47
476.598	5387.4
476.97	5421.3
477.341	5562.31
477.713	5645.47
478.084	5683.89
478.455	5777.9
478.827	5856.09
479.198	5990.32
479.569	6060.6
479.94	6212.69
480.311	6255.4
480.682	6424.21
481.053	6507.82
481.424	6652.9
481.795	6706.01
482.166	6819.91
482.537	6849.74
482.908	7035.72
483.279	7119.78
483.65	7247.92
484.021	7398.2
484.391	7465.31
484.762	7510.51
485.133	7610.85
485.503	7703.5
485.874	7930.16
486.244	7972.64
486.615	8130.38
486.985	8191.85
487.356	8397.49
487.726	8428.45
488.097	8645.17
488.467	8677.94
488.837	8860.53
489.207	8883.35
489.578	9034.54
489.948	9060.75
490.318	9226.17
490.688	9321.08
491.058	9516.78
491.428	9561.98
491.798	9679.72
492.168	9834.29
492.538	9910.9
492.908	10051.23
493.278	10192.02
493.648	10167.39
494.017	10375.97
494.387	10417.55
494.757	10477.21
495.126	10636.08
495.496	10633.36
495.866	10764.66
496.235	10890.53
496.605	11003.75
496.974	11036.07
497.344	11178.43
497.713	11243.97
498.082	11262.5
498.452	11464.3
498.821	11498.88
499.19	11608.71
499.559	11707.23
499.928	11766.67
500.298	11787.01
500.667	12002.82
501.036	11958.08
501.405	12091.18
501.774	12181.57
502.143	12225.41
502.512	12289.37
502.88	12528.68
503.249	12506.08
503.618	12588.34
503.987	12654.1
504.356	12786.98
504.724	12902.46
505.093	12897.03
505.462	13008.44
505.83	13006.86
506.199	13213.18
506.567	13257.25
506.936	13302.67
507.304	13455.44
507.672	13611.14
508.041	13596.68
508.409	13813.62
508.777	13880.74
509.145	13927.06
509.514	14079.6
509.882	14133.61
510.25	14246.6
510.618	14291.8
510.986	14315.08
511.354	14595.29
511.722	14660.6
512.09	14818.34
512.458	14897.43
512.826	14993.48
513.193	15082.74
513.561	15140.36
513.929	15284.54
514.297	15390.08
514.664	15495.38
515.032	15605.66
515.4	15712.55
515.767	15830.97
516.135	15971.76
516.502	15837.52
516.869	16180.56
517.237	16212.43
517.604	16320.22
517.972	16402.03
518.339	16621.91
518.706	16762.69
519.073	16755.01
519.44	16863.94
519.808	17186.41
520.175	17013.99
520.542	17240.87
520.909	17515.22
521.276	17393.41
521.643	17683.35
522.009	17759.5
522.376	17976.45
522.743	18002.44
523.11	18224.35
523.477	18367.17
523.843	18588.18
524.21	18809.87
524.577	18862.98
524.943	18938
525.31	18994.05
525.676	19267.26
526.043	19382.96
526.409	19485.56
526.776	19678.55
527.142	19777.08
527.508	19951.76
527.874	20040.35
528.241	20170.74
528.607	20275.6
528.973	20424.07
529.339	20543.84
529.705	20675.59
530.071	20955.13
530.437	20890.72
530.803	21098.17
531.169	21268.79
531.535	21258.85
531.901	21355.79
532.267	21529.12
532.632	21704.26
532.998	21672.62
533.364	21844.6
533.73	21930.92
534.095	22088.66
534.461	22126.17
534.826	22287.3
535.192	22503.33
535.557	22484.13
535.923	22563.22
536.288	22705.36
536.653	22890.9
537.019	22710.34
537.384	22870.1
537.749	23028.52
538.114	23062.87
538.479	23277.33
538.845	23199.36
539.21	23216.08
539.575	23336.99
539.94	23524.78
540.305	23674.38
540.67	23710.31
541.034	23763.41
541.399	23825.79
541.764	23875.73
542.129	24100.81
542.494	24092.45
542.858	24159.56
543.223	24244.08
543.587	24345.55
543.952	24379.67
544.316	24446.79
544.681	24528.14
545.045	24607.01
545.41	24853.33
545.774	24833.44
546.138	24865.31
546.503	25026.21
546.867	24932.65
547.231	25109.37
547.595	25228.23
547.959	25300.1
548.324	25357.5
548.688	25440.21
549.052	25675.68
549.416	25652.63
549.779	25669.81
550.143	25770.37
550.507	25895.34
550.871	25954.54
551.235	26019.63
551.599	26227.98
551.962	26200.41
552.326	26412.61
552.689	26491.48
553.053	26336
553.417	26576.67
553.78	26892.6
554.143	26820.28
554.507	26918.36
554.87	26969.88
555.234	27255.75
555.597	27158.13
555.96	27226.83
556.323	27462.75
556.686	27572.58
557.05	27757.43
557.413	27662.07
557.776	27802.18
558.139	28042.4
558.502	28110.87
558.865	28175.05
559.228	28352.9
559.59	28518.09
559.953	28417.3
560.316	28793.11
560.679	28814.13
561.041	29008.47
561.404	29095.7
561.767	29264.96
562.129	29253.21
562.492	29552.64
562.854	29555.8
563.217	29622.92
563.579	29760.77
563.941	29892.29
564.304	29986.53
564.666	30182.68
565.028	30232.85
565.39	30387.87
565.753	30418.61
566.115	30554.87
566.477	30607.08
566.839	30762.55
567.201	30899.05
567.563	31085.26
567.925	31173.84
568.287	31304.91
568.648	31240.73
569.01	31507.84
569.372	31569.54
569.734	31522.53
570.095	31827.61
570.457	31886.59
570.819	32050.43
571.18	31940.83
571.542	32242.97
571.903	32334.26
572.265	32336.52
572.626	32434.6
572.987	32497.87
573.349	32615.61
573.71	32755.27
574.071	32675.5
574.432	32955.94
574.794	33178.76
575.155	33196.61
575.516	33055.37
575.877	33145.77
576.238	33211.3
576.599	33147.12
576.96	33274.58
577.32	33331.3
577.681	33466.44
578.042	33461.92
578.403	33538.3
578.763	33624.85
579.124	33686.54
579.485	33839.76
579.845	33871.62
580.206	33819.87
580.566	33848.57
580.927	33810.16
581.287	33928.8
581.648	33750.27
582.008	34037.95
582.368	33880.21
582.728	33873.88
583.089	33988.68
583.449	33988.68
583.809	33895.13
584.169	34024.16
584.529	33882.92
584.889	34276.58
585.249	34043.6
585.609	33915.69
585.969	34103.26
586.329	33989.59
586.688	34157.04
587.048	34112.97
587.408	33977.84
587.768	34022.13
588.127	34037.04
588.487	33947.78
588.846	34202.46
589.206	34008.57
589.565	34077.95
589.925	34250.37
590.284	34033.2
590.643	34105.06
591.003	34151.84
591.362	34204.27
591.721	34129.24
592.08	34115.46
592.44	34297.83
592.799	34261.67
593.158	34202.46
593.517	34191.84
593.876	34230.26
594.235	34160.2
594.593	34147.32
594.952	34251.05
595.311	34171.73
595.67	34175.57
596.029	34440.65
596.387	34356.36
596.746	34271.61
597.104	34227.32
597.463	34194.78
597.822	34352.06
598.18	34291.73
598.538	34278.84
598.897	34466.41
599.255	33992.52
599.613	34561.55
599.972	34369.46
600.33	34339.41
600.688	34264.83
601.046	34444.49
601.404	34601.32
601.762	34529.46
602.12	34689.46
602.478	34575.56
602.836	34505.73
603.194	34446.3
603.552	34397.49
603.91	34411.95
604.268	34578.27
604.625	34359.07
604.983	34551.83
605.341	34426.41
605.698	34540.53
606.056	34672.73
606.413	34533.3
606.771	34698.27
607.128	34707.31
607.485	34640.19
607.843	34650.13
608.2	34837.25
608.557	34792.96
608.914	34756.57
609.272	34957.92
609.629	35076.79
609.986	35068.88
610.343	34867.3
610.7	35281.53
611.057	35128.09
611.414	35199.05
611.771	35196.56
612.127	35281.76
612.484	35087.41
612.841	35265.71
613.198	35227.52
613.554	35310.46
613.911	35477.23
614.267	35540.51
614.624	35419.15
614.98	35301.87
615.337	35568.53
615.693	35604.23
616.05	35610.11
616.406	35770.78
616.762	35610.11
617.118	35517.68
617.475	35634.74
617.831	35716.09
618.187	35771.01
618.543	35691.69
618.899	35931.68
619.255	36001.74
619.611	35834.51
619.967	35951.57
620.323	36070.89
620.678	35912.7
621.034	35925.35
621.39	35869.99
621.746	35913.15
622.101	36280.37
622.457	35903.89
622.812	36225.91
623.168	36134.16
623.523	36015.52
623.879	36254.84
624.234	35884.45
624.589	36039.25
624.945	36147.04
625.3	36116.99
625.655	36139.81
626.01	36127.16
626.365	36083.99
626.72	35970.55
627.075	35968.07
627.43	36048.29
627.785	35878.8
628.14	35945.24
628.495	35936.65
628.85	35992.7
629.205	35757.45
629.559	36055.52
629.914	35934.62
630.269	35926.26
630.623	35860.27
630.978	35646.72
631.332	35935.3
631.687	35928.97
632.041	35915.64
632.396	35897.56
632.75	35590.67
633.104	35829.76
633.459	35604.23
633.813	35475.65
634.167	35462.09
634.521	35538.25
634.875	35543.9
635.229	35473.84
635.583	35272.26
635.937	35312.72
636.291	35259.61
636.645	35362.21
636.999	35213.28
637.352	35266.84
637.706	34962.44
638.06	35291.47
638.413	35012.84
638.767	35022.33
639.121	35101.42
639.474	34794.54
639.828	34783.24
640.181	34892.84
640.534	34832.73
640.888	34657.59
641.241	34459.63
641.594	34709.79
641.947	34689.91
642.301	34564.94
642.654	34458.27
643.007	34488.56
643.36	34458.05
643.713	34427.32
644.066	34498.05
644.419	34172.63
644.771	34000.43
645.124	33761.8
645.477	33578.07
645.83	33420.11
646.182	33429.15
646.535	33109.38
646.888	33373.33
647.24	33147.57
647.593	33356.38
647.945	33292.88
648.298	33035.71
648.65	33134.47
649.002	32938.09
649.355	33171.98
649.707	32974.7
650.059	33058.99
650.411	33348.93
650.763	33420.34
651.115	33803.6
651.467	33679.31
651.819	33600.44
652.171	33592.08
652.523	33493.55
652.875	33591.4
653.227	33348.47
653.578	33585.98
653.93	33492.42
654.282	33424.18
654.633	33287.91
654.985	33330.17
655.337	33394.12
655.688	33327.91
656.039	33509.83
656.391	33056.28
656.742	33147.12
657.094	33187.57
657.445	33234.58
657.796	33155.03
658.147	33062.83
658.498	33049.95
658.849	33071.42
659.2	32943.29
659.551	32932.21
659.902	32993
660.253	32939.67
660.604	32941.03
660.955	32635.95
661.306	32802.95
661.656	32718.66
662.007	32777.19
662.358	32827.36
662.708	32662.62
663.059	32518.66
663.409	32424.66
663.76	32646.57
664.11	32573.35
664.461	32578.55
664.811	32479.57
665.161	32409.74
665.511	32293.59
665.862	32160.48
666.212	32249.29
666.562	32205.68
666.912	32021.5
667.262	32009.3
667.612	32018.34
667.962	32010.43
668.312	31789.19
668.662	31836.42
669.011	31856.54
669.361	31703.54
669.711	31539.71
670.06	31393.95
670.41	31316.21
670.76	31317.57
671.109	31263.33
671.459	31246.83
671.808	31214.52
672.157	31232.82
672.507	30976.56
672.856	30955.09
673.205	30863.12
673.554	30982.66
673.904	30814.98
674.253	31127.51
674.602	30894.75
674.951	30352.17
675.3	30261.1
675.649	30753.29
675.998	30641.88
676.346	30580.64
676.695	30835.55
677.044	30563.01
677.393	30606.85
677.741	30637.13
678.09	30545.61
678.438	30376.8
678.787	30513.97
679.135	30524.59
679.484	30363.02
679.832	30513.29
680.181	30325.95
680.529	30464.71
680.877	30243.7
681.225	30309.91
681.573	30603.01
681.922	30264.49
682.27	30274.2
682.618	30372.05
682.966	30289.8
683.314	30429.91
683.661	30207.09
684.009	30189.01
684.357	30212.06
684.705	30139.52
685.053	30213.87
685.4	30176.35
685.748	30037.37
686.095	30096.81
686.443	29900.43
686.79	30064.04
687.138	30254.32
687.485	30121.89
687.832	30023.36
688.18	30156.01
688.527	29989.92
688.874	29984.95
689.221	29944.5
689.568	29977.49
689.915	29813.43
690.262	29862.69
690.609	29792.63
690.956	29770.71
691.303	29838.28
691.65	29722.58
691.997	29682.81
692.344	29645.52
692.69	29566.65
693.037	29569.82
693.383	29369.14
693.73	29504.73
694.077	29410.95
694.423	29342.03
694.769	29318.3
695.116	29431.51
695.462	29237.17
695.808	29151.52
696.155	29314.91
696.501	29171.63
696.847	29187.9
697.193	28919.66
697.539	29016.38
697.885	28800.57
698.231	28775.71
698.577	28709.5
698.923	28701.14
699.269	28564.19
699.614	28215.05
699.96	28356.06
700.306	28301.6
700.651	28302.5
700.997	28205.56
701.342	28182.28
701.688	28135.5
702.033	27925.11
702.379	28040.59
702.724	27815.96
703.069	27957.2
703.415	27537.33
703.76	27717.21
704.105	27702.29
704.45	27592.69
704.795	27290.33
705.14	27298.46
705.485	27194.28
705.83	27291.23
706.175	27315.86
706.52	27055.08
706.865	26960.62
707.209	27055.53
707.554	26953.16
707.899	27013.5
708.243	26873.62
708.588	26824.58
708.932	26642.89
709.277	26662.55
709.621	26672.94
709.966	26516.11
710.31	26511.82
710.654	26219.4
710.998	26375.55
711.342	26342.1
711.687	26357.24
712.031	26140.98
712.375	26139.17
712.719	26114.77
713.063	26026.18
713.407	26118.61
713.75	25846.75
714.094	25912.51
714.438	25823.7
714.782	25799.07
715.125	25831.83
715.469	25740.31
715.812	25543.03
716.156	25472.97
716.499	25521.56
716.843	25514.78
717.186	25310.72
717.53	25446.31
717.873	25430.94
718.216	25299.42
718.559	25202.02
718.902	25065.75
719.246	25153.66
719.589	25091.29
719.932	24906.89
720.275	25029.6
720.617	24947.56
720.96	24947.79
721.303	24845.42
721.646	24899.43
721.989	24787.34
722.331	24903.05
722.674	24698.76
723.016	24754.35
723.359	24649.95
723.701	24728.36
724.044	24463.51
724.386	24353.46
724.729	24523.62
725.071	24345.32
725.413	24481.81
725.755	24363.17
726.097	24293.34
726.439	24174.7
726.782	24194.36
727.124	24271.42
727.465	24205.21
727.807	24057.87
728.149	24057.19
728.491	23907.82
728.833	24103.07
729.175	23901.94
729.516	23911.21
729.858	23848.16
730.199	23852.9
730.541	23822.62
730.882	23809.06
731.224	23772.68
731.565	23568.39
731.906	23663.53
732.248	23585.79
732.589	23505.12
732.93	23548.73
733.271	23469.64
733.612	23479.13
733.953	23437.77
734.294	23412.46
734.635	23277.78
734.976	23327.04
735.317	23174.5
735.658	23230.1
735.999	23191.23
736.339	23183.54
736.68	23214.5
737.021	23195.52
737.361	22910.1
737.702	23084.34
738.042	22956.66
738.383	22979.48
738.723	22986.26
739.063	22847.96
739.404	22873.49
739.744	22817.68
740.084	22753.27
740.424	22711.24
740.764	22816.55
741.104	22778.81
741.444	22631.92
741.784	22523.45
742.124	22606.61
742.464	22569.32
742.804	22391.02
743.143	22398.25
743.483	22363
743.823	22321.19
744.162	22239.16
744.502	22252.27
744.841	22173.4
745.181	22287.75
745.52	22123.46
745.86	22104.02
746.199	22154.42
746.538	22000.07
746.877	22098.6
747.216	22106.51
747.556	22051.6
747.895	21990.35
748.234	21834.65
748.573	21799.4
748.911	21866.74
749.25	21778.16
749.589	21696.12
749.928	21790.36
750.267	21700.19
750.605	21611.61
750.944	21625.84
751.283	21426.08
751.621	21570.93
751.96	21433.98
752.298	21456.58
752.636	21403.48
752.975	21225.18
753.313	21275.57
753.651	21297.94
753.989	21123.48
