Data from White_paper_FLMS001491_054.txt Node
Date: Tue Feb 07 10:35:16 GMT 2017
User: dcchb
Spectrometer: FLMS00149
Trigger mode: 0
Integration Time (sec): 2.000000E-2
Scans to average: 10
Electric dark correction enabled: true
Nonlinearity correction enabled: false
Boxcar width: 0
XAxis mode: Wavelengths
Number of Pixels in Spectrum: 2048
>>>>>Begin Spectral Data<<<<<
341.393	-10.24
341.776	-10.24
342.16	-10.24
342.543	-55.44
342.927	-49.79
343.31	-86.4
343.693	-70.13
344.077	-71.48
344.46	-76.23
344.843	-46.85
345.226	-26.96
345.61	-33.06
345.993	-21.31
346.376	4
346.759	10.1
347.142	16.65
347.525	39.48
347.908	62.75
348.291	74.5
348.674	102.53
349.057	122.41
349.44	111.56
349.823	151.34
350.206	164.44
350.588	203.54
350.971	232.69
351.354	242.86
351.737	263.43
352.119	285.8
352.502	301.39
352.884	289.41
353.267	319.24
353.65	316.08
354.032	321.95
354.414	329.64
354.797	336.42
355.179	346.81
355.562	360.15
355.944	369.86
356.326	362.63
356.709	354.27
357.091	368.51
357.473	383.2
357.855	368.73
358.238	372.35
358.62	384.1
359.002	368.51
359.384	350.2
359.766	364.44
360.148	354.95
360.53	376.64
360.912	347.72
361.294	373.03
361.676	366.47
362.057	363.54
362.439	376.87
362.821	382.29
363.203	366.02
363.584	359.69
363.966	377.55
364.348	352.91
364.729	370.09
365.111	366.47
365.493	376.87
365.874	377.09
366.256	369.64
366.637	370.77
367.019	352.01
367.4	359.92
367.781	361.5
368.163	373.93
368.544	353.82
368.925	342.29
369.306	366.93
369.688	357.43
370.069	342.29
370.45	361.95
370.831	352.69
371.212	370.09
371.593	359.92
371.974	380.03
372.355	371.22
372.736	375.96
373.117	384.55
373.498	354.5
373.879	356.08
374.26	359.47
374.641	356.53
375.021	354.95
375.402	374.38
375.783	382.07
376.163	379.35
376.544	388.85
376.925	394.27
377.305	406.02
377.686	401.05
378.066	390.43
378.447	369.64
378.827	410.31
379.208	406.47
379.588	397.43
379.968	396.98
380.349	405.57
380.729	412.8
381.109	416.42
381.489	423.87
381.87	431.1
382.25	409.41
382.63	402.86
383.01	430.88
383.39	428.17
383.77	452.35
384.15	450.76
384.53	431.56
384.91	432.46
385.29	441.5
385.67	434.72
386.049	447.38
386.429	453.93
386.809	467.04
387.189	453.02
387.568	473.36
387.948	455.28
388.328	480.14
388.707	456.41
389.087	491.22
389.466	492.57
389.846	509.97
390.225	484.21
390.605	501.84
390.984	543.42
391.363	513.14
391.743	487.37
392.122	505
392.501	530.54
392.881	524.44
393.26	532.34
393.639	539.8
394.018	549.97
394.397	552.68
394.776	541.61
395.155	532.57
395.534	554.27
395.913	556.75
396.292	595.62
396.671	573.02
397.05	561.5
397.429	608.95
397.808	585
398.186	595.39
398.565	619.8
398.944	630.2
399.323	619.12
399.701	634.94
400.08	617.77
400.458	640.36
400.837	661.38
401.215	657.54
401.594	672.68
401.972	654.15
402.351	691.66
402.729	725.33
403.107	690.08
403.486	693.47
403.864	737.31
404.242	741.83
404.62	757.65
404.999	759.46
405.377	776.18
405.755	801.49
406.133	804.2
406.511	823.41
406.889	840.59
407.267	860.47
407.645	852.11
408.023	909.51
408.401	916.29
408.779	930.53
409.156	938.44
409.534	974.37
409.912	996.74
410.29	1043.97
410.667	1049.62
411.045	1097.08
411.422	1115.15
411.8	1134.81
412.178	1154.02
412.555	1204.19
412.933	1207.58
413.31	1282.61
413.687	1280.35
414.065	1296.62
414.442	1321.48
414.819	1355.6
415.197	1355.15
415.574	1428.37
415.951	1446.9
416.328	1469.5
416.705	1492.55
417.082	1499.32
417.46	1532.09
417.837	1561.7
418.214	1606.44
418.591	1647.57
418.967	1652.54
419.344	1649.15
419.721	1733.44
420.098	1736.61
420.475	1774.35
420.852	1809.15
421.228	1802.37
421.605	1824.74
421.982	1869.94
422.358	1909.03
422.735	1905.87
423.111	1926.88
423.488	1944.96
423.864	1970.73
424.241	2008.92
424.617	2044.17
424.994	2035.58
425.37	2127.78
425.746	2099.54
426.123	2158.06
426.499	2192.87
426.875	2187.22
427.251	2238.97
427.627	2287.1
428.003	2288.23
428.379	2362.35
428.756	2376.82
429.132	2395.57
429.507	2464.27
429.883	2462.46
430.259	2512.18
430.635	2558.51
431.011	2576.81
431.387	2618.17
431.763	2713.3
432.138	2757.15
432.514	2764.83
432.89	2781.1
433.265	2860.19
433.641	2901.1
434.016	2918.95
434.392	2934.09
434.767	3021.32
435.143	3006.4
435.518	3051.15
435.894	3114.2
436.269	3178.83
436.644	3212.95
437.02	3202.78
437.395	3268.77
437.77	3312.61
438.145	3353.74
438.52	3355.77
438.895	3394.42
439.271	3457.92
439.646	3530.46
440.021	3526.84
440.395	3569.55
440.77	3533.17
441.145	3557.8
441.52	3650.91
441.895	3597.8
442.27	3678.02
442.645	3669.21
443.019	3775.2
443.394	3730.68
443.769	3772.03
444.143	3782.65
444.518	3819.72
444.892	3819.94
445.267	3881.86
445.641	3905.36
446.016	3951.24
446.39	3934.29
446.764	3987.85
447.139	4022.42
447.513	4056.55
447.887	4098.13
448.262	4051.8
448.636	4102.87
449.01	4118.24
449.384	4195.75
449.758	4162.08
450.132	4271.46
450.506	4302.64
450.88	4320.04
451.254	4319.59
451.628	4357.55
452.002	4412.69
452.376	4430.32
452.75	4461.28
453.123	4514.61
453.497	4557.78
453.871	4645.91
454.244	4732.69
454.618	4766.36
454.992	4826.24
455.365	4809.52
455.739	4922.06
456.112	5035.73
456.486	5008.61
456.859	5089.29
457.232	5210.87
457.606	5134.94
457.979	5259
458.352	5382.84
458.725	5459.45
459.099	5420.58
459.472	5557.52
459.845	5588.26
460.218	5657.18
460.591	5678.42
460.964	5718.42
461.337	5933.56
461.71	5978.53
462.083	6028.92
462.456	6023.95
462.829	6108.47
463.201	6149.82
463.574	6167
463.947	6348.46
464.32	6479.53
464.692	6503.49
465.065	6502.81
465.438	6622.35
465.81	6753.88
466.183	6814.89
466.555	6966.3
466.928	6972.85
467.3	6968.56
467.672	7104.6
468.045	7344.37
468.417	7317.93
468.789	7415.1
469.161	7542.33
469.534	7693.96
469.906	7771.02
470.278	7838.82
470.65	7962.21
471.022	8157.68
471.394	8314.06
471.766	8312.25
472.138	8413.27
472.51	8580.27
472.882	8734.39
473.253	8820.71
473.625	8959.24
473.997	9188.84
474.369	9175.51
474.74	9300.48
475.112	9405.56
475.484	9596.51
475.855	9757.41
476.227	9813
476.598	10120.79
476.97	10215.25
477.341	10382.03
477.713	10512.2
478.084	10648.46
478.455	10951.05
478.827	10989.24
479.198	11346.75
479.569	11380.2
479.94	11654.09
480.311	11777.47
480.682	12075.09
481.053	12325.93
481.424	12489.77
481.795	12609.09
482.166	12801.17
482.537	12976.76
482.908	13213.14
483.279	13377.43
483.65	13540.14
484.021	13891.99
484.391	14003.85
484.762	14098.54
485.133	14269.84
485.503	14482.26
485.874	14884.51
486.244	14909.14
486.615	15116.37
486.985	15382.35
487.356	15663.7
487.726	15782.79
488.097	16103.01
488.467	16156.34
488.837	16549.78
489.207	16649.21
489.578	16877.23
489.948	17086.26
490.318	17310.43
490.688	17399.47
491.058	17616.87
491.428	17766.69
491.798	18042.62
492.168	18287.81
492.538	18359.22
492.908	18646.44
493.278	18888.47
493.648	18875.14
494.017	19213.44
494.387	19286.88
494.757	19452.07
495.126	19634.44
495.496	19701.33
495.866	19890.25
496.235	20156.46
496.605	20227.65
496.974	20403.01
497.344	20620.63
497.713	20673.28
498.082	20834.64
498.452	21045.7
498.821	21158.47
499.19	21145.14
499.559	21464.45
499.928	21556.42
500.298	21706.7
500.667	21940.6
501.036	21878.68
501.405	21974.94
501.774	22180.36
502.143	22386.91
502.512	22335.84
502.88	22655.38
503.249	22660.35
503.618	22927.24
503.987	22963.62
504.356	23101.69
504.724	23234.35
505.093	23261.46
505.462	23465.53
505.83	23678.85
506.199	23844.27
506.567	24215.56
506.936	24107.09
507.304	24372.17
507.672	24515.22
508.041	24624.14
508.409	24764.25
508.777	24996.56
509.145	25135.99
509.514	25278.13
509.882	25440.39
510.25	25393.84
510.618	25709.76
510.986	25751.57
511.354	25969.42
511.722	26126.47
512.09	26400.14
512.458	26559.01
512.826	26715.84
513.193	26855.27
513.561	26909.96
513.929	27209.84
514.297	27371.19
514.664	27570.5
515.032	27530.73
515.4	27901.57
515.767	28082.35
516.135	28209.36
516.502	28174.33
516.869	28640.98
517.237	28713.07
517.604	28578.16
517.972	28946.06
518.339	29254.53
518.706	29260.63
519.073	29377.46
519.44	29599.38
519.808	29913.27
520.175	29953.49
520.542	30238
520.909	30476.42
521.276	30496.3
521.643	30848.16
522.009	31062.16
522.376	31258.99
522.743	31423.06
523.11	31717.97
523.477	31974.91
523.843	32214.45
524.21	32549.36
524.577	32639.3
524.943	32795.45
525.31	32947.09
525.676	33334.87
526.043	33484.25
526.409	33601.31
526.776	34037.9
527.142	34085.13
527.508	34143.66
527.874	34493.03
528.241	34708.85
528.607	34757.89
528.973	35132.56
529.339	35236.97
529.705	35559.67
530.071	35707.01
530.437	35946.33
530.803	36057.74
531.169	36422.47
531.535	36320.78
531.901	36506.09
532.267	36692.52
532.632	36950.37
532.998	37073.08
533.364	37228.33
533.73	37320.98
534.095	37692.05
534.461	37763.68
534.826	37947.18
535.192	37988.31
535.557	38276.44
535.923	38308.07
536.288	38476.66
536.653	38669.2
537.019	38836.42
537.384	38875.52
537.749	39099.92
538.114	39212.01
538.479	39272.8
538.845	39397.76
539.21	39470.08
539.575	39630.3
539.94	39761.14
540.305	40084.07
540.67	39897.19
541.034	40212.43
541.399	40404.06
541.764	40472.54
542.129	40592.08
542.494	40784.17
542.858	40894.45
543.223	41081.11
543.587	41181.9
543.952	41205.85
544.316	41528.55
544.681	41438.84
545.045	41707.76
545.41	41952.05
545.774	41860.98
546.138	42120.4
546.503	42095.09
546.867	42198.59
547.231	42463.45
547.595	42675.87
547.959	42733.72
548.324	42871.8
548.688	42948.18
549.052	43088.74
549.416	43098.91
549.779	43212.35
550.143	43253.93
550.507	43614.6
550.871	43820.02
551.235	43776.41
551.599	44092.33
551.962	44123.51
552.326	44171.88
552.689	44605.54
553.053	44456.39
553.417	44449.38
553.78	45011.63
554.143	44870.61
554.507	45218.85
554.87	45356.93
555.234	45585.62
555.597	45336.59
555.96	45538.17
556.323	45800.98
556.686	45857.03
557.05	46070.81
557.413	46157.13
557.776	46300.86
558.139	46529.1
558.502	46537.91
558.865	46708.98
559.228	47038.24
559.59	47164.79
559.953	47109.43
560.316	47646.13
560.679	47583.54
561.041	47740.82
561.404	47979.68
561.767	48207.25
562.129	48030.98
562.492	48468.03
562.854	48353.46
563.217	48529.73
563.579	48644.3
563.941	48898.08
564.304	49083.16
564.666	49327.22
565.028	49300.1
565.39	49523.6
565.753	49645.63
566.115	49766.76
566.477	49970.82
566.839	50122.91
567.201	50371.26
567.563	50310.02
567.925	50545.94
568.287	50625.49
568.648	50707.52
569.01	50837.01
569.372	51097.34
569.734	50950.91
570.095	51217.11
570.457	51405.36
570.819	51364.68
571.18	51515.64
571.542	51737.78
571.903	51763.09
572.265	51927.38
572.626	51891.45
572.987	52114.04
573.349	52076.53
573.71	52201.27
574.071	52339.12
574.432	52488.27
574.794	52595.61
575.155	52667.7
575.516	52578.66
575.877	52758.32
576.238	52792.89
576.599	52895.49
576.96	52965.77
577.32	53004.64
577.681	53198.76
578.042	53261.81
578.403	53233.56
578.763	53358.75
579.124	53408.47
579.485	53541.8
579.845	53627.67
580.206	53565.07
580.566	53568.24
580.927	53621.8
581.287	53731.4
581.648	53667.9
582.008	53737.27
582.368	53744.96
582.728	53883.03
583.089	53792.41
583.449	53853.88
583.809	53896.37
584.169	53998.06
584.529	53968.68
584.889	54153.08
585.249	54078.28
585.609	53900.89
585.969	54148.11
586.329	54029.47
586.688	54137.26
587.048	54099.52
587.408	54083.48
587.768	54103.37
588.127	54055.23
588.487	54148.79
588.846	54434.66
589.206	54096.59
589.565	54208.9
589.925	54243.25
590.284	54162.57
590.643	54291.84
591.003	54277.82
591.362	54462.68
591.721	54349.01
592.08	54464.94
592.44	54503.81
592.799	54543.58
593.158	54439.85
593.517	54472.17
593.876	54536.35
594.235	54457.25
594.593	54536.8
594.952	54618.38
595.311	54505.39
595.67	54597.82
596.029	54790.35
596.387	54741.77
596.746	54808.43
597.104	54683.01
597.463	54606.86
597.822	54759.85
598.18	54690.02
598.538	54705.16
598.897	54862.44
599.255	54604.14
599.613	55124.13
599.972	54861.31
600.33	54998.26
600.688	54876.45
601.046	54992.61
601.404	55008.2
601.762	55036.22
602.12	55144.47
602.478	55061.98
602.836	55136.78
603.194	55032.38
603.552	55048.43
603.91	55018.37
604.268	55115.32
604.625	55090.01
604.983	55219.95
605.341	55136.33
605.698	55290.9
606.056	55259.72
606.413	55223.11
606.771	55351.24
607.128	55288.42
607.485	55244.58
607.843	55346.5
608.2	55442.54
608.557	55505.36
608.914	55459.49
609.272	55551.01
609.629	55595.98
609.986	55614.29
610.343	55496.32
610.7	55686.37
611.057	55638.24
611.414	55620.61
611.771	55678.01
612.127	55772.25
612.484	55738.12
612.841	55817.67
613.198	55756.88
613.554	55723.89
613.911	55871
614.267	55914.84
614.624	55867.16
614.98	55917.33
615.337	55991.9
615.693	55987.84
616.05	55959.14
616.406	56065.35
616.762	56001.62
617.118	55971.34
617.475	55982.86
617.831	56115.29
618.187	56111.45
618.543	56087.49
618.899	56264.66
619.255	56235.29
619.611	56188.06
619.967	56249.98
620.323	56303.99
620.678	56173.37
621.034	56188.28
621.39	56201.62
621.746	56181.95
622.101	56467.37
622.457	56181.05
622.812	56262.18
623.168	56378.79
623.523	56326.58
623.879	56385.57
624.234	56215.63
624.589	56276.19
624.945	56389.41
625.3	56350.76
625.655	56326.81
626.01	56356.87
626.365	56309.18
626.72	56379.24
627.075	56294.04
627.43	56291.56
627.785	56261.27
628.14	56346.47
628.495	56362.06
628.85	56276.19
629.205	56268.51
629.559	56373.14
629.914	56298.79
630.269	56341.27
630.623	56210.65
630.978	56228.96
631.332	56327.49
631.687	56388.5
632.041	56263.76
632.396	56324.55
632.75	56175.4
633.104	56270.99
633.459	56092.47
633.813	56093.82
634.167	56129.08
634.521	56153.93
634.875	56130.88
635.229	56024.67
635.583	55947.84
635.937	55973.15
636.291	55949.64
636.645	56059.92
636.999	55886.14
637.352	55970.66
637.706	55875.97
638.06	56061.28
638.413	55938.12
638.767	55808.86
639.121	55981.96
639.474	55863.55
639.828	55781.51
640.181	55859.93
640.534	55881.17
640.888	55752.59
641.241	55671.91
641.594	55763.66
641.947	55808.18
642.301	55676.21
642.654	55780.16
643.007	55738.12
643.36	55760.27
643.713	55601.18
644.066	55816.31
644.419	55623.33
644.771	55388.98
645.124	55063.11
645.477	55177.69
645.83	54975.43
646.182	54914.64
646.535	54812.27
646.888	54851.59
647.24	54727.98
647.593	54899.5
647.945	54790.35
648.298	54710.81
648.65	54669.23
649.002	54589.23
649.355	54735.21
649.707	54689.11
650.059	54805.04
650.411	55194.18
650.763	55156.45
651.115	55459.71
651.467	55318.7
651.819	55395.99
652.171	55359.83
652.523	55243.9
652.875	55198.7
653.227	55144.69
653.578	55315.09
653.93	55313.5
654.282	55161.19
654.633	55067.86
654.985	55145.15
655.337	55139.72
655.688	55147.18
656.039	55177.69
656.391	55040.06
656.742	55032.15
657.094	55057.92
657.445	55126.62
657.796	55035.09
658.147	55045.94
658.498	55036.67
658.849	55080.29
659.2	55058.59
659.551	54916
659.902	54997.81
660.253	54933.4
660.604	55006.17
660.955	54882.1
661.306	54983.57
661.656	54901.54
662.007	54931.14
662.358	54939.95
662.708	54864.25
663.059	54866.51
663.409	54749.45
663.76	54954.87
664.11	54769.34
664.461	54857.92
664.811	54820.18
665.161	54850.69
665.511	54806.85
665.862	54803.23
666.212	54865.38
666.562	54804.36
666.912	54761.43
667.262	54713.52
667.612	54680.3
667.962	54784.48
668.312	54710.13
668.662	54782.67
669.011	54671.49
669.361	54637.36
669.711	54550.13
670.06	54546.52
670.41	54573.18
670.76	54485.73
671.109	54650.47
671.459	54573.18
671.808	54499.74
672.157	54563.47
672.507	54403.02
672.856	54286.41
673.205	54392.17
673.554	54453.86
673.904	54311.5
674.253	54525.28
674.602	54494.99
674.951	53930.71
675.3	53901.11
675.649	54238.05
675.998	54172.74
676.346	54202.12
676.695	54312.63
677.044	54078.06
677.393	54178.17
677.741	54182.69
678.09	54038.73
678.438	53996.93
678.787	54085.29
679.135	54073.08
679.484	53790.15
679.832	53921
680.181	53718.52
680.529	53823.6
680.877	53715.13
681.225	53669.7
681.573	53882.13
681.922	53664.28
682.27	53544.28
682.618	53576.6
682.966	53434.91
683.314	53497.05
683.661	53412.08
684.009	53283.5
684.357	53241.92
684.705	53231.3
685.053	53177.29
685.4	53110.62
685.748	52932.32
686.095	52926
686.443	52837.18
686.79	52798.99
687.138	52848.94
687.485	52790.18
687.832	52553.8
688.18	52695.49
688.527	52475.61
688.874	52495.72
689.221	52396.97
689.568	52314.71
689.915	52208.5
690.262	52130.54
690.609	52128.5
690.956	51959.47
691.303	51911.33
691.65	51804.22
691.997	51731.22
692.344	51500.5
692.69	51552.47
693.037	51563.09
693.383	51265.25
693.73	51373.49
694.077	51162.88
694.423	51231.58
694.769	51137.34
695.116	50979.83
695.462	50956.1
695.808	50858.48
696.155	50900.74
696.501	50689.9
696.847	50705.71
697.193	50325.39
697.539	50614.42
697.885	50314.76
698.231	50106.18
698.577	50179.4
698.923	50073.64
699.269	49915.68
699.614	49776.25
699.96	49755.46
700.306	49713.42
700.651	49463.04
700.997	49323.6
701.342	49351.85
701.688	49394.56
702.033	49086.77
702.379	49224.62
702.724	48974.01
703.069	49045.65
703.415	48669.84
703.76	48753.45
704.105	48746.22
704.45	48558.2
704.795	48448.37
705.14	48230.07
705.485	48225.1
705.83	48062.85
706.175	48174.71
706.52	47996.18
706.865	47815.85
707.209	47793.93
707.554	47696.3
707.899	47790.54
708.243	47472.58
708.588	47563.2
708.932	47298.12
709.277	47260.38
709.621	47239.37
709.966	46958.02
710.31	46999.6
710.654	46687.06
710.998	46916.89
711.342	46804.12
711.687	46611.36
712.031	46713.28
712.375	46323.23
712.719	46523.45
713.063	46338.15
713.407	46511.7
713.75	46156.23
714.094	46233.06
714.438	45981.77
714.782	46147.19
715.125	45908.55
715.469	45906.52
715.812	45713.08
716.156	45501.78
716.499	45650.48
716.843	45605.28
717.186	45349.92
717.53	45508.56
717.873	45390.83
718.216	45304.95
718.559	45127.78
718.902	44939.54
719.246	45165.07
719.589	44948.13
719.932	44704.74
720.275	44828.36
720.617	44764.4
720.96	44662.26
721.303	44493.45
721.646	44584.75
721.989	44399.89
722.331	44484.18
722.674	44281.7
723.016	44398.99
723.359	44159.45
723.701	44258.65
724.044	43919.9
724.386	43783.86
724.729	43924.2
725.071	43851.88
725.413	43850.3
725.755	43658.22
726.097	43591.78
726.439	43342.29
726.782	43557.43
727.124	43600.82
727.465	43347.72
727.807	43334.38
728.149	43378.9
728.491	43180.26
728.833	43216.42
729.175	43009.65
729.516	42964.9
729.858	42845.58
730.199	43005.13
730.541	42849.42
730.882	42878.12
731.224	42805.58
731.565	42746.38
731.906	42669.09
732.248	42688.98
732.589	42489.89
732.93	42351.81
733.271	42327.63
733.612	42384.58
733.953	42337.8
734.294	42160.18
734.635	42259.61
734.976	42263.22
735.317	42092.61
735.658	42058.48
735.999	42020.29
736.339	41902.1
736.68	42095.55
737.021	41694.88
737.361	41670.02
737.702	41898.49
738.042	41682.22
738.383	41649.91
738.723	41707.08
739.063	41594.32
739.404	41492.85
739.744	41557.71
740.084	41313.42
740.424	41366.98
740.764	41231.16
741.104	41274.78
741.444	41018.96
741.784	40980.77
742.124	41119.53
742.464	41026.65
742.804	40810.83
743.143	40868.01
743.483	40928.8
743.823	40738.07
744.162	40779.87
744.502	40718.41
744.841	40488.58
745.181	40644.28
745.52	40416.49
745.86	40597.96
746.199	40358.42
746.538	40268.93
746.877	40352.09
747.216	40282.03
747.556	40224.18
747.895	40314.58
748.234	40061.02
748.573	40002.27
748.911	39994.81
749.25	39938.31
749.589	39801.14
749.928	39780.13
750.267	39910.74
750.605	39713.46
750.944	39537.65
751.283	39480.93
751.621	39565.44
751.96	39290.42
752.298	39285.68
752.636	39299.69
752.975	39028.96
