Data from white_wall_FLMS001491_055.txt Node
Date: Tue Feb 07 11:04:58 GMT 2017
User: dcchb
Spectrometer: FLMS00149
Trigger mode: 0
Integration Time (sec): 2.000000E-2
Scans to average: 10
Electric dark correction enabled: true
Nonlinearity correction enabled: false
Boxcar width: 0
XAxis mode: Wavelengths
Number of Pixels in Spectrum: 2048
>>>>>Begin Spectral Data<<<<<
341.393	-16.65
341.776	-16.65
342.16	-16.65
342.543	-67.05
342.927	-73.6
343.31	-68.63
343.693	-80.83
344.077	-74.73
344.46	-53.04
344.843	-45.8
345.226	-29.99
345.61	-33.15
345.993	-29.99
346.376	-1.29
346.759	1.2
347.142	27.87
347.525	30.35
347.908	61.09
348.291	95.66
348.674	100.63
349.057	100.63
349.44	142.44
349.823	139.5
350.206	165.04
350.588	201.42
350.971	213.17
351.354	230.35
351.737	227.41
352.119	246.17
352.502	251.59
352.884	281.87
353.267	283.68
353.65	306.5
354.032	315.54
354.414	309.22
354.797	313.06
355.179	316.9
355.562	339.04
355.944	361.64
356.326	341.98
356.709	330.46
357.091	364.58
357.473	352.83
357.855	336.56
358.238	335.43
358.62	332.49
359.002	333.85
359.384	350.34
359.766	353.73
360.148	343.34
360.53	355.77
360.912	328.65
361.294	346.05
361.676	330.01
362.057	336.56
362.439	349.67
362.821	330.23
363.203	337.01
363.584	323.23
363.966	350.34
364.348	331.59
364.729	325.71
365.111	311.93
365.493	351.02
365.874	320.97
366.256	317.58
366.637	311.25
367.019	314.19
367.4	312.38
367.781	319.61
368.163	344.47
368.544	323.68
368.925	310.57
369.306	327.97
369.688	307.86
370.069	317.8
370.45	332.94
370.831	321.87
371.212	341.98
371.593	340.85
371.974	313.96
372.355	322.55
372.736	326.39
373.117	325.71
373.498	330.01
373.879	306.96
374.26	343.34
374.641	329.33
375.021	323.68
375.402	330.01
375.783	332.04
376.163	324.81
376.544	339.5
376.925	353.96
377.305	296.56
377.686	334.3
378.066	344.02
378.447	337.24
378.827	332.72
379.208	331.81
379.588	345.15
379.968	366.84
380.349	345.6
380.729	352.6
381.109	344.92
381.489	359.84
381.87	347.41
382.25	365.26
382.63	348.54
383.01	357.8
383.39	358.48
383.77	383.56
384.15	352.6
384.53	383.56
384.91	376.56
385.29	358.25
385.67	351.47
386.049	386.73
386.429	371.59
386.809	358.93
387.189	373.17
387.568	360.74
387.948	383.11
388.328	369.55
388.707	394.86
389.087	377.69
389.466	400.29
389.846	403.9
390.225	404.35
390.605	414.97
390.984	420.85
391.363	412.26
391.743	421.75
392.122	410.23
392.501	413.85
392.881	424.69
393.26	432.83
393.639	439.61
394.018	431.7
394.397	440.51
394.776	432.83
395.155	448.65
395.534	450.68
395.913	452.49
396.292	460.85
396.671	490.45
397.05	470.34
397.429	500.4
397.808	488.19
398.186	506.27
398.565	502.66
398.944	519.15
399.323	503.33
399.701	531.81
400.08	536.1
400.458	542.2
400.837	548.53
401.215	559.38
401.594	585.37
401.972	558.25
402.351	574.74
402.729	582.2
403.107	585.37
403.486	608.19
403.864	604.57
404.242	613.16
404.62	649.09
404.999	602.99
405.377	628.08
405.755	638.02
406.133	648.19
406.511	681.41
406.889	678.47
407.267	691.35
407.645	714.85
408.023	703.1
408.401	712.59
408.779	720.96
409.156	738.58
409.534	758.69
409.912	777.23
410.29	779.03
410.667	769.77
411.045	809.99
411.422	811.8
411.8	814.96
412.178	827.39
412.555	856.32
412.933	850.44
413.31	867.17
413.687	883.21
414.065	868.07
414.442	913.49
414.819	918.92
415.197	937.22
415.574	941.74
415.951	907.17
416.328	936.32
416.705	936.54
417.082	951.68
417.46	962.98
417.837	972.7
418.214	1027.61
418.591	1038.01
418.967	1000.95
419.344	1012.25
419.721	1042.53
420.098	1037.78
420.475	1069.2
420.852	1088.63
421.228	1047.95
421.605	1084.34
421.982	1107.61
422.358	1088.4
422.735	1121.17
423.111	1139.93
423.488	1133.6
423.864	1148.29
424.241	1178.8
424.617	1183.32
424.994	1204.78
425.37	1193.94
425.746	1214.95
426.123	1231.22
426.499	1231.68
426.875	1270.09
427.251	1282.07
427.627	1302.18
428.003	1298.57
428.379	1330.43
428.756	1327.95
429.132	1353.71
429.507	1362.07
429.883	1374.27
430.259	1425.12
430.635	1408.17
431.011	1415.4
431.387	1456.98
431.763	1498.34
432.138	1505.57
432.514	1493.82
432.89	1531.33
433.265	1545.34
433.641	1566.36
434.016	1557.09
434.392	1599.35
434.767	1632.8
435.143	1645.68
435.518	1638.67
435.894	1660.14
436.269	1672.79
436.644	1747.82
437.02	1759.12
437.395	1751.44
437.77	1746.92
438.145	1800.48
438.52	1812.45
438.895	1820.59
439.271	1800.7
439.646	1854.26
440.021	1900.81
440.395	1888.16
440.77	1872.79
441.145	1898.78
441.52	1943.07
441.895	1940.13
442.27	1976.06
442.645	1967.25
443.019	2014.03
443.394	1995.05
443.769	2012.22
444.143	2013.8
444.518	2007.7
444.892	2066.68
445.267	2080.47
445.641	2082.28
446.016	2089.96
446.39	2120.92
446.764	2153.23
447.139	2146
447.513	2134.03
447.887	2176.96
448.262	2218.54
448.636	2201.37
449.01	2208.83
449.384	2281.37
449.758	2265.1
450.132	2296.96
450.506	2325.43
450.88	2352.78
451.254	2323.85
451.628	2367.92
452.002	2360.91
452.376	2403.4
452.75	2444.75
453.123	2446.33
453.497	2486.11
453.871	2517.07
454.244	2545.77
454.618	2552.55
454.992	2608.36
455.365	2613.34
455.739	2654.46
456.112	2737.85
456.486	2708.47
456.859	2726.33
457.232	2834.12
457.606	2781.47
457.979	2875.48
458.352	2929.26
458.725	2925.87
459.099	2962.25
459.472	3026.66
459.845	3038.63
460.218	3071.18
460.591	3130.84
460.964	3101.91
461.337	3193.66
461.71	3248.35
462.083	3262.81
462.456	3296.26
462.829	3334.22
463.201	3361.79
463.574	3403.6
463.947	3440.21
464.32	3498.06
464.692	3542.35
465.065	3562.46
465.438	3643.36
465.81	3691.95
466.183	3709.8
466.555	3791.84
466.928	3796.81
467.3	3811.95
467.672	3884.04
468.045	3985.28
468.417	3971.94
468.789	4017.82
469.161	4065.5
469.534	4165.84
469.906	4281.99
470.278	4276.57
470.65	4310.01
471.022	4379.16
471.394	4480.4
471.766	4493.74
472.138	4557.92
472.51	4659.16
472.882	4755.2
473.253	4838.59
473.625	4861.19
473.997	4993.39
474.369	5021.86
474.74	5074.51
475.112	5168.75
475.484	5256.88
475.855	5361.74
476.227	5411.45
476.598	5567.83
476.97	5608.06
477.341	5688.73
477.713	5790.2
478.084	5780.94
478.455	6009.4
478.827	6053.7
479.198	6240.36
479.569	6234.48
479.94	6443.52
480.311	6463.86
480.682	6636.96
481.053	6777.07
481.424	6910.62
481.795	6969.38
482.166	7098.64
482.537	7186.55
482.908	7252.76
483.279	7353.1
483.65	7530.72
484.021	7646.2
484.391	7771.62
484.762	7815.01
485.133	7895.91
485.503	8043.02
485.874	8241.21
486.244	8284.37
486.615	8402.79
486.985	8493.86
487.356	8695.21
487.726	8760.52
488.097	8991.25
488.467	8968.65
488.837	9198.7
489.207	9284.35
489.578	9491.57
489.948	9501.97
490.318	9697.22
490.688	9755.07
491.058	9949.64
491.428	10020.6
491.798	10108.51
492.168	10341.27
492.538	10442.28
492.908	10512.34
493.278	10643.63
493.648	10717.75
494.017	10833.23
494.387	10906.68
494.757	11001.82
495.126	11155.03
495.496	11102.15
495.866	11317.06
496.235	11383.5
496.605	11563.16
496.974	11597.28
497.344	11708.01
497.713	11754.34
498.082	11872.75
498.452	11987.78
498.821	12110.94
499.19	12129.7
499.559	12250.82
499.928	12332.85
500.298	12461.44
500.667	12654.2
501.036	12620.08
501.405	12717.93
501.774	12762.45
502.143	12896.91
502.512	12982.78
502.88	13170.12
503.249	13164.02
503.618	13257.35
503.987	13385.71
504.356	13528.08
504.724	13459.15
505.093	13567.62
505.462	13683.33
505.83	13786.37
506.199	13934.85
506.567	14214.84
506.936	14138
507.304	14272.01
507.672	14415.96
508.041	14478.79
508.409	14573.25
508.777	14563.98
509.145	14765.56
509.514	14778.21
509.882	15039
510.25	14989.73
510.618	15135.94
510.986	15223.63
511.354	15408.03
511.722	15467.91
512.09	15629.04
512.458	15563.73
512.826	15782.93
513.193	15921.23
513.561	16025.64
513.929	16033.55
514.297	16275.12
514.664	16342.69
515.032	16514.44
515.4	16621.55
515.767	16784.71
516.135	16727.31
516.502	16752.85
516.869	17123.91
517.237	17204.82
517.604	17163.69
517.972	17337.47
518.339	17525.49
518.706	17579.5
519.073	17708.76
519.44	17860.62
519.808	17927.96
520.175	17911.46
520.542	18245.24
520.909	18336.76
521.276	18343.77
521.643	18619.24
522.009	18758.22
522.376	18845.68
522.743	19085.44
523.11	19232.11
523.477	19320.92
523.843	19510.52
524.21	19577.41
524.577	19908.47
524.943	19885.42
525.31	19955.93
525.676	20159.99
526.043	20289.48
526.409	20410.16
526.776	20656.25
527.142	20787.55
527.508	20851.73
527.874	20895.79
528.241	21099.85
528.607	21184.15
528.973	21484.93
529.339	21478.15
529.705	21648.99
530.071	21815.32
530.437	21940.06
530.803	21963.56
531.169	22027.74
531.535	22124.46
531.901	22284.46
532.267	22413.94
532.632	22575.75
532.998	22659.14
533.364	22726.03
533.73	22937.09
534.095	23010.54
534.461	23088.73
534.826	23275.39
535.192	23323.75
535.557	23526.23
535.923	23472.45
536.288	23508.61
536.653	23785.89
537.019	23768.71
537.384	23870.63
537.749	23976.62
538.114	24056.39
538.479	24216.83
538.845	24323.5
539.21	24243.05
539.575	24427.9
539.94	24444.17
540.305	24672.64
540.67	24637.39
541.034	24772.3
541.399	24828.57
541.764	25004.38
542.129	24989.02
542.494	25083.03
542.858	25174.78
543.223	25292.96
543.587	25362.57
543.952	25531.6
544.316	25419.52
544.681	25514.2
545.045	25773.63
545.41	25932.5
545.774	25810.47
546.138	26068.76
546.503	26164.35
546.867	26155.99
547.231	26488.87
547.595	26468.98
547.959	26693.61
548.324	26588.07
548.688	26813.6
549.052	26855.41
549.416	26893.37
549.779	27079.58
550.143	27178.79
550.507	27323.19
550.871	27463.76
551.235	27465.79
551.599	27694.48
551.962	27808.38
552.326	27870.07
552.689	28038.88
553.053	28065.55
553.417	28096.96
553.78	28547.34
554.143	28421.47
554.507	28584.63
554.87	28636.38
555.234	28976.26
555.597	28736.49
555.96	29025.52
556.323	29049.02
556.686	29297.61
557.05	29473.65
557.413	29587.32
557.776	29646.97
558.139	29844.48
558.502	30074.76
558.865	30002.45
559.228	30298.03
559.59	30371.48
559.953	30358.82
560.316	30792.71
560.679	30778.02
561.041	30896.43
561.404	31147.73
561.767	31305.91
562.129	31346.37
562.492	31576.64
562.854	31507.94
563.217	31590.43
563.579	31718.11
563.941	31922.85
564.304	32117.64
564.666	32344.76
565.028	32349.73
565.39	32542.04
565.753	32665.43
566.115	32812.54
566.477	32970.73
566.839	33006.89
567.201	33118.07
567.563	33300.21
567.925	33532.97
568.287	33696.13
568.648	33675.34
569.01	33806.87
569.372	33973.64
569.734	33899.29
570.095	34243.01
570.457	34236.91
570.819	34418.6
571.18	34360.3
571.542	34538.82
571.903	34617.47
572.265	34820.17
572.626	34881.64
572.987	35019.49
573.349	35007.51
573.71	35096.32
574.071	35304.45
574.432	35348.52
574.794	35730.43
575.155	35595.97
575.516	35548.97
575.877	35724.33
576.238	35702.63
576.599	35842.29
576.96	35924.55
577.32	36000.03
577.681	36056.75
578.042	36327.7
578.403	36200.47
578.763	36218.33
579.124	36175.62
579.485	36319.12
579.845	36517.98
580.206	36459.45
580.566	36399.34
580.927	36378.55
581.287	36581.93
581.648	36329.06
582.008	36659.67
582.368	36619.9
582.728	36683.85
583.089	36640.01
583.449	36545.32
583.809	36765.43
584.169	36758.43
584.529	36725.43
584.889	36923.39
585.249	36851.98
585.609	36651.08
585.969	37068.93
586.329	36839.1
586.688	36785.32
587.048	36743.29
587.408	36780.8
587.768	36790.97
588.127	36852.43
588.487	36743.29
588.846	37086.33
589.206	36902.15
589.565	36830.97
589.925	36964.97
590.284	36858.31
590.643	36911.19
591.003	36994.13
591.362	37220.33
591.721	37103.05
592.08	37138.53
592.44	37004.07
592.799	37089.49
593.158	37109.6
593.517	37059.66
593.876	37035.93
594.235	37093.56
594.593	37023.73
594.952	37093.11
595.311	37095.59
595.67	37128.81
596.029	37426.66
596.387	37336.94
596.746	37378.3
597.104	37289.03
597.463	37167.91
597.822	37351.18
598.18	37251.07
598.538	37141.47
598.897	37507.56
599.255	37055.82
599.613	37820.32
599.972	37461.01
600.33	37538.29
600.688	37372.65
601.046	37595.01
601.404	37528.58
601.762	37533.32
602.12	37674.79
602.478	37718.63
602.836	37781
603.194	37460.1
603.552	37653.54
603.91	37517.28
604.268	37783.94
604.625	37816.03
604.983	37862.8
605.341	37736.48
605.698	37916.81
606.056	38019.41
606.413	38097.83
606.771	38082.23
607.128	38111.16
607.485	37950.26
607.843	38046.98
608.2	38131.27
608.557	38293.98
608.914	38237.03
609.272	38289.91
609.629	38296.69
609.986	38436.35
610.343	38304.37
610.7	38762.44
611.057	38508.89
611.414	38610.58
611.771	38657.81
612.127	38709.79
612.484	38772.16
612.841	38787.53
613.198	38768.77
613.554	38720.41
613.911	38935.32
614.267	38875.66
614.624	38764.7
614.98	38928.31
615.337	39088.08
615.693	38949.55
616.05	38975.99
616.406	39174.41
616.762	39055.54
617.118	38962.66
617.475	39043.56
617.831	39222.09
618.187	39196.78
618.543	39168.98
618.899	39428.86
619.255	39320.84
619.611	39271.13
619.967	39402.65
620.323	39468.64
620.678	39291.24
621.034	39319.49
621.39	39319.04
621.746	39348.19
622.101	39683.77
622.457	39408.3
622.812	39568.52
623.168	39642.42
623.523	39524.91
623.879	39705.02
624.234	39459.82
624.589	39655.3
624.945	39568.52
625.3	39609.2
625.655	39667.5
626.01	39663.66
626.365	39686.94
626.72	39674.28
627.075	39523.78
627.43	39708.86
627.785	39391.13
628.14	39618.46
628.495	39688.29
628.85	39527.17
629.205	39436.77
629.559	39615.75
629.914	39434.06
630.269	39572.59
630.623	39356.1
630.978	39267.96
631.332	39571.01
631.687	39475.64
632.041	39242.88
632.396	39432.48
632.75	39204.92
633.104	39214.18
633.459	39190
633.813	39195.2
634.167	39200.4
634.521	39142.09
634.875	39201.98
635.229	39063.22
635.583	38984.58
635.937	38923.11
636.291	38881.53
636.645	38901.19
636.999	38800.86
637.352	38862.1
637.706	38634.99
638.06	38844.92
638.413	38749.56
638.767	38595.44
639.121	38669.56
639.474	38382.11
639.828	38458.04
640.181	38541.2
640.534	38468.21
640.888	38398.83
641.241	38304.37
641.594	38299.4
641.947	38336.01
642.301	38319.97
642.654	38254.43
643.007	38279.06
643.36	38233.87
643.713	38104.38
644.066	38186.64
644.419	38055.34
644.771	37708.68
645.124	37361.35
645.477	37350.5
645.83	37097.63
646.182	37036.38
646.535	36909.16
646.888	37020.57
647.24	36778.31
647.593	37021.47
647.945	36837.52
648.298	36681.82
648.65	36664.87
649.002	36665.77
649.355	36803.85
649.707	36597.53
650.059	36807.46
650.411	37090.85
650.763	37117.74
651.115	37556.37
651.467	37524.96
651.819	37258.53
652.171	37197.28
652.523	37160
652.875	37188.25
653.227	36953.9
653.578	37216.72
653.93	37228.02
654.282	36990.51
654.633	36986.44
654.985	37011.07
655.337	36964.3
655.688	37021.92
656.039	37164.97
656.391	36851.53
656.742	36802.72
657.094	36841.59
657.445	36948.25
657.796	37008.59
658.147	36800.46
658.498	36704.64
658.849	36945.54
659.2	36742.83
659.551	36645.66
659.902	36758.2
660.253	36643.85
660.604	36755.94
660.955	36557.53
661.306	36586.45
661.656	36535.61
662.007	36536.06
662.358	36585.55
662.708	36597.07
663.059	36513.91
663.409	36340.13
663.76	36533.57
664.11	36521.82
664.461	36453.35
664.811	36570.63
665.161	36349.4
665.511	36292.22
665.862	36421.71
666.212	36479.56
666.562	36410.19
666.912	36367.25
667.262	36367.7
667.612	36490.18
667.962	36230.98
668.312	36314.14
668.662	36357.98
669.011	36246.35
669.361	36131.32
669.711	36134.94
670.06	36113.02
670.41	36052.91
670.76	36019.01
671.109	36171.77
671.459	36058.11
671.808	35976.3
672.157	36209.06
672.507	35689.98
672.856	35930.2
673.205	35963.19
673.554	35910.31
673.904	35796.19
674.253	35921.84
674.602	35880.03
674.951	35414.96
675.3	35298.13
675.649	35689.75
675.998	35711.9
676.346	35741.73
676.695	35717.55
677.044	35468.29
677.393	35560.04
677.741	35614.05
678.09	35512.13
678.438	35511.23
678.787	35512.81
679.135	35363.43
679.484	35287.5
679.832	35230.1
680.181	35148.3
680.529	35184.23
680.877	35007.96
681.225	35094.52
681.573	35278.01
681.922	35030.79
682.27	34819.04
682.618	34974.74
682.966	34766.61
683.314	34983.11
683.661	34631.48
684.009	34592.38
684.357	34540.41
684.705	34389.67
685.053	34485.49
685.4	34485.94
685.748	34170.02
686.095	34274.42
686.443	34102.68
686.79	34028.1
687.138	34178.61
687.485	34142.22
687.832	33953.53
688.18	34000.31
688.527	33847.09
688.874	33800.76
689.221	33625.18
689.568	33585.4
689.915	33517.16
690.262	33465.86
690.609	33311.96
690.956	33352.41
691.303	33314.67
691.65	33041.69
691.997	33061.57
692.344	33022.48
692.69	32787.68
693.037	32822.94
693.383	32601.25
693.73	32672.21
694.077	32489.61
694.423	32489.61
694.769	32335.49
695.116	32303.18
695.462	32293.01
695.808	32159.45
696.155	32163.29
696.501	31870.87
696.847	31968.95
697.193	31658.9
697.539	31831.32
697.885	31566.02
698.231	31543.65
698.577	31544.78
698.923	31494.16
699.269	31434.72
699.614	31159.25
699.96	31069.76
700.306	31122.87
700.651	30853.04
700.997	30718.36
701.342	30980.72
701.688	30794.06
702.033	30714.29
702.379	30712.48
702.724	30496.67
703.069	30559.27
703.415	30244.93
703.76	30250.35
704.105	30269.11
704.45	30107.53
704.795	30166.06
705.14	30060.07
705.485	30012.16
705.83	29792.28
706.175	29919.28
706.52	29589.8
706.865	29678.39
707.209	29543.25
707.554	29522.46
707.899	29618.27
708.243	29304.84
708.588	29337.83
708.932	29222.13
709.277	29116.37
709.621	29095.35
709.966	28876.37
710.31	29082.24
710.654	28663.72
710.998	28851.97
711.342	28694.01
711.687	28758.64
712.031	28626.21
712.375	28545.08
712.719	28433.9
713.063	28526.33
713.407	28619.43
713.75	28478.64
714.094	28360.68
714.438	28274.13
714.782	28219.44
715.125	28184.64
715.469	28210.4
715.812	28062.84
716.156	27876.17
716.499	28041.59
716.843	27953.23
717.186	27713.47
717.53	27903.52
717.873	27861.26
718.216	27879.11
718.559	27583.98
718.902	27422.63
719.246	27621.94
719.589	27426.92
719.932	27377.2
720.275	27393.47
720.617	27318.22
720.96	27384.44
721.303	27375.62
721.646	27215.4
721.989	27165.91
722.331	27205.46
722.674	27081.17
723.016	27068.74
723.359	27067.16
723.701	26931.11
724.044	26785.58
724.386	26781.06
724.729	26790.78
725.071	26666.26
725.413	26771.57
725.755	26680.27
726.097	26497
726.439	26466.49
726.782	26393.5
727.124	26490
727.465	26493.16
727.807	26389.21
728.149	26272.15
728.491	26186.5
728.833	26384.69
729.175	26137.46
729.516	26186.27
729.858	26044.36
730.199	26058.59
730.541	26026.05
730.882	26043.68
731.224	26004.81
731.565	25754.65
731.906	25841.2
732.248	25825.61
732.589	25650.47
732.93	25669.45
733.271	25664.71
733.612	25579.29
733.953	25727.3
734.294	25593.3
734.635	25521.89
734.976	25514.88
735.317	25458.61
735.658	25365.28
735.999	25423.81
736.339	25393.3
736.68	25358.05
737.021	25271.95
737.361	25208.45
737.702	25296.81
738.042	25224.94
738.383	25120.54
738.723	25237.83
739.063	25127.77
739.404	25208.9
739.744	25052.29
740.084	24978.17
740.424	25051.62
740.764	24920.09
741.104	25032.86
741.444	24828.8
741.784	24835.58
742.124	24798.51
742.464	24817.5
742.804	24713.09
743.143	24744.05
743.483	24650.04
743.823	24481.46
744.162	24488.92
744.502	24548.13
744.841	24455.92
745.181	24495.02
745.52	24381.35
745.86	24556.04
746.199	24316.04
746.538	24308.13
746.877	24269.94
747.216	24252.31
747.556	24092.54
747.895	24256.61
748.234	24101.81
748.573	24021.13
748.911	23958.76
749.25	23999.44
749.589	23894.81
749.928	23839.44
750.267	23882.38
750.605	23897.07
750.944	23695.94
751.283	23661.6
751.621	23742.95
751.96	23591.09
752.298	23434.71
752.636	23495.72
752.975	23466.12
753.313	23251.66
753.651	23506.8
753.989	23277.2
