Data from white_steel_sheet_FLMS001491_032.txt Node
Date: Tue Feb 07 10:57:45 GMT 2017
User: dcchb
Spectrometer: FLMS00149
Trigger mode: 0
Integration Time (sec): 2.000000E-2
Scans to average: 10
Electric dark correction enabled: true
Nonlinearity correction enabled: false
Boxcar width: 0
XAxis mode: Wavelengths
Number of Pixels in Spectrum: 2048
>>>>>Begin Spectral Data<<<<<
341.393	-28.81
341.776	-28.81
342.16	-28.81
342.543	-59.32
342.927	-72.2
343.31	-70.39
343.693	-94.57
344.077	-60.9
344.46	-54.12
344.843	-65.65
345.226	-34.24
345.61	-37.85
345.993	-7.8
346.376	-5.08
346.759	4.18
347.142	30.17
347.525	52.09
347.908	59.55
348.291	79.43
348.674	89.83
349.057	115.36
349.44	111.52
349.823	142.26
350.206	158.3
350.588	200.11
350.971	216.15
351.354	234.23
351.737	257.51
352.119	244.85
352.502	263.83
352.884	268.81
353.267	295.92
353.65	292.76
354.032	305.42
354.414	303.61
354.797	323.27
355.179	331.18
355.562	305.87
355.944	341.8
356.326	335.47
356.709	353.32
357.091	331.86
357.473	342.25
357.855	319.43
358.238	356.94
358.62	336.15
359.002	345.64
359.384	338.64
359.766	343.83
360.148	355.13
360.53	341.8
360.912	339.54
361.294	355.58
361.676	328.92
362.057	321.23
362.439	345.64
362.821	347
363.203	333.21
363.584	316.26
363.966	328.92
364.348	325.75
364.729	326.88
365.111	328.47
365.493	333.44
365.874	332.53
366.256	342.93
366.637	317.39
367.019	314.68
367.4	335.25
367.781	317.84
368.163	318.07
368.544	340.22
368.925	311.29
369.306	329.6
369.688	328.01
370.069	335.47
370.45	321.46
370.831	328.01
371.212	355.13
371.593	316.94
371.974	318.07
372.355	323.04
372.736	345.87
373.117	327.79
373.498	312.2
373.879	318.07
374.26	324.62
374.641	338.86
375.021	331.4
375.402	333.66
375.783	337.05
376.163	337.96
376.544	352.65
376.925	357.84
377.305	325.98
377.686	334.57
378.066	350.16
378.447	347.67
378.827	354.68
379.208	329.82
379.588	348.13
379.968	347.9
380.349	367.79
380.729	350.16
381.109	373.66
381.489	355.81
381.87	365.98
382.25	357.17
382.63	364.62
383.01	378.18
383.39	377.5
383.77	371.85
384.15	359.2
384.53	372.53
384.91	383.15
385.29	394.9
385.67	390.16
386.049	382.7
386.429	395.81
386.809	408.92
387.189	398.75
387.568	396.26
387.948	373.66
388.328	402.59
388.707	386.32
389.087	385.19
389.466	418.86
389.846	417.28
390.225	435.58
390.605	396.03
390.984	408.24
391.363	425.64
391.743	415.24
392.122	447.33
392.501	430.16
392.881	443.72
393.26	453.21
393.639	469.48
394.018	430.61
394.397	445.07
394.776	472.19
395.155	472.42
395.534	454.79
395.913	479.42
396.292	493.89
396.671	483.26
397.05	499.31
397.429	485.98
397.808	482.59
398.186	488.69
398.565	508.12
398.944	522.13
399.323	530.49
399.701	549.93
400.08	528.01
400.458	543.83
400.837	552.19
401.215	575.69
401.594	560.78
401.972	579.31
402.351	586.09
402.729	582.92
403.107	604.16
403.486	583.15
403.864	573.66
404.242	622.7
404.62	619.31
404.999	640.77
405.377	661.11
405.755	642.36
406.133	673.99
406.511	676.71
406.889	678.74
407.267	689.81
407.645	693.88
408.023	694.78
408.401	732.52
408.779	737.27
409.156	733.43
409.534	734.1
409.912	752.64
410.29	762.8
410.667	783.6
411.045	781.34
411.422	813.42
411.8	820.43
412.178	844.38
412.555	856.81
412.933	819.75
413.31	871.95
413.687	876.25
414.065	908.34
414.442	903.59
414.819	902.24
415.197	888.68
415.574	923.7
415.951	946.3
416.328	937.94
416.705	953.31
417.082	977.04
417.46	988.11
417.837	1024.72
418.214	1018.62
418.591	1001.89
418.967	1012.06
419.344	1045.06
419.721	1048
420.098	1047.32
420.475	1086.64
420.852	1084.15
421.228	1060.88
421.605	1108.56
421.982	1126.64
422.358	1132.51
422.735	1124.83
423.111	1153.98
423.488	1171.16
423.864	1187.88
424.241	1175.22
424.617	1200.76
424.994	1200.99
425.37	1208.89
425.746	1193.98
426.123	1273.07
426.499	1245.5
426.875	1259.74
427.251	1294.32
427.627	1310.81
428.003	1321.89
428.379	1372.05
428.756	1345.84
429.132	1365.73
429.507	1402.79
429.883	1410.7
430.259	1445.27
430.635	1422.45
431.011	1446.63
431.387	1486.18
431.763	1512.84
432.138	1534.54
432.514	1548.32
432.89	1553.97
433.265	1590.81
433.641	1597.81
434.016	1638.26
434.392	1666.96
434.767	1648.66
435.143	1655.21
435.518	1715.55
435.894	1715.32
436.269	1758.26
436.644	1774.76
437.02	1802.1
437.395	1772.04
437.77	1818.14
438.145	1836.9
438.52	1858.37
438.895	1852.27
439.271	1895.2
439.646	1916.45
440.021	1937.01
440.395	1926.84
440.77	1931.81
441.145	1966.84
441.52	2019.49
441.895	2006.84
442.27	2031.7
442.645	2024.47
443.019	2048.87
443.394	2090
443.769	2104.01
444.143	2077.35
444.518	2123.67
444.892	2132.71
445.267	2138.14
445.641	2167.74
446.016	2157.12
446.39	2193.73
446.764	2219.94
447.139	2200.73
447.513	2230.34
447.887	2261.3
448.262	2286.15
448.636	2304.01
449.01	2308.53
449.384	2333.38
449.758	2364.12
450.132	2390.33
450.506	2383.78
450.88	2415.19
451.254	2389.43
451.628	2429.2
452.002	2496.54
452.376	2508.75
452.75	2544.23
453.123	2545.58
453.497	2589.88
453.871	2596.65
454.244	2645.69
454.618	2685.92
454.992	2737.67
455.365	2728.63
455.739	2798.46
456.112	2804.56
456.486	2777.67
456.859	2835.97
457.232	2936.53
457.606	2898.57
457.979	2988.28
458.352	3015.4
458.725	3028.73
459.099	3066.02
459.472	3100.37
459.845	3148.5
460.218	3189.41
460.591	3221.5
460.964	3233.02
461.337	3291.33
461.71	3310.76
462.083	3394.15
462.456	3358.67
462.829	3420.14
463.201	3441.15
463.574	3508.72
463.947	3550.98
464.32	3627.36
464.692	3644.31
465.065	3668.94
465.438	3728.6
465.81	3770.41
466.183	3825.32
466.555	3908.26
466.928	3906.22
467.3	3891.31
467.672	3950.52
468.045	4093.34
468.417	4081.14
468.789	4163.39
469.161	4209.49
469.534	4197.52
469.906	4336.72
470.278	4329.94
470.65	4400.68
471.022	4483.38
471.394	4575.59
471.766	4609.94
472.138	4690.16
472.51	4747.78
472.882	4883.83
473.253	4851.28
473.625	4918.63
473.997	5023.03
474.369	5099.87
474.74	5158.4
475.112	5230.71
475.484	5367.43
475.855	5374.43
476.227	5516.58
476.598	5580.31
476.97	5710.02
477.341	5792.73
477.713	5911.37
478.084	5959.73
478.455	6081.76
478.827	6131.93
479.198	6263.45
479.569	6278.37
479.94	6436.78
480.311	6543.67
480.682	6667.73
481.053	6792.48
481.424	6935.07
481.795	7000.38
482.166	7142.75
482.537	7221.39
482.908	7326.02
483.279	7467.49
483.65	7542.29
484.021	7674.26
484.391	7781.6
484.762	7852.34
485.133	7960.58
485.503	8082.84
485.874	8269.27
486.244	8347.46
486.615	8487.12
486.985	8629.26
487.356	8721.01
487.726	8819.99
488.097	9023.15
488.467	9073.09
488.837	9169.14
489.207	9271.96
489.578	9466.76
489.948	9530.48
490.318	9632.63
490.688	9759.86
491.058	9914.43
491.428	10033.75
491.798	10109
492.168	10334.3
492.538	10350.8
492.908	10499.95
493.278	10579.72
493.648	10620.85
494.017	10868.53
494.387	10913.05
494.757	10997.79
495.126	11187.62
495.496	11194.39
495.866	11257.67
496.235	11364.33
496.605	11543.99
496.974	11573.14
497.344	11673.03
497.713	11790.31
498.082	11896.75
498.452	11950.76
498.821	12042.73
499.19	12063.98
499.559	12267.81
499.928	12290.86
500.298	12475.04
500.667	12537.64
501.036	12541.03
501.405	12689.27
501.774	12735.6
502.143	12814.69
502.512	12988.7
502.88	13027.79
503.249	13059.88
503.618	13127.9
503.987	13244.74
504.356	13277.73
504.724	13479.98
505.093	13519.98
505.462	13551.62
505.83	13708.91
506.199	13745.06
506.567	13923.36
506.936	14024.6
507.304	14168.55
507.672	14179.18
508.041	14313.18
508.409	14372.16
508.777	14505.27
509.145	14700.74
509.514	14610.12
509.882	14859.61
510.25	14934.86
510.618	14956.56
510.986	15026.61
511.354	15244.91
511.722	15373.95
512.09	15568.74
512.458	15405.13
512.826	15659.59
513.193	15703.88
513.561	15861.62
513.929	15980.71
514.297	16069.97
514.664	16222.96
515.032	16310.64
515.4	16489.85
515.767	16557.64
516.135	16663.63
516.502	16634.25
516.869	16993.56
517.237	17062.26
517.604	16996.28
517.972	17321.01
518.339	17404.63
518.706	17434.68
519.073	17547.67
519.44	17642.81
519.808	17832.86
520.175	17825.63
520.542	18137.49
520.909	18312.17
521.276	18257.03
521.643	18531.38
522.009	18556.91
522.376	18775.89
522.743	18791.48
523.11	19033.06
523.477	19355.76
523.843	19328.42
524.21	19536.55
524.577	19717.11
524.943	19792.59
525.31	19948.74
525.676	20173.82
526.043	20289.3
526.409	20413.14
526.776	20687.25
527.142	20679.8
527.508	20884.31
527.874	21015.83
528.241	21127.92
528.607	21242.04
528.973	21434.13
529.339	21411.53
529.705	21699.43
530.071	21787.56
530.437	21902.14
530.803	22068.23
531.169	22213.77
531.535	22148.91
531.901	22417.83
532.267	22396.13
532.632	22687.88
532.998	22624.83
533.364	22908.66
533.73	22868.66
534.095	23151.82
534.461	23179.16
534.826	23394.07
535.192	23409.89
535.557	23618.02
535.923	23618.7
536.288	23707.96
536.653	23867.51
537.019	23804.68
537.384	23952.48
537.749	24116.77
538.114	24046.71
538.479	24305.01
538.845	24330.55
539.21	24344.56
539.575	24551.56
539.94	24558.56
540.305	24714.94
540.67	24695.06
541.034	24801.49
541.399	25001.72
541.764	25024.31
542.129	25240.35
542.494	25192.22
542.858	25272.22
543.223	25412.55
543.587	25551.31
543.952	25548.59
544.316	25693.45
544.681	25800.79
545.045	25819.55
545.41	25952.2
545.774	25995.81
546.138	26064.51
546.503	26133.44
546.867	26217.05
547.231	26387.44
547.595	26361.91
547.959	26545.86
548.324	26603.26
548.688	26593.31
549.052	26848.67
549.416	26839.63
549.779	26857.71
550.143	26958.27
550.507	27151.49
550.871	27233.75
551.235	27206.4
551.599	27554.19
551.962	27530.69
552.326	27575.43
552.689	27699.5
553.053	27626.96
553.417	27773.39
553.78	28209.54
554.143	28038.02
554.507	28226.94
554.87	28322.53
555.234	28591.45
555.597	28450.89
555.96	28554.39
556.323	28719.81
556.686	28816.76
557.05	28932.91
557.413	29072.57
557.776	29062.63
558.139	29409.96
558.502	29357.31
558.865	29515.95
559.228	29680.91
559.59	29694.93
559.953	29827.35
560.316	30188.25
560.679	30158.87
561.041	30193.9
561.404	30429.37
561.767	30694
562.129	30708.91
562.492	30918.62
562.854	30923.37
563.217	30991.39
563.579	31074.55
563.941	31218.5
564.304	31452.62
564.666	31528.32
565.028	31612.39
565.39	31775.55
565.753	31918.14
566.115	32113.62
566.477	32166.72
566.839	32227.29
567.201	32398.36
567.563	32596.54
567.925	32670.21
568.287	32745.01
568.648	32763.55
569.01	32968.51
569.372	33108.39
569.734	33093.25
570.095	33281.05
570.457	33428.84
570.819	33493.92
571.18	33450.31
571.542	33748.15
571.903	33736.4
572.265	33774.14
572.626	33941.59
572.987	33964.87
573.349	34155.6
573.71	34248.25
574.071	34312.66
574.432	34485.53
574.794	34628.13
575.155	34590.62
575.516	34504.74
575.877	34662.03
576.238	34775.47
576.599	34918.52
576.96	34831.51
577.32	34933.66
577.681	35061.79
578.042	35112.86
578.403	35182.69
578.763	35016.14
579.124	35191.05
579.485	35355.12
579.845	35438.28
580.206	35295.46
580.566	35394.66
580.927	35408.45
581.287	35513.53
581.648	35455
582.008	35460.42
582.368	35475.11
582.728	35583.36
583.089	35505.85
583.449	35507.43
583.809	35513.98
584.169	35514.89
584.529	35391.27
584.889	35780.19
585.249	35548.78
585.609	35490.48
585.969	35806.63
586.329	35516.69
586.688	35695.67
587.048	35661.77
587.408	35681.89
587.768	35618.39
588.127	35644.15
588.487	35695.45
588.846	35671.72
589.206	35532.74
589.565	35575.22
589.925	35664.03
590.284	35642.34
590.643	35552.85
591.003	35729.34
591.362	35703.58
591.721	35648.44
592.08	35677.14
592.44	35757.14
592.799	35723.24
593.158	35638.27
593.517	35718.04
593.876	35723.92
594.235	35655.45
594.593	35657.25
594.952	35872.16
595.311	35682.79
595.67	35732.28
596.029	35889.11
596.387	35888.21
596.746	35863.8
597.104	35805.73
597.463	35750.36
597.822	35967.75
598.18	35840.98
598.538	35807.99
598.897	36038.94
599.255	35759.17
599.613	36295.66
599.972	35940.86
600.33	36106.28
600.688	35889.79
601.046	36120.07
601.404	36110.8
601.762	36066.51
602.12	36196.9
602.478	36117.13
602.836	36093.4
603.194	35919.17
603.552	36070.35
603.91	35950.35
604.268	36141.54
604.625	36010.24
604.983	36163.68
605.341	36085.72
605.698	36326.62
606.056	36299.5
606.413	36248.2
606.771	36336.78
607.128	36425.6
607.485	36380.85
607.843	36357.35
608.2	36466.72
608.557	36534.52
608.914	36465.59
609.272	36620.39
609.629	36677.34
609.986	36685.93
610.343	36438.25
610.7	36914.4
611.057	36801.41
611.414	36856.09
611.771	36749.43
612.127	36854.51
612.484	36911.01
612.841	37096.76
613.198	36926.6
613.554	36860.39
613.911	37170.21
614.267	37033.26
614.624	37162.53
614.98	37195.75
615.337	37322.52
615.693	37260.6
616.05	37220.15
616.406	37456.98
616.762	37402.97
617.118	37272.13
617.475	37174.95
617.831	37370.43
618.187	37468.28
618.543	37460.82
618.899	37779.46
619.255	37543.98
619.611	37564.55
619.967	37704.43
620.323	37683.19
620.678	37560.71
621.034	37563.42
621.39	37453.37
621.746	37542.63
622.101	37950.53
622.457	37568.39
622.812	37798.44
623.168	37885.9
623.523	37761.15
623.879	37915.73
624.234	37555.74
624.589	37854.26
624.945	37773.36
625.3	37781.49
625.655	37814.94
626.01	37797.31
626.365	37821.49
626.72	37707.82
627.075	37699.46
627.43	37647.03
627.785	37654.49
628.14	37769.29
628.495	37864.43
628.85	37737.65
629.205	37645.68
629.559	37841.6
629.914	37696.75
630.269	37675.51
630.623	37483.2
630.978	37609.75
631.332	37592.8
631.687	37744.21
632.041	37590.99
632.396	37452.01
632.75	37454.72
633.104	37460.82
633.459	37246.82
633.813	37255.4
634.167	37291.79
634.521	37247.27
634.875	37346.48
635.229	37216.54
635.583	36998.24
635.937	37150.77
636.291	37130.66
636.645	37151.9
636.999	37035.07
637.352	36969.99
637.706	36762.08
638.06	36882.08
638.413	36763.21
638.767	36706.04
639.121	36780.84
639.474	36567.29
639.828	36521.64
640.181	36492.71
640.534	36450.23
640.888	36421.53
641.241	36228.99
641.594	36299.5
641.947	36456.78
642.301	36305.83
642.654	36330.91
643.007	36221.53
643.36	36303.11
643.713	36169.78
644.066	36111.48
644.419	36005.27
644.771	35683.02
645.124	35459.52
645.477	35337.94
645.83	35192.41
646.182	35048.23
646.535	34881.23
646.888	35012.75
647.24	34870.61
647.593	34969.81
647.945	34906.77
648.298	34700.9
648.65	34775.7
649.002	34589.49
649.355	34671.29
649.707	34679.65
650.059	34718.52
650.411	35122.35
650.763	35207.77
651.115	35603.47
651.467	35390.37
651.819	35303.14
652.171	35335.46
652.523	35232.86
652.875	35319.41
653.227	35104.27
653.578	35360.09
653.93	35298.39
654.282	35122.81
654.633	35032.86
654.985	35026.76
655.337	35028.57
655.688	35069.02
656.039	35169.81
656.391	34794.23
656.742	34864.51
657.094	34830.38
657.445	34923.04
657.796	34801.46
658.147	34726.66
658.498	34722.36
658.849	34850.5
659.2	34703.16
659.551	34625.87
659.902	34695.47
660.253	34579.54
660.604	34516.95
660.955	34325.99
661.306	34584.97
661.656	34388.81
662.007	34369.6
662.358	34298.19
662.708	34345.2
663.059	34348.59
663.409	33982.72
663.76	34268.59
664.11	34176.39
664.461	34080.12
664.811	34083.96
665.161	34080.35
665.511	33892.56
665.862	33741.6
666.212	33956.51
666.562	33871.76
666.912	33721.94
667.262	33668.38
667.612	33646.01
667.962	33566.69
668.312	33540.25
668.662	33621.83
669.011	33324.21
669.361	33298.22
669.711	33145.91
670.06	33049.19
670.41	32905.01
670.76	32943.43
671.109	32956.31
671.459	32868.85
671.808	32744.79
672.157	32783.88
672.507	32419.6
672.856	32437.23
673.205	32443.78
673.554	32462.08
673.904	32388.19
674.253	32463.21
674.602	32288.53
674.951	31893.96
675.3	31818.94
675.649	32144.8
675.998	32119.49
676.346	32124.47
676.695	32415.53
677.044	31987.97
677.393	32061.87
677.741	32131.25
678.09	31937.13
678.438	31844.93
678.787	32042.66
679.135	32024.36
679.484	31765.15
679.832	31950.46
680.181	31822.33
680.529	31754.31
680.877	31849.22
681.225	31824.13
681.573	31946.39
681.922	31731.03
682.27	31575.1
682.618	31839.73
682.966	31747.53
683.314	31915.88
683.661	31639.28
684.009	31561.09
684.357	31631.6
684.705	31593.63
685.053	31724.02
685.4	31542.56
685.748	31480.42
686.095	31521.32
686.443	31438.61
686.79	31396.12
687.138	31691.94
687.485	31693.97
687.832	31575.55
688.18	31754.08
688.527	31644.7
688.874	31565.16
689.221	31485.61
689.568	31476.35
689.915	31434.54
690.262	31315.22
690.609	31234.55
690.956	31253.3
691.303	31293.3
691.65	31110.71
691.997	31264.6
692.344	31065.28
692.69	31158.16
693.037	31037.71
693.383	30949.36
693.73	31121.55
694.077	30869.58
694.423	30836.82
694.769	30816.48
695.116	30851.05
695.462	30835.23
695.808	30779.42
696.155	30765.63
696.501	30534.68
696.847	30502.14
697.193	30249.26
697.539	30526.54
697.885	30225.98
698.231	30226.89
698.577	30290.16
698.923	30251.52
699.269	30093.56
699.614	29964.3
699.96	29933.34
700.306	29908.25
700.651	29824.64
700.997	29732.21
701.342	29671.42
701.688	29739.67
702.033	29562.5
702.379	29473.91
702.724	29400.7
703.069	29550.97
703.415	29233.02
703.76	29197.76
704.105	29176.97
704.45	29085.45
704.795	28871.67
705.14	28816.76
705.485	28840.71
705.83	28707.61
706.175	28865.57
706.52	28684.56
706.865	28661.73
707.209	28631
707.554	28493.6
707.899	28484.56
708.243	28476.43
708.588	28300.16
708.932	28221.07
709.277	28208.86
709.621	28216.77
709.966	27986.95
710.31	28127.51
710.654	27851.13
710.998	27976.55
711.342	27824.69
711.687	27821.75
712.031	27632.83
712.375	27660.85
712.719	27751.93
713.063	27548.77
713.407	27659.72
713.75	27455.89
714.094	27432.16
714.438	27270.36
714.782	27358.26
715.125	27278.49
715.469	27318.04
715.812	27066.75
716.156	27059.51
716.499	27041.89
716.843	27004.83
717.186	26883.02
717.53	26879.18
717.873	26935.68
718.216	26927.99
718.559	26720.54
718.902	26658.62
719.246	26612.07
719.589	26624.05
719.932	26427.44
720.275	26535.46
720.617	26415.01
720.96	26448.23
721.303	26449.36
721.646	26377.5
721.989	26188.8
722.331	26276.71
722.674	26220.21
723.016	26234.45
723.359	26095.02
723.701	26055.47
724.044	25889.38
724.386	25770.06
724.729	25931.63
725.071	25924.18
725.413	25752.43
725.755	25721.47
726.097	25669.27
726.439	25642.6
726.782	25607.8
727.124	25627.91
727.465	25536.16
727.807	25526.22
728.149	25428.6
728.491	25469.5
728.833	25480.12
729.175	25374.59
729.516	25346.11
729.858	25277.41
730.199	25297.75
730.541	25137.76
730.882	25179.79
731.224	25196.74
731.565	25039.45
731.906	24997.2
732.248	24997.2
732.589	24840.82
732.93	24779.35
733.271	24891.89
733.612	24801.04
733.953	24747.71
734.294	24745.68
734.635	24620.93
734.976	24741.61
735.317	24594.72
735.658	24511.78
735.999	24554.04
736.339	24397.44
736.68	24526.47
737.021	24360.83
737.361	24369.19
737.702	24485.12
738.042	24279.47
738.383	24324.22
738.723	24298.68
739.063	24223.2
739.404	24288.06
739.744	24187.05
740.084	24112.93
740.424	24121.74
740.764	24034.06
741.104	24186.82
741.444	23954.51
741.784	23923.1
742.124	23894.17
742.464	23906.83
742.804	23755.65
743.143	23860.28
743.483	23848.3
743.823	23665.03
744.162	23717.46
744.502	23655.54
744.841	23633.39
745.181	23592.71
745.52	23593.84
745.86	23604.01
746.199	23559.27
746.538	23510
746.877	23412.15
747.216	23509.33
747.556	23407.18
747.895	23387.75
748.234	23371.7
748.573	23105.49
748.911	23216
749.25	23058.94
749.589	23139.39
749.928	23077.92
750.267	23092.39
750.605	23092.16
750.944	22931.04
751.283	22771.04
751.621	22989.11
751.96	22748.89
752.298	22839.51
752.636	22771.27
752.975	22668.9
753.313	22470.26
753.651	22580.99
