Data from White_reflection_standard_FLMS001491_051.txt Node
Date: Tue Feb 07 10:32:05 GMT 2017
User: dcchb
Spectrometer: FLMS00149
Trigger mode: 0
Integration Time (sec): 2.000000E-2
Scans to average: 10
Electric dark correction enabled: true
Nonlinearity correction enabled: false
Boxcar width: 0
XAxis mode: Wavelengths
Number of Pixels in Spectrum: 2048
>>>>>Begin Spectral Data<<<<<
341.393	-23.47
341.776	-23.47
342.16	-23.47
342.543	-52.4
342.927	-70.7
343.31	-68.67
343.693	-85.62
344.077	-45.85
344.46	-50.14
344.843	-42.91
345.226	-55.11
345.61	-23.7
345.993	-19.63
346.376	-8.56
346.759	19.91
347.142	35.73
347.525	35.28
347.908	60.37
348.291	68.28
348.674	94.49
349.057	86.13
349.44	118.44
349.823	159.35
350.206	158.22
350.588	230.08
350.971	256.74
351.354	258.78
351.737	288.38
352.119	307.14
352.502	310.53
352.884	324.09
353.267	332.45
353.65	345.56
354.032	355.95
354.414	357.31
354.797	329.96
355.179	354.6
355.562	359.11
355.944	391.88
356.326	392.11
356.709	389.17
357.091	401.83
357.473	411.32
357.855	387.36
358.238	391.2
358.62	410.19
359.002	400.47
359.384	407.02
359.766	404.31
360.148	393.24
360.53	401.15
360.912	405.22
361.294	411.77
361.676	403.63
362.057	406.57
362.439	421.03
362.821	405.89
363.203	422.39
363.584	408.61
363.966	409.96
364.348	404.09
364.729	429.4
365.111	417.87
365.493	393.24
365.874	430.53
366.256	409.51
366.637	396.18
367.019	416.06
367.4	414.93
367.781	428.49
368.163	399.57
368.544	428.04
368.925	424.42
369.306	423.97
369.688	406.35
370.069	396.18
370.45	428.94
370.831	453.58
371.212	444.76
371.593	437.08
371.974	432.79
372.355	415.84
372.736	419.23
373.117	451.54
373.498	449.51
373.879	453.35
374.26	455.84
374.641	436.85
375.021	448.6
375.402	459.68
375.783	486.8
376.163	519.11
376.544	493.8
376.925	484.54
377.305	503.97
377.686	480.92
378.066	500.35
378.447	496.51
378.827	508.04
379.208	526.79
379.588	517.3
379.968	509.39
380.349	503.52
380.729	513.46
381.109	533.57
381.489	537.64
381.87	548.04
382.25	556.62
382.63	544.42
383.01	543.74
383.39	559.79
383.77	556.62
384.15	552.1
384.53	572.22
384.91	583.74
385.29	586.68
385.67	611.31
386.049	605.89
386.429	610.18
386.809	605.44
387.189	633.68
387.568	619
387.948	649.5
388.328	653.57
388.707	651.99
389.087	642.5
389.466	661.93
389.846	670.07
390.225	698.54
390.605	695.6
390.984	714.13
391.363	698.09
391.743	710.52
392.122	731.31
392.501	723.4
392.881	758.65
393.26	740.35
393.639	772.21
394.018	747.81
394.397	794.58
394.776	781.48
395.155	786
395.534	773.12
395.913	808.82
396.292	811.53
396.671	801.82
397.05	831.19
397.429	802.94
397.808	835.49
398.186	868.25
398.565	868.25
398.944	844.98
399.323	882.04
399.701	919.33
400.08	887.69
400.458	932.89
400.837	923.39
401.215	934.47
401.594	918.87
401.972	933.79
402.351	959.55
402.729	968.59
403.107	985.54
403.486	958.87
403.864	1000
404.242	997.29
404.62	1048.81
404.999	1031.64
405.377	1036.61
405.755	1042.26
406.133	1087.23
406.511	1081.58
406.889	1114.35
407.267	1113.67
407.645	1101.69
408.023	1113.67
408.401	1154.57
408.779	1176.27
409.156	1178.75
409.534	1188.92
409.912	1229.37
410.29	1260.11
410.667	1284.29
411.045	1278.19
411.422	1285.64
411.8	1301.91
412.178	1324.51
412.555	1346.43
412.933	1352.31
413.31	1397.05
413.687	1400.22
414.065	1422.14
414.442	1425.98
414.819	1456.49
415.197	1441.12
415.574	1491.29
415.951	1494.45
416.328	1475.47
416.705	1524.73
417.082	1500.1
417.46	1546.65
417.837	1562.02
418.214	1597.05
418.591	1602.25
418.967	1592.75
419.344	1618.97
419.721	1660.78
420.098	1682.7
420.475	1711.85
420.852	1728.57
421.228	1728.12
421.605	1748.91
421.982	1774.44
422.358	1793.65
422.735	1798.4
423.111	1806.31
423.488	1794.33
423.864	1850.15
424.241	1894.67
424.617	1920.43
424.994	1922.24
425.37	1923.37
425.746	1956.81
426.123	1992.97
426.499	2005.63
426.875	2009.92
427.251	2084.95
427.627	2108.22
428.003	2132.63
428.379	2153.19
428.756	2171.5
429.132	2172.63
429.507	2256.92
429.883	2287.43
430.259	2311.61
430.635	2328.55
431.011	2340.53
431.387	2410.59
431.763	2429.57
432.138	2456.69
432.514	2482
432.89	2507.53
433.265	2557.02
433.641	2594.54
434.016	2638.83
434.392	2695.78
434.767	2729
435.143	2732.84
435.518	2736.45
435.894	2770.58
436.269	2825.49
436.644	2849.22
437.02	2927.41
437.395	2923.57
437.77	2938.03
438.145	3004.02
438.52	3006.73
438.895	3091.25
439.271	3060.96
439.646	3131.25
440.021	3137.35
440.395	3176.44
440.77	3171.47
441.145	3204.69
441.52	3292.6
441.895	3248.3
442.27	3286.04
442.645	3296.21
443.019	3333.5
443.394	3364.46
443.769	3400.62
444.143	3348.64
444.518	3449.43
444.892	3448.3
445.267	3488.3
445.641	3499.15
446.016	3526.94
446.39	3582.53
446.764	3613.04
447.139	3616.2
447.513	3655.53
447.887	3670.67
448.262	3665.47
448.636	3732.13
449.01	3761.29
449.384	3825.01
449.758	3837.22
450.132	3905.46
450.506	3924.9
450.88	3950.21
451.254	3969.42
451.628	4005.57
452.002	4075.85
452.376	4139.81
452.75	4139.13
453.123	4169.18
453.497	4262.06
453.871	4243.53
454.244	4347.48
454.618	4398.33
454.992	4471.32
455.365	4486.92
455.739	4636.97
456.112	4642.84
456.486	4655.73
456.859	4751.77
457.232	4838.09
457.606	4800.81
457.979	4890.07
458.352	4928.71
458.725	5061.59
459.099	5067.92
459.472	5186.56
459.845	5228.59
460.218	5293
460.591	5361.24
460.964	5377.74
461.337	5473.1
461.71	5531.41
462.083	5653.21
462.456	5653.44
462.829	5668.35
463.201	5781.12
463.574	5832.87
463.947	5882.36
464.32	6050.26
464.692	6115.35
465.065	6147.21
465.438	6184.72
465.81	6331.61
466.183	6394.89
466.555	6541.55
466.928	6520.99
467.3	6570.02
467.672	6684.37
468.045	6810.02
468.417	6890.24
468.789	6905.38
469.161	7010.92
469.534	7134.08
469.906	7341.08
470.278	7334.3
470.65	7459.72
471.022	7570.45
471.394	7741.29
471.766	7826.72
472.138	7897.9
472.51	8018.57
472.882	8260.15
473.253	8305.35
473.625	8404.55
473.997	8568.62
474.369	8660.59
474.74	8792.34
475.112	8915.5
475.484	9061.71
475.855	9256.28
476.227	9370.4
476.598	9618.08
476.97	9662.6
477.341	9959.77
477.713	10094.45
478.084	10101.01
478.455	10348.46
478.827	10485.85
479.198	10804.04
479.569	10854.66
479.94	11092.62
480.311	11188.66
480.682	11483.34
481.053	11799.04
481.424	11956.55
481.795	12069.77
482.166	12286.48
482.537	12392.02
482.908	12674.5
483.279	12863.19
483.65	13020.02
484.021	13293.46
484.391	13405.55
484.762	13516.51
485.133	13714.92
485.503	13921.47
485.874	14259.54
486.244	14334.11
486.615	14618.4
486.985	14692.98
487.356	15097.26
487.726	15211.83
488.097	15558.26
488.467	15589.22
488.837	15915.54
489.207	16119.83
489.578	16381.07
489.948	16532.7
490.318	16648.86
490.688	16796.65
491.058	17008.85
491.428	17289.97
491.798	17466.46
492.168	17780.13
492.538	17844.98
492.908	18091.53
493.278	18273.67
493.648	18264.18
494.017	18595.7
494.387	18761.12
494.757	18944.16
495.126	19122.24
495.496	19258.05
495.866	19300.31
496.235	19530.14
496.605	19810.81
496.974	19834.53
497.344	20090.12
497.713	20200.63
498.082	20296.67
498.452	20644.68
498.821	20669.99
499.19	20773.95
499.559	20898.24
499.928	21123.09
500.298	21249.86
500.667	21490.54
501.036	21519.01
501.405	21724.65
501.774	21718.55
502.143	22087.36
502.512	22119.9
502.88	22389.72
503.249	22329.38
503.618	22644.18
503.987	22658.87
504.356	22906.32
504.724	22967.56
505.093	23142.47
505.462	23044.85
505.83	23473.08
506.199	23490.26
506.567	23834.43
506.936	23899.74
507.304	24262.89
507.672	24303.12
508.041	24513.06
508.409	24647.97
508.777	24914.85
509.145	25019.03
509.514	24991.24
509.882	25379.02
510.25	25388.97
510.618	25642.52
510.986	25616.08
511.354	25969.29
511.722	26157.08
512.09	26447.47
512.458	26494.02
512.826	26668.48
513.193	26792.09
513.561	26859.21
513.929	27176.04
514.297	27378.52
514.664	27743.03
515.032	27726.76
515.4	27981.44
515.767	27981.21
516.135	28261.88
516.502	28271.83
516.869	28783.23
517.237	28786.39
517.604	28832.49
517.972	29189.32
518.339	29303.89
518.706	29583.88
519.073	29651
519.44	29858.68
519.808	30243.53
520.175	30265.67
520.542	30644.19
520.909	30817.97
521.276	30909.27
521.643	31338.87
522.009	31476.71
522.376	31676.71
522.743	32023.37
523.11	32280.99
523.477	32538.38
523.843	32727.3
524.21	33092.49
524.577	33198.93
524.943	33514.4
525.31	33696.54
525.676	33982.64
526.043	34162.97
526.409	34415.39
526.776	34691.77
527.142	34762.73
527.508	35114.36
527.874	35309.61
528.241	35458.08
528.607	35552.54
528.973	36041.57
529.339	35944.39
529.705	36522.46
530.071	36656.01
530.437	36743.47
530.803	36964.25
531.169	37225.49
531.535	37235.43
531.901	37405.37
532.267	37574.86
532.632	37974.4
532.998	37978.92
533.364	38301.62
533.73	38324.44
534.095	38725.34
534.461	38671.78
534.826	38893.02
535.192	38948.16
535.557	39413.91
535.923	39440.35
536.288	39726.67
536.653	39697.29
537.019	39718.98
537.384	39882.82
537.749	40115.13
538.114	40196.26
538.479	40233.55
538.845	40597.6
539.21	40667.43
539.575	40786.07
539.94	40855
540.305	41108.1
540.67	41085.5
541.034	41278.49
541.399	41383.8
541.764	41668.31
542.129	41851.36
542.494	41876.89
542.858	41996.21
543.223	42062.65
543.587	42332.02
543.952	42227.17
544.316	42474.62
544.681	42612.24
545.045	42827.6
545.41	42991.21
545.774	43054.94
546.138	43097.2
546.503	43303.75
546.867	43293.58
547.231	43729.73
547.595	43842.27
547.959	43896.05
548.324	43964.07
548.688	44048.81
549.052	44247.45
549.416	44358.64
549.779	44433.89
550.143	44603.83
550.507	44905.51
550.871	44955
551.235	44989.81
551.599	45211.49
551.962	45424.82
552.326	45466.63
552.689	45760.18
553.053	45586.4
553.417	45847.41
553.78	46163.56
554.143	46083.56
554.507	46333.95
554.87	46531.69
555.234	46823.88
555.597	46681.51
555.96	46993.14
556.323	47174.61
556.686	47167.6
557.05	47406.01
557.413	47614.14
557.776	47614.6
558.139	47934.36
558.502	48099.1
558.865	48135.26
559.228	48368.02
559.59	48480.11
559.953	48665.19
560.316	49099.75
560.679	49022.92
561.041	49343.14
561.404	49412.74
561.767	49612.06
562.129	49588.78
562.492	49943.35
562.854	49927.08
563.217	49944.93
563.579	50171.82
563.941	50461.98
564.304	50561.86
564.666	50662.42
565.028	50772.25
565.39	50925.02
565.753	51115.07
566.115	51264.67
566.477	51426.02
566.839	51487.94
567.201	51703.75
567.563	51811.1
567.925	51873.69
568.287	52048.38
568.648	52079.11
569.01	52278.88
569.372	52407.92
569.734	52407.01
570.095	52624.86
570.457	52706.44
570.819	52813.1
571.18	52814.46
571.542	52990.05
571.903	52965.19
572.265	53120.44
572.626	53224.62
572.987	53303.71
573.349	53435.69
573.71	53514.78
574.071	53632.74
574.432	53664.38
574.794	53822.34
575.155	53746.64
575.516	53754.55
575.877	53889.91
576.238	54007.42
576.599	54072.73
576.96	54058.49
577.32	54164.25
577.681	54304.82
578.042	54316.57
578.403	54275.89
578.763	54369.45
579.124	54406.51
579.485	54459.84
579.845	54606.28
580.206	54478.14
580.566	54470.91
580.927	54548.2
581.287	54727.4
581.648	54607.41
582.008	54753.84
582.368	54699.15
582.728	54794.29
583.089	54624.13
583.449	54703.9
583.809	54673.17
584.169	54766.95
584.529	54732.6
584.889	54917.45
585.249	54748.87
585.609	54722.88
585.969	54875.87
586.329	54734.41
586.688	54862.31
587.048	54725.82
587.408	54721.75
587.768	54800.4
588.127	54839.49
588.487	54699.38
588.846	54943.44
589.206	54736.44
589.565	54775.99
589.925	54918.36
590.284	54760.4
590.643	54895.99
591.003	54855.54
591.362	55008.07
591.721	54908.42
592.08	54947.28
592.44	55059.6
592.799	54937.11
593.158	54950
593.517	54914.06
593.876	55006.04
594.235	54981.63
594.593	54994.97
594.952	55015.98
595.311	55029.54
595.67	54945.93
596.029	55187.5
596.387	55158.13
596.746	55278.35
597.104	55078.35
597.463	55077.22
597.822	55204.23
598.18	55148.41
598.538	55119.71
598.897	55276.77
599.255	55078.35
599.613	55430.21
599.972	55298.91
600.33	55412.36
600.688	55256.65
601.046	55373.94
601.404	55445.35
601.762	55430.66
602.12	55540.26
602.478	55506.82
602.836	55549.75
603.194	55425.92
603.552	55481.28
603.91	55333.49
604.268	55540.94
604.625	55431.11
604.983	55535.07
605.341	55439.47
605.698	55612.58
606.056	55633.82
606.413	55640.15
606.771	55687.83
607.128	55724.21
607.485	55608.06
607.843	55671.33
608.2	55926.24
608.557	55890.54
608.914	55810.99
609.272	55855.73
609.629	55968.27
609.986	56032.91
610.343	55876.07
610.7	56118.1
611.057	55996.3
611.414	55988.84
611.771	56086.01
612.127	56137.08
612.484	56110.64
612.841	56283.29
613.198	56098.21
613.554	56206.69
613.911	56269.06
614.267	56242.17
614.624	56268.61
614.98	56264.31
615.337	56449.62
615.693	56402.39
616.05	56320.36
616.406	56497.98
616.762	56388.15
617.118	56449.17
617.475	56358.77
617.831	56472.22
618.187	56445.55
618.543	56443.06
618.899	56627.69
619.255	56514.47
619.611	56520.12
619.967	56585.43
620.323	56678.99
620.678	56542.04
621.034	56517.41
621.39	56542.04
621.746	56438.09
622.101	56735.94
622.457	56495.72
622.812	56572.78
623.168	56606.45
623.523	56616.39
623.879	56647.13
624.234	56544.08
624.589	56647.8
624.945	56637.18
625.3	56651.19
625.655	56644.41
626.01	56641.7
626.365	56632.89
626.72	56632.66
627.075	56610.74
627.43	56569.16
627.785	56493.68
628.14	56598.77
628.495	56591.76
628.85	56522.16
629.205	56450.97
629.559	56647.13
629.914	56474.7
630.269	56497.75
630.623	56387.7
630.978	56359.45
631.332	56499.79
631.687	56512.67
632.041	56356.51
632.396	56407.81
632.75	56287.81
633.104	56391.77
633.459	56267.25
633.813	56186.12
634.167	56178.21
634.521	56210.08
634.875	56172.34
635.229	56151.77
635.583	56010.98
635.937	55956.3
636.291	55958.33
636.645	55970.99
636.999	55938.44
637.352	55940.03
637.706	55728.28
638.06	55909.74
638.413	55806.47
638.767	55678.11
639.121	55827.49
639.474	55601.05
639.828	55638.57
640.181	55626.81
640.534	55655.74
640.888	55501.39
641.241	55434.5
641.594	55478.8
641.947	55519.25
642.301	55490.32
642.654	55426.59
643.007	55455.97
643.36	55365.58
643.713	55309.31
644.066	55387.5
644.419	55164
644.771	55025.7
645.124	54684.47
645.477	54743
645.83	54485.6
646.182	54376.68
646.535	54253.07
646.888	54387.75
647.24	54117.7
647.593	54292.61
647.945	54277.02
648.298	54056.91
648.65	54123.58
649.002	54047.65
649.355	54085.61
649.707	54055.33
650.059	54137.59
650.411	54521.76
650.763	54554.98
651.115	54758.36
651.467	54651.47
651.819	54613.06
652.171	54579.84
652.523	54481.08
652.875	54515.43
653.227	54368.09
653.578	54526.5
653.93	54380.52
654.282	54385.94
654.633	54284.93
654.985	54301.43
655.337	54329.67
655.688	54281.09
656.039	54309.33
656.391	54111.6
656.742	54136.23
657.094	54082
657.445	54262.1
657.796	54209.68
658.147	54034.77
658.498	54102.79
658.849	54140.75
659.2	54050.58
659.551	54025.05
659.902	54070.02
660.253	54002.68
660.604	54048.32
660.955	53869.12
661.306	54006.97
661.656	53926.07
662.007	54021.43
662.358	53907.09
662.708	53900.08
663.059	53777.37
663.409	53654.44
663.76	53876.8
664.11	53847.88
664.461	53780.08
664.811	53835
665.161	53785.28
665.511	53692.85
665.862	53703.7
666.212	53782.34
666.562	53658.05
666.912	53679.97
667.262	53605.85
667.612	53638.62
667.962	53659.63
668.312	53496.25
668.662	53739.86
669.011	53620.99
669.361	53445.63
669.711	53575.12
670.06	53438.62
670.41	53389.13
670.76	53374.44
671.109	53504.16
671.459	53351.17
671.808	53368.12
672.157	53436.82
672.507	53135.13
672.856	53216.03
673.205	53214.45
673.554	53282.02
673.904	53146.43
674.253	53368.12
674.602	53174.45
674.951	52708.02
675.3	52585.76
675.649	53105.98
675.998	53007.22
676.346	53024.17
676.695	53138.29
677.044	52870.95
677.393	52972.42
677.741	52960.67
678.09	52966.77
678.438	52837.96
678.787	52908.02
679.135	52822.59
679.484	52668.93
679.832	52848.81
680.181	52562.26
680.529	52708.02
680.877	52604.29
681.225	52533.34
681.573	52681.58
681.922	52529.27
682.27	52405.88
682.618	52312.78
682.966	52335.38
683.314	52332.44
683.661	52260.35
684.009	52129.28
684.357	51987.59
684.705	51968.61
685.053	52038.21
685.4	51880.25
685.748	51750.98
686.095	51732.68
686.443	51646.35
686.79	51513.7
687.138	51616.75
687.485	51556.64
687.832	51395.74
688.18	51434.83
688.527	51296.31
688.874	51255.63
689.221	51163.65
689.568	51092.92
689.915	50938.35
690.262	50953.72
690.609	50820.39
690.956	50807.51
691.303	50668.53
691.65	50469.21
691.997	50458.81
692.344	50375.88
692.69	50239.84
693.037	50270.12
693.383	50003.46
693.73	50104.93
694.077	49989.45
694.423	49854.08
694.769	49701.09
695.116	49633.3
695.462	49544.04
695.808	49398.73
696.155	49393.53
696.501	49151.73
696.847	49304.95
697.193	48951.96
697.539	49209.58
697.885	48835.58
698.231	48750.38
698.577	48808.46
698.923	48598.52
699.269	48481.01
699.614	48179.33
699.96	48225.88
700.306	48304.97
700.651	48036.05
700.997	47900.69
701.342	47723.29
701.688	47776.4
702.033	47603.07
702.379	47550.64
702.724	47458.22
703.069	47543.64
703.415	47092.58
703.76	47146.59
704.105	47149.52
704.45	46995.63
704.795	46676.32
705.14	46583.21
705.485	46606.03
705.83	46486.94
706.175	46446.04
706.52	46467.73
706.865	46172.83
707.209	46272.71
707.554	45959.27
707.899	46184.8
708.243	45773.29
708.588	45782.1
708.932	45558.6
709.277	45517.7
709.621	45639.28
709.966	45251.27
710.31	45528.77
710.654	45060.31
710.998	45128.56
711.342	45063.48
711.687	44899.19
712.031	44728.12
712.375	44731.73
712.719	44747.78
713.063	44646.54
713.407	44685.86
713.75	44395.92
714.094	44300.33
714.438	44158.87
714.782	44158.19
715.125	44026.44
715.469	44156.83
715.812	43940.57
716.156	43658.09
716.499	43647.92
716.843	43721.14
717.186	43343.52
717.53	43612.89
717.873	43616.28
718.216	43372
718.559	43349.62
718.902	42906.7
719.246	43117.31
719.589	42914.61
719.932	42822.86
720.275	42856.75
720.617	42796.87
720.96	42695.18
721.303	42665.35
721.646	42528.18
721.989	42319.82
722.331	42603.2
722.674	42233.95
723.016	42335.86
723.359	42098.58
723.701	42222.19
724.044	41971.81
724.386	41699.04
724.729	41960.51
725.071	41875.76
725.413	41796.9
725.755	41740.85
726.097	41582.89
726.439	41445.27
726.782	41484.36
727.124	41736.11
727.465	41280.07
727.807	41318.04
728.149	41148.55
728.491	40985.39
728.833	41153.97
729.175	40885.05
729.516	40893.19
729.858	40960.08
730.199	40840.99
730.541	40823.59
730.882	40640.09
731.224	40768.22
731.565	40457.95
731.906	40582.01
732.248	40452.3
732.589	40223.38
732.93	40056.15
733.271	40172.08
733.612	40301.34
733.953	40186.99
734.294	40089.14
734.635	39975.47
734.976	40066.55
735.317	39700.23
735.658	39792.88
735.999	39738.19
736.339	39530.74
736.68	39786.55
737.021	39547.46
737.361	39342.72
737.702	39589.27
738.042	39435.38
738.383	39267.24
738.723	39381.59
739.063	39228.83
739.404	39223.63
739.744	39165.1
740.084	38885.79
740.424	39042.84
740.764	38900.25
741.104	39069.51
741.444	38719.24
741.784	38618.9
742.124	38619.58
742.464	38616.19
742.804	38435.85
743.143	38402.63
743.483	38403.76
743.823	38197.44
744.162	38186.14
744.502	38258.91
744.841	38114.28
745.181	38202.64
745.52	37895.53
745.86	38078.12
746.199	37953.15
746.538	37858.92
746.877	37995.19
747.216	37830.9
747.556	37720.62
747.895	37730.56
748.234	37543
748.573	37486.73
748.911	37535.31
749.25	37391.36
749.589	37273.4
749.928	37262.33
750.267	37377.58
750.605	37150.24
750.944	37079.73
751.283	36931.71
751.621	36916.57
751.96	36657.82
752.298	36659.4
752.636	36591.38
