Data from White_reflection_standard_FLMS001491_065.txt Node
Date: Tue Feb 07 10:32:08 GMT 2017
User: dcchb
Spectrometer: FLMS00149
Trigger mode: 0
Integration Time (sec): 2.000000E-2
Scans to average: 10
Electric dark correction enabled: true
Nonlinearity correction enabled: false
Boxcar width: 0
XAxis mode: Wavelengths
Number of Pixels in Spectrum: 2048
>>>>>Begin Spectral Data<<<<<
341.393	-0.9
341.776	-0.9
342.16	-0.9
342.543	-73.67
342.927	-57.17
343.31	-66.89
343.693	-75.03
344.077	-66.21
344.46	-60.11
344.843	-49.94
345.226	-54.24
345.61	-27.57
345.993	-9.27
346.376	-13.78
346.759	0.23
347.142	27.12
347.525	50.39
347.908	51.98
348.291	98.08
348.674	102.37
349.057	92.88
349.44	134.46
349.823	135.14
350.206	210.16
350.588	231.41
350.971	233.67
351.354	261.91
351.737	280.44
352.119	305.08
352.502	316.83
352.884	300.56
353.267	315.25
353.65	312.08
354.032	346.66
354.414	348.01
354.797	353.21
355.179	368.13
355.562	370.84
355.944	395.92
356.326	362.7
356.709	404.96
357.091	385.53
357.473	393.89
357.855	411.97
358.238	398.86
358.62	392.98
359.002	431.4
359.384	411.29
359.766	399.31
360.148	409.71
360.53	394.11
360.912	392.08
361.294	432.76
361.676	404.74
362.057	420.55
362.439	374.68
362.821	398.86
363.203	375.58
363.584	405.19
363.966	386.66
364.348	406.99
364.729	398.18
365.111	407.9
365.493	401.8
365.874	414.9
366.256	404.28
366.637	430.5
367.019	402.7
367.4	412.19
367.781	411.06
368.163	427.11
368.544	401.8
368.925	437.05
369.306	437.95
369.688	427.56
370.069	432.76
370.45	448.35
370.831	430.95
371.212	443.38
371.593	426.43
371.974	444.96
372.355	429.37
372.736	440.89
373.117	459.87
373.498	436.6
373.879	439.54
374.26	432.08
374.641	426.2
375.021	443.15
375.402	446.54
375.783	467.56
376.163	507.56
376.544	513.43
376.925	498.52
377.305	493.32
377.686	472.76
378.066	456.03
378.447	490.61
378.827	505.3
379.208	523.15
379.588	510.04
379.968	530.83
380.349	529.25
380.729	506.65
381.109	528.8
381.489	544.17
381.87	556.82
382.25	536.94
382.63	560.66
383.01	551.4
383.39	551.4
383.77	564.05
384.15	573.77
384.53	577.39
384.91	574.45
385.29	586.88
385.67	583.71
386.049	598.4
386.429	610.61
386.809	614.67
387.189	626.42
387.568	592.3
387.948	610.61
388.328	665.97
388.707	659.19
389.087	658.29
389.466	668.68
389.846	686.08
390.225	671.17
390.605	694.22
390.984	670.94
391.363	702.81
391.743	695.12
392.122	734.22
392.501	733.31
392.881	731.96
393.26	743.03
393.639	737.61
394.018	752.07
394.397	767.44
394.776	762.69
395.155	788.91
395.534	793.65
395.913	805.63
396.292	823.03
396.671	829.13
397.05	829.36
397.429	825.06
397.808	838.4
398.186	831.39
398.565	846.31
398.944	849.47
399.323	862.58
399.701	902.58
400.08	900.32
400.458	913.42
400.837	924.04
401.215	922.69
401.594	937.15
401.972	929.47
402.351	960.65
402.729	985.74
403.107	974.21
403.486	989.58
403.864	1005.62
404.242	998.84
404.62	1037.94
404.999	1040.65
405.377	1039.75
405.755	1011.72
406.133	1071.38
406.511	1044.72
406.889	1066.64
407.267	1102.57
407.645	1140.31
408.023	1128.78
408.401	1153.64
408.779	1167.2
409.156	1187.09
409.534	1191.61
409.912	1227.76
410.29	1231.61
410.667	1247.42
411.045	1262.57
411.422	1283.13
411.8	1297.14
412.178	1308.44
412.555	1291.49
412.933	1364.94
413.31	1383.24
413.687	1373.75
414.065	1390.25
414.442	1428.21
414.819	1430.02
415.197	1456.01
415.574	1450.36
415.951	1479.06
416.328	1493.52
416.705	1496.46
417.082	1537.36
417.46	1540.75
417.837	1577.81
418.214	1566.06
418.591	1635.44
418.967	1606.51
419.344	1625.27
419.721	1672.27
420.098	1676.79
420.475	1694.19
420.852	1696.9
421.228	1730.58
421.605	1739.39
421.982	1768.09
422.358	1760.86
422.735	1814.42
423.111	1797.69
423.488	1791.37
423.864	1847.18
424.241	1879.5
424.617	1887.41
424.994	1931.7
425.37	1925.83
425.746	1973.06
426.123	2006.27
426.499	1978.48
426.875	1985.26
427.251	2078.36
427.627	2108.87
428.003	2127.63
428.379	2145.71
428.756	2190.9
429.132	2160.62
429.507	2248.08
429.883	2246.27
430.259	2260.96
430.635	2317.68
431.011	2351.12
431.387	2417.79
431.763	2471.57
432.138	2499.14
432.514	2497.56
432.89	2499.6
433.265	2576.66
433.641	2602.19
434.016	2593.6
434.392	2695.52
434.767	2742.3
435.143	2736.65
435.518	2736.88
435.894	2791.57
436.269	2837.89
436.644	2850.55
437.02	2889.64
437.395	2919.7
437.77	2975.51
438.145	3010.77
438.52	3037.66
438.895	3086.02
439.271	3078.79
439.646	3152.46
440.021	3138.22
440.395	3174.83
440.77	3154.95
441.145	3187.71
441.52	3241.72
441.895	3234.94
442.27	3302.96
442.645	3265.45
443.019	3393.36
443.394	3384.09
443.769	3375.05
444.143	3379.8
444.518	3487.37
444.892	3458.21
445.267	3503.18
445.641	3519.91
446.016	3539.57
446.39	3588.61
446.764	3624.31
447.139	3612.33
447.513	3680.58
447.887	3659.56
448.262	3713.57
448.636	3747.92
449.01	3796.74
449.384	3807.13
449.758	3820.46
450.132	3907.69
450.506	3939.78
450.88	3928.71
451.254	3924.19
451.628	3970.74
452.002	4080.57
452.376	4059.55
452.75	4177.29
453.123	4168.93
453.497	4239.44
453.871	4258.87
454.244	4355.59
454.618	4402.6
454.992	4377.74
455.365	4494.35
455.739	4557.85
456.112	4657.05
456.486	4666.09
456.859	4690.95
457.232	4854.34
457.606	4767.33
457.979	4852.53
458.352	4998.06
458.725	4979.98
459.099	5064.5
459.472	5172.07
459.845	5244.83
460.218	5233.31
460.591	5290.48
460.964	5349.01
461.337	5507.43
461.71	5556.01
462.083	5597.82
462.456	5690.25
462.829	5640.08
463.201	5809.11
463.574	5836.23
463.947	5923.69
464.32	6050.46
464.692	6064.47
465.065	6147.41
465.438	6221.98
465.81	6279.16
466.183	6310.57
466.555	6534.97
466.928	6532.03
467.3	6581.97
467.672	6665.59
468.045	6828.75
468.417	6887.73
468.789	6939.03
469.161	7067.16
469.534	7099.25
469.906	7352.35
470.278	7364.55
470.65	7425.57
471.022	7667.6
471.394	7782.17
471.766	7839.79
472.138	7942.62
472.51	8077.08
472.882	8255.15
473.253	8302.61
473.625	8431.19
473.997	8650.17
474.369	8727.91
474.74	8744.4
475.112	8963.15
475.484	9111.4
475.855	9205.18
476.227	9306.2
476.598	9587.77
476.97	9698.28
477.341	9914.54
477.713	10016.01
478.084	10079.51
478.455	10407.41
478.827	10501.87
479.198	10844.23
479.569	10738.7
479.94	11114.96
480.311	11229.31
480.682	11512.24
481.053	11724.44
481.424	11876.52
481.795	12071.32
482.166	12235.16
482.537	12408.71
482.908	12749.5
483.279	12836.95
483.65	13038.53
484.021	13245.08
484.391	13301.8
484.762	13603.71
485.133	13746.08
485.503	13948.56
485.874	14180.19
486.244	14300.41
486.615	14589.67
486.985	14791.48
487.356	15040.06
487.726	15181.07
488.097	15473.72
488.467	15454.06
488.837	15887.27
489.207	16061.27
489.578	16307.82
489.948	16480.92
490.318	16628.26
490.688	16822.83
491.058	17037.07
491.428	17274.8
491.798	17435.25
492.168	17865.97
492.538	17851.51
492.908	18023.25
493.278	18280.42
493.648	18361.1
494.017	18677.7
494.387	18813.74
494.757	18920.86
495.126	19148.65
495.496	19200.17
495.866	19286.95
496.235	19536.44
496.605	19830.44
496.974	19812.13
497.344	20138.23
497.713	20166.7
498.082	20340.03
498.452	20641.04
498.821	20691.66
499.19	20735.5
499.559	21033.8
499.928	21087.36
500.298	21255.49
500.667	21505.42
501.036	21527.57
501.405	21735.93
501.774	21719.43
502.143	22037.84
502.512	22155.35
502.88	22222.92
503.249	22360.09
503.618	22587.88
503.987	22652.51
504.356	22782.68
504.724	22888.21
505.093	23189.45
505.462	23192.38
505.83	23363.91
506.199	23641.86
506.567	23936.77
506.936	23891.58
507.304	24255.63
507.672	24266.03
508.041	24371.56
508.409	24592.12
508.777	24797.31
509.145	25005.44
509.514	24963.41
509.882	25323.85
510.25	25421.25
510.618	25562.27
510.986	25668.48
511.354	25978.53
511.722	26151.63
512.09	26387.78
512.458	26416.48
512.826	26827.54
513.193	26800.65
513.561	26922
513.929	27171.04
514.297	27322.22
514.664	27502.1
515.032	27725.6
515.4	27896.22
515.767	28098.92
516.135	28275.41
516.502	28136.44
516.869	28763.31
517.237	28847.83
517.604	28808.06
517.972	29275.16
518.339	29397.19
518.706	29468.15
519.073	29664.08
519.44	29809.84
519.808	30225.19
520.175	30277.85
520.542	30680.32
520.909	30779.53
521.276	30885.29
521.643	31296.13
522.009	31516.01
522.376	31631.71
522.743	31900.86
523.11	32287.96
523.477	32515.3
523.843	32566.15
524.21	33078.68
524.577	33266.24
524.943	33399.35
525.31	33665.78
525.676	33898.77
526.043	34013.79
526.409	34275.03
526.776	34698.97
527.142	34765.41
527.508	35092.86
527.874	35210.37
528.241	35503.25
528.607	35599.52
528.973	35972.61
529.339	35875.21
529.705	36284.47
530.071	36696.21
530.437	36803.33
530.803	36966.26
531.169	37298
531.535	37222.98
531.901	37425
532.267	37572.57
532.632	37894.37
532.998	37983.41
533.364	38289.16
533.73	38287.58
534.095	38630.17
534.461	38686.89
534.826	38926.66
535.192	39092.31
535.557	39400.77
535.923	39342.92
536.288	39496.14
536.653	39835.34
537.019	39699.97
537.384	39984.94
537.749	40181.32
538.114	40176.12
538.479	40346.28
538.845	40532.04
539.21	40618.37
539.575	40730.91
539.94	40861.75
540.305	41112.82
540.67	40991.69
541.034	41348.74
541.399	41533.15
541.764	41520.26
542.129	41758
542.494	41950.54
542.858	42149.4
543.223	42009.52
543.587	42364.76
543.952	42261.04
544.316	42499
544.681	42513.01
545.045	42635.26
545.41	42841.13
545.774	43047.68
546.138	43109.6
546.503	43259.65
546.867	43227.34
547.231	43652.41
547.595	43637.27
547.959	43815.12
548.324	43930.14
548.688	44041.33
549.052	44284.26
549.416	44218.5
549.779	44451.03
550.143	44548.66
550.507	44836.56
550.871	45018.93
551.235	44878.14
551.599	45354.97
551.962	45377.79
552.326	45474.51
552.689	45757.89
553.053	45708.63
553.417	45995.17
553.78	46221.61
554.143	46112.91
554.507	46385.22
554.87	46456.86
555.234	46842.61
555.597	46658.89
555.96	46829.73
556.323	47066.11
556.686	47146.33
557.05	47434.23
557.413	47577.51
557.776	47623.83
558.139	47949.47
558.502	47991.73
558.865	48236.7
559.228	48463.36
559.59	48495
559.953	48584.94
560.316	48968.88
560.679	48950.8
561.041	49230.8
561.404	49352.37
561.767	49701.29
562.129	49491.35
562.492	49949.42
562.854	49895.41
563.217	49936.09
563.579	50190.09
563.941	50390.99
564.304	50557.09
564.666	50673.24
565.028	50774.94
565.39	50891.54
565.753	51159.56
566.115	51254.7
566.477	51428.48
566.839	51456.73
567.201	51672.31
567.563	51779.66
567.925	51936.49
568.287	52015.58
568.648	51965.41
569.01	52287.89
569.372	52506.42
569.734	52430.49
570.095	52618.5
570.457	52745.73
570.819	52885.62
571.18	52889
571.542	52982.34
571.903	52963.35
572.265	53151.6
572.626	53238.37
572.987	53279.73
573.349	53441.31
573.71	53444.47
574.071	53579.83
574.432	53609.44
574.794	53770.11
575.155	53852.14
575.516	53782.99
575.877	54008.3
576.238	53891.69
576.599	54119.71
576.96	54158.8
577.32	54125.58
577.681	54249.87
578.042	54339.14
578.403	54201.74
578.763	54335.75
579.124	54362.19
579.485	54561.5
579.845	54601.95
580.206	54428.4
580.566	54494.61
580.927	54631.33
581.287	54694.16
581.648	54554.05
582.008	54708.62
582.368	54682.86
582.728	54716.53
583.089	54643.31
583.449	54673.82
583.809	54773.7
584.169	54774.38
584.529	54739.35
584.889	54947.71
585.249	54786.13
585.609	54753.36
585.969	54865.9
586.329	54669.07
586.688	54829.29
587.048	54798.56
587.408	54789.52
587.768	54775.51
588.127	54788.84
588.487	54754.27
588.846	54923.75
589.206	54723.08
589.565	54748.62
589.925	54923.3
590.284	54832
590.643	54793.81
591.003	54909.97
591.362	54995.16
591.721	54961.94
592.08	54945.9
592.44	54961.27
592.799	54984.32
593.158	54963.98
593.517	54982.51
593.876	55043.98
594.235	54909.74
594.593	54883.53
594.952	55080.13
595.311	54986.35
595.67	55086.01
596.029	55230.86
596.387	55108.16
596.746	55254.59
597.104	55080.81
597.463	55074.94
597.822	55243.29
598.18	55148.38
598.538	55103.64
598.897	55276.96
599.255	55083.3
599.613	55431.76
599.972	55253.46
600.33	55282.16
600.688	55229.51
601.046	55363.06
601.404	55398.32
601.762	55302.95
602.12	55555.15
602.478	55504.98
602.836	55437.64
603.194	55377.75
603.552	55514.02
603.91	55404.87
604.268	55540.46
604.625	55484.64
604.983	55589.95
605.341	55454.14
605.698	55575.49
606.056	55622.72
606.413	55664.75
606.771	55777.29
607.128	55707.46
607.485	55631.98
607.843	55608.48
608.2	55787.91
608.557	55914.24
608.914	55801.24
609.272	55936.16
609.629	55959.88
609.986	56029.71
610.343	55882.82
610.7	56095.25
611.057	56058.41
611.414	56032.43
611.771	56124.85
612.127	56142.7
612.484	56142.7
612.841	56147
613.198	56142.25
613.554	56173.89
613.911	56263.15
614.267	56343.38
614.624	56207.56
614.98	56280.78
615.337	56422.7
615.693	56309.71
616.05	56323.49
616.406	56454.33
616.762	56405.97
617.118	56367.33
617.475	56388.12
617.831	56454.33
618.187	56467.22
618.543	56502.7
618.899	56651.39
619.255	56574.78
619.611	56506.31
619.967	56626.53
620.323	56688.23
620.678	56606.87
621.034	56487.1
621.39	56493.88
621.746	56474
622.101	56762.35
622.457	56550.6
622.812	56620.88
623.168	56632.41
623.523	56601.9
623.879	56667.21
624.234	56562.58
624.589	56644.39
624.945	56615.01
625.3	56645.06
625.655	56639.87
626.01	56597.38
626.365	56683.03
626.72	56602.81
627.075	56625.4
627.43	56557.61
627.785	56507.89
628.14	56632.18
628.495	56626.99
628.85	56569.59
629.205	56448.23
629.559	56635.8
629.914	56485.29
630.269	56469.7
630.623	56396.71
630.978	56382.02
631.332	56440.78
631.687	56499.08
632.041	56393.77
632.396	56449.14
632.75	56315.58
633.104	56306.99
633.459	56211.4
633.813	56196.94
634.167	56137.73
634.521	56126.43
634.875	56218.18
635.229	56090.5
635.583	55997.62
635.937	55988.58
636.291	55964.4
636.645	55981.13
636.999	55911.75
637.352	56019.54
637.706	55850.96
638.06	55911.98
638.413	55824.97
638.767	55717.18
639.121	55808.25
639.474	55613.23
639.828	55613.45
640.181	55661.59
640.534	55669.04
640.888	55523.96
641.241	55425.89
641.594	55577.07
641.947	55525.55
642.301	55506.79
642.654	55420.92
643.007	55437.86
643.36	55315.16
643.713	55316.51
644.066	55366.23
644.419	55229.51
644.771	54981.61
645.124	54666.59
645.477	54696.87
645.83	54526.7
646.182	54334.16
646.535	54356.54
646.888	54382.07
647.24	54163.32
647.593	54372.58
647.945	54287.61
648.298	54186.82
648.65	54055.53
649.002	54025.47
649.355	54004.68
649.707	54025.92
650.059	54130.1
650.411	54504.1
650.763	54487.15
651.115	54785.45
651.467	54651.22
651.819	54622.07
652.171	54517.21
652.523	54541.39
652.875	54463.65
653.227	54391.11
653.578	54598.56
653.93	54396.54
654.282	54262.53
654.633	54240.38
654.985	54291.91
655.337	54218.91
655.688	54304.56
656.039	54303.66
656.391	54077
656.742	54173.04
657.094	54141.85
657.445	54234.73
657.796	54128.52
658.147	54021.63
658.498	54049.43
658.849	54070.44
659.2	54032.7
659.551	53987.96
659.902	54089.65
660.253	53973.27
660.604	54036.77
660.955	53819.15
661.306	53969.43
661.656	53947.28
662.007	53866.83
662.358	53892.14
662.708	53925.59
663.059	53893.05
663.409	53682.66
663.76	53854.4
664.11	53758.59
664.461	53807.4
664.811	53780.28
665.161	53790.22
665.511	53684.69
665.862	53689.44
666.212	53765.37
666.562	53767.4
666.912	53650.34
667.262	53758.59
667.612	53629.1
667.962	53629.1
668.312	53528.08
668.662	53723.56
669.011	53552.26
669.361	53510.91
669.711	53548.65
670.06	53444.92
670.41	53500.97
670.76	53338.26
671.109	53517.01
671.459	53406.73
671.808	53330.35
672.157	53393.4
672.507	53282.21
672.856	53149.34
673.205	53247.19
673.554	53352.72
673.904	53212.16
674.253	53301.2
674.602	53192.05
674.951	52771.95
675.3	52580.31
675.649	53104.59
675.998	52970.36
676.346	53119.96
676.695	53184.59
677.044	52897.59
677.393	53094.65
677.741	52961.09
678.09	52930.13
678.438	52892.39
678.787	52920.42
679.135	52867.99
679.484	52688.11
679.832	52795.67
680.181	52564.72
680.529	52629.8
680.877	52518.17
681.225	52582.57
681.573	52699.18
681.922	52450.82
682.27	52454.44
682.618	52310.94
682.966	52201.11
683.314	52299.42
683.661	52275.69
684.009	52104.39
684.357	51988.69
684.705	51968.8
685.053	52006.32
685.4	51916.15
685.748	51757.28
686.095	51807.68
686.443	51632.54
686.79	51628.25
687.138	51636.16
687.485	51627.12
687.832	51436.39
688.18	51399.78
688.527	51305.77
688.874	51336.28
689.221	51110.75
689.568	51086.11
689.915	50976.96
690.262	50882.73
690.609	50911.43
690.956	50795.05
691.303	50719.12
691.65	50560.48
691.997	50534.04
692.344	50362.97
692.69	50307.83
693.037	50294.5
693.383	50009.98
693.73	50148.96
694.077	49874.17
694.423	49894.96
694.769	49798.69
695.116	49726.15
695.462	49698.35
695.808	49451.81
696.155	49441.86
696.501	49202.1
696.847	49247.29
697.193	48891.82
697.539	49149.89
697.885	48750.58
698.231	48801.65
698.577	48726.18
698.923	48687.53
699.269	48446.86
699.614	48239.86
699.96	48201.22
700.306	48166.87
700.651	48003.71
700.997	47918.29
701.342	47910.83
701.688	47809.82
702.033	47685.3
702.379	47665.64
702.724	47546.09
703.069	47561.69
703.415	47148.36
703.76	47135.94
704.105	47092.1
704.45	46938.2
704.795	46827.24
705.14	46727.13
705.485	46627.02
705.83	46479.91
706.175	46480.81
706.52	46382.74
706.865	46185
707.209	46155.17
707.554	45970.32
707.899	46062.29
708.243	45830.89
708.588	45846.48
708.932	45572.36
709.277	45434.29
709.621	45534.85
709.966	45193.61
710.31	45384.8
710.654	44977.57
710.998	44977.12
711.342	45077.01
711.687	44829.1
712.031	44798.37
712.375	44499.17
712.719	44796.34
713.063	44625.49
713.407	44622.33
713.75	44332.39
714.094	44413.97
714.438	44185.28
714.782	44243.13
715.125	43997.71
715.469	44051.5
715.812	43883.37
716.156	43632.75
716.499	43660.77
716.843	43699.42
717.186	43453.55
717.53	43548.23
717.873	43588.23
718.216	43390.5
718.559	43234.57
718.902	42974.24
719.246	43078.42
719.589	42965.42
719.932	42823.96
720.275	42796.84
720.617	42749.38
720.96	42631.87
721.303	42640.46
721.646	42695.37
721.989	42312.56
722.331	42457.87
722.674	42365.44
723.016	42318.44
723.359	42204.54
723.701	42259.91
724.044	41949.41
724.386	41821.27
724.729	42022.62
725.071	41894.49
725.413	41844.78
725.755	41722.52
726.097	41600.26
726.439	41453.6
726.782	41373.15
727.124	41520.94
727.465	41336.99
727.807	41174.96
728.149	41077.79
728.491	40982.88
728.833	41178.58
729.175	40997.11
729.516	40834.86
729.858	40920.96
730.199	40886.16
730.541	40822.88
730.882	40787.4
731.224	40761.64
731.565	40432.61
731.906	40622.21
732.248	40481.2
732.589	40287.08
732.93	40190.13
733.271	40266.96
733.612	40324.36
733.953	40246.85
734.294	39970.02
734.635	40010.47
734.976	40062.68
735.317	39746.07
735.658	39776.81
735.999	39723.02
736.339	39535.68
736.68	39695.91
737.021	39574.78
737.361	39332.3
737.702	39504.27
738.042	39310.38
738.383	39205.07
738.723	39305.86
739.063	39048.69
739.404	39214.56
739.744	39061.8
740.084	39024.06
740.424	38921.01
740.764	38778.19
741.104	38930.73
741.444	38796.04
741.784	38723.95
742.124	38694.35
742.464	38568.7
742.804	38515.82
743.143	38416.17
743.483	38438.99
743.823	38295.72
744.162	38113.35
744.502	38245.32
744.841	38147.7
745.181	38246.68
745.52	38049.62
745.86	38031.32
746.199	37912.22
746.538	37881.49
746.877	37927.14
747.216	37957.42
747.556	37747.48
747.895	37612.34
748.234	37573.93
748.573	37474.04
748.911	37491.67
749.25	37452.12
749.589	37279.02
749.928	37247.38
750.267	37241.73
750.605	37215.07
750.944	37095.97
751.283	36897.56
751.621	37031.79
751.96	36658.25
752.298	36710.67
752.636	36645.36
