Data from white_poster_card_FLMS001491_00076.txt Node
Date: Wed Feb 08 11:51:59 GMT 2017
User: dcchb
Spectrometer: FLMS00149
Trigger mode: 0
Integration Time (sec): 2.000000E-2
Scans to average: 10
Electric dark correction enabled: true
Nonlinearity correction enabled: false
Boxcar width: 0
XAxis mode: Wavelengths
Number of Pixels in Spectrum: 2048
>>>>>Begin Spectral Data<<<<<
341.393	-6.48
341.776	-6.48
342.16	-6.48
342.543	-76.54
342.927	-52.81
343.31	-56.2
343.693	-73.37
344.077	-73.6
344.46	-58.68
344.843	-51.91
345.226	-45.35
345.61	-29.99
345.993	-13.04
346.376	-22.3
346.759	24.25
347.142	29.9
347.525	45.04
347.908	40.97
348.291	65.83
348.674	108.09
349.057	110.35
349.44	126.85
349.823	136.11
350.206	165.72
350.588	203.91
350.971	222.21
351.354	225.38
351.737	258.37
352.119	252.95
352.502	276
352.884	286.16
353.267	298.82
353.65	300.18
354.032	304.24
354.414	320.74
354.797	298.14
355.179	320.74
355.562	329.33
355.944	336.11
356.326	326.62
356.709	299.72
357.091	336.78
357.473	331.81
357.855	338.82
358.238	341.53
358.62	351.25
359.002	358.93
359.384	340.85
359.766	343.34
360.148	325.49
360.53	354.19
360.912	346.05
361.294	335.88
361.676	338.59
362.057	328.65
362.439	336.11
362.821	350.34
363.203	345.82
363.584	338.59
363.966	318.48
364.348	343.34
364.729	319.38
365.111	302.89
365.493	349.44
365.874	331.81
366.256	311.93
366.637	329.55
367.019	335.66
367.4	329.55
367.781	325.49
368.163	325.94
368.544	326.16
368.925	330.46
369.306	334.75
369.688	308.54
370.069	322.77
370.45	315.99
370.831	320.06
371.212	319.84
371.593	346.95
371.974	320.06
372.355	330.91
372.736	336.33
373.117	310.12
373.498	318.25
373.879	324.58
374.26	318.25
374.641	342.43
375.021	322.1
375.402	333.62
375.783	328.88
376.163	355.09
376.544	314.64
376.925	342.21
377.305	353.73
377.686	317.35
378.066	349.67
378.447	344.69
378.827	357.12
379.208	347.63
379.588	344.47
379.968	364.81
380.349	348.76
380.729	355.77
381.109	372.94
381.489	366.39
381.87	363.68
382.25	354.64
382.63	360.51
383.01	362.09
383.39	366.61
383.77	366.84
384.15	349.21
384.53	364.13
384.91	356.45
385.29	358.93
385.67	375.88
386.049	364.58
386.429	387.86
386.809	363.22
387.189	388.99
387.568	375.2
387.948	384.24
388.328	380.4
388.707	392.38
389.087	385.37
389.466	393.51
389.846	392.15
390.225	396.9
390.605	379.72
390.984	382.66
391.363	399.16
391.743	395.99
392.122	399.83
392.501	425.37
392.881	408.2
393.26	413.85
393.639	400.06
394.018	421.53
394.397	407.07
394.776	424.69
395.155	435.99
395.534	425.6
395.913	426.95
396.292	433.96
396.671	430.57
397.05	439.16
397.429	445.26
397.808	444.58
398.186	454.75
398.565	446.16
398.944	455.65
399.323	460.85
399.701	475.31
400.08	453.17
400.458	459.04
400.837	478.48
401.215	441.41
401.594	480.28
401.972	487.97
402.351	484.13
402.729	470.79
403.107	502.2
403.486	515.54
403.864	492.94
404.242	494.29
404.62	511.7
404.999	513.73
405.377	516.44
405.755	510.11
406.133	522.32
406.511	522.54
406.889	552.15
407.267	535.2
407.645	557.8
408.023	553.73
408.401	576.78
408.779	589.21
409.156	590.56
409.534	587.85
409.912	617.68
410.29	628.53
410.667	604.8
411.045	639.38
411.422	668.98
411.8	641.86
412.178	674.18
412.555	697.91
412.933	718.7
413.31	714.85
413.687	740.16
414.065	756.21
414.442	746.94
414.819	788.75
415.197	812.48
415.574	795.98
415.951	833.72
416.328	825.36
416.705	851.8
417.082	875.98
417.46	901.74
417.837	928.41
418.214	904.68
418.591	923.21
418.967	915.3
419.344	978.8
419.721	991.68
420.098	959.37
420.475	1001.4
420.852	1015.86
421.228	1038.91
421.605	1054.28
421.982	1070.78
422.358	1081.85
422.735	1098.57
423.111	1102.87
423.488	1142.19
423.864	1116.88
424.241	1148.97
424.617	1140.83
424.994	1149.42
425.37	1209.53
425.746	1201.62
426.123	1215.41
426.499	1238.46
426.875	1266.93
427.251	1296.99
427.627	1288.85
428.003	1308.51
428.379	1345.12
428.756	1350.77
429.132	1377.66
429.507	1397.32
429.883	1427.15
430.259	1464.44
430.635	1434.38
431.011	1475.51
431.387	1527.04
431.763	1542.18
432.138	1539.47
432.514	1546.92
432.89	1578.11
433.265	1612.01
433.641	1603.87
434.016	1634.38
434.392	1691.1
434.767	1725
435.143	1685.45
435.518	1724.32
435.894	1737.43
436.269	1761.61
436.644	1816.97
437.02	1848.38
437.395	1805.45
437.77	1868.5
438.145	1873.69
438.52	1863.3
438.895	1899.91
439.271	1917.08
439.646	1948.95
440.021	1967.48
440.395	1993.69
440.77	1974.48
441.145	1990.07
441.52	2037.53
441.895	2044.08
442.27	2065.1
442.645	2047.7
443.019	2084.76
443.394	2105.1
443.769	2106.23
444.143	2115.27
444.518	2158.66
444.892	2140.35
445.267	2135.61
445.641	2195.95
446.016	2156.17
446.39	2169.73
446.764	2185.55
447.139	2221.93
447.513	2251.54
447.887	2246.34
448.262	2292.44
448.636	2304.64
449.01	2312.78
449.384	2331.08
449.758	2376.73
450.132	2326.56
450.506	2402.49
450.88	2417.18
451.254	2419.22
451.628	2404.53
452.002	2458.31
452.376	2447.46
452.75	2467.35
453.123	2537.86
453.497	2557.07
453.871	2594.35
454.244	2626.22
454.618	2674.35
454.992	2661.02
455.365	2699.66
455.739	2714.35
456.112	2756.61
456.486	2793.44
456.859	2806.32
457.232	2837.28
457.606	2898.98
457.979	2887.68
458.352	2970.39
458.725	2980.11
459.099	2986.21
459.472	3063.72
459.845	3104.17
460.218	3102.14
460.591	3126.77
460.964	3137.84
461.337	3245.86
461.71	3272.75
462.083	3320.89
462.456	3313.43
462.829	3308.01
463.201	3397.5
463.574	3386.65
463.947	3503.26
464.32	3519.07
464.692	3558.85
465.065	3585.06
465.438	3650.6
465.81	3663.25
466.183	3725.4
466.555	3802.91
466.928	3817.37
467.3	3811.72
467.672	3812.4
468.045	3976.01
468.417	3981.43
468.789	4008.55
469.161	4064.6
469.534	4154.31
469.906	4207.64
470.278	4242.9
470.65	4299.62
471.022	4365.83
471.394	4451.48
471.766	4482.44
472.138	4518.14
472.51	4561.53
472.882	4665.03
473.253	4728.31
473.625	4792.49
473.997	4906.83
474.369	4916.55
474.74	5002.2
475.112	5075.87
475.484	5170.78
475.855	5243.1
476.227	5252.14
476.598	5371.23
476.97	5438.35
477.341	5559.47
477.713	5638.34
478.084	5636.98
478.455	5858
478.827	5881.95
479.198	6043.98
479.569	6046.47
479.94	6228.16
480.311	6284.88
480.682	6413.46
481.053	6549.73
481.424	6650.52
481.795	6735.49
482.166	6805.99
482.537	6903.84
482.908	7048.7
483.279	7113.78
483.65	7215.25
484.021	7422.02
484.391	7408.92
484.762	7549.7
485.133	7567.1
485.503	7709.02
485.874	7874.44
486.244	7957.38
486.615	8087.54
486.985	8207.99
487.356	8332.51
487.726	8424.93
488.097	8645.04
488.467	8530.69
488.837	8810.91
489.207	8864.02
489.578	8984.47
489.948	9118.47
490.318	9265.14
490.688	9308.75
491.058	9393.95
491.428	9593.72
491.798	9627.61
492.168	9859.92
492.538	9875.29
492.908	10019.47
493.278	10026.25
493.648	10152.35
494.017	10203.64
494.387	10368.16
494.757	10502.39
495.126	10615.61
495.496	10628.72
495.866	10733.35
496.235	10857.41
496.605	10968.82
496.974	11012.44
497.344	11132.43
497.713	11170.62
498.082	11212.43
498.452	11412.65
498.821	11473.67
499.19	11469.15
499.559	11638.86
499.928	11659.43
500.298	11771.74
500.667	11901.9
501.036	11915.92
501.405	12053.76
501.774	12023.94
502.143	12136.7
502.512	12167.89
502.88	12398.84
503.249	12325.62
503.618	12490.14
503.987	12550.48
504.356	12597.93
504.724	12729.23
505.093	12738.27
505.462	12830.02
505.83	12897.81
506.199	13050.12
506.567	13244.24
506.936	13211.93
507.304	13339.15
507.672	13384.13
508.041	13551.58
508.409	13626.38
508.777	13802.87
509.145	13861.85
509.514	13919.03
509.882	14093.94
510.25	14127.61
510.618	14214.39
510.986	14248.74
511.354	14478.11
511.722	14507.03
512.09	14649.18
512.458	14667.26
512.826	14732.56
513.193	14976.4
513.561	15042.84
513.929	15109.96
514.297	15241.93
514.664	15373.23
515.032	15415.94
515.4	15621.81
515.767	15614.12
516.135	15702.71
516.502	15639.89
516.869	15957.62
517.237	16109.03
517.604	16058.41
517.972	16213.66
518.339	16293.2
518.706	16453.88
519.073	16543.82
519.44	16629.24
519.808	16831.27
520.175	16888.44
520.542	17155.33
520.909	17214.76
521.276	17187.19
521.643	17425.38
522.009	17664.92
522.376	17637.12
522.743	17767.97
523.11	17958.24
523.477	18064.68
523.843	18258.35
524.21	18476.42
524.577	18567.49
524.943	18686.36
525.31	18747.83
525.676	18967.03
526.043	19056.29
526.409	19221.71
526.776	19421.71
527.142	19460.8
527.508	19623.51
527.874	19717.74
528.241	19900.56
528.607	19963.61
528.973	20141.01
529.339	20157.51
529.705	20368.35
530.071	20628.91
530.437	20590.72
530.803	20703.93
531.169	20957.94
531.535	20729.24
531.901	20976.02
532.267	21123.58
532.632	21279.96
532.998	21347.08
533.364	21439.96
533.73	21577.13
534.095	21658.26
534.461	21712.95
534.826	21945.93
535.192	22019.6
535.557	22239.26
535.923	22185.02
536.288	22340.95
536.653	22391.35
537.019	22314.96
537.384	22465.92
537.749	22695.07
538.114	22751.56
538.479	22802.63
538.845	22892.58
539.21	22918.11
539.575	23070.2
539.94	23128.28
540.305	23223.41
540.67	23283.98
541.034	23485.33
541.399	23441.04
541.764	23511.32
542.129	23631.99
542.494	23605.55
542.858	23711.76
543.223	23965.99
543.587	23906.33
543.952	24044.86
544.316	24159.66
544.681	24137.29
545.045	24303.16
545.41	24383.16
545.774	24366.21
546.138	24531.63
546.503	24545.64
546.867	24648.24
547.231	24898.85
547.595	24893.2
547.959	24971.17
548.324	24981.11
548.688	25175.23
549.052	25178.39
549.416	25206.19
549.779	25335.68
550.143	25367.54
550.507	25609.57
550.871	25630.13
551.235	25719.85
551.599	25890.92
551.962	25979.27
552.326	26026.05
552.689	26192.6
553.053	26052.27
553.417	26212.71
553.78	26560.73
554.143	26413.84
554.507	26652.03
554.87	26639.14
555.234	27023.99
555.597	26864.22
555.96	26941.28
556.323	27062.18
556.686	27172.01
557.05	27351.22
557.413	27449.97
557.776	27452.23
558.139	27700.59
558.502	27729.96
558.865	27908.04
559.228	28098.31
559.59	28287.24
559.953	28294.92
560.316	28561.13
560.679	28507.34
561.041	28803.83
561.404	28887.67
561.767	28998.18
562.129	28902.59
562.492	29224.84
562.854	29221.45
563.217	29237.95
563.579	29510.26
563.941	29608.78
564.304	29738.95
564.666	29949.79
565.028	29906.85
565.39	30139.62
565.753	30354.3
566.115	30535.99
566.477	30475.2
566.839	30600.4
567.201	30824.8
567.563	30807.17
567.925	31005.13
568.287	30939.14
568.648	31090.55
569.01	31311.56
569.372	31522.41
569.734	31471.56
570.095	31612.8
570.457	31815.05
570.819	31892.79
571.18	31804.66
571.542	32215.27
571.903	32060.02
572.265	32322.84
572.626	32395.15
572.987	32449.84
573.349	32488.71
573.71	32623.17
574.071	32578.88
574.432	32802.82
574.794	33131.85
575.155	32957.62
575.516	32868.81
575.877	33059.54
576.238	33146.09
576.599	33302.02
576.96	33343.6
577.32	33404.84
577.681	33548.79
578.042	33648
578.403	33666.08
578.763	33707.43
579.124	33822.91
579.485	33780.43
579.845	33888.22
580.206	33851.38
580.566	33853.87
580.927	33863.14
581.287	34039.18
581.648	33919.18
582.008	34039.4
582.368	33998.5
582.728	34172.73
583.089	33975.45
583.449	34060.87
583.809	34149
584.169	34131.38
584.529	34127.99
584.889	34479.16
585.249	34123.02
585.609	33985.39
585.969	34357.13
586.329	34243.46
586.688	34300.86
587.048	34159.85
587.408	34177.03
587.768	34222.22
588.127	34183.35
588.487	34112.62
588.846	34359.85
589.206	34191.71
589.565	34175.9
589.925	34432.39
590.284	34273.29
590.643	34383.57
591.003	34380.64
591.362	34498.37
591.721	34438.49
592.08	34300.41
592.44	34453.4
592.799	34478.26
593.158	34408.66
593.517	34409.56
593.876	34602.78
594.235	34413.18
594.593	34479.84
594.952	34560.52
595.311	34631.7
595.67	34615.43
596.029	34736.56
596.387	34708.31
596.746	34773.39
597.104	34754.86
597.463	34647.07
597.822	34850.23
598.18	34719.16
598.538	34784.69
598.897	34961.41
599.255	34707.18
599.613	35047.28
599.972	34922.54
600.33	34953.28
600.688	34731.59
601.046	35013.84
601.404	35101.75
601.762	35011.58
602.12	35098.58
602.478	35162.99
602.836	35075.76
603.194	34941.52
603.552	34977.46
603.91	35032.37
604.268	35181.97
604.625	35182.87
604.983	35221.74
605.341	35120.96
605.698	35304.23
606.056	35344.45
606.413	35238.47
606.771	35443.88
607.128	35560.72
607.485	35284.79
607.843	35377.45
608.2	35661.51
608.557	35715.74
608.914	35518.91
609.272	35731.11
609.629	35729.75
609.986	35835.96
610.343	35852.69
610.7	36027.82
611.057	35935.85
611.414	35930.88
611.771	35899.92
612.127	36131.32
612.484	36080.03
612.841	36162.06
613.198	35901.27
613.554	36002.29
613.911	36133.36
614.267	36175.16
614.624	36254.26
614.98	36262.17
615.337	36403.63
615.693	36406.12
616.05	36292.22
616.406	36480.47
616.762	36307.59
617.118	36462.16
617.475	36424.2
617.831	36503.52
618.187	36669.16
618.543	36567.7
618.899	36746.9
619.255	36729.27
619.611	36648.37
619.967	36774.24
620.323	36782.61
620.678	36705.32
621.034	36572.44
621.39	36670.07
621.746	36570.41
622.101	36948.93
622.457	36732.21
622.812	36763.17
623.168	36732.21
623.523	36756.84
623.879	37030.96
624.234	36705.32
624.589	36753.23
624.945	36799.78
625.3	36914.81
625.655	36864.64
626.01	36872.1
626.365	36865.99
626.72	36720.01
627.075	36664.19
627.43	36714.59
627.785	36676.17
628.14	36604.08
628.495	36731.99
628.85	36597.07
629.205	36477.98
629.559	36738.99
629.914	36562.5
630.269	36665.77
630.623	36562.27
630.978	36477.3
631.332	36682.95
631.687	36561.37
632.041	36523.86
632.396	36477.53
632.75	36244.54
633.104	36524.76
633.459	36289.29
633.813	36128.61
634.167	36162.96
634.521	36222.62
634.875	36172.45
635.229	36110.99
635.583	35911.67
635.937	36094.71
636.291	35921.84
636.645	35830.77
636.999	35931.56
637.352	35921.84
637.706	35732.01
638.06	35951.67
638.413	35805
638.767	35657.44
639.121	35757.55
639.474	35540.61
639.828	35537.44
640.181	35459.48
640.534	35484.56
640.888	35476.88
641.241	35272.36
641.594	35341.51
641.947	35397.56
642.301	35300.39
642.654	35372.93
643.007	35236.43
643.36	35166.38
643.713	35174.51
644.066	35207.73
644.419	35082.76
644.771	34699.5
645.124	34420.18
645.477	34324.59
645.83	34220.64
646.182	34024.49
646.535	33971.38
646.888	33971.15
647.24	33793.76
647.593	34059.29
647.945	33836.02
648.298	33711.05
648.65	33720.09
649.002	33690.71
649.355	33759.63
649.707	33802.57
650.059	33747.21
650.411	34156.46
650.763	34283.46
651.115	34540.18
651.467	34360.07
651.819	34271.71
652.171	34184.71
652.523	34158.49
652.875	34163.69
653.227	33997.37
653.578	34045.28
653.93	34130.7
654.282	33953.98
654.633	33978.16
654.985	33885.73
655.337	34114.43
655.688	33972.74
656.039	34058.16
656.391	33814.32
656.742	33777.71
657.094	33832.85
657.445	33895.68
657.796	33795.11
658.147	33788.33
658.498	33832.18
658.849	33751.05
659.2	33858.62
659.551	33556.02
659.902	33803.02
660.253	33698.85
660.604	33800.99
660.955	33490.72
661.306	33577.49
661.656	33568.23
662.007	33638.73
662.358	33451.85
662.708	33497.72
663.059	33449.36
663.409	33320.1
663.76	33425.63
664.11	33468.34
664.461	33474.44
664.811	33499.75
665.161	33449.81
665.511	33351.06
665.862	33461.79
666.212	33592.41
666.562	33472.64
666.912	33348.8
667.262	33291.17
667.612	33294.79
667.962	33294.11
668.312	33147.45
668.662	33504.95
669.011	33265.64
669.361	33269.93
669.711	33242.13
670.06	33088.24
670.41	33058.41
670.76	33014.57
671.109	33186.09
671.459	33102.93
671.808	33001.46
672.157	33114.23
672.507	32867.23
672.856	32781.36
673.205	32935.93
673.554	32963.05
673.904	32851.64
674.253	33051.63
674.602	32869.94
674.951	32316.51
675.3	32252.78
675.649	32781.81
675.998	32718.98
676.346	32789.04
676.695	32763.73
677.044	32608.25
677.393	32708.82
677.741	32625.2
678.09	32693.22
678.438	32553.34
678.787	32517.18
679.135	32608.48
679.484	32264.31
679.832	32576.62
680.181	32332.78
680.529	32495.26
680.877	32382.95
681.225	32311.31
681.573	32498.65
681.922	32305.89
682.27	32021.15
682.618	32107.93
682.966	31886.69
683.314	32037.42
683.661	31879.01
684.009	31803.98
684.357	31733.7
684.705	31630.2
685.053	31794.94
685.4	31768.73
685.748	31478.79
686.095	31469.75
686.443	31314.28
686.79	31253.94
687.138	31395.86
687.485	31230.44
687.832	31202.19
688.18	31261.85
688.527	31098.46
688.874	30979.6
689.221	30979.14
689.568	30824.12
689.915	30824.34
690.262	30848.98
690.609	30632.49
690.956	30575.31
691.303	30464.81
691.65	30497.57
691.997	30460.06
692.344	30114.53
692.69	30144.14
693.037	30111.82
693.383	29910.92
693.73	29983.46
694.077	29749.34
694.423	29884.48
694.769	29715.45
695.116	29680.19
695.462	29564.94
695.808	29557.71
696.155	29581.89
696.501	29234.56
696.847	29340.77
697.193	29111.4
697.539	29297.38
697.885	28960.44
698.231	28976.26
698.577	28949.14
698.923	28829.37
699.269	28613.1
699.614	28612.88
699.96	28463.73
700.306	28534.24
700.651	28339.21
700.997	28286.78
701.342	28258.31
701.688	28245.88
702.033	28102.38
702.379	28128.37
702.724	27969.28
703.069	28088.6
703.415	27817.42
703.76	27839.79
704.105	27735.61
704.45	27718.89
704.795	27485.22
705.14	27469.4
705.485	27449.74
705.83	27253.82
706.175	27453.36
706.52	27224.44
706.865	27193.03
707.209	27134.5
707.554	27057.21
707.899	27084.56
708.243	26840.49
708.588	26934.5
708.932	26758.69
709.277	26701.29
709.621	26723.21
709.966	26443.67
710.31	26571.8
710.654	26463.56
710.998	26486.38
711.342	26435.53
711.687	26284.8
712.031	26185.37
712.375	26187.4
712.719	26135.2
713.063	26121.42
713.407	26194.41
713.75	26072.15
714.094	26058.59
714.438	25826.28
714.782	25983.12
715.125	25728.89
715.469	25808.43
715.812	25670.81
716.156	25612.05
716.499	25564.37
716.843	25589.23
717.186	25485.95
717.53	25574.31
717.873	25595.78
718.216	25388.78
718.559	25387.43
718.902	25128.45
719.246	25308.33
719.589	25134.55
719.932	25035.57
720.275	24989.02
720.617	24988.79
720.96	24917.83
721.303	24931.84
721.646	24884.16
721.989	24723.04
722.331	24828.57
722.674	24839.64
723.016	24684.17
723.359	24633.32
723.701	24695.92
724.044	24429.94
724.386	24367.34
724.729	24479.65
725.071	24364.4
725.413	24324.4
725.755	24367.57
726.097	24205.54
726.439	24078.76
726.782	24051.64
727.124	24220
727.465	24093
727.807	24038.76
728.149	24012.55
728.491	23895.04
728.833	23888.71
729.175	23923.51
729.516	23823.4
729.858	23715.61
730.199	23726
730.541	23820.24
730.882	23752.44
731.224	23714.48
731.565	23565.1
731.906	23588.6
732.248	23548.83
732.589	23449.17
732.93	23365.11
733.271	23411.21
733.612	23449.4
733.953	23407.82
734.294	23295.96
734.635	23290.98
734.976	23325.11
735.317	23152.91
735.658	23108.39
735.999	23121.5
736.339	23005.79
736.68	23115.17
737.021	23043.98
737.361	22978.22
737.702	23083.08
738.042	22896.42
738.383	22859.58
738.723	22900.26
739.063	22823.88
739.404	22876.31
739.744	22748.4
740.084	22565.35
740.424	22770.55
740.764	22644.9
741.104	22665.24
741.444	22515.18
741.784	22480.16
742.124	22511.57
742.464	22385.24
742.804	22366.04
743.143	22346.38
743.483	22331.23
743.823	22342.53
744.162	22213.5
744.502	22297.79
744.841	22139.38
745.181	22214.85
745.52	22156.32
745.86	22139.6
746.199	22137.34
746.538	22089.89
746.877	22058.02
747.216	22100.96
747.556	21920.17
747.895	21925.6
748.234	21868.65
748.573	21837.01
748.911	21662.55
749.25	21709.33
749.589	21622.78
749.928	21605.83
750.267	21650.57
750.605	21538.04
750.944	21525.83
751.283	21517.47
751.621	21583.46
751.96	21368.77
752.298	21415.55
752.636	21244.94
752.975	21242.22
753.313	21227.99
753.651	21339.62
