Data from White_reflection_standard_FLMS001491_083.txt Node
Date: Tue Feb 07 10:32:11 GMT 2017
User: dcchb
Spectrometer: FLMS00149
Trigger mode: 0
Integration Time (sec): 2.000000E-2
Scans to average: 10
Electric dark correction enabled: true
Nonlinearity correction enabled: false
Boxcar width: 0
XAxis mode: Wavelengths
Number of Pixels in Spectrum: 2048
>>>>>Begin Spectral Data<<<<<
341.393	-7.39
341.776	-7.39
342.16	-7.39
342.543	-66.14
342.927	-67.95
343.31	-58.46
343.693	-74.5
344.077	-79.48
344.46	-44.45
344.843	-56.88
345.226	-44.22
345.61	-17.56
345.993	-15.07
346.376	-5.13
346.759	5.49
347.142	38.26
347.525	43.01
347.908	44.14
348.291	74.64
348.674	97.47
349.057	92.72
349.44	130.24
349.823	131.37
350.206	186.28
350.588	237.58
350.971	253.4
351.354	278.03
351.737	277.35
352.119	303.79
352.502	320.97
352.884	317.58
353.267	341.53
353.65	346.95
354.032	355.32
354.414	363.9
354.797	377.01
355.179	351.47
355.562	375.43
355.944	388.31
356.326	395.09
356.709	386.5
357.091	397.8
357.473	410
357.855	380.85
358.238	405.26
358.62	421.08
359.002	395.99
359.384	386.73
359.766	421.08
360.148	421.08
360.53	418.14
360.912	436.44
361.294	405.71
361.676	405.03
362.057	407.29
362.439	413.17
362.821	401.42
363.203	422.21
363.584	403.68
363.966	408.2
364.348	419.27
364.729	429.89
365.111	416.33
365.493	415.65
365.874	424.69
366.256	419.04
366.637	395.09
367.019	419.49
367.4	408.65
367.781	436.9
368.163	432.83
368.544	412.26
368.925	424.01
369.306	413.39
369.688	434.64
370.069	432.38
370.45	448.87
370.831	427.18
371.212	446.84
371.593	456.33
371.974	459.95
372.355	440.06
372.736	466.95
373.117	443.67
373.498	450
373.879	451.36
374.26	454.3
374.641	431.92
375.021	437.12
375.402	472.83
375.783	490.23
376.163	507.18
376.544	521.19
376.925	492.49
377.305	481.41
377.686	510.57
378.066	513.96
378.447	496.33
378.827	521.64
379.208	511.24
379.588	519.15
379.968	532.03
380.349	521.64
380.729	533.62
381.109	525.71
381.489	536.33
381.87	539.94
382.25	553.73
382.63	550.11
383.01	586.04
383.39	568.64
383.77	558.02
384.15	600.05
384.53	602.77
384.91	596.44
385.29	593.28
385.67	592.82
386.049	611.58
386.429	593.95
386.809	616.78
387.189	605.25
387.568	642.09
387.948	621.52
388.328	643.9
388.707	642.99
389.087	637.12
389.466	652.93
389.846	685.7
390.225	679.15
390.605	670.11
390.984	678.02
391.363	712.14
391.743	723.44
392.122	728.19
392.501	738.36
392.881	734.97
393.26	751.92
393.639	773.61
394.018	763.21
394.397	767.06
394.776	791.01
395.155	807.06
395.534	788.52
395.913	802.76
396.292	799.6
396.671	812.25
397.05	800.73
397.429	841.18
397.808	855.42
398.186	856.09
398.565	872.14
398.944	863.1
399.323	880.27
399.701	877.56
400.08	878.92
400.458	893.38
400.837	917.33
401.215	928.86
401.594	929.31
401.972	953.04
402.351	968.18
402.729	948.29
403.107	963.66
403.486	1001.85
403.864	977.22
404.242	1001.85
404.62	1014.73
404.999	1021.06
405.377	1043.21
405.755	1030.78
406.133	1069.42
406.511	1096.09
406.889	1049.08
407.267	1121.17
407.645	1144.9
408.023	1146.48
408.401	1131.57
408.779	1162.75
409.156	1199.36
409.534	1201.39
409.912	1227.16
410.29	1237.78
410.667	1266.25
411.045	1280.26
411.422	1299.47
411.8	1327.04
412.178	1332.24
412.555	1346.48
412.933	1369.98
413.31	1374.27
413.687	1399.36
414.065	1430.99
414.442	1429.86
414.819	1449.75
415.197	1459.47
415.574	1480.26
415.951	1496.3
416.328	1523.19
416.705	1527.04
417.082	1548.96
417.46	1567.26
417.837	1577.88
418.214	1591.89
418.591	1621.04
418.967	1626.24
419.344	1651.55
419.721	1700.36
420.098	1672.34
420.475	1699.23
420.852	1706.01
421.228	1742.62
421.605	1752.57
421.982	1738.56
422.358	1768.84
422.735	1790.53
423.111	1813.81
423.488	1833.92
423.864	1840.02
424.241	1861.49
424.617	1890.42
424.994	1904.2
425.37	1937.65
425.746	1951.66
426.123	1967.02
426.499	1998.89
426.875	2048.15
427.251	2117.76
427.627	2115.5
428.003	2106.68
428.379	2184.19
428.756	2188.49
429.132	2257.64
429.507	2235.04
429.883	2257.41
430.259	2323.4
430.635	2380.35
431.011	2349.61
431.387	2391.87
431.763	2463.06
432.138	2449.72
432.514	2513.45
432.89	2489.72
433.265	2578.76
433.641	2579.89
434.016	2627.35
434.392	2687.68
434.767	2764.74
435.143	2704.63
435.518	2745.31
435.894	2801.13
436.269	2840.67
436.644	2877.96
437.02	2898.98
437.395	2920.9
437.77	2955.02
438.145	2993.89
438.52	3049.48
438.895	3059.43
439.271	3116.6
439.646	3169.7
440.021	3204.28
440.395	3182.81
440.77	3204.28
441.145	3202.02
441.52	3254.22
441.895	3294.22
442.27	3343.26
442.645	3291.96
443.019	3365.63
443.394	3393.65
443.769	3410.15
444.143	3399.3
444.518	3498.06
444.892	3461.22
445.267	3468.45
445.641	3542.58
446.016	3521.79
446.39	3586.64
446.764	3598.62
447.139	3646.75
447.513	3670.93
447.887	3704.61
448.262	3689.47
448.636	3713.42
449.01	3794.32
449.384	3786.41
449.758	3875
450.132	3893.53
450.506	3892.85
450.88	3927.2
451.254	3950.02
451.628	4013.98
452.002	4070.92
452.376	4114.76
452.75	4181.43
453.123	4171.49
453.497	4276.79
453.871	4287.87
454.244	4340.97
454.618	4421.2
454.992	4446.73
455.365	4459.16
455.739	4619.61
456.112	4608.31
456.486	4654.86
456.859	4719.72
457.232	4834.75
457.606	4786.84
457.979	4890.79
458.352	4994.74
458.725	5039.03
459.099	5075.19
459.472	5215.07
459.845	5221.4
460.218	5291
460.591	5334.62
460.964	5423.66
461.337	5442.19
461.71	5566.48
462.083	5646.48
462.456	5614.61
462.829	5688.51
463.201	5813.7
463.574	5818.22
463.947	5911.1
464.32	6012.57
464.692	6055.73
465.065	6153.58
465.438	6297.08
465.81	6332.33
466.183	6416.17
466.555	6479.67
466.928	6558.77
467.3	6556.51
467.672	6696.84
468.045	6866.78
468.417	6902.94
468.789	6937.29
469.161	7041.24
469.534	7145.19
469.906	7328.01
470.278	7368.69
470.65	7472.42
471.022	7594.22
471.394	7804.39
471.766	7865.63
472.138	7904.5
472.51	8098.16
472.882	8239.85
473.253	8328.89
473.625	8464.03
473.997	8666.74
474.369	8664.93
474.74	8842.1
475.112	8965.03
475.484	9109.44
475.855	9210.22
476.227	9380.61
476.598	9674.39
476.97	9689.53
477.341	9948.06
477.713	10027.6
478.084	10110.99
478.455	10394.83
478.827	10466.91
479.198	10755.27
479.569	10708.26
479.94	11145.77
480.311	11221.47
480.682	11443.61
481.053	11704.85
481.424	11890.61
481.795	12099.19
482.166	12249.69
482.537	12403.81
482.908	12736.91
483.279	12861.88
483.65	12997.24
484.021	13264.35
484.391	13464.58
484.762	13561.07
485.133	13724.91
485.503	13912.02
485.874	14175.07
486.244	14347.72
486.615	14642.4
486.985	14740.25
487.356	15143.63
487.726	15212.33
488.097	15510.85
488.467	15560.34
488.837	15899.09
489.207	16093.88
489.578	16314.67
489.948	16536.58
490.318	16731.83
490.688	16719.63
491.058	17013.18
491.428	17300.41
491.798	17387.41
492.168	17852.48
492.538	17918.7
492.908	18116.66
493.278	18363.66
493.648	18315.3
494.017	18635.06
494.387	18767.26
494.757	18913.25
495.126	19123.18
495.496	19215.61
495.866	19415.38
496.235	19614.7
496.605	19769.27
496.974	19876.16
497.344	20011.07
497.713	20158.86
498.082	20399.53
498.452	20578.96
498.821	20660.54
499.19	20754.78
499.559	20944.38
499.928	21199.06
500.298	21283.35
500.667	21495.78
501.036	21483.8
501.405	21746.17
501.774	21709.78
502.143	21836.56
502.512	22147.06
502.88	22327.39
503.249	22357.22
503.618	22470.21
503.987	22655.97
504.356	22785.46
504.724	23051.89
505.093	23051.67
505.462	23229.06
505.83	23374.6
506.199	23601.03
506.567	23871.99
506.936	23844.64
507.304	24241.02
507.672	24200.11
508.041	24434.68
508.409	24642.13
508.777	24747.22
509.145	25026.53
509.514	25003.48
509.882	25248.67
510.25	25409.57
510.618	25650.7
510.986	25705.16
511.354	25943.57
511.722	26117.12
512.09	26326.84
512.458	26439.15
512.826	26737.67
513.193	26716.2
513.561	27087.27
513.929	27187.83
514.297	27439.35
514.664	27680.25
515.032	27715.73
515.4	27971.54
515.767	28129.73
516.135	28187.35
516.502	28200.46
516.869	28702.59
517.237	28794.79
517.604	28715.25
517.972	29180.32
518.339	29314.1
518.706	29564.72
519.073	29680.87
519.44	29978.04
519.808	30232.72
520.175	30198.15
520.542	30649.66
520.909	30896.66
521.276	31012.59
521.643	31265.01
522.009	31509.07
522.376	31696.19
522.743	31960.13
523.11	32226.34
523.477	32602.15
523.843	32717.4
524.21	32984.06
524.577	33328.46
524.943	33318.52
525.31	33551.05
525.676	33911.27
526.043	34125.5
526.409	34337.02
526.776	34719.61
527.142	34678.48
527.508	34948.98
527.874	35391.46
528.241	35353.27
528.607	35486.37
528.973	35907.15
529.339	35986.7
529.705	36438.43
530.071	36518.21
530.437	36688.37
530.803	37014.92
531.169	37310.05
531.535	37256.04
531.901	37421.01
532.267	37591.4
532.632	37817.16
532.998	38023.25
533.364	38261.21
533.73	38367.42
534.095	38582.56
534.461	38777.58
534.826	39036.33
535.192	39091.92
535.557	39336.66
535.923	39336.44
536.288	39612.36
536.653	39785.47
537.019	39623.21
537.384	39806.03
537.749	40215.51
538.114	40239.69
538.479	40422.06
538.845	40658.44
539.21	40625.67
539.575	40672.67
539.94	40719
540.305	41046.22
540.67	41151.98
541.034	41142.04
541.399	41483.5
541.764	41526.66
542.129	41752.65
542.494	41966.88
542.858	42013.66
543.223	42077.83
543.587	42318.73
543.952	42394.21
544.316	42516.92
544.681	42455.23
545.045	42832.39
545.41	42854.09
545.774	43010.01
546.138	43148.09
546.503	43239.84
546.867	43302.21
547.231	43675.08
547.595	43777
547.959	43878.46
548.324	44045.47
548.688	44021.96
549.052	44258.57
549.416	44366.81
549.779	44455.17
550.143	44634.6
550.507	44847.7
550.871	45023.52
551.235	45074.59
551.599	45263.06
551.962	45355.49
552.326	45548.25
552.689	45763.16
553.053	45659.89
553.417	45962.03
553.78	46331.06
554.143	46131.29
554.507	46353.2
554.87	46447.21
555.234	46813.08
555.597	46662.8
555.96	46870.02
556.323	47083.13
556.686	47146.18
557.05	47496.9
557.413	47528.09
557.776	47652.15
558.139	47933.95
558.502	47993.61
558.865	48099.6
559.228	48384.79
559.59	48519.25
559.953	48734.16
560.316	48953.59
560.679	48963.75
561.041	49159.46
561.404	49492.55
561.767	49591.08
562.129	49544.3
562.492	49950.85
562.854	50012.54
563.217	50093.22
563.579	50167.57
563.941	50420.44
564.304	50561.45
564.666	50763.03
565.028	50782.24
565.39	50977.71
565.753	51131.38
566.115	51217.93
566.477	51363.92
566.839	51374.31
567.201	51638.49
567.563	51745.38
567.925	51896.79
568.287	51913.73
568.648	52059.72
569.01	52334.29
569.372	52409.99
569.734	52369.54
570.095	52514.4
570.457	52739.25
570.819	52737.67
571.18	52802.75
571.542	52999.81
571.903	53021.05
572.265	53155.06
572.626	53275.96
572.987	53267.37
573.349	53393.24
573.71	53427.59
574.071	53515.27
574.432	53671.43
574.794	53910.07
575.155	53766.79
575.516	53738.09
575.877	53929.73
576.238	53966.34
576.599	54078.2
576.96	54126.33
577.32	54096.5
577.681	54283.39
578.042	54255.82
578.403	54233.67
578.763	54322.26
579.124	54430.5
579.485	54418.07
579.845	54551.63
580.206	54529.26
580.566	54559.31
580.927	54585.53
581.287	54714.34
581.648	54555.02
582.008	54704.62
582.368	54728.12
582.728	54747.11
583.089	54693.77
583.449	54610.16
583.809	54771.06
584.169	54782.81
584.529	54690.16
584.889	54951.62
585.249	54734.68
585.609	54675.47
585.969	54906.2
586.329	54739.87
586.688	54834.56
587.048	54816.26
587.408	54696.71
587.768	54837.95
588.127	54790.49
588.487	54783.26
588.846	54924.5
589.206	54800.44
589.565	54715.92
589.925	54853.32
590.284	54766.99
590.643	54829.14
591.003	54971.05
591.362	54937.16
591.721	54975.12
592.08	54886.54
592.44	54997.27
592.799	54946.42
593.158	55078.85
593.517	54973.54
593.876	54996.59
594.235	54987.55
594.593	54993.65
594.952	54989.59
595.311	54881.79
595.67	55034.56
596.029	55171.28
596.387	55200.43
596.746	55187.32
597.104	55140.09
597.463	55131.95
597.822	55191.84
598.18	55049.24
598.538	55128.56
598.897	55250.6
599.255	55035.01
599.613	55450.14
599.972	55243.14
600.33	55298.73
600.688	55269.58
601.046	55324.27
601.404	55393.87
601.762	55357.03
602.12	55479.52
602.478	55483.81
602.836	55536.69
603.194	55394.09
603.552	55457.6
603.91	55380.08
604.268	55549.57
604.625	55380.08
604.983	55585.28
605.341	55452.17
605.698	55587.99
606.056	55729.45
606.413	55590.93
606.771	55610.13
607.128	55712.05
607.485	55589.12
607.843	55613.52
608.2	55816.91
608.557	55835.44
608.914	55759.96
609.272	55929.9
609.629	55943.01
609.986	56086.73
610.343	55896.68
610.7	56160.4
611.057	56049.44
611.414	55985.27
611.771	56109.33
612.127	56135.32
612.484	56121.08
612.841	56216.67
613.198	56137.8
613.554	56168.31
613.911	56339.61
614.267	56270.46
614.624	56230.23
614.98	56279.27
615.337	56406.95
615.693	56435.65
616.05	56223.45
616.406	56540.28
616.762	56352.71
617.118	56374.86
617.475	56395.65
617.831	56461.18
618.187	56437.46
618.543	56481.98
618.899	56661.63
619.255	56578.7
619.611	56528.53
619.967	56616.21
620.323	56676.55
620.678	56553.61
621.034	56495.31
621.39	56530.11
621.746	56516.32
622.101	56729.88
622.457	56512.26
622.812	56573.05
623.168	56625.25
623.523	56700.95
623.879	56655.76
624.234	56521.75
624.589	56587.06
624.945	56637.45
625.3	56659.15
625.655	56635.19
626.01	56641.29
626.365	56648.75
626.72	56627.28
627.075	56618.69
627.43	56660.05
627.785	56515.65
628.14	56559.49
628.495	56580.28
628.85	56522.43
629.205	56453.5
629.559	56628.19
629.914	56459.38
630.269	56509.77
630.623	56389.1
630.978	56380.96
631.332	56520.17
631.687	56511.35
632.041	56349.1
632.396	56387.06
632.75	56335.76
633.104	56329.21
633.459	56214.19
633.813	56156.33
634.167	56188.65
634.521	56146.39
634.875	56104.58
635.229	56138.48
635.583	55933.29
635.937	55983.01
636.291	55929.45
636.645	56014.64
636.999	55903.69
637.352	55961.76
637.706	55829.56
638.06	55927.19
638.413	55789.11
638.767	55760.86
639.121	55814.87
639.474	55660.98
639.828	55603.58
640.181	55633.86
640.534	55583.69
640.888	55549.57
641.241	55465.28
641.594	55422.12
641.947	55577.14
642.301	55445.62
642.654	55406.98
643.007	55428.9
643.36	55308.9
643.713	55294.21
644.066	55384.38
644.419	55165.85
644.771	55037.72
645.124	54662.14
645.477	54639.99
645.83	54459.43
646.182	54406.1
646.535	54318.87
646.888	54341.69
647.24	54238.19
647.593	54331.98
647.945	54252.66
648.298	54120
648.65	54108.03
649.002	54005.66
649.355	54065.09
649.707	54101.92
650.059	54119.78
650.411	54412.65
650.763	54529.03
651.115	54715.92
651.467	54685.64
651.819	54644.51
652.171	54600.22
652.523	54515.7
652.875	54509.6
653.227	54371.07
653.578	54573.1
653.93	54403.61
654.282	54342.14
654.633	54254.92
654.985	54282.03
655.337	54324.74
655.688	54213.11
656.039	54383.27
656.391	54052.43
656.742	54183.5
657.094	54188.48
657.445	54193.45
657.796	54147.8
658.147	53990.29
658.498	54137.18
658.849	54137.63
659.2	54035.49
659.551	53955.71
659.902	54079.33
660.253	53981.25
660.604	54032.1
660.955	53895.38
661.306	53978.99
661.656	53946.67
662.007	53970.4
662.358	53825.77
662.708	53849.28
663.059	53859.9
663.409	53702.16
663.76	53842.04
664.11	53872.1
664.461	53817.86
664.811	53778.77
665.161	53724.08
665.511	53654.48
665.862	53708.94
666.212	53792.55
666.562	53735.15
666.912	53688.83
667.262	53687.25
667.612	53574.03
667.962	53621.49
668.312	53402.73
668.662	53735.38
669.011	53576.29
669.361	53589.4
669.711	53463.75
670.06	53440.7
670.41	53384.88
670.76	53426.91
671.109	53458.1
671.459	53339.01
671.808	53349.85
672.157	53338.1
672.507	53316.41
672.856	53147.15
673.205	53202.74
673.554	53395.28
673.904	53138.11
674.253	53386.24
674.602	53166.13
674.951	52793.94
675.3	52619.7
675.649	53090.88
675.998	53069.41
676.346	53023.99
676.695	53118
677.044	52873.03
677.393	52934.5
677.741	53008.17
678.09	52907.61
678.438	52922.52
678.787	52906.25
679.135	52925.68
679.484	52635.52
679.832	52759.81
680.181	52597.33
680.529	52650.44
680.877	52554.17
681.225	52527.05
681.573	52755.52
681.922	52465.81
682.27	52461.74
682.618	52374.74
682.966	52302.65
683.314	52309.2
683.661	52284.8
684.009	52105.37
684.357	51965.03
684.705	51956.67
685.053	51906.28
685.4	51964.58
685.748	51791.25
686.095	51719.84
686.443	51769.1
686.79	51579.51
687.138	51527.53
687.485	51575.44
687.832	51422.9
688.18	51465.61
688.527	51265.39
688.874	51255.67
689.221	51118.73
689.568	51067.65
689.915	50916.25
690.262	50909.01
690.609	50887.09
690.956	50796.48
691.303	50743.37
691.65	50548.8
691.997	50565.07
692.344	50339.76
692.69	50285.75
693.037	50325.3
693.383	49959.21
693.73	50116.72
694.077	49972.54
694.423	49945.42
694.769	49734.36
695.116	49647.58
695.462	49544.98
695.808	49476.06
696.155	49608.03
696.501	49145.67
696.847	49331.65
697.193	48916.75
697.539	49061.15
697.885	48760.14
698.231	48696.64
698.577	48649.41
698.923	48660.94
699.269	48391.57
699.614	48206.49
699.96	48250.33
700.306	48155.87
700.651	47999.26
700.997	47927.17
701.342	47876.1
701.688	47788.64
702.033	47719.04
702.379	47491.03
702.724	47489.22
703.069	47569.67
703.415	47034.31
703.76	47158.15
704.105	47122
704.45	46952.51
704.795	46775.79
705.14	46667.09
705.485	46580.09
705.83	46520.2
706.175	46520.66
706.52	46298.06
706.865	46095.36
707.209	46229.14
707.554	46025.53
707.899	45993.89
708.243	45863.27
708.588	45934.46
708.932	45481.59
709.277	45456.28
709.621	45555.03
709.966	45278.2
710.31	45355.71
710.654	44965.22
710.998	45018.1
711.342	45036.63
711.687	44923.64
712.031	44588.5
712.375	44645
712.719	44659.24
713.063	44494.95
713.407	44746.01
713.75	44261.73
714.094	44354.38
714.438	44226.03
714.782	44290.66
715.125	44118.46
715.469	44126.82
715.812	43855.64
716.156	43581.75
716.499	43728.19
716.843	43607.51
717.186	43458.81
717.53	43654.29
717.873	43697.9
718.216	43353.28
718.559	43308.76
718.902	42823.13
719.246	43106.06
719.589	43038.04
719.932	42759.62
720.275	42904.03
720.617	42799.17
720.96	42564.38
721.303	42685.95
721.646	42754.88
721.989	42446.86
722.331	42537.48
722.674	42500.87
723.016	42344.27
723.359	42394.44
723.701	42224.5
724.044	42030.38
724.386	42018.17
724.729	41925.97
725.071	41762.59
725.413	41799.88
725.755	41631.97
726.097	41640.56
726.439	41340.45
726.782	41374.12
727.124	41565.31
727.465	41313.79
727.807	41236.73
728.149	41271.3
728.491	41096.17
728.833	41074.24
729.175	40982.72
729.516	40809.62
729.858	40973.46
730.199	40871.54
730.541	40751.77
730.882	40780.02
731.224	40704.99
731.565	40500.7
731.906	40546.35
732.248	40579.79
732.589	40288.73
732.93	40247.37
733.271	40222.74
733.612	40300.25
733.953	40220.48
734.294	39981.39
734.635	39921.28
734.976	40042.63
735.317	39827.5
735.658	39679.93
735.999	39674.06
736.339	39705.24
736.68	39653.27
737.021	39612.81
737.361	39395.42
737.702	39690.1
738.042	39367.85
738.383	39355.65
738.723	39349.09
739.063	39206.72
739.404	39269.77
739.744	39182.09
740.084	39046.95
740.424	39025.49
740.764	38773.06
741.104	39091.02
741.444	38755.21
741.784	38647.42
742.124	38713.18
742.464	38604.25
742.804	38596.57
743.143	38446.29
743.483	38380.98
743.823	38190.7
744.162	38141.67
744.502	38334.88
744.841	38126.53
745.181	38264.38
745.52	38074.78
745.86	38049.01
746.199	37880.2
746.538	37825.52
746.877	37900.77
747.216	37820.09
747.556	37815.12
747.895	37787.55
748.234	37519.31
748.573	37489.25
748.911	37407.22
749.25	37430.72
749.589	37235.48
749.928	37267.57
750.267	37256.04
750.605	37093.33
750.944	37006.78
751.283	36970.62
751.621	36954.35
751.96	36793.91
752.298	36748.71
