Data from white_poster_card_FLMS001491_00088.txt Node
Date: Wed Feb 08 11:52:08 GMT 2017
User: dcchb
Spectrometer: FLMS00149
Trigger mode: 0
Integration Time (sec): 2.000000E-2
Scans to average: 10
Electric dark correction enabled: true
Nonlinearity correction enabled: false
Boxcar width: 0
XAxis mode: Wavelengths
Number of Pixels in Spectrum: 2048
>>>>>Begin Spectral Data<<<<<
341.393	-12.47
341.776	-12.47
342.16	-12.47
342.543	-79.14
342.927	-70.77
343.31	-69.42
343.693	-72.13
344.077	-63.77
344.46	-53.37
344.843	-56.76
345.226	-35.07
345.61	-21.06
345.993	-19.02
346.376	-4.79
346.759	13.74
347.142	26.4
347.525	20.97
347.908	44.02
348.291	79.96
348.674	93.51
349.057	116.79
349.44	126.73
349.823	153.85
350.206	128.99
350.588	189.78
350.971	198.14
351.354	218.93
351.737	229.33
352.119	254.19
352.502	284.02
352.884	284.47
353.267	284.7
353.65	307.07
354.032	297.12
354.414	318.37
354.797	312.72
355.179	308.65
355.562	326.05
355.944	333.96
356.326	319.05
356.709	326.95
357.091	354.07
357.473	361.98
357.855	321.53
358.238	346.39
358.62	351.59
359.002	334.64
359.384	348.42
359.766	350.23
360.148	337.35
360.53	329.44
360.912	352.49
361.294	351.13
361.676	326.95
362.057	354.3
362.439	345.26
362.821	339.16
363.203	334.64
363.584	321.08
363.966	328.54
364.348	324.92
364.729	326.28
365.111	315.43
365.493	323.34
365.874	325.37
366.256	321.31
366.637	319.5
367.019	329.44
367.4	317.69
367.781	337.8
368.163	332.15
368.544	311.81
368.925	321.76
369.306	330.8
369.688	326.05
370.069	330.57
370.45	303.23
370.831	333.06
371.212	333.51
371.593	334.19
371.974	297.58
372.355	311.59
372.736	338.71
373.117	328.31
373.498	302.77
373.879	343.68
374.26	311.81
374.641	352.04
375.021	301.64
375.402	314.07
375.783	326.73
376.163	335.54
376.544	337.12
376.925	321.31
377.305	349.55
377.686	338.03
378.066	329.21
378.447	317.92
378.827	341.64
379.208	313.85
379.588	338.71
379.968	345.49
380.349	337.8
380.729	339.61
381.109	353.39
381.489	332.6
381.87	354.07
382.25	344.81
382.63	348.2
383.01	350.23
383.39	353.39
383.77	339.38
384.15	343.9
384.53	368.31
384.91	352.49
385.29	361.53
385.67	342.1
386.049	356.56
386.429	370.34
386.809	372.83
387.189	361.08
387.568	354.75
387.948	351.59
388.328	369.44
388.707	366.95
389.087	384.13
389.466	378.93
389.846	381.64
390.225	390.91
390.605	385.94
390.984	383
391.363	389.78
391.743	386.39
392.122	383
392.501	414.41
392.881	385.03
393.26	410.34
393.639	387.74
394.018	408.53
394.397	396.78
394.776	420.96
395.155	391.81
395.534	407.18
395.913	401.53
396.292	421.19
396.671	430
397.05	420.29
397.429	427.97
397.808	423.45
398.186	430.91
398.565	432.49
398.944	426.39
399.323	430.68
399.701	431.36
400.08	441.98
400.458	402.66
400.837	445.37
401.215	436.56
401.594	440.85
401.972	441.08
402.351	447.4
402.729	468.19
403.107	468.42
403.486	457.35
403.864	482.2
404.242	484.46
404.62	479.04
404.999	490.11
405.377	498.7
405.755	496.22
406.133	525.82
406.511	491.47
406.889	505.71
407.267	525.82
407.645	522.66
408.023	539.38
408.401	544.35
408.779	541.41
409.156	565.82
409.534	534.63
409.912	570.11
410.29	566.95
410.667	573.95
411.045	588.19
411.422	619.83
411.8	614.18
412.178	633.61
412.555	665.02
412.933	657.57
413.31	661.41
413.687	693.5
414.065	685.14
414.442	683.78
414.819	727.62
415.197	725.81
415.574	738.47
415.951	743.89
416.328	795.64
416.705	797.68
417.082	780.28
417.46	808.3
417.837	808.75
418.214	828.18
418.591	857.11
418.967	864.12
419.344	873.61
419.721	901.63
420.098	888.07
420.475	924.91
420.852	940.05
421.228	944.11
421.605	977.33
421.982	969.42
422.358	987.95
422.735	987.28
423.111	1004
423.488	1026.37
423.864	1051.23
424.241	1042.64
424.617	1064.11
424.994	1090.1
425.37	1131.45
425.746	1089.19
426.123	1109.31
426.499	1119.93
426.875	1152.92
427.251	1177.1
427.627	1201.06
428.003	1239.47
428.379	1207.16
428.756	1239.47
429.132	1251
429.507	1273.14
429.883	1302.52
430.259	1322.41
430.635	1321.5
431.011	1352.24
431.387	1372.35
431.763	1376.19
432.138	1399.92
432.514	1433.37
432.89	1416.64
433.265	1453.48
433.641	1483.53
434.016	1492.12
434.392	1514.72
434.767	1531.44
435.143	1577.77
435.518	1579.58
435.894	1603.31
436.269	1600.14
436.644	1648.5
437.02	1651.44
437.395	1641.27
437.77	1691.21
438.145	1717.65
438.52	1735.51
438.895	1742.28
439.271	1719.23
439.646	1785.9
440.021	1789.29
440.395	1800.81
440.77	1783.41
441.145	1800.36
441.52	1856.86
441.895	1843.07
442.27	1898.66
442.645	1867.25
443.019	1884.65
443.394	1847.37
443.769	1912
444.143	1919.46
444.518	1959
444.892	1964.88
445.267	1950.87
445.641	1945.67
446.016	1987.48
446.39	2020.92
446.764	1999.68
447.139	2030.19
447.513	2025.89
447.887	2043.97
448.262	2031.54
448.636	2082.39
449.01	2105.44
449.384	2142.05
449.758	2141.82
450.132	2164.87
450.506	2147.92
450.88	2196.51
451.254	2190.63
451.628	2223.85
452.002	2245.32
452.376	2217.3
452.75	2280.12
453.123	2285.55
453.497	2331.87
453.871	2340.91
454.244	2401.25
454.618	2413.45
454.992	2424.07
455.365	2407.8
455.739	2477.18
456.112	2500.23
456.486	2519.21
456.859	2554.92
457.232	2587.46
457.606	2584.07
457.979	2613
458.352	2677.63
458.725	2741.58
459.099	2709.04
459.472	2754.24
459.845	2812.99
460.218	2827.91
460.591	2852.31
460.964	2884.18
461.337	2906.55
461.71	2947.9
462.083	2970.5
462.456	3002.82
462.829	3000.78
463.201	3088.69
463.574	3113.77
463.947	3076.03
464.32	3162.59
464.692	3243.94
465.065	3251.85
465.438	3264.96
465.81	3347.44
466.183	3370.04
466.555	3420.66
466.928	3422.47
467.3	3442.35
467.672	3509.24
468.045	3573.65
468.417	3579.98
468.789	3597.6
469.161	3679.63
469.534	3700.2
469.906	3814.32
470.278	3789.24
470.65	3839.86
471.022	3895
471.394	3937.26
471.766	4039.85
472.138	4039.85
472.51	4156.91
472.882	4215.89
473.253	4226.29
473.625	4321.88
473.997	4411.14
474.369	4390.58
474.74	4484.59
475.112	4573.4
475.484	4580.63
475.855	4695.88
476.227	4751.25
476.598	4813.62
476.97	4905.37
477.341	4989.88
477.713	5051.12
478.084	5074.4
478.455	5231.23
478.827	5295.19
479.198	5401.17
479.569	5410.21
479.94	5568.4
480.311	5582.86
480.682	5733.14
481.053	5800.71
481.424	5909.18
481.795	5997.99
482.166	6075.28
482.537	6165.45
482.908	6299.9
483.279	6339.23
483.65	6440.69
484.021	6569.05
484.391	6632.78
484.762	6712.78
485.133	6786.9
485.503	6845.43
485.874	7002.49
486.244	7057.85
486.615	7224.63
486.985	7243.61
487.356	7389.14
487.726	7466.43
488.097	7651.51
488.467	7617.38
488.837	7878.39
489.207	7898.06
489.578	8026.41
489.948	8039.07
490.318	8212.85
490.688	8262.34
491.058	8369.91
491.428	8495.1
491.798	8567.42
492.168	8743
492.538	8725.83
492.908	8912.27
493.278	8965.6
493.648	9037.23
494.017	9144.12
494.387	9291.69
494.757	9300.05
495.126	9359.49
495.496	9471.8
495.866	9544.57
496.235	9650.1
496.605	9683.77
496.974	9774.39
497.344	9863.43
497.713	9921.5
498.082	9957.44
498.452	10128.73
498.821	10152.46
499.19	10166.02
499.559	10349.29
499.928	10362.62
500.298	10484.43
500.667	10595.61
501.036	10614.82
501.405	10644.42
501.774	10743.18
502.143	10814.59
502.512	10906.56
502.88	11046.67
503.249	11004.19
503.618	11068.82
503.987	11163.51
504.356	11250.28
504.724	11282.82
505.093	11421.8
505.462	11445.98
505.83	11513.78
506.199	11564.4
506.567	11770.04
506.936	11723.94
507.304	11965.97
507.672	11934.56
508.041	12006.87
508.409	12076.25
508.777	12230.6
509.145	12305.62
509.514	12339.52
509.882	12438.27
510.25	12494.54
510.618	12551.04
510.986	12630.36
511.354	12786.29
511.722	12892.27
512.09	13024.93
512.458	13042.1
512.826	13141.08
513.193	13234.19
513.561	13228.54
513.929	13466.27
514.297	13539.26
514.664	13617.68
515.032	13641.63
515.4	13798.24
515.767	13848.63
516.135	13944.9
516.502	13943.09
516.869	14249.07
517.237	14249.53
517.604	14250.66
517.972	14385.34
518.339	14516.64
518.706	14552.34
519.073	14592.57
519.44	14839.57
519.808	14934.71
520.175	14919.79
520.542	15156.17
520.909	15192.55
521.276	15252.44
521.643	15429.38
522.009	15545.54
522.376	15661.47
522.743	15861.69
523.11	15937.62
523.477	16098.97
523.843	16156.82
524.21	16339.87
524.577	16546.64
524.943	16559.52
525.31	16603.36
525.676	16771.72
526.043	16878.38
526.409	17052.16
526.776	17184.36
527.142	17285.6
527.508	17456.45
527.874	17504.58
528.241	17666.84
528.607	17757.91
528.973	17834.74
529.339	17869.32
529.705	18035.42
530.071	18164
530.437	18300.04
530.803	18411
531.169	18496.87
531.535	18563.09
531.901	18636.3
532.267	18748.39
532.632	18873.36
532.998	18885.79
533.364	18983.87
533.73	19109.06
534.095	19234.03
534.461	19353.57
534.826	19404.19
535.192	19529.39
535.557	19701.36
535.923	19649.84
536.288	19813.45
536.653	19866.55
537.019	19856.84
537.384	19926.21
537.749	20094.8
538.114	20100.9
538.479	20224.96
538.845	20323.94
539.21	20246.88
539.575	20428.35
539.94	20385.18
540.305	20592.18
540.67	20502.24
541.034	20778.17
541.399	20873.53
541.764	20860.65
542.129	20825.85
542.494	21009.57
542.858	21096.35
543.223	21100.19
543.587	21279.17
543.952	21154.88
544.316	21428.32
544.681	21401.65
545.045	21498.15
545.41	21623.57
545.774	21715.54
546.138	21735.43
546.503	21835.77
546.867	21836.67
547.231	22028.76
547.595	22093.84
547.959	22080.06
548.324	22160.28
548.688	22215.64
549.052	22271.24
549.416	22330.9
549.779	22432.81
550.143	22521.17
550.507	22709.42
550.871	22706.93
551.235	22754.16
551.599	22938.34
551.962	22995.74
552.326	23070.99
552.689	23284.32
553.053	23121.38
553.417	23314.6
553.78	23625.78
554.143	23448.83
554.507	23541.26
554.87	23645.89
555.234	23901.25
555.597	23842.95
555.96	23883.4
556.323	23971.76
556.686	23960.23
557.05	24231.18
557.413	24279.32
557.776	24449.71
558.139	24658.74
558.502	24594.34
558.865	24671.63
559.228	24976.7
559.59	24911.17
559.953	25082.24
560.316	25361.1
560.679	25309.35
561.041	25377.37
561.404	25569.91
561.767	25721.99
562.129	25715.67
562.492	25994.08
562.854	26032.49
563.217	26033.17
563.579	26099.38
563.941	26398.59
564.304	26392.48
564.666	26610.11
565.028	26485.81
565.39	26681.97
565.753	26903.66
566.115	27025.24
566.477	27091.67
566.839	27211.45
567.201	27312.91
567.563	27355.62
567.925	27610.31
568.287	27485.56
568.648	27602.85
569.01	27841.49
569.372	27874.03
569.734	27851.88
570.095	28141.82
570.457	28148.14
570.819	28336.84
571.18	28378.19
571.542	28431.3
571.903	28511.75
572.265	28816.83
572.626	28607.12
572.987	28834
573.349	28810.27
573.71	28868.58
574.071	29078.29
574.432	29197.16
574.794	29413.42
575.155	29305.18
575.516	29310.83
575.877	29447.54
576.238	29544.49
576.599	29615.9
576.96	29535.68
577.32	29587.2
577.681	29774.09
578.042	29725.96
578.403	29935.22
578.763	29928.21
579.124	29929.57
579.485	30067.64
579.845	30176.79
580.206	30074.42
580.566	30025.38
580.927	30022.67
581.287	30204.14
581.648	29988.55
582.008	30244.36
582.368	30237.35
582.728	30346.5
583.089	30308.31
583.449	30246.17
583.809	30346.5
584.169	30362.78
584.529	30293.85
584.889	30612.94
585.249	30319.84
585.609	30195.32
585.969	30570
586.329	30359.84
586.688	30452.04
587.048	30431.93
587.408	30359.84
587.768	30413.17
588.127	30461.3
588.487	30397.12
588.846	30626.5
589.206	30310.57
589.565	30508.31
589.925	30506.95
590.284	30479.38
590.643	30412.27
591.003	30528.65
591.362	30651.13
591.721	30568.19
592.08	30562.54
592.44	30700.85
592.799	30642.09
593.158	30532.94
593.517	30529.78
593.876	30650
594.235	30539.04
594.593	30465.6
594.952	30688.64
595.311	30582.2
595.67	30601.64
596.029	30791.01
596.387	30800.28
596.746	30874.17
597.104	30748.75
597.463	30624.69
597.822	30877.56
598.18	30732.93
598.538	30753.73
598.897	30996.2
599.255	30679.83
599.613	31174.73
599.972	30956.43
600.33	31023.77
600.688	30853.61
601.046	30958.47
601.404	31165.01
601.762	31007.28
602.12	31196.2
602.478	31265.12
602.836	31184.45
603.194	31101.74
603.552	31234.39
603.91	31036.2
604.268	31274.84
604.625	31275.52
604.983	31308.29
605.341	31119.37
605.698	31321.85
606.056	31439.13
606.413	31356.2
606.771	31551.9
607.128	31503.54
607.485	31434.39
607.843	31479.81
608.2	31678.67
608.557	31714.6
608.914	31534.72
609.272	31688.39
609.629	31766.81
609.986	31863.98
610.343	31655.85
610.7	31934.49
611.057	31959.8
611.414	31868.5
611.771	31870.31
612.127	32046.12
612.484	32014.03
612.841	32030.3
613.198	31975.16
613.554	31987.59
613.911	32163.41
614.267	32195.72
614.624	32078.21
614.98	32293.12
615.337	32344.87
615.693	32292.22
616.05	32240.24
616.406	32428.03
616.762	32227.58
617.118	32343.74
617.475	32325.66
617.831	32321.14
618.187	32382.38
618.543	32357.07
618.899	32570.4
619.255	32462.61
619.611	32497.18
619.967	32638.2
620.323	32738.98
620.678	32512.1
621.034	32423.51
621.39	32461.25
621.746	32479.33
622.101	32952.31
622.457	32595.94
622.812	32605.2
623.168	32588.93
623.523	32587.8
623.879	32841.58
624.234	32602.04
624.589	32698.31
624.945	32727.68
625.3	32737.85
625.655	32705.09
626.01	32713.9
626.365	32723.84
626.72	32543.96
627.075	32715.26
627.43	32544.64
627.785	32538.76
628.14	32550.74
628.495	32531.53
628.85	32640.46
629.205	32442.27
629.559	32589.16
629.914	32456.96
630.269	32487.69
630.623	32402.5
630.978	32398.2
631.332	32466.9
631.687	32473.68
632.041	32271.65
632.396	32441.36
632.75	32262.61
633.104	32236.62
633.459	32214.7
633.813	32172.45
634.167	32105.78
634.521	32186.91
634.875	32136.51
635.229	32070.3
635.583	31870.08
635.937	32019.45
636.291	31893.81
636.645	31917.76
636.999	31902.85
637.352	31979.91
637.706	31791.21
638.06	31833.92
638.413	31836.86
638.767	31764.09
639.121	31750.54
639.474	31552.8
639.828	31620.82
640.181	31508.96
640.534	31523.2
640.888	31494.95
641.241	31310.09
641.594	31399.13
641.947	31357.55
642.301	31256.76
642.654	31273.94
643.007	31365.23
643.36	31235.75
643.713	31052.25
644.066	31323.2
644.419	31121.17
644.771	30895.42
645.124	30572.49
645.477	30546.05
645.83	30327.97
646.182	30067.64
646.535	30119.84
646.888	30120.52
647.24	29915.33
647.593	30171.37
647.945	30048.66
648.298	29920.3
648.65	29748.1
649.002	29682.79
649.355	29824.03
649.707	29833.75
650.059	29980.19
650.411	30268.09
650.763	30302.89
651.115	30627.17
651.467	30426.5
651.819	30380.63
652.171	30288.65
652.523	30245.04
652.875	30346.73
653.227	30144.48
653.578	30361.87
653.93	30334.08
654.282	30064.7
654.633	30083.23
654.985	30090.01
655.337	30134.76
655.688	30096.79
656.039	30234.64
656.391	29892.73
656.742	29971.37
657.094	30016.34
657.445	30111.03
657.796	29923.24
658.147	29890.92
658.498	29868.55
658.849	29963.24
659.2	29810.02
659.551	29779.51
659.902	29924.14
660.253	29890.02
660.604	29780.42
660.955	29699.97
661.306	29755.33
661.656	29727.54
662.007	29670.82
662.358	29739.06
662.708	29638.95
663.059	29665.17
663.409	29296.81
663.76	29673.75
664.11	29553.76
664.461	29603.02
664.811	29497.04
665.161	29514.66
665.511	29377.94
665.862	29623.81
666.212	29530.25
666.562	29552.85
666.912	29390.82
667.262	29330.71
667.612	29456.13
667.962	29349.24
668.312	29350.15
668.662	29409.81
669.011	29340.66
669.361	29314.44
669.711	29169.13
670.06	29196.48
670.41	29235.8
670.76	29233.77
671.109	29330.03
671.459	29266.98
671.808	29203.48
672.157	29208
672.507	29168
672.856	29037.16
673.205	29137.72
673.554	29191.28
673.904	29148.8
674.253	29147.21
674.602	29097.27
674.951	28568.47
675.3	28536.61
675.649	28972.76
675.998	28925.3
676.346	28869.03
676.695	28940.67
677.044	28846.66
677.393	28749.71
677.741	28934.34
678.09	28819.99
678.438	28687.11
678.787	28698.64
679.135	28755.81
679.484	28593.1
679.832	28656.83
680.181	28490.06
680.529	28645.53
680.877	28514.24
681.225	28467.68
681.573	28691.63
681.922	28385.2
682.27	28405.99
682.618	28260.91
682.966	28282.6
683.314	28260.23
683.661	28235.83
684.009	28143.17
684.357	27965.78
684.705	28011.88
685.053	28137.52
685.4	27897.53
685.748	27850.52
686.095	27775.27
686.443	27561.04
686.79	27653.02
687.138	27844.2
687.485	27699.79
687.832	27610.53
688.18	27596.07
688.527	27440.82
688.874	27404.66
689.221	27408.05
689.568	27300.26
689.915	27176.42
690.262	27238.11
690.609	27051.45
690.956	27133.93
691.303	26986.59
691.65	26967.61
691.997	26834.73
692.344	26734.4
692.69	26687.39
693.037	26739.14
693.383	26423.22
693.73	26657.11
694.077	26387.74
694.423	26339.15
694.769	26138.25
695.116	26160.63
695.462	26142.1
695.808	25979.84
696.155	26139.38
696.501	25877.92
696.847	25854.65
697.193	25721.77
697.539	25776
697.885	25644.03
698.231	25505.95
698.577	25577.59
698.923	25477.48
699.269	25336.01
699.614	25258.05
699.96	25284.26
700.306	25202.46
700.651	25007.89
700.997	24983.93
701.342	24979.64
701.688	24967.66
702.033	24867.1
702.379	24864.39
702.724	24722.25
703.069	24878.4
703.415	24558.63
703.76	24566.09
704.105	24592.08
704.45	24369.03
704.795	24256.95
705.14	24280.68
705.485	24132.2
705.83	24144.18
706.175	24138.53
706.52	24061.02
706.865	23993
707.209	24095.14
707.554	23934.92
707.899	24037.07
708.243	23887.47
708.588	23838.2
708.932	23563.18
709.277	23594.82
709.621	23622.16
709.966	23426.69
710.31	23467.36
710.654	23228.73
710.998	23334.71
711.342	23298.55
711.687	23215.39
712.031	23083.87
712.375	22949.41
712.719	23103.53
713.063	22985.12
713.407	22965.91
713.75	22997.55
714.094	22923.42
714.438	22678.01
714.782	22794.39
715.125	22652.47
715.469	22766.59
715.812	22568.63
716.156	22515.98
716.499	22508.52
716.843	22545.13
717.186	22375.41
717.53	22465.36
717.873	22491.12
718.216	22348.97
718.559	22333.16
718.902	22178.13
719.246	22221.97
719.589	22167.51
719.932	22014.07
720.275	22067.85
720.617	22075.08
720.96	21906.05
721.303	22000.51
721.646	21965.26
721.989	21875.09
722.331	21887.07
722.674	21801.64
723.016	21754.87
723.359	21731.14
723.701	21749.89
724.044	21578.15
724.386	21519.39
724.729	21553.74
725.071	21418.83
725.413	21449.11
725.755	21385.84
726.097	21401.65
726.439	21342.9
726.782	21319.62
727.124	21285.5
727.465	21174.54
727.807	21221.55
728.149	21201.43
728.491	21100.42
728.833	21223.35
729.175	20968.9
729.516	20919.41
729.858	20928.22
730.199	20959.86
730.541	20967.09
730.882	20810.26
731.224	20940.2
731.565	20722.58
731.906	20775.23
732.248	20837.38
732.589	20721.9
732.93	20630.6
733.271	20639.64
733.612	20724.38
733.953	20561.22
734.294	20476.03
734.635	20584.28
734.976	20537.95
735.317	20299.08
735.658	20418.86
735.999	20384.05
736.339	20277.84
736.68	20419.99
737.021	20329.14
737.361	20249.37
737.702	20386.31
738.042	20235.13
738.383	20238.52
738.723	20246.88
739.063	20051.41
739.404	20088.24
739.744	20064.74
740.084	19995.14
740.424	19987.23
740.764	19971.64
741.104	20027.23
741.444	19934.12
741.784	19750.85
742.124	19783.84
742.464	19727.12
742.804	19641.7
743.143	19680.34
743.483	19706.33
743.823	19608.03
744.162	19628.59
744.502	19685.09
744.841	19429.05
745.181	19631.31
745.52	19535.26
745.86	19605.32
746.199	19477.19
746.538	19396.74
746.877	19469.5
747.216	19502.27
747.556	19388.15
747.895	19335.27
748.234	19140.7
748.573	19249.17
748.911	19191.54
749.25	19153.58
749.589	18998.1
749.928	19053.47
750.267	19067.7
750.605	18910.19
750.944	18965.33
751.283	18857.99
751.621	18848.5
751.96	18865.45
752.298	18765.11
752.636	18719.92
752.975	18645.57
753.313	18639.47
753.651	18717.66
753.989	18474.27
754.327	18489.19
754.666	18421.39
755.004	18471.79
