Data from white_poster_card_FLMS001491_00100.txt Node
Date: Wed Feb 08 11:52:19 GMT 2017
User: dcchb
Spectrometer: FLMS00149
Trigger mode: 0
Integration Time (sec): 2.000000E-2
Scans to average: 10
Electric dark correction enabled: true
Nonlinearity correction enabled: false
Boxcar width: 0
XAxis mode: Wavelengths
Number of Pixels in Spectrum: 2048
>>>>>Begin Spectral Data<<<<<
341.393	-3.29
341.776	-3.29
342.16	-3.29
342.543	-53.23
342.927	-54.81
343.31	-77.19
343.693	-77.41
344.077	-59.33
344.46	-73.12
344.843	-54.36
345.226	-29.28
345.61	-43.52
345.993	-17.08
346.376	-20.24
346.759	17.5
347.142	40.1
347.525	35.13
347.908	76.93
348.291	71.28
348.674	86.65
349.057	123.94
349.44	137.04
349.823	146.76
350.206	146.54
350.588	190.83
350.971	204.84
351.354	236.02
351.737	231.51
352.119	252.75
352.502	256.59
352.884	293.65
353.267	279.19
353.65	291.62
354.032	321.45
354.414	319.19
354.797	319.86
355.179	300.88
355.562	340.88
355.944	304.72
356.326	353.54
356.709	332.07
357.091	342.01
357.473	362.35
357.855	330.94
358.238	346.08
358.62	337.04
359.002	333.88
359.384	340.43
359.766	342.91
360.148	351.5
360.53	347.43
360.912	363.03
361.294	335.46
361.676	330.03
362.057	337.27
362.439	350.82
362.821	329.58
363.203	319.19
363.584	326.42
363.966	299.53
364.348	313.31
364.729	326.87
365.111	321.9
365.493	340.88
365.874	298.4
366.256	327.32
366.637	334.33
367.019	318.96
367.4	323.71
367.781	326.87
368.163	317.6
368.544	319.86
368.925	311.05
369.306	317.38
369.688	309.24
370.069	316.47
370.45	319.41
370.831	327.1
371.212	320.32
371.593	323.93
371.974	316.7
372.355	322.35
372.736	326.64
373.117	312.18
373.498	311.05
373.879	310.37
374.26	311.73
374.641	319.41
375.021	312.41
375.402	325.06
375.783	324.38
376.163	340.43
376.544	341.56
376.925	336.81
377.305	335.23
377.686	330.94
378.066	346.76
378.447	342.01
378.827	343.59
379.208	328.68
379.588	339.52
379.968	337.94
380.349	342.91
380.729	331.84
381.109	343.82
381.489	337.49
381.87	342.91
382.25	331.62
382.63	360.99
383.01	368.45
383.39	338.17
383.77	346.76
384.15	342.91
384.53	357.83
384.91	343.59
385.29	344.5
385.67	343.14
386.049	379.3
386.429	370.03
386.809	364.61
387.189	337.49
387.568	361.45
387.948	386.08
388.328	375.68
388.707	357.15
389.087	379.07
389.466	359.64
389.846	357.38
390.225	365.29
390.605	398.51
390.984	380.88
391.363	371.61
391.743	376.59
392.122	391.05
392.501	396.92
392.881	381.56
393.26	403.03
393.639	384.27
394.018	403.7
394.397	397.6
394.776	413.2
395.155	402.8
395.534	403.25
395.913	395.79
396.292	423.59
396.671	416.36
397.05	408.22
397.429	423.14
397.808	422.23
398.186	436.7
398.565	427.21
398.944	431.95
399.323	422.01
399.701	420.2
400.08	437.15
400.458	440.77
400.837	436.47
401.215	437.38
401.594	467.43
401.972	441.44
402.351	453.65
402.729	446.41
403.107	478.05
403.486	445.06
403.864	449.8
404.242	484.61
404.62	490.26
404.999	488.9
405.377	467.43
405.755	480.31
406.133	481.22
406.511	486.64
406.889	518.73
407.267	490.93
407.645	509.01
408.023	510.82
408.401	522.57
408.779	538.84
409.156	528.67
409.534	579.97
409.912	582.91
410.29	599.63
410.667	571.16
411.045	593.53
411.422	608.22
411.8	614.55
412.178	611.16
412.555	614.77
412.933	637.14
413.31	653.64
413.687	667.88
414.065	668.78
414.442	677.37
414.819	695.67
415.197	708.1
415.574	725.5
415.951	733.64
416.328	731.38
416.705	774.54
417.082	768.21
417.46	780.19
417.837	808.89
418.214	823.58
418.591	843.69
418.967	847.53
419.344	857.93
419.721	836.91
420.098	869.91
420.475	902
420.852	889.12
421.228	913.3
421.605	927.76
421.982	924.37
422.358	953.07
422.735	978.15
423.111	957.81
423.488	1006.4
423.864	1019.73
424.241	1012.73
424.617	1037.36
424.994	1010.69
425.37	1050.47
425.746	1048.88
426.123	1108.54
426.499	1066.74
426.875	1114.19
427.251	1128.2
427.627	1136.57
428.003	1166.85
428.379	1205.94
428.756	1204.59
429.132	1221.76
429.507	1242.78
429.883	1252.27
430.259	1264.92
430.635	1275.32
431.011	1271.93
431.387	1330.46
431.763	1345.83
432.138	1349.89
432.514	1396.22
432.89	1410.68
433.265	1413.17
433.641	1451.36
434.016	1438.71
434.392	1464.47
434.767	1484.13
435.143	1507.4
435.518	1497.91
435.894	1558.48
436.269	1515.54
436.644	1578.59
437.02	1602.77
437.395	1624.46
437.77	1628.08
438.145	1653.84
438.52	1653.84
438.895	1699.26
439.271	1676.89
439.646	1715.99
440.021	1717.34
440.395	1747.4
440.77	1683.67
441.145	1773.16
441.52	1763.44
441.895	1796.89
442.27	1784.68
442.645	1767.74
443.019	1798.47
443.394	1848.86
443.769	1833.5
444.143	1863.55
444.518	1878.24
444.892	1871.24
445.267	1883.21
445.641	1899.94
446.016	1929.09
446.39	1910.78
446.764	1971.35
447.139	1910.11
447.513	1964.57
447.887	1944.91
448.262	1993.94
448.636	1997.11
449.01	2011.35
449.384	2056.54
449.758	2015.41
450.132	2072.36
450.506	2094.51
450.88	2104.9
451.254	2091.34
451.628	2128.63
452.002	2158.69
452.376	2170.66
452.75	2168.86
453.123	2197.1
453.497	2242.3
453.871	2256.99
454.244	2282.75
454.618	2296.76
454.992	2330.21
455.365	2326.14
455.739	2389.41
456.112	2393.71
456.486	2404.56
456.859	2424.67
457.232	2516.42
457.606	2471.45
457.979	2499.47
458.352	2552.12
458.725	2622.63
459.099	2605.45
459.472	2636.64
459.845	2655.85
460.218	2703.98
460.591	2750.31
460.964	2731.55
461.337	2747.37
461.71	2837.54
462.083	2908.72
462.456	2852.91
462.829	2894.94
463.201	2944.43
463.574	2982.85
463.947	3000.47
464.32	3026.01
464.692	3081.6
465.065	3100.36
465.438	3168.38
465.81	3204.31
466.183	3206.79
466.555	3300.58
466.928	3286.34
467.3	3270.97
467.672	3369.28
468.045	3384.42
468.417	3478.2
468.789	3443.62
469.161	3517.29
469.534	3542.83
469.906	3648.59
470.278	3673
470.65	3700.34
471.022	3752.99
471.394	3836.61
471.766	3836.38
472.138	3867.57
472.51	3970.16
472.882	4023.04
473.253	4064.4
473.625	4150.27
473.997	4161.8
474.369	4232.76
474.74	4261.23
475.112	4322.7
475.484	4402.02
475.855	4513.2
476.227	4559.75
476.598	4603.82
476.97	4691.5
477.341	4766.3
477.713	4842.68
478.084	4868.22
478.455	4988.44
478.827	5050.36
479.198	5154.99
479.569	5144.6
479.94	5336.68
480.311	5404.7
480.682	5496.45
481.053	5594.75
481.424	5706.62
481.795	5697.12
482.166	5762.43
482.537	5888.76
482.908	5991.81
483.279	6014.63
483.65	6178.92
484.021	6285.58
484.391	6346.15
484.762	6447.84
485.133	6475.41
485.503	6583.2
485.874	6714.05
486.244	6802.41
486.615	6893.93
486.985	6940.93
487.356	7076.97
487.726	7191.32
488.097	7267.7
488.467	7258.67
488.837	7455.27
489.207	7544.53
489.578	7704.98
489.948	7765.54
490.318	7829.27
490.688	7891.64
491.058	7970.28
491.428	8062.94
491.798	8185.87
492.168	8341.35
492.538	8375.02
492.908	8456.15
493.278	8601.23
493.648	8640.32
494.017	8735.01
494.387	8796.7
494.757	8853.2
495.126	9001.22
495.496	8976.59
495.866	9107.88
496.235	9239.4
496.605	9288.22
496.974	9351.94
497.344	9448.89
497.713	9463.35
498.082	9558.27
498.452	9661.99
498.821	9790.8
499.19	9765.94
499.559	9887.97
499.928	9944.02
500.298	10052.49
500.667	10072.15
501.036	10102.66
501.405	10176.33
501.774	10202.99
502.143	10256.33
502.512	10325.7
502.88	10494.51
503.249	10486.83
503.618	10591.23
503.987	10602.76
504.356	10719.59
504.724	10754.62
505.093	10814.05
505.462	10922.3
505.83	11087.72
506.199	11132.01
506.567	11171.33
506.936	11281.16
507.304	11344.89
507.672	11446.35
508.041	11500.59
508.409	11543.52
508.777	11682.5
509.145	11894.25
509.514	11738.77
509.882	11863.74
510.25	11934.02
510.618	12099.67
510.986	12050.18
511.354	12199.78
511.722	12322.94
512.09	12450.39
512.458	12459.21
512.826	12509.6
513.193	12588.69
513.561	12671.4
513.929	12782.81
514.297	12849.03
514.664	12991.17
515.032	13040.89
515.4	13143.48
515.767	13183.48
516.135	13227.77
516.502	13261.67
516.869	13514.32
517.237	13591.83
517.604	13562.91
517.972	13766.74
518.339	13802.45
518.706	13897.13
519.073	14004.7
519.44	14094.87
519.808	14364.24
520.175	14260.06
520.542	14420.28
520.909	14552.71
521.276	14554.52
521.643	14666.38
522.009	14861.63
522.376	14927.84
522.743	15041.96
523.11	15136.2
523.477	15429.3
523.843	15464.1
524.21	15573.02
524.577	15728.95
524.943	15709.29
525.31	15880.36
525.676	16054.37
526.043	16170.52
526.409	16209.62
526.776	16433.57
527.142	16462.49
527.508	16502.94
527.874	16704.74
528.241	16805.31
528.607	16889.82
528.973	17057.05
529.339	17099.31
529.705	17199.19
530.071	17368.68
530.437	17426.31
530.803	17570.94
531.169	17664.72
531.535	17684.61
531.901	17778.84
532.267	17970.7
532.632	18015.22
532.998	18051.6
533.364	18285.49
533.73	18193.29
534.095	18410.91
534.461	18386.06
534.826	18600.97
535.192	18718.93
535.557	18732.04
535.923	18766.39
536.288	18852.03
536.653	18937.23
537.019	18962.31
537.384	18981.29
537.749	19128.18
538.114	19187.84
538.479	19284.11
538.845	19420.61
539.21	19334.05
539.575	19477.1
539.94	19519.81
540.305	19686.59
540.67	19663.31
541.034	19757.77
541.399	19765
541.764	19957.77
542.129	19934.26
542.494	20078.67
542.858	20067.14
543.223	20168.61
543.587	20368.38
543.952	20342.84
544.316	20471.43
544.681	20347.36
545.045	20544.19
545.41	20644.75
545.774	20745.32
546.138	20752.32
546.503	20740.12
546.867	20868.93
547.231	21099.66
547.595	21021.24
547.959	21133.55
548.324	21156.83
548.688	21332.19
549.052	21307.56
549.416	21463.94
549.779	21436.82
550.143	21585.52
550.507	21581.23
550.871	21795.01
551.235	21715.69
551.599	21873.65
551.962	21973.08
552.326	21961.33
552.689	22154.54
553.053	22092.17
553.417	22218.72
553.78	22414.88
554.143	22366.06
554.507	22483.8
554.87	22512.05
555.234	22801.76
555.597	22698.94
555.96	22878.59
556.323	22864.58
556.686	22924.47
557.05	23123.78
557.413	23213.95
557.776	23205.36
558.139	23476.77
558.502	23486.04
558.865	23625.69
559.228	23714.05
559.59	23826.59
559.953	23878.12
560.316	24124.66
560.679	24079.01
561.041	24224.09
561.404	24293.7
561.767	24530.75
562.129	24505.9
562.492	24740.69
562.854	24713.35
563.217	24779.33
563.579	24873.34
563.941	24978.2
564.304	25054.58
564.666	25339.77
565.028	25409.6
565.39	25485.76
565.753	25526.21
566.115	25715.35
566.477	25833.32
566.839	25846.42
567.201	26195.34
567.563	26163.93
567.925	26355.56
568.287	26358.28
568.648	26403.92
569.01	26583.35
569.372	26678.04
569.734	26635.33
570.095	26867.64
570.457	26913.52
570.819	26964.14
571.18	26960.97
571.542	27162.77
571.903	27101.53
572.265	27268.31
572.626	27407.51
572.987	27506.72
573.349	27494.29
573.71	27652.71
574.071	27644.12
574.432	27636.66
574.794	27968.18
575.155	27998.23
575.516	27780.61
575.877	28038.68
576.238	28043.2
576.599	28187.61
576.96	28143.77
577.32	28314.83
577.681	28334.95
578.042	28381.05
578.403	28470.54
578.763	28314.38
579.124	28494.72
579.485	28617.2
579.845	28701.94
580.206	28721.83
580.566	28737.42
580.927	28542.17
581.287	28788.27
581.648	28669.18
582.008	28837.98
582.368	28722.28
582.728	28844.31
583.089	28762.28
583.449	28820.13
583.809	28933.35
584.169	29059.67
584.529	28895.16
584.889	29115.27
585.249	28833.47
585.609	28873.69
585.969	29004.76
586.329	28964.31
586.688	28924.99
587.048	29110.75
587.408	28959.79
587.768	28951.2
588.127	29014.03
588.487	28858.78
588.846	29041.6
589.206	28959.56
589.565	28957.3
589.925	29124.3
590.284	29042.73
590.643	29094.48
591.003	29235.04
591.362	29188.94
591.721	29163.85
592.08	29070.75
592.44	29193.23
592.799	29278.88
593.158	29197.52
593.517	29185.32
593.876	29079.11
594.235	29104.42
594.593	29147.81
594.952	29310.51
595.311	29137.19
595.67	29209.95
596.029	29320.23
596.387	29289.72
596.746	29429.61
597.104	29301.48
597.463	29305.32
597.822	29474.35
598.18	29260.57
598.538	29286.11
598.897	29495.59
599.255	29385.99
599.613	29683.84
599.972	29310.51
600.33	29531.98
600.688	29425.77
601.046	29654.46
601.404	29636.83
601.762	29586.89
602.12	29797.06
602.478	29663.73
602.836	29840.44
603.194	29603.39
603.552	29701.01
603.91	29627.79
604.268	29742.59
604.625	29718.41
604.983	29820.78
605.341	29612.88
605.698	29879.77
606.056	29935.58
606.413	29817.17
606.771	29996.82
607.128	30090.16
607.485	29877.51
607.843	30099.65
608.2	30151.4
608.557	30261.22
608.914	30063.72
609.272	30245.86
609.629	30218.06
609.986	30276.82
610.343	30209.47
610.7	30517.49
611.057	30473.42
611.414	30369.92
611.771	30411.05
612.127	30580.76
612.484	30433.2
612.841	30633.64
613.198	30618.73
613.554	30470.03
613.911	30591.61
614.267	30747.99
614.624	30621.44
614.98	30771.49
615.337	30830.93
615.693	30664.15
616.05	30558.84
616.406	30792.28
616.762	30743.25
617.118	30769.69
617.475	30759.97
617.831	30843.58
618.187	30887.87
618.543	30987.76
618.899	30974.43
619.255	30956.8
619.611	30973.3
619.967	31075.44
620.323	31164.7
620.678	31098.49
621.034	30891.26
621.39	30978.72
621.746	30966.74
622.101	31266.85
622.457	30926.97
622.812	31164.7
623.168	31136.46
623.523	31088.1
623.879	31229.56
624.234	30992.28
624.589	31099.62
624.945	31087.64
625.3	31195.21
625.655	31131.26
626.01	31138.72
626.365	31113.63
626.72	31070.02
627.075	31142.78
627.43	30994.76
627.785	30999.51
628.14	31018.72
628.495	31121.31
628.85	31083.12
629.205	31067.76
629.559	31125.61
629.914	30856.91
630.269	31000.41
630.623	30928.78
630.978	30754.54
631.332	30810.59
631.687	30950.25
632.041	30893.52
632.396	30778.95
632.75	30734.88
633.104	30811.27
633.459	30516.13
633.813	30591.16
634.167	30542.57
634.521	30546.19
634.875	30677.48
635.229	30487.21
635.583	30479.98
635.937	30425.06
636.291	30319.98
636.645	30333.09
636.999	30265.52
637.352	30382.12
637.706	30065.3
638.06	30302.8
638.413	30159.76
638.767	30067.1
639.121	30190.72
639.474	29834.79
639.828	29984.85
640.181	29938.52
640.534	29952.31
640.888	29933.55
641.241	29783.27
641.594	29866.66
641.947	29809.03
642.301	29756.6
642.654	29720.67
643.007	29780.11
643.36	29674.35
643.713	29626.44
644.066	29781.24
644.419	29533.56
644.771	29384.86
645.124	29149.16
645.477	29062.84
645.83	28942.16
646.182	28687.48
646.535	28648.61
646.888	28704.65
647.24	28498.56
647.593	28628.72
647.945	28631.44
648.298	28378.34
648.65	28463.08
649.002	28349.64
649.355	28407.04
649.707	28370.88
650.059	28525.22
650.411	28843.41
650.763	28879.57
651.115	29107.81
651.467	29022.61
651.819	28955.72
652.171	28900.58
652.523	28962.95
652.875	28835.5
653.227	28582.85
653.578	28845.44
653.93	28705.78
654.282	28785.33
654.633	28709.4
654.985	28588.05
655.337	28587.6
655.688	28688.84
656.039	28682.96
656.391	28402.97
656.742	28584.66
657.094	28542.63
657.445	28673.47
657.796	28570.65
658.147	28472.57
658.498	28461.72
658.849	28515.73
659.2	28317.55
659.551	28330.65
659.902	28442.74
660.253	28317.77
660.604	28374.27
660.955	28146.93
661.306	28301.5
661.656	28304.21
662.007	28302.86
662.358	28259.92
662.708	28245.23
663.059	28190.54
663.409	28029.19
663.76	28165.01
664.11	28121.85
664.461	28137.21
664.811	28108.29
665.161	28085.69
665.511	27997.33
665.862	28108.51
666.212	28156.65
666.562	28097.44
666.912	28062.41
667.262	28051.11
667.612	27937.9
667.962	28042.75
668.312	28058.12
668.662	28147.61
669.011	28024.45
669.361	28062.41
669.711	27959.82
670.06	27996.42
670.41	27898.57
670.76	27877.78
671.109	28018.8
671.459	27849.31
671.808	27807.05
672.157	27831.91
672.507	27627.85
672.856	27638.47
673.205	27781.52
673.554	27782.42
673.904	27669.2
674.253	27800.05
674.602	27770.89
674.951	27307.4
675.3	27174.3
675.649	27697.9
675.998	27581.75
676.346	27585.59
676.695	27763.44
677.044	27486.38
677.393	27516.66
677.741	27616.77
678.09	27430.79
678.438	27482.31
678.787	27458.81
679.135	27298.59
679.484	27055.21
679.832	27269.89
680.181	27195.99
680.529	27253.85
680.877	27142.44
681.225	27093.4
681.573	27188.31
681.922	27105.15
682.27	26944.93
682.618	27027.64
682.966	26871.26
683.314	26887.53
683.661	26935.21
684.009	26730.02
684.357	26638.72
684.705	26715.1
685.053	26770.92
685.4	26590.59
685.748	26405.96
686.095	26426.75
686.443	26228.11
686.79	26200.99
687.138	26344.49
687.485	26388.33
687.832	26200.77
688.18	26278.28
688.527	26142.46
688.874	26141.56
689.221	26113.08
689.568	25946.08
689.915	25965.97
690.262	25838.52
690.609	25829.02
690.956	25753.32
691.303	25633.32
691.65	25568.24
691.997	25533.44
692.344	25407.11
692.69	25363.95
693.037	25423.16
693.383	25137.74
693.73	25267.23
694.077	25013
694.423	24959.89
694.769	25016.62
695.116	24860.91
695.462	24849.61
695.808	24883.06
696.155	24902.27
696.501	24583.63
696.847	24615.5
697.193	24463.64
697.539	24367.37
697.885	24310.87
698.231	24371.21
698.577	24210.54
698.923	24212.12
699.269	24219.8
699.614	24031.11
699.96	24004.44
700.306	23969.86
700.651	23855.97
700.997	23762.41
701.342	23812.58
701.688	23695.3
702.033	23660.49
702.379	23574.17
702.724	23560.16
703.069	23568.97
703.415	23364.91
703.76	23340.5
704.105	23302.99
704.45	23328.07
704.795	23144.8
705.14	23042.2
705.485	23134.63
705.83	22895.32
706.175	23006.27
706.52	22904.36
706.865	22693.51
707.209	22801.53
707.554	22665.72
707.899	22816.45
708.243	22657.13
708.588	22597.92
708.932	22411.04
709.277	22365.61
709.621	22409.45
709.966	22215.56
710.31	22232.06
710.654	22146.41
710.998	22104.15
711.342	22190.02
711.687	22122.46
712.031	21999.07
712.375	21904.38
712.719	21950.03
713.063	21899.86
713.407	21977.6
713.75	21803.82
714.094	21835
714.438	21676.37
714.782	21651.73
715.125	21578.06
715.469	21665.74
715.812	21649.25
716.156	21414.9
716.499	21453.32
716.843	21468.23
717.186	21267.56
717.53	21428.69
717.873	21322.93
718.216	21351.63
718.559	21310.27
718.902	21142.82
719.246	21122.93
719.589	21030.96
719.932	20979.66
720.275	20905.76
720.617	20913
720.96	20816.05
721.303	20859.66
721.646	20818.53
721.989	20743.51
722.331	20730.4
722.674	20729.95
723.016	20673
723.359	20544.19
723.701	20675.49
724.044	20581.93
724.386	20417.64
724.729	20575.15
725.071	20374.7
725.413	20374.7
725.755	20381.71
726.097	20272.33
726.439	20038.89
726.782	20129.06
727.124	20189.17
727.465	20219.45
727.807	20087.71
728.149	20074.37
728.491	20025.56
728.833	20067.59
729.175	19840.71
729.516	19875.28
729.858	19870.08
730.199	19933.81
730.541	19878.22
730.882	19854.27
731.224	19882.51
731.565	19718
731.906	19678.45
732.248	19771.1
732.589	19572.01
732.93	19602.97
733.271	19629.64
733.612	19487.5
733.953	19595.74
734.294	19438.46
734.635	19494.95
734.976	19485.24
735.317	19343.32
735.658	19351.23
735.999	19283.43
736.339	19263.77
736.68	19312.81
737.021	19215.86
737.361	19182.19
737.702	19253.6
738.042	19235.3
738.383	19145.13
738.723	19230.33
739.063	19117.34
739.404	19138.8
739.744	19086.15
740.084	19015.87
740.424	18981.97
740.764	19001.86
741.104	19019.49
741.444	18879.83
741.784	18800.28
742.124	18885.48
742.464	18909.88
742.804	18874.63
743.143	18767.29
743.483	18700.17
743.823	18633.96
744.162	18582.44
744.502	18690.23
744.841	18493.17
745.181	18587.41
745.52	18512.83
745.86	18520.97
746.199	18432.61
746.538	18495.21
746.877	18405.26
747.216	18352.38
747.556	18344.02
747.895	18316.23
748.234	18327.75
748.573	18164.82
748.911	18192.39
749.25	18116.46
749.589	18098.61
749.928	18083.69
750.267	18198.49
750.605	18044.37
750.944	18102.45
751.283	17974.77
751.621	17899.52
751.96	17880.98
752.298	17904.71
752.636	17846.64
752.975	17756.02
753.313	17680.54
753.651	17734.32
753.989	17676.24
754.327	17610.71
754.666	17595.12
