Data from white_poster_card_FLMS001491_00042.txt Node
Date: Wed Feb 08 11:51:34 GMT 2017
User: dcchb
Spectrometer: FLMS00149
Trigger mode: 0
Integration Time (sec): 2.000000E-2
Scans to average: 10
Electric dark correction enabled: true
Nonlinearity correction enabled: false
Boxcar width: 0
XAxis mode: Wavelengths
Number of Pixels in Spectrum: 2048
>>>>>Begin Spectral Data<<<<<
341.393	-22.01
341.776	-22.01
342.16	-22.01
342.543	-50.25
342.927	-77.6
343.31	-71.04
343.693	-66.3
344.077	-73.08
344.46	-47.54
344.843	-46.86
345.226	-24.04
345.61	-18.62
345.993	-25.85
346.376	2.85
346.759	4.66
347.142	20.25
347.525	22.74
347.908	42.85
348.291	87.82
348.674	100.93
349.057	91.21
349.44	129.18
349.823	140.93
350.206	166.24
350.588	206.24
350.971	210.98
351.354	239.23
351.737	256.86
352.119	242.62
352.502	261.38
352.884	269.51
353.267	263.19
353.65	305.44
354.032	315.61
354.414	297.76
354.797	306.35
355.179	326.69
355.562	319.68
355.944	313.81
356.326	346.57
356.709	318.1
357.091	327.36
357.473	341.38
357.855	330.75
358.238	351.54
358.62	367.14
359.002	338.89
359.384	359
359.766	338.89
360.148	348.15
360.53	322.84
360.912	340.47
361.294	326.91
361.676	322.62
362.057	321.71
362.439	343.64
362.821	337.53
363.203	342.28
363.584	352.9
363.966	335.73
364.348	352
364.729	311.55
365.111	286.46
365.493	323.75
365.874	324.43
366.256	330.98
366.637	310.87
367.019	308.83
367.4	326.91
367.781	354.26
368.163	324.88
368.544	305.44
368.925	313.35
369.306	340.7
369.688	313.35
370.069	300.02
370.45	330.3
370.831	296.63
371.212	301.6
371.593	323.97
371.974	295.95
372.355	329.62
372.736	295.5
373.117	311.77
373.498	309.29
373.879	320.36
374.26	300.47
374.641	315.84
375.021	344.76
375.402	319
375.783	318.32
376.163	335.05
376.544	336.18
376.925	333.47
377.305	347.48
377.686	342.28
378.066	331.66
378.447	315.84
378.827	338.66
379.208	326.46
379.588	332.11
379.968	342.28
380.349	333.01
380.729	339.12
381.109	334.6
381.489	350.41
381.87	336.86
382.25	355.39
382.63	350.87
383.01	338.89
383.39	361.26
383.77	339.12
384.15	356.97
384.53	358.78
384.91	344.99
385.29	366.91
385.67	375.5
386.049	355.16
386.429	356.29
386.809	385.67
387.189	376.63
387.568	342.96
387.948	363.07
388.328	368.49
388.707	351.09
389.087	368.72
389.466	370.75
389.846	384.54
390.225	392.9
390.605	382.96
390.984	383.86
391.363	389.51
391.743	384.31
392.122	385.67
392.501	398.77
392.881	412.11
393.26	400.58
393.639	395.16
394.018	401.49
394.397	404.42
394.776	426.12
395.155	404.42
395.534	417.08
395.913	404.42
396.292	413.69
396.671	419.57
397.05	431.32
397.429	408.94
397.808	413.24
398.186	421.83
398.565	429.28
398.944	425.44
399.323	427.47
399.701	438.77
400.08	441.71
400.458	457.98
400.837	434.25
401.215	431.54
401.594	467.93
401.972	473.8
402.351	470.86
402.729	469.96
403.107	452.33
403.486	465.89
403.864	474.71
404.242	463.86
404.62	486.23
404.999	488.49
405.377	495.72
405.755	492.56
406.133	504.53
406.511	507.7
406.889	511.31
407.267	531.2
407.645	533.69
408.023	535.27
408.401	534.36
408.779	556.28
409.156	544.31
409.534	557.64
409.912	578.21
410.29	586.57
410.667	589.96
411.045	592.89
411.422	622.72
411.8	637.41
412.178	647.13
412.555	657.53
412.933	660.46
413.31	679.67
413.687	680.12
414.065	678.09
414.442	714.02
414.819	740.69
415.197	755.15
415.574	755.38
415.951	742.95
416.328	785.66
416.705	804.64
417.082	813.23
417.46	830.4
417.837	850.06
418.214	853.68
418.591	886.67
418.967	889.84
419.344	903.39
419.721	916.28
420.098	907.69
420.475	941.59
420.852	951.53
421.228	997.18
421.605	982.71
421.982	976.39
422.358	1010.28
422.735	1025.2
423.111	1018.87
423.488	1045.31
423.864	1072.88
424.241	1096.16
424.617	1069.27
424.994	1088.47
425.37	1075.14
425.746	1125.99
426.123	1128.02
426.499	1172.31
426.875	1167.79
427.251	1206.89
427.627	1214.57
428.003	1200.79
428.379	1234.69
428.756	1282.59
429.132	1271.07
429.507	1294.12
429.883	1332.99
430.259	1342.93
430.635	1372.31
431.011	1383.16
431.387	1402.14
431.763	1419.09
432.138	1421.35
432.514	1455.92
432.89	1441.46
433.265	1521.68
433.641	1527.56
434.016	1529.37
434.392	1551.51
434.767	1585.64
435.143	1591.74
435.518	1615.69
435.894	1644.17
436.269	1625.86
436.644	1681.23
437.02	1705.63
437.395	1697.05
437.77	1736.37
438.145	1751.28
438.52	1746.99
438.895	1773.65
439.271	1779.98
439.646	1827.89
440.021	1813.65
440.395	1854.33
440.77	1818.4
441.145	1868.34
441.52	1877.61
441.895	1908.57
442.27	1928
442.645	1915.12
443.019	1926.64
443.394	1922.8
443.769	1954.44
444.143	1980.43
444.518	1988.11
444.892	1949.02
445.267	1981.56
445.641	2038.73
446.016	2037.15
446.39	2040.77
446.764	2070.37
447.139	2059.97
447.513	2059.97
447.887	2079.18
448.262	2091.61
448.636	2120.54
449.01	2140.2
449.384	2153.76
449.758	2161.21
450.132	2171.16
450.506	2187.2
450.88	2203.02
451.254	2233.75
451.628	2252.96
452.002	2271.27
452.376	2323.7
452.75	2313.53
453.123	2335.9
453.497	2352.4
453.871	2387.42
454.244	2443.01
454.618	2455.67
454.992	2475.1
455.365	2459.96
455.739	2567.98
456.112	2589.68
456.486	2569.11
456.859	2582.67
457.232	2638.26
457.606	2634.87
457.979	2626.06
458.352	2743.8
458.725	2774.76
459.099	2794.42
459.472	2858.15
459.845	2838.71
460.218	2878.26
460.591	2896.34
460.964	2888.65
461.337	2994.86
461.71	2996.45
462.083	3049.78
462.456	3049.55
462.829	3054.3
463.201	3152.6
463.574	3156.44
463.947	3176.33
464.32	3238.7
464.692	3286.61
465.065	3323.22
465.438	3367.51
465.81	3424.46
466.183	3410.67
466.555	3511.69
466.928	3513.5
467.3	3526.6
467.672	3609.54
468.045	3674.39
468.417	3692.47
468.789	3712.81
469.161	3746.26
469.534	3771.34
469.906	3894.95
470.278	3918.91
470.65	3976.08
471.022	4007.72
471.394	4068.06
471.766	4109.19
472.138	4142.41
472.51	4285
472.882	4336.75
473.253	4351.21
473.625	4393.7
473.997	4485
474.369	4525.9
474.74	4600.7
475.112	4653.58
475.484	4718.44
475.855	4810.64
476.227	4845.66
476.598	4951.88
476.97	4986.45
477.341	5097.41
477.713	5180.8
478.084	5184.64
478.455	5331.53
478.827	5371.75
479.198	5564.06
479.569	5534.91
479.94	5717.28
480.311	5749.14
480.682	5853.55
481.053	5983.03
481.424	6117.04
481.795	6137.61
482.166	6233.2
482.537	6329.69
482.908	6484.94
483.279	6563.13
483.65	6601.1
484.021	6794.31
484.391	6802.22
484.762	6894.2
485.133	6977.13
485.503	7045.38
485.874	7190.69
486.244	7271.59
486.615	7432.26
486.985	7473.17
487.356	7668.87
487.726	7678.58
488.097	7822.08
488.467	7844.23
488.837	8043.77
489.207	8167.16
489.578	8254.39
489.948	8359.92
490.318	8499.58
490.688	8531.67
491.058	8662.74
491.428	8733.02
491.798	8867.48
492.168	8975.05
492.538	9006.46
492.908	9110.18
493.278	9267.47
493.648	9274.02
494.017	9439.44
494.387	9472.66
494.757	9621.13
495.126	9721.02
495.496	9690.73
495.866	9799.66
496.235	9920.33
496.605	10001.23
496.974	10108.8
497.344	10126.2
497.713	10241.45
498.082	10358.96
498.452	10496.81
498.821	10490.49
499.19	10496.14
499.559	10655.91
499.928	10706.75
500.298	10819.29
500.667	10899.74
501.036	10871.27
501.405	11046.63
501.774	11038.5
502.143	11176.12
502.512	11230.13
502.88	11259.51
503.249	11319.17
503.618	11443.23
503.987	11476.45
504.356	11596.22
504.724	11593.96
505.093	11671.25
505.462	11742.88
505.83	11851.36
506.199	11932.26
506.567	12122.76
506.936	12073.04
507.304	12254.06
507.672	12338.8
508.041	12371.57
508.409	12476.2
508.777	12593.03
509.145	12718.45
509.514	12676.87
509.882	12861.27
510.25	12885.45
510.618	13031.21
510.986	13033.92
511.354	13177.87
511.722	13288.15
512.09	13422.16
512.458	13427.13
512.826	13582.83
513.193	13645.43
513.561	13687.24
513.929	13835.03
514.297	13949.83
514.664	14013.56
515.032	14119.77
515.4	14275.47
515.767	14293.55
516.135	14413.55
516.502	14386.43
516.869	14583.49
517.237	14643.6
517.604	14653.32
517.972	14838.4
518.339	14969.92
518.706	15047.43
519.073	15053.76
519.44	15264.37
519.808	15340.08
520.175	15341.66
520.542	15587.3
520.909	15663.91
521.276	15794.08
521.643	15913.62
522.009	15963.56
522.376	16153.61
522.743	16244.23
523.11	16439.93
523.477	16547.28
523.843	16729.42
524.21	16925.35
524.577	16984.78
524.943	17015.97
525.31	17209.18
525.676	17363.07
526.043	17462.73
526.409	17527.36
526.776	17835.6
527.142	17824.53
527.508	18027.92
527.874	18075.37
528.241	18144.75
528.607	18181.58
528.973	18478.07
529.339	18447.11
529.705	18611.18
530.071	18721
530.437	18872.64
530.803	18925.07
531.169	19179.3
531.535	19129.58
531.901	19203.03
532.267	19360.08
532.632	19499.29
532.998	19469.46
533.364	19701.77
533.73	19746.51
534.095	19852.05
534.461	19829.68
534.826	19999.39
535.192	20015.21
535.557	20245.71
535.923	20323.9
536.288	20355.54
536.653	20424.46
537.019	20469.21
537.384	20608.41
537.749	20714.85
538.114	20744.68
538.479	20821.06
538.845	20961.62
539.21	20918.46
539.575	21065.58
539.94	21152.13
540.305	21232.58
540.67	21311.67
541.034	21338.11
541.399	21569.29
541.764	21518.67
542.129	21651.78
542.494	21745.56
542.858	21836.18
543.223	21782.62
543.587	21934.25
543.952	21912.79
544.316	22026.68
544.681	22034.14
545.045	22138.54
545.41	22376.28
545.774	22380.8
546.138	22377.63
546.503	22477.52
546.867	22472.77
547.231	22734.23
547.595	22819.88
547.959	22871.63
548.324	22778.3
548.688	22963.38
549.052	23107.56
549.416	23138.06
549.779	23103.71
550.143	23148.91
550.507	23368.11
550.871	23379.19
551.235	23573.53
551.599	23689.24
551.962	23841.55
552.326	23782.11
552.689	24041.09
553.053	23768.33
553.417	24002
553.78	24354.3
554.143	24281.54
554.507	24370.57
554.87	24428.2
555.234	24693.28
555.597	24539.83
555.96	24646.05
556.323	24933.95
556.686	24888.75
557.05	25141.18
557.413	25092.36
557.776	25103.89
558.139	25295.52
558.502	25413.26
558.865	25418.91
559.228	25637.66
559.59	25757.43
559.953	25862.06
560.316	26090.53
560.679	26020.93
561.041	26277.42
561.404	26559.67
561.767	26521.48
562.129	26618.42
562.492	26828.14
562.854	26794.69
563.217	26886.67
563.579	26965.99
563.941	27162.82
564.304	27260.67
564.666	27406.88
565.028	27478.06
565.39	27627.66
565.753	27752.63
566.115	27739.3
566.477	27969.12
566.839	28045.51
567.201	28195.56
567.563	28302
567.925	28498.6
568.287	28462.22
568.648	28519.62
569.01	28648.88
569.372	28819.72
569.734	28875.54
570.095	29086.61
570.457	29179.49
570.819	29177.45
571.18	29209.09
571.542	29459.25
571.903	29423.77
572.265	29499.7
572.626	29701.73
572.987	29657.44
573.349	29841.16
573.71	29936.98
574.071	30026.47
574.432	30033.02
574.794	30278.22
575.155	30271.66
575.516	30045.23
575.877	30215.62
576.238	30525.44
576.599	30424.43
576.96	30490.86
577.32	30515.95
577.681	30768.82
578.042	30953.23
578.403	30737.86
578.763	30834.13
579.124	30898.76
579.485	30948.03
579.845	31089.49
580.206	30988.7
580.566	30988.48
580.927	30938.08
581.287	31261.92
581.648	31035.48
582.008	31299.88
582.368	31237.06
582.728	31233.22
583.089	31143.5
583.449	31230.05
583.809	31338.3
584.169	31261.92
584.529	31211.07
584.889	31574.9
585.249	31402.25
585.609	31175.82
585.969	31490.84
586.329	31267.12
586.688	31285.42
587.048	31487
587.408	31398.19
587.768	31279.77
588.127	31306.89
588.487	31351.86
588.846	31604.73
589.206	31272.31
589.565	31407.68
589.925	31442.7
590.284	31424.4
590.643	31511.86
591.003	31592.98
591.362	31614
591.721	31650.61
592.08	31593.43
592.44	31679.31
592.799	31723.83
593.158	31606.32
593.517	31596.15
593.876	31544.17
594.235	31617.39
594.593	31684.05
594.952	31614.9
595.311	31509.37
595.67	31778.51
596.029	31837.72
596.387	31892.86
596.746	31766.54
597.104	31725.63
597.463	31700.78
597.822	31796.14
598.18	31839.53
598.538	31876.14
598.897	31973.31
599.255	31666.43
599.613	32081.56
599.972	31917.49
600.33	32043.82
600.688	31941.9
601.046	31989.13
601.404	32165.17
601.762	32087.21
602.12	32310.93
602.478	32283.36
602.836	32361.55
603.194	32204.49
603.552	32129.92
603.91	32177.83
604.268	32238.62
604.625	32219.63
604.983	32271.38
605.341	32176.02
605.698	32408.1
606.056	32419.18
606.413	32345.05
606.771	32411.04
607.128	32459.4
607.485	32362.91
607.843	32375.11
608.2	32636.57
608.557	32702.56
608.914	32639.06
609.272	32829.33
609.629	32794.08
609.986	32954.3
610.343	32711.82
610.7	32971.48
611.057	32810.8
611.414	32965.83
611.771	32733.07
612.127	32961.31
612.484	33076.11
612.841	33183.9
613.198	32990.23
613.554	32965.15
613.911	33123.79
614.267	33192.04
614.624	33131.25
614.98	33285.59
615.337	33342.32
615.693	33275.42
616.05	33251.7
616.406	33371.24
616.762	33335.76
617.118	33282.66
617.475	33282.66
617.831	33482.42
618.187	33540.5
618.543	33549.32
618.899	33671.8
619.255	33660.27
619.611	33529.43
619.967	33661.18
620.323	33793.15
620.678	33597.22
621.034	33478.13
621.39	33660.5
621.746	33563.55
622.101	33890.1
622.457	33652.36
622.812	33822.53
623.168	33720.61
623.523	33711.8
623.879	33851.45
624.234	33738.92
624.589	33794.73
624.945	33717.9
625.3	33703.66
625.655	33670.89
626.01	33728.29
626.365	33667.05
626.72	33671.57
627.075	33711.8
627.43	33578.47
627.785	33485.14
628.14	33686.94
628.495	33596.09
628.85	33566.26
629.205	33496.89
629.559	33589.09
629.914	33503.22
630.269	33544.12
630.623	33416.66
630.978	33381.41
631.332	33531.24
631.687	33521.07
632.041	33502.76
632.396	33382.09
632.75	33297.12
633.104	33307.29
633.459	33291.02
633.813	33207.4
634.167	33112.49
634.521	33130.34
634.875	33256.89
635.229	33092.15
635.583	32880.86
635.937	33027.97
636.291	32821.43
636.645	33100.97
636.999	32930.57
637.352	32865.94
637.706	32839.73
638.06	32682.9
638.413	32687.42
638.767	32689.68
639.121	32667.08
639.474	32533.98
639.828	32447.88
640.181	32551.15
640.534	32600.19
640.888	32524.26
641.241	32341.21
641.594	32333.08
641.947	32386.63
642.301	32303.25
642.654	32357.03
643.007	32338.73
643.36	32196.36
643.713	32192.52
644.066	32244.72
644.419	31983.03
644.771	31702.13
645.124	31554.34
645.477	31513.89
645.83	31361.12
646.182	31156.38
646.535	31014.47
646.888	31157.29
647.24	30949.61
647.593	31082.71
647.945	31033.68
648.298	30899.44
648.65	30749.16
649.002	30811.31
649.355	30865.32
649.707	30895.37
650.059	30981.93
650.411	31284.74
650.763	31277.96
651.115	31685.86
651.467	31491.74
651.819	31506.21
652.171	31368.81
652.523	31422.59
652.875	31335.59
653.227	31137.4
653.578	31390.28
653.93	31269.6
654.282	31150.06
654.633	31023.51
654.985	31132.66
655.337	31088.14
655.688	31059.89
656.039	31178.53
656.391	30913.68
656.742	30999.1
657.094	30883.17
657.445	30990.74
657.796	30982.15
658.147	30906.9
658.498	30831.19
658.849	30988.48
659.2	30921.81
659.551	30720.24
659.902	30894.92
660.253	30881.14
660.604	30866.45
660.955	30732.44
661.306	30750.29
661.656	30637.98
662.007	30757.75
662.358	30678.43
662.708	30616.74
663.059	30688.6
663.409	30416.29
663.76	30564.99
664.11	30534.93
664.461	30737.19
664.811	30535.16
665.161	30585.78
665.511	30484.99
665.862	30539.23
666.212	30659.22
666.562	30607.25
666.912	30436.86
667.262	30407.7
667.612	30461.71
667.962	30455.39
668.312	30464.65
668.662	30575.38
669.011	30403.64
669.361	30430.75
669.711	30424.2
670.06	30183.3
670.41	30219.91
670.76	30229.4
671.109	30358.67
671.459	30193.02
671.808	30281.38
672.157	30294.49
672.507	30058.56
672.856	30103.53
673.205	30140.82
673.554	30282.28
673.904	30076.41
674.253	30242.28
674.602	30103.08
674.951	29740.6
675.3	29496.31
675.649	29966.36
675.998	29944.21
676.346	29906.47
676.695	30036.19
677.044	29776.53
677.393	29854.95
677.741	29880.26
678.09	29795.29
678.438	29734.5
678.787	29805.46
679.135	29750.09
679.484	29438.46
679.832	29603.43
680.181	29561.17
680.529	29678.68
680.877	29485.02
681.225	29593.49
681.573	29544.68
681.922	29433.72
682.27	29255.19
682.618	29270.78
682.966	29273.72
683.314	29313.95
683.661	29140.84
684.009	29067.63
684.357	28967.29
684.705	28874.41
685.053	29061.98
685.4	29036.21
685.748	28754.41
686.095	28769.78
686.443	28654.98
686.79	28525.04
687.138	28686.39
687.485	28671.03
687.832	28474.42
688.18	28544.7
688.527	28386.29
688.874	28343.58
689.221	28305.16
689.568	28199.4
689.915	28184.03
690.262	28177.03
690.609	27965.06
690.956	27925.73
691.303	27956.69
691.65	27830.37
691.997	27790.14
692.344	27772.29
692.69	27620.43
693.037	27678.28
693.383	27414.79
693.73	27531.85
694.077	27397.61
694.423	27403.49
694.769	27238.97
695.116	27102.48
695.462	27188.13
695.808	27059.09
696.155	27022.71
696.501	26928.92
696.847	26887.57
697.193	26624.3
697.539	26837.85
697.885	26507.69
698.231	26531.65
698.577	26497.3
698.923	26360.35
699.269	26258.43
699.614	26162.62
699.96	26206.91
700.306	26221.6
700.651	26053.47
700.997	25940.25
701.342	25909.97
701.688	25803.76
702.033	25686.25
702.379	25618
702.724	25671.78
703.069	25564.89
703.415	25425.46
703.76	25462.75
704.105	25439.7
704.45	25347.05
704.795	25188.86
705.14	25168.97
705.485	25055.08
705.83	24993.83
706.175	25027.05
706.52	24909.77
706.865	24863.89
707.209	24789.32
707.554	24678.59
707.899	24864.35
708.243	24681.3
708.588	24670.68
708.932	24429.1
709.277	24415.54
709.621	24492.15
709.966	24227.75
710.31	24274.31
710.654	24162.9
710.998	24195.66
711.342	24165.16
711.687	24168.55
712.031	23896.24
712.375	23879.29
712.719	23871.15
713.063	23795.67
713.407	23931.94
713.75	23846.75
714.094	23671.61
714.438	23612.85
714.782	23631.61
715.125	23437.49
715.469	23577.37
715.812	23435.91
716.156	23283.37
716.499	23293.99
716.843	23303.03
717.186	23156.59
717.53	23278.4
717.873	23188.01
718.216	23135.13
718.559	23078.4
718.902	22956.15
719.246	22946.2
719.589	22848.13
719.932	22820.11
720.275	22744.85
720.617	22731.07
720.96	22761.8
721.303	22763.38
721.646	22737.85
721.989	22607
722.331	22668.92
722.674	22663.5
723.016	22575.59
723.359	22514.8
723.701	22500.79
724.044	22370.63
724.386	22268.93
724.729	22374.47
725.071	22367.24
725.413	22268.26
725.755	22278.2
726.097	22071.2
726.439	21989.62
726.782	22091.76
727.124	22186
727.465	21986.91
727.807	21969.06
728.149	21908.27
728.491	21896.51
728.833	21848.61
729.175	21762.73
729.516	21705.56
729.858	21696.75
730.199	21698.33
730.541	21762.96
730.882	21628.95
731.224	21654.26
731.565	21514.38
731.906	21564.32
732.248	21565.45
732.589	21409.97
732.93	21334.5
733.271	21336.08
733.612	21348.28
733.953	21366.13
734.294	21260.83
734.635	21217.66
734.976	21199.13
735.317	21102.64
735.658	21081.39
735.999	21092.02
736.339	21073.26
736.68	21137.66
737.021	21071.45
737.361	20849.76
737.702	21098.12
738.042	20843.89
738.383	20775.64
738.723	20950.32
739.063	20846.6
739.404	20809.99
739.744	20795.3
740.084	20727.28
740.424	20754.62
740.764	20627.62
741.104	20737.9
741.444	20600.73
741.784	20496.1
742.124	20602.99
742.464	20566.15
742.804	20488.64
743.143	20440.96
743.483	20448.87
743.823	20327.74
744.162	20290
744.502	20427.85
744.841	20378.59
745.181	20195.09
745.52	20152.15
745.86	20236.45
746.199	20146.96
746.538	20187.63
746.877	20059.73
747.216	20085.04
747.556	19910.13
747.895	19992.16
748.234	19902.89
748.573	19918.94
748.911	19847.08
749.25	19836.46
749.589	19729.11
749.928	19785.16
750.267	19804.14
750.605	19711.04
750.944	19671.26
751.283	19619.96
751.621	19533.19
751.96	19518.5
752.298	19552.4
752.636	19467.65
752.975	19473.08
753.313	19312.85
753.651	19424.04
753.989	19299.75
754.327	19350.59
754.666	19174.33
