Data from white_wall_FLMS001491_064.txt Node
Date: Tue Feb 07 11:05:23 GMT 2017
User: dcchb
Spectrometer: FLMS00149
Trigger mode: 0
Integration Time (sec): 2.000000E-2
Scans to average: 10
Electric dark correction enabled: true
Nonlinearity correction enabled: false
Boxcar width: 0
XAxis mode: Wavelengths
Number of Pixels in Spectrum: 2048
>>>>>Begin Spectral Data<<<<<
341.393	4.01
341.776	4.01
342.16	4.01
342.543	-68.53
342.927	-58.59
343.31	-65.82
343.693	-88.19
344.077	-61.07
344.46	-54.07
344.843	-60.17
345.226	-28.08
345.61	-17.23
345.993	-24.01
346.376	-8.64
346.759	16.89
347.142	17.57
347.525	41.07
347.908	69.09
348.291	77.46
348.674	88.08
349.057	97.12
349.44	134.63
349.823	150.45
350.206	160.39
350.588	210.11
350.971	227.73
351.354	242.87
351.737	258.69
352.119	269.31
352.502	285.13
352.884	284
353.267	294.4
353.65	310.67
354.032	319.94
354.414	326.04
354.797	335.98
355.179	364.23
355.562	327.39
355.944	350.89
356.326	334.4
356.709	371.91
357.091	348.18
357.473	363.55
357.855	366.49
358.238	364.91
358.62	345.92
359.002	340.05
359.384	356.32
359.766	349.31
360.148	354.28
360.53	345.47
360.912	365.13
361.294	375.3
361.676	374.62
362.057	376.43
362.439	344.34
362.821	353.61
363.203	356.77
363.584	340.95
363.966	335.98
364.348	348.18
364.729	348.18
365.111	357
365.493	337.34
365.874	356.54
366.256	333.27
366.637	354.96
367.019	348.18
367.4	335.75
367.781	328.75
368.163	324.45
368.544	339.82
368.925	332.82
369.306	364.91
369.688	320.39
370.069	343.89
370.45	330.1
370.831	348.86
371.212	347.05
371.593	356.09
371.974	357
372.355	335.53
372.736	376.2
373.117	347.73
373.498	319.03
373.879	345.47
374.26	352.02
374.641	342.53
375.021	349.09
375.402	354.74
375.783	343.44
376.163	385.24
376.544	368.75
376.925	371.69
377.305	362.19
377.686	382.31
378.066	374.85
378.447	342.08
378.827	367.62
379.208	364.91
379.588	385.24
379.968	370.1
380.349	378.92
380.729	376.88
381.109	376.43
381.489	387.28
381.87	380.95
382.25	397
382.63	391.35
383.01	390.67
383.39	375.75
383.77	411.91
384.15	403.77
384.53	400.16
384.91	411.01
385.29	409.88
385.67	418.24
386.049	406.49
386.429	411.01
386.809	415.3
387.189	418.92
387.568	421.4
387.948	426.6
388.328	447.84
388.707	443.1
389.087	442.42
389.466	450.78
389.846	441.06
390.225	468.41
390.605	457.78
390.984	458.46
391.363	455.52
391.743	458.91
392.122	488.52
392.501	485.58
392.881	499.14
393.26	507.73
393.639	533.26
394.018	498.24
394.397	529.87
394.776	515.18
395.155	531.91
395.534	538.23
395.913	553.38
396.292	543.88
396.671	593.15
397.05	578.69
397.429	572.36
397.808	559.02
398.186	592.92
398.565	581.17
398.944	611.9
399.323	642.19
399.701	655.29
400.08	632.24
400.458	668.4
400.837	657.1
401.215	701.17
401.594	681.96
401.972	716.76
402.351	690.77
402.729	721.05
403.107	753.6
403.486	759.7
403.864	768.74
404.242	780.04
404.62	777.78
404.999	799.92
405.377	835.4
405.755	840.37
406.133	869.07
406.511	868.62
406.889	887.6
407.267	876.53
407.645	920.82
408.023	934.38
408.401	923.08
408.779	991.33
409.156	1008.05
409.534	990.2
409.912	1014.83
410.29	1022.06
410.667	1061.84
411.045	1075.17
411.422	1109.52
411.8	1111.78
412.178	1116.75
412.555	1134.83
412.933	1172.57
413.31	1181.16
413.687	1186.35
414.065	1205.34
414.442	1208.27
414.819	1221.15
415.197	1250.08
415.574	1284.88
415.951	1301.6
416.328	1313.36
416.705	1341.15
417.082	1336.63
417.46	1395.39
417.837	1386.12
418.214	1352.45
418.591	1418.44
418.967	1414.14
419.344	1429.06
419.721	1443.97
420.098	1453.46
420.475	1498.44
420.852	1500.24
421.228	1512.22
421.605	1516.74
421.982	1536.4
422.358	1592.22
422.735	1592.44
423.111	1591.09
423.488	1619.56
423.864	1611.65
424.241	1643.52
424.617	1674.25
424.994	1685.77
425.37	1678.09
425.746	1733.23
426.123	1744.08
426.499	1756.96
426.875	1725.77
427.251	1792.66
427.627	1866.56
428.003	1873.79
428.379	1869.95
428.756	1904.98
429.132	1918.54
429.507	1946.78
429.883	1997.63
430.259	1978.42
430.635	2017.74
431.011	2071.3
431.387	2069.72
431.763	2144.52
432.138	2144.97
432.514	2165.99
432.89	2159.66
433.265	2250.05
433.641	2263.84
434.016	2332.54
434.392	2338.19
434.767	2388.13
435.143	2385.87
435.518	2408.02
435.894	2460.44
436.269	2463.61
436.644	2529.82
437.02	2522.14
437.395	2558.29
437.77	2648.24
438.145	2607.11
438.52	2646.65
438.895	2679.42
439.271	2666.77
439.646	2755.8
440.021	2744.28
440.395	2777.05
440.77	2735.01
441.145	2807.55
441.52	2826.08
441.895	2844.61
442.27	2878.96
442.645	2875.57
443.019	2942.92
443.394	2956.48
443.769	2968
444.143	2964.16
444.518	3036.02
444.892	3027.21
445.267	3069.69
445.641	3125.29
446.016	3097.94
446.39	3157.6
446.764	3170.93
447.139	3145.85
447.513	3223.59
447.887	3210.25
448.262	3264.94
448.636	3267.43
449.01	3337.48
449.384	3351.04
449.758	3398.27
450.132	3449.8
450.506	3450.02
450.88	3506.74
451.254	3487.76
451.628	3554.2
452.002	3586.74
452.376	3629
452.75	3641.66
453.123	3717.59
453.497	3715.55
453.871	3734.99
454.244	3833.97
454.618	3845.72
454.992	3926.39
455.365	3969.33
455.739	4025.37
456.112	4098.59
456.486	4113.73
456.859	4151.47
457.232	4271.47
457.606	4244.8
457.979	4276.44
458.352	4373.61
458.725	4475.08
459.099	4510.79
459.472	4545.59
459.845	4582.87
460.218	4670.33
460.591	4683.66
460.964	4731.57
461.337	4849.99
461.71	4915.07
462.083	4962.98
462.456	5035.29
462.829	5029.64
463.201	5132.46
463.574	5162.75
463.947	5215.17
464.32	5289.07
464.692	5337.66
465.065	5351.89
465.438	5531.55
465.81	5569.74
466.183	5684.77
466.555	5794.37
466.928	5789.62
467.3	5853.35
467.672	5884.08
468.045	6050.86
468.417	6110.74
468.789	6119.56
469.161	6223.28
469.534	6370.85
469.906	6459.66
470.278	6540.11
470.65	6578.98
471.022	6805.64
471.394	6888.58
471.766	6979.42
472.138	7014.9
472.51	7152.3
472.882	7292.18
473.253	7426.64
473.625	7515.68
473.997	7687.42
474.369	7706.86
474.74	7823.47
475.112	8003.8
475.484	8138.26
475.855	8319.27
476.227	8339.39
476.598	8570.11
476.97	8677
477.341	8911.8
477.713	8994.51
478.084	9023.44
478.455	9251.9
478.827	9354.27
479.198	9708.61
479.569	9693.02
479.94	10013.47
480.311	10068.61
480.682	10306.57
481.053	10527.8
481.424	10686.44
481.795	10814.35
482.166	10978.19
482.537	11195.36
482.908	11378.4
483.279	11486.87
483.65	11789.01
484.021	11982.23
484.391	12105.84
484.762	12255.89
485.133	12329.11
485.503	12508.09
485.874	12864.92
486.244	12955.08
486.615	13269.65
486.985	13353.04
487.356	13678.45
487.726	13667.15
488.097	14000.48
488.467	14157.31
488.837	14422.16
489.207	14575.15
489.578	14872.55
489.948	14916.16
490.318	15112.77
490.688	15262.14
491.058	15493.55
491.428	15667.33
491.798	15888.79
492.168	16222.57
492.538	16317.25
492.908	16499.62
493.278	16719.5
493.648	16712.05
494.017	16990.23
494.387	17097.12
494.757	17398.58
495.126	17473.61
495.496	17612.14
495.866	17655.07
496.235	17950.21
496.605	18121.5
496.974	18224.1
497.344	18440.59
497.713	18540.47
498.082	18619.79
498.452	18870.86
498.821	18892.78
499.19	19053.45
499.559	19221.36
499.928	19431.3
500.298	19501.13
500.667	19722.14
501.036	19742.25
501.405	20012.07
501.774	20018.85
502.143	20237.6
502.512	20309.01
502.88	20463.36
503.249	20592.4
503.618	20838.72
503.987	20872.62
504.356	21034.42
504.724	21167.07
505.093	21359.61
505.462	21403.45
505.83	21705.81
506.199	21782.42
506.567	22056.54
506.936	22046.82
507.304	22366.81
507.672	22548.5
508.041	22704.88
508.409	22752.79
508.777	23035.04
509.145	23198.2
509.514	23186.23
509.882	23412.66
510.25	23585.09
510.618	23774.46
510.986	23886.77
511.354	24086.77
511.722	24296.48
512.09	24583.25
512.458	24488.57
512.826	24773.53
513.193	24903.7
513.561	25065.05
513.929	25198.15
514.297	25564.47
514.664	25622.55
515.032	25791.36
515.4	25990.45
515.767	26164.68
516.135	26348.4
516.502	26125.13
516.869	26706.59
517.237	26872.01
517.604	26900.71
517.972	27227.7
518.339	27480.58
518.706	27442.84
519.073	27736.84
519.44	27790.17
519.808	28176.6
520.175	28169.82
520.542	28649.81
520.909	28825.4
521.276	28902.46
521.643	29219.06
522.009	29249.34
522.376	29585.83
522.743	29716.22
523.11	29933.62
523.477	30279.83
523.843	30448.41
524.21	30725.01
524.577	30883.88
524.943	31155.06
525.31	31301.72
525.676	31536.52
526.043	31752.55
526.409	31940.8
526.776	32294.69
527.142	32491.29
527.508	32576.49
527.874	32996.14
528.241	33021.22
528.607	33254.89
528.973	33512.28
529.339	33522.45
529.705	33849
530.071	34088.76
530.437	34375.76
530.803	34499.15
531.169	34761.74
531.535	34610.56
531.901	34820.5
532.267	35100.26
532.632	35427.26
532.998	35453.93
533.364	35662.06
533.73	35664.77
534.095	35983.4
534.461	36093.68
534.826	36346.56
535.192	36527.8
535.557	36704.52
535.923	36734.12
536.288	36893.89
536.653	36998.97
537.019	36907.22
537.384	37149.02
537.749	37396.47
538.114	37684.83
538.479	37683.7
538.845	37817.25
539.21	37672.4
539.575	37968.66
539.94	38191.26
540.305	38363.91
540.67	38306.05
541.034	38531.36
541.399	38790.56
541.764	38896.55
542.129	39173.15
542.494	39189.2
542.858	39320.49
543.223	39419.47
543.587	39540.6
543.952	39655.4
544.316	39736.98
544.681	39809.07
545.045	39968.38
545.41	40408.82
545.774	40610.4
546.138	40406.11
546.503	40828.93
546.867	40650.4
547.231	40962.48
547.595	41088.58
547.959	41297.84
548.324	41392.53
548.688	41444.28
549.052	41610.6
549.416	41766.3
549.779	41911.61
550.143	42122.9
550.507	42267.98
550.871	42460.97
551.235	42474.53
551.599	42828.2
551.962	42962.2
552.326	43152.71
552.689	43281.74
553.053	43199.26
553.417	43441.51
553.78	43982.74
554.143	43929.64
554.507	44123.53
554.87	44355.84
555.234	44676.06
555.597	44568.72
555.96	44769.84
556.323	45003.05
556.686	45037.18
557.05	45437.17
557.413	45560.1
557.776	45619.31
558.139	45932.3
558.502	46012.97
558.865	46228.33
559.228	46339.29
559.59	46477.82
559.953	46624.48
560.316	47121.87
560.679	47199.15
561.041	47425.14
561.404	47474.18
561.767	47810.44
562.129	47765.69
562.492	48152.12
562.854	48026.7
563.217	48210.65
563.579	48397.99
563.941	48624.88
564.304	48747.14
564.666	48902.61
565.028	48930.18
565.39	49258.76
565.753	49500.79
566.115	49404.75
566.477	49666.66
566.839	49790.27
567.201	49984.17
567.563	50069.59
567.925	50176.7
568.287	50272.97
568.648	50356.81
569.01	50617.37
569.372	50832.96
569.734	50808.55
570.095	50939.17
570.457	51102.55
570.819	51141.2
571.18	51194.53
571.542	51422.55
571.903	51461.64
572.265	51586.61
572.626	51646.04
572.987	51732.37
573.349	51847.39
573.71	51950.22
574.071	52046.26
574.432	52163.54
574.794	52336.19
575.155	52336.87
575.516	52182.53
575.877	52399.7
576.238	52488.73
576.599	52598.79
576.96	52646.47
577.32	52618
577.681	52743.42
578.042	52826.35
578.403	52831.55
578.763	52773.92
579.124	52857.54
579.485	53045.1
579.845	53050.98
580.206	52943.64
580.566	53049.85
580.927	53085.78
581.287	53229.05
581.648	53086.23
582.008	53316.51
582.368	53216.17
582.728	53272.44
583.089	53257.07
583.449	53220.47
583.809	53335.49
584.169	53387.24
584.529	53245.78
584.889	53509.27
585.249	53224.08
585.609	53240.35
585.969	53475.37
586.329	53382.04
586.688	53479.22
587.048	53393.12
587.408	53220.24
587.768	53409.39
588.127	53366.22
588.487	53236.96
588.846	53499.33
589.206	53319.22
589.565	53327.81
589.925	53495.94
590.284	53494.58
590.643	53477.18
591.003	53511.76
591.362	53592.21
591.721	53513.11
592.08	53505.2
592.44	53602.83
592.799	53481.93
593.158	53557.18
593.517	53551.76
593.876	53591.08
594.235	53541.59
594.593	53600.79
594.952	53640.34
595.311	53570.29
595.67	53677.63
596.029	53804.18
596.387	53847.34
596.746	53836.95
597.104	53785.42
597.463	53668.81
597.822	53797.85
598.18	53716.27
598.538	53692.54
598.897	53919.2
599.255	53654.8
599.613	54022.03
599.972	53825.42
600.33	53888.24
600.688	53892.54
601.046	53959.88
601.404	54152.42
601.762	53913.55
602.12	54096.15
602.478	54173.89
602.836	54099.54
603.194	53957.39
603.552	54062.93
603.91	53953.33
604.268	54160.55
604.625	54077.17
604.983	54210.95
605.341	54067.45
605.698	54154.45
606.056	54269.93
606.413	54221.79
606.771	54351.96
607.128	54387.44
607.485	54281.68
607.843	54260.21
608.2	54441.9
608.557	54532.75
608.914	54414.78
609.272	54628.56
609.629	54699.07
609.986	54770.48
610.343	54613.65
610.7	54718.05
611.057	54652.29
611.414	54685.06
611.771	54665.62
612.127	54805.73
612.484	54776.36
612.841	54783.36
613.198	54796.47
613.554	54777.94
613.911	54917.37
614.267	54991.49
614.624	54993.98
614.98	54956.46
615.337	55097.7
615.693	55052.73
616.05	55034.88
616.406	55162.79
616.762	55153.52
617.118	55042.34
617.475	55081.21
617.831	55230.81
618.187	55251.15
618.543	55341.09
618.899	55361.65
619.255	55357.36
619.611	55324.36
619.967	55430.8
620.323	55452.27
620.678	55357.13
621.034	55306.96
621.39	55268.55
621.746	55308.32
622.101	55649.55
622.457	55410.24
622.812	55447.98
623.168	55596.9
623.523	55557.58
623.879	55595.32
624.234	55381.31
624.589	55488.88
624.945	55504.92
625.3	55411.37
625.655	55540.86
626.01	55513.74
626.365	55555.32
626.72	55463.34
627.075	55508.77
627.43	55474.42
627.785	55381.31
628.14	55499.73
628.495	55480.97
628.85	55439.16
629.205	55332.27
629.559	55516.45
629.914	55326.17
630.269	55396.45
630.623	55332.5
630.978	55243.24
631.332	55423.8
631.687	55394.87
632.041	55250.69
632.396	55338.38
632.75	55281.43
633.104	55250.47
633.459	55139.51
633.813	55089.12
634.167	55091.83
634.521	55076.91
634.875	55112.39
635.229	55088.44
635.583	54924.6
635.937	55010.7
636.291	54897.94
636.645	55005.28
636.999	54871.72
637.352	54994.2
637.706	54740.43
638.06	54903.58
638.413	54841.67
638.767	54689.13
639.121	54719.86
639.474	54648.68
639.828	54694.55
640.181	54744.04
640.534	54736.36
640.888	54577.04
641.241	54475.57
641.594	54619.52
641.947	54600.77
642.301	54450.94
642.654	54408.91
643.007	54490.26
643.36	54451.62
643.713	54365.29
644.066	54473.99
644.419	54224.96
644.771	54158.07
645.124	53747.46
645.477	53784.97
645.83	53576.84
646.182	53451.65
646.535	53426.34
646.888	53422.27
647.24	53285.55
647.593	53408.48
647.945	53345.89
648.298	53112.9
648.65	53085.33
649.002	53050.07
649.355	53226.57
649.707	53097.76
650.059	53245.1
650.411	53588.36
650.763	53577.74
651.115	53969.15
651.467	53812.31
651.819	53759.21
652.171	53758.98
652.523	53639.21
652.875	53660.91
653.227	53519.44
653.578	53754.69
653.93	53582.26
654.282	53521.7
654.633	53404.42
654.985	53409.61
655.337	53495.94
655.688	53435.15
656.039	53605.09
656.391	53309.95
656.742	53409.61
657.094	53343.63
657.445	53477.86
657.796	53273.57
658.147	53213.46
658.498	53261.59
658.849	53308.15
659.2	53247.36
659.551	53114.03
659.902	53302.72
660.253	53299.11
660.604	53218.88
660.955	53062.28
661.306	53206.68
661.656	53113.8
662.007	52982.73
662.358	53011.21
662.708	52973.69
663.059	52898.21
663.409	52809.63
663.76	52990.64
664.11	52878.55
664.461	53053.46
664.811	53009.17
665.161	52906.12
665.511	52872.9
665.862	52794.71
666.212	52928.27
666.562	52964.43
666.912	52875.16
667.262	52821.61
667.612	52836.75
667.962	52756.52
668.312	52686.69
668.662	52848.05
669.011	52788.16
669.361	52746.13
669.711	52632.91
670.06	52661.61
670.41	52603.53
670.76	52530.77
671.109	52708.39
671.459	52646.69
671.808	52588.84
672.157	52604.66
672.507	52424.1
672.856	52389.3
673.205	52435.17
673.554	52397.21
673.904	52415.51
674.253	52539.58
674.602	52419.58
674.951	51913.83
675.3	51697.57
675.649	52251.68
675.998	52277.89
676.346	52298.46
676.695	52278.57
677.044	52111.57
677.393	52185.92
677.741	52193.15
678.09	52046.03
678.438	51909.31
678.787	52063.21
679.135	52052.81
679.484	51787.06
679.832	52013.04
680.181	51811.46
680.529	51872.93
680.877	51908.86
681.225	51745.48
681.573	52043.09
681.922	51487.63
682.27	51666.38
682.618	51586.16
682.966	51487.18
683.314	51482.88
683.661	51426.39
684.009	51192.27
684.357	51159.73
684.705	51074.08
685.053	51083.12
685.4	50974.65
685.748	50833.18
686.095	50873.41
686.443	50691.94
686.79	50610.36
687.138	50810.36
687.485	50658.27
687.832	50564.72
688.18	50484.72
688.527	50311.84
688.874	50337.38
689.221	50244.95
689.568	50160.66
689.915	50123.15
690.262	50007.89
690.609	49943.26
690.956	49752.99
691.303	49728.35
691.65	49539.43
691.997	49610.62
692.344	49213.56
692.69	49384.86
693.037	49355.03
693.383	48864.87
693.73	49187.12
694.077	48885.89
694.423	48933.57
694.769	48759.79
695.116	48744.42
695.462	48621.72
695.808	48548.72
696.155	48577.2
696.501	48311.22
696.847	48408.61
697.193	47963.88
697.539	48170.65
697.885	47956.2
698.231	47854.73
698.577	47794.17
698.923	47738.35
699.269	47538.13
699.614	47430.79
699.96	47345.37
700.306	47269.89
700.651	47155.77
700.997	46944.7
701.342	47006.17
701.688	46934.08
702.033	46769.56
702.379	46678.49
702.724	46606.85
703.069	46665.16
703.415	46191.95
703.76	46238.95
704.105	46147.66
704.45	46111.05
704.795	45839.87
705.14	45823.6
705.485	45804.16
705.83	45644.85
706.175	45658.63
706.52	45567.33
706.865	45406.66
707.209	45260.45
707.554	45180.22
707.899	45357.85
708.243	44876.5
708.588	44925.32
708.932	44789.27
709.277	44843.06
709.621	44731.87
709.966	44555.38
710.31	44692.33
710.654	44283.3
710.998	44343.64
711.342	44341.15
711.687	44159.91
712.031	44117.43
712.375	43939.35
712.719	43959.24
713.063	43903.65
713.407	44006.02
713.75	43663.2
714.094	43644.67
714.438	43528.52
714.782	43495.52
715.125	43303.21
715.469	43423.21
715.812	42964.24
716.156	42976.67
716.499	43009.66
716.843	42896.22
717.186	42755.66
717.53	42960.17
717.873	42836.33
718.216	42774.41
718.559	42642.44
718.902	42279.28
719.246	42399.96
719.589	42258.27
719.932	42089.46
720.275	42024.38
720.617	42092.62
720.96	41936.02
721.303	41952.51
721.646	42052.85
721.989	41590.71
722.331	41773.99
722.674	41604.73
723.016	41643.37
723.359	41480.43
723.701	41691.95
724.044	41437.72
724.386	41115.7
724.729	41394.34
725.071	41253.1
725.413	41249.03
725.755	41115.25
726.097	41012.88
726.439	40735.6
726.782	40811.53
727.124	40903.05
727.465	40633.68
727.807	40669.83
728.149	40653.34
728.491	40620.34
728.833	40612.43
729.175	40475.04
729.516	40286.12
729.858	40319.11
730.199	40247.47
730.541	40213.12
730.882	40234.82
731.224	40226.91
731.565	40001.83
731.906	40002.73
732.248	39894.94
732.589	39730.88
732.93	39516.87
733.271	39579.92
733.612	39777.88
733.953	39709.41
734.294	39461.73
734.635	39360.49
734.976	39501.73
735.317	39189.87
735.658	39281.62
735.999	39270.78
736.339	39115.07
736.68	39313.26
737.021	39174.51
737.361	38923.44
737.702	39090.89
738.042	38944
738.383	38807.96
738.723	38932.71
739.063	38906.94
739.404	38833.27
739.744	38700.85
740.084	38504.24
740.424	38472.83
740.764	38494.98
741.104	38630.57
741.444	38363.91
741.784	38178.83
742.124	38375.43
742.464	38247.07
742.804	38260.18
743.143	38089.34
743.483	38068.32
743.823	38021.09
744.162	37894.31
744.502	37936.35
744.841	37797.59
745.181	37953.07
745.52	37549.92
745.86	37556.47
746.199	37685.96
746.538	37629.01
746.877	37549.46
747.216	37635.79
747.556	37294.56
747.895	37478.28
748.234	37257.72
748.573	37108.57
748.911	37106.99
749.25	36991.51
749.589	36834.23
749.928	36960.33
750.267	37036.94
750.605	36811.86
750.944	36692.31
751.283	36523.5
751.621	36805.76
751.96	36512.2
752.298	36487.12
752.636	36543.39
752.975	36279.44
