Data from White_reflection_standard_FLMS001491_080.txt Node
Date: Tue Feb 07 10:32:11 GMT 2017
User: dcchb
Spectrometer: FLMS00149
Trigger mode: 0
Integration Time (sec): 2.000000E-2
Scans to average: 10
Electric dark correction enabled: true
Nonlinearity correction enabled: false
Boxcar width: 0
XAxis mode: Wavelengths
Number of Pixels in Spectrum: 2048
>>>>>Begin Spectral Data<<<<<
341.393	-23.32
341.776	-23.32
342.16	-23.32
342.543	-49.31
342.927	-69.19
343.31	-73.26
343.693	-68.52
344.077	-66.71
344.46	-40.95
344.843	-69.42
345.226	-35.97
345.61	-40.49
345.993	-19.48
346.376	-0.49
346.759	13.06
347.142	30.69
347.525	58.26
347.908	53.06
348.291	73.85
348.674	79.28
349.057	107.07
349.44	126.06
349.823	139.39
350.206	173.96
350.588	220.06
350.971	251.48
351.354	271.36
351.737	277.01
352.119	306.62
352.502	298.93
352.884	312.04
353.267	323.56
353.65	324.92
354.032	339.38
354.414	360.85
354.797	370.34
355.179	354.98
355.562	364.69
355.944	386.39
356.326	386.16
356.709	396.56
357.091	415.99
357.473	415.09
357.855	384.81
358.238	386.39
358.62	381.42
359.002	394.98
359.384	401.75
359.766	405.14
360.148	403.56
360.53	411.7
360.912	414.86
361.294	400.17
361.676	405.14
362.057	404.69
362.439	408.76
362.821	398.82
363.203	396.11
363.584	399.72
363.966	419.16
364.348	414.64
364.729	403.56
365.111	412.38
365.493	418.7
365.874	407.63
366.256	418.03
366.637	414.64
367.019	417.35
367.4	411.92
367.781	410.34
368.163	410.57
368.544	422.55
368.925	437.46
369.306	419.16
369.688	417.35
370.069	411.92
370.45	414.18
370.831	427.07
371.212	447.86
371.593	437.46
371.974	442.43
372.355	442.88
372.736	449.66
373.117	447.63
373.498	428.87
373.879	464.58
374.26	461.41
374.641	440.4
375.021	448.76
375.402	447.18
375.783	491.02
376.163	495.99
376.544	498.48
376.925	501.41
377.305	474.97
377.686	485.37
378.066	497.35
378.447	494.63
378.827	527.4
379.208	500.06
379.588	526.72
379.968	510.45
380.349	532.37
380.729	551.36
381.109	550
381.489	520.85
381.87	541.41
382.25	546.38
382.63	531.24
383.01	552.03
383.39	553.16
383.77	581.41
384.15	582.99
384.53	573.73
384.91	594.97
385.29	601.52
385.67	613.05
386.049	619.6
386.429	627.29
386.809	622.99
387.189	617.79
387.568	623.67
387.948	628.64
388.328	673.16
388.707	646.04
389.087	662.77
389.466	644.69
389.846	674.97
390.225	689.21
390.605	681.07
390.984	692.82
391.363	708.41
391.743	704.12
392.122	727.62
392.501	737.79
392.881	744.57
393.26	740.28
393.639	761.07
394.018	777.79
394.397	740.5
394.776	810.78
395.155	780.05
395.534	803.1
395.913	773.27
396.292	807.39
396.671	812.82
397.05	834.06
397.429	824.12
397.808	830.22
398.186	832.48
398.565	874.28
398.944	855.75
399.323	873.38
399.701	889.65
400.08	889.88
400.458	884.45
400.837	927.84
401.215	937.11
401.594	901.63
401.972	936.2
402.351	938.46
402.729	943.44
403.107	964
403.486	973.49
403.864	1009.42
404.242	989.31
404.62	1034.28
404.999	1038.8
405.377	1038.8
405.755	1055.75
406.133	1074.51
406.511	1090.78
406.889	1103.21
407.267	1112.92
407.645	1119.25
408.023	1128.06
408.401	1147.27
408.779	1189.3
409.156	1208.74
409.534	1191.11
409.912	1226.14
410.29	1260.26
410.667	1258.23
411.045	1300.49
411.422	1304.56
411.8	1312.24
412.178	1350.88
412.555	1326.93
412.933	1335.29
413.31	1383.88
413.687	1408.96
414.065	1408.51
414.442	1422.29
414.819	1434.04
415.197	1436.76
415.574	1476.08
415.951	1512.23
416.328	1505.45
416.705	1534.38
417.082	1520.37
417.46	1551.33
417.837	1595.85
418.214	1577.54
418.591	1594.49
418.967	1609.63
419.344	1622.74
419.721	1663.19
420.098	1666.58
420.475	1701.83
420.852	1711.33
421.228	1735.51
421.605	1753.13
421.982	1741.15
422.358	1789.74
422.735	1824.54
423.111	1797.65
423.488	1851.89
423.864	1871.09
424.241	1897.31
424.617	1897.76
424.994	1929.4
425.37	1951.54
425.746	1954.93
426.123	1983.18
426.499	2019.57
426.875	1999.23
427.251	2048.94
427.627	2075.38
428.003	2141.82
428.379	2135.49
428.756	2172.56
429.132	2212.1
429.507	2262.27
429.883	2280.8
430.259	2280.58
430.635	2306.34
431.011	2351.08
431.387	2362.38
431.763	2397.86
432.138	2473.11
432.514	2503.62
432.89	2515.37
433.265	2586.1
433.641	2581.13
434.016	2581.36
434.392	2666.1
434.767	2740
435.143	2716.27
435.518	2761.24
435.894	2802.37
436.269	2826.32
436.644	2843.95
437.02	2882.59
437.395	2891.41
437.77	2958.75
438.145	2983.16
438.52	3005.75
438.895	3046.43
439.271	3090.72
439.646	3112.64
440.021	3132.76
440.395	3170.04
440.77	3182.92
441.145	3175.92
441.52	3265.86
441.895	3265.18
442.27	3297.05
442.645	3310.15
443.019	3371.39
443.394	3369.59
443.769	3401.68
444.143	3400.55
444.518	3468.57
444.892	3446.65
445.267	3470.37
445.641	3515.8
446.016	3540.2
446.39	3575.68
446.764	3594.89
447.139	3599.86
447.513	3671.73
447.887	3693.65
448.262	3709.24
448.636	3691.84
449.01	3806.64
449.384	3822.46
449.758	3870.59
450.132	3908.56
450.506	3901.32
450.88	3991.27
451.254	3938.84
451.628	4007.76
452.002	4089.57
452.376	4084.14
452.75	4143.58
453.123	4220.19
453.497	4257.25
453.871	4244.59
454.244	4388.99
454.618	4415.21
454.992	4426.96
455.365	4485.26
455.739	4554.19
456.112	4604.36
456.486	4711.25
456.859	4711.92
457.232	4830.11
457.606	4819.94
457.979	4880.96
458.352	4951.47
458.725	5049.09
459.099	5086.38
459.472	5227.84
459.845	5182.87
460.218	5281.85
460.591	5328.41
460.964	5338.8
461.337	5467.38
461.71	5568.62
462.083	5629.87
462.456	5666.02
462.829	5672.35
463.201	5817.88
463.574	5845.23
463.947	5878.45
464.32	6072.79
464.692	6070.76
465.065	6110.08
465.438	6244.09
465.81	6300.13
466.183	6385.78
466.555	6527.92
466.928	6566.11
467.3	6569.95
467.672	6707.8
468.045	6843.17
468.417	6816.73
468.789	6911.19
469.161	7090.84
469.534	7185.53
469.906	7309.37
470.278	7388.69
470.65	7501
471.022	7600.89
471.394	7746.19
471.766	7783.93
472.138	7956.36
472.51	8055.34
472.882	8248.78
473.253	8309.12
473.625	8393.41
473.997	8633.18
474.369	8718.37
474.74	8790.23
475.112	8981.19
475.484	9076.56
475.855	9265.25
476.227	9343.89
476.598	9604.22
476.97	9640.38
477.341	9922.86
477.713	10031.33
478.084	10156.98
478.455	10434.94
478.827	10515.39
479.198	10801.93
479.569	10796.51
479.94	11154.01
480.311	11202.15
480.682	11455.93
481.053	11793.77
481.424	11939.3
481.795	12105.4
482.166	12215.91
482.537	12429.69
482.908	12643.69
483.279	12858.38
483.65	12994.19
484.021	13338.82
484.391	13459.26
484.762	13521.18
485.133	13701.74
485.503	13902.87
485.874	14207.95
486.244	14276.19
486.615	14544.21
486.985	14809.96
487.356	15032.33
487.726	15187.35
488.097	15547.12
488.467	15561.81
488.837	15888.81
489.207	16136.71
489.578	16385.06
489.948	16500.77
490.318	16701.89
490.688	16748.9
491.058	17005.61
491.428	17294.19
491.798	17383
492.168	17751.81
492.538	17899.37
492.908	17980.05
493.278	18409.42
493.648	18403.77
494.017	18603.54
494.387	18825.23
494.757	18827.94
495.126	19075.61
495.496	19272.22
495.866	19258.66
496.235	19549.73
496.605	19731.19
496.974	19860.23
497.344	20081.92
497.713	20246.88
498.082	20380.44
498.452	20634.22
498.821	20673.76
499.19	20792.63
499.559	20905.85
499.928	21155.11
500.298	21314.2
500.667	21494.08
501.036	21477.36
501.405	21735.43
501.774	21694.75
502.143	21946.27
502.512	22079.83
502.88	22317.79
503.249	22297.9
503.618	22520.95
503.987	22704.45
504.356	22722.52
504.724	22838
505.093	23074.15
505.462	23094.72
505.83	23415.84
506.199	23526.57
506.567	23960.46
506.936	23929.5
507.304	24196.84
507.672	24180.56
508.041	24396.15
508.409	24587.79
508.777	24814.9
509.145	24998.17
509.514	25059.19
509.882	25222.35
510.25	25297.15
510.618	25458.72
510.986	25623.01
511.354	25876.34
511.722	26280.85
512.09	26508.41
512.458	26329.89
512.826	26693.72
513.193	26808.74
513.561	26819.37
513.929	27189.07
514.297	27278.79
514.664	27616.18
515.032	27705.67
515.4	27982.05
515.767	28126.68
516.135	28297.29
516.502	28253.23
516.869	28732.99
517.237	28755.36
517.604	28727.79
517.972	29234.67
518.339	29339.07
518.706	29405.29
519.073	29669.46
519.44	29936.57
519.808	30150.58
520.175	30297.47
520.542	30652.94
520.909	30817.45
521.276	30785.81
521.643	31265.12
522.009	31485.23
522.376	31734.72
522.743	31866.24
523.11	32165.89
523.477	32504.87
523.843	32789.38
524.21	33039.99
524.577	33293.09
524.943	33318.18
525.31	33602.46
525.676	33884.26
526.043	34258.94
526.409	34173.75
526.776	34677.01
527.142	34867.29
527.508	34986.16
527.874	35506.82
528.241	35500.72
528.607	35532.13
528.973	36001.04
529.339	36139.35
529.705	36368.04
530.071	36608.94
530.437	36800.57
530.803	36985.65
531.169	37325.98
531.535	37191.75
531.901	37467.22
532.267	37493.21
532.632	37885.97
532.998	38010.26
533.364	38220.2
533.73	38288.22
534.095	38603.01
534.461	38623.12
534.826	38874.42
535.192	39208.87
535.557	39313.05
535.923	39437.11
536.288	39582.87
536.653	39651.34
537.019	39637.56
537.384	39842.98
537.749	40107.6
538.114	40272.35
538.479	40227.15
538.845	40558.21
539.21	40604.31
539.575	40696.51
539.94	40830.3
540.305	41065.54
540.67	41027.13
541.034	41289.95
541.399	41459.88
541.764	41559.54
542.129	41646.09
542.494	41785.75
542.858	42113.65
543.223	42156.82
543.587	42291.05
543.952	42254.67
544.316	42285.17
544.681	42612.85
545.045	42748.89
545.41	42966.74
545.774	43032.72
546.138	43110.91
546.503	43248.54
546.867	43315.88
547.231	43660.5
547.595	43713.38
547.959	43866.83
548.324	43944.79
548.688	44032.47
549.052	44218.91
549.416	44227.72
549.779	44450.31
550.143	44522.63
550.507	44754.49
550.871	44922.62
551.235	44993.12
551.599	45373.68
551.962	45476.28
552.326	45490.29
552.689	45757.85
553.053	45710.62
553.417	45788.13
553.78	46338.17
554.143	46141.12
554.507	46364.61
554.87	46538.17
555.234	46866.52
555.597	46652.97
555.96	46960.08
556.323	47165.72
556.686	47228.09
557.05	47467.64
557.413	47557.58
557.776	47696.1
558.139	47886.61
558.502	47911.69
558.865	48060.16
559.228	48442.53
559.59	48523.88
559.953	48663.99
560.316	49060.81
560.679	48998.44
561.041	49161.83
561.404	49376.74
561.767	49739.21
562.129	49495.83
562.492	49958.19
562.854	49845.65
563.217	50000.9
563.579	50133.78
563.941	50407.45
564.304	50508.01
564.666	50703.48
565.028	50820.32
565.39	50865.51
565.753	51129.69
566.115	51210.81
566.477	51334.88
566.839	51489
567.201	51670.92
567.563	51676.11
567.925	52037.91
568.287	51955.65
568.648	52001.75
569.01	52298.02
569.372	52427.96
569.734	52364.23
570.095	52599.25
570.457	52713.37
570.819	52728.29
571.18	52797.89
571.542	52991.33
571.903	53031.78
572.265	53139.8
572.626	53285.11
572.987	53285.11
573.349	53360.36
573.71	53505.44
574.071	53570.53
574.432	53688.72
574.794	53908.14
575.155	53785.66
575.516	53771.2
575.877	53916.51
576.238	53960.57
576.599	54120.34
576.96	54090.51
577.32	54146.78
577.681	54270.62
578.042	54226.55
578.403	54329.15
578.763	54311.98
579.124	54421.35
579.485	54414.35
579.845	54563.27
580.206	54513.1
580.566	54441.92
580.927	54591.29
581.287	54740.21
581.648	54505.87
582.008	54683.04
582.368	54721.91
582.728	54776.37
583.089	54610.5
583.449	54733.21
583.809	54671.29
584.169	54866.31
584.529	54711.51
584.889	55006.42
585.249	54701.8
585.609	54721.91
585.969	54869.48
586.329	54792.42
586.688	54797.84
587.048	54808.01
587.408	54796.48
587.768	54796.26
588.127	54716.71
588.487	54801.23
588.846	54971.17
589.206	54729.14
589.565	54711.97
589.925	54856.37
590.284	54813.66
590.643	54777.05
591.003	55003.03
591.362	55061.11
591.721	54891.4
592.08	54955.35
592.44	55066.53
592.799	54986.76
593.158	54898.4
593.517	54921
593.876	55001.9
594.235	54968.23
594.593	55033.99
594.952	55052.52
595.311	54930.94
595.67	55055.46
596.029	55173.2
596.387	55161.67
596.746	55229.69
597.104	55164.83
597.463	55146.3
597.822	55290.71
598.18	55110.37
598.538	55112.63
598.897	55260.2
599.255	55049.13
599.613	55450.25
599.972	55187.43
600.33	55365.73
600.688	55203.48
601.046	55325.06
601.404	55413.19
601.762	55351.04
602.12	55440.08
602.478	55485.5
602.836	55424.49
603.194	55338.39
603.552	55505.62
603.91	55353.98
604.268	55599.17
604.625	55460.42
604.983	55583.35
605.341	55407.77
605.698	55618.83
606.056	55670.13
606.413	55543.58
606.771	55692.73
607.128	55743.35
607.485	55637.82
607.843	55681.21
608.2	55784.48
608.557	55875.1
608.914	55731.6
609.272	55914.87
609.629	55986.06
609.986	56007.3
610.343	55927.07
610.7	56062.89
611.057	56019.28
611.414	56034.87
611.771	56051.37
612.127	56156.67
612.484	56079.84
612.841	56255.43
613.198	56131.59
613.554	56196.22
613.911	56271.92
614.267	56294.3
614.624	56222.43
614.98	56262.89
615.337	56436.21
615.693	56369.32
616.05	56307.18
616.406	56441.86
616.762	56331.36
617.118	56368.87
617.475	56392.37
617.831	56439.6
618.187	56422.43
618.543	56454.97
618.899	56638.24
619.255	56564.57
619.611	56571.35
619.967	56640.28
620.323	56677.11
620.678	56549.21
621.034	56494.52
621.39	56487.29
621.746	56478.7
622.101	56746.94
622.457	56572.48
622.812	56575.19
623.168	56669.2
623.523	56641.63
623.879	56698.58
624.234	56479.15
624.589	56624.91
624.945	56627.4
625.3	56645.93
625.655	56663.1
626.01	56612.93
626.365	56585.36
626.72	56575.87
627.075	56544.69
627.43	56603.44
627.785	56444.35
628.14	56553.05
628.495	56615.42
628.85	56499.04
629.205	56485.7
629.559	56637.56
629.914	56453.84
630.269	56501.3
630.623	56381.07
630.978	56311.25
631.332	56478.02
631.687	56480.28
632.041	56358.48
632.396	56460.85
632.75	56319.61
633.104	56345.14
633.459	56206.16
633.813	56180.18
634.167	56212.26
634.521	56154.87
634.875	56205.49
635.229	56153.96
635.583	55917.58
635.937	55942.67
636.291	55914.19
636.645	55911.26
636.999	55941.09
637.352	55919.84
637.706	55734.54
638.06	55924.14
638.413	55830.13
638.767	55775.89
639.121	55781.32
639.474	55558.04
639.828	55686.4
640.181	55590.36
640.534	55633.52
640.888	55586.97
641.241	55460.87
641.594	55435.11
641.947	55591.72
642.301	55398.05
642.654	55410.03
643.007	55416.81
643.36	55360.76
643.713	55271.5
644.066	55378.16
644.419	55143.37
644.771	54989.47
645.124	54739.54
645.477	54689.59
645.83	54505.87
646.182	54321.47
646.535	54388.81
646.888	54352.88
647.24	54182.49
647.593	54330.73
647.945	54298.42
648.298	54142.71
648.65	54079.44
649.002	54015.94
649.355	54128.25
649.707	53997.86
650.059	54222.71
650.411	54510.39
650.763	54500.22
651.115	54731.4
651.467	54634.23
651.819	54690.72
652.171	54568.01
652.523	54544.51
652.875	54459.09
653.227	54362.82
653.578	54496.6
653.93	54456.83
654.282	54255.93
654.633	54274.91
654.985	54294.8
655.337	54264.97
655.688	54310.17
656.039	54390.84
656.391	54041.47
656.742	54086.67
657.094	54219.55
657.445	54266.33
657.796	54151.08
658.147	54028.14
658.498	54019.1
658.849	54107.69
659.2	54065.43
659.551	53972.55
659.902	54082.38
660.253	54008.26
660.604	54055.71
660.955	53883.74
661.306	53966
661.656	53931.65
662.007	53847.36
662.358	53876.73
662.708	53858.65
663.059	53883.29
663.409	53650.07
663.76	53859.11
664.11	53796.74
664.461	53831.99
664.811	53759.9
665.161	53761.48
665.511	53620.02
665.862	53759.67
666.212	53740.01
666.562	53769.39
666.912	53730.3
667.262	53647.81
667.612	53628.83
667.962	53693.24
668.312	53489.17
668.662	53689.62
669.011	53627.7
669.361	53533.24
669.711	53567.59
670.06	53466.35
670.41	53434.71
670.76	53366.46
671.109	53427.03
671.459	53409.17
671.808	53281.49
672.157	53383.19
672.507	53281.95
672.856	53246.02
673.205	53191.78
673.554	53267.03
673.904	53118.79
674.253	53264.77
674.602	53232
674.951	52719.93
675.3	52569.87
675.649	53072.91
675.998	52958.11
676.346	53024.78
676.695	53200.82
677.044	52903.65
677.393	52980.26
677.741	52986.59
678.09	52880.83
678.438	52833.37
678.787	52962.63
679.135	52847.16
679.484	52721.74
679.832	52775.97
680.181	52600.38
680.529	52763.54
680.877	52577.78
681.225	52554.96
681.573	52787.95
681.922	52448.52
682.27	52365.81
682.618	52388.86
682.966	52282.2
683.314	52371.46
683.661	52206.95
684.009	52066.61
684.357	51937.58
684.705	51945.48
685.053	51942.32
685.4	51884.24
685.748	51761.99
686.095	51779.84
686.443	51592.73
686.79	51614.65
687.138	51590.01
687.485	51629.79
687.832	51428.21
688.18	51381.88
688.527	51281.1
688.874	51277.48
689.221	51237.48
689.568	51107.77
689.915	50972.4
690.262	50901.67
690.609	50866.42
690.956	50816.93
691.303	50643.37
691.65	50514.79
691.997	50422.59
692.344	50382.59
692.69	50277.51
693.037	50155.48
693.383	49920.9
693.73	50046.33
694.077	49905.09
694.423	49905.54
694.769	49715.71
695.116	49594.13
695.462	49646.79
695.808	49437.53
696.155	49427.58
696.501	49198.89
696.847	49323.63
697.193	48976.52
697.539	48983.53
697.885	48829.41
698.231	48603.88
698.577	48784.66
698.923	48514.61
699.269	48541.96
699.614	48255.19
699.96	48122.53
700.306	48221.06
700.651	48068.3
700.997	47897.68
701.342	47806.84
701.688	47835.54
702.033	47720.28
702.379	47596.67
702.724	47539.5
703.069	47592.6
703.415	46989.68
703.76	47118.04
704.105	47190.13
704.45	46906.29
704.795	46828.1
705.14	46674.21
705.485	46617.71
705.83	46467.21
706.175	46482.8
706.52	46460.88
706.865	46256.37
707.209	46142.7
707.554	45981.35
707.899	46108.58
708.243	45828.58
708.588	45700.22
708.932	45584.97
709.277	45516.05
709.621	45599.44
709.966	45349.27
710.31	45383.62
710.654	44961.26
710.998	45082.16
711.342	44982.96
711.687	44824.77
712.031	44792.23
712.375	44661.61
712.719	44733.47
713.063	44523.31
713.407	44585.68
713.75	44383.2
714.094	44312.46
714.438	44225.91
714.782	44196.08
715.125	43945.92
715.469	44130.77
715.812	43865.92
716.156	43540.51
716.499	43573.28
716.843	43719.26
717.186	43402.66
717.53	43537.12
717.873	43566.27
718.216	43484.01
718.559	43157.24
718.902	42944.59
719.246	43073.18
719.589	42928.32
719.932	42858.94
720.275	42903.24
720.617	42693.07
720.96	42629.8
721.303	42678.16
721.646	42551.83
721.989	42362.69
722.331	42478.39
722.674	42243.37
723.016	42238.62
723.359	42076.82
723.701	42153.88
724.044	42056.03
724.386	41917.27
724.729	41960.89
725.071	41813.1
725.413	41791.18
725.755	41713.66
726.097	41596.38
726.439	41375.82
726.782	41400
727.124	41692.65
727.465	41363.16
727.807	41284.75
728.149	41157.07
728.491	40986.45
728.833	41184.86
729.175	40951.42
729.516	40925.44
729.858	40894.25
730.199	40835.72
730.541	40832.56
730.882	40743.52
731.224	40732.9
731.565	40460.36
731.906	40453.58
732.248	40557.08
732.589	40302.4
732.93	40200.48
733.271	40214.95
733.612	40177.21
733.953	40250.65
734.294	39997.1
734.635	39893.15
734.976	40142.63
735.317	39816.76
735.658	39642.31
735.999	39654.73
736.339	39636.43
736.68	39756.65
737.021	39483.21
737.361	39376.1
737.702	39499.03
738.042	39379.49
738.383	39184.24
738.723	39314.4
739.063	39122.77
739.404	39161.64
739.744	39043.45
740.084	38967.29
740.424	39024.02
740.764	38791.25
741.104	38941.76
741.444	38639.39
741.784	38720.3
742.124	38697.47
742.464	38584.71
742.804	38537.25
743.143	38528.21
743.483	38336.8
743.823	38245.73
744.162	38138.62
744.502	38254.54
744.841	37970.48
745.181	38215.45
745.52	38038.05
745.86	37991.5
746.199	37918.28
746.538	37848.91
746.877	37810.94
747.216	37798.06
747.556	37718.29
747.895	37795.8
748.234	37504.06
748.573	37431.97
748.911	37394.68
749.25	37441.23
749.589	37268.81
749.928	37219.77
750.267	37322.37
750.605	37145.87
750.944	36909.95
751.283	36884.86
751.621	36924.64
751.96	36628.6
752.298	36766
