Data from whiteboard_FLMS001491_00088.txt Node
Date: Wed Feb 08 11:28:30 GMT 2017
User: dcchb
Spectrometer: FLMS00149
Trigger mode: 0
Integration Time (sec): 2.000000E-2
Scans to average: 10
Electric dark correction enabled: true
Nonlinearity correction enabled: false
Boxcar width: 0
XAxis mode: Wavelengths
Number of Pixels in Spectrum: 2048
>>>>>Begin Spectral Data<<<<<
341.393	-4.38
341.776	-4.38
342.16	-4.38
342.543	-51.16
342.927	-65.39
343.31	-61.55
343.693	-71.5
344.077	-79.4
344.46	-64.04
344.843	-48.22
345.226	-48.9
345.61	-26.3
345.993	-5.28
346.376	-9.8
346.759	-1.44
347.142	17.32
347.525	50.99
347.908	69.97
348.291	76.07
348.674	76.75
349.057	125.34
349.44	131.89
349.823	139.57
350.206	169.63
350.588	222.06
350.971	227.71
351.354	252.56
351.737	266.57
352.119	284.43
352.502	286.69
352.884	301.83
353.267	311.77
353.65	337.08
354.032	312.22
354.414	341.38
354.797	327.59
355.179	351.32
355.562	349.51
355.944	356.97
356.326	347.7
356.709	381.15
357.091	348.61
357.473	386.35
357.855	361.04
358.238	386.12
358.62	369.85
359.002	375.05
359.384	368.04
359.766	374.59
360.148	372.79
360.53	399.45
360.912	375.95
361.294	376.18
361.676	370.98
362.057	370.08
362.439	370.75
362.821	371.88
363.203	355.84
363.584	370.98
363.966	369.4
364.348	365.78
364.729	369.4
365.111	359.45
365.493	380.47
365.874	355.16
366.256	350.19
366.637	342.28
367.019	349.28
367.4	353.58
367.781	340.47
368.163	366.01
368.544	344.09
368.925	347.02
369.306	373.01
369.688	339.34
370.069	360.81
370.45	347.25
370.831	362.62
371.212	363.52
371.593	363.75
371.974	344.76
372.355	384.54
372.736	373.01
373.117	372.79
373.498	364.88
373.879	357.42
374.26	376.4
374.641	368.27
375.021	381.37
375.402	365.33
375.783	387.25
376.163	392.9
376.544	384.76
376.925	372.11
377.305	385.89
377.686	383.18
378.066	403.52
378.447	399.45
378.827	394.26
379.208	393.13
379.588	426.34
379.968	384.99
380.349	420.7
380.729	396.74
381.109	404.88
381.489	401.49
381.87	408.49
382.25	404.88
382.63	442.62
383.01	424.31
383.39	423.63
383.77	422.95
384.15	425.44
384.53	439.68
384.91	456.17
385.29	442.84
385.67	429.73
386.049	467.7
386.429	443.29
386.809	448.49
387.189	467.25
387.568	469.73
387.948	459.56
388.328	483.07
388.707	468.38
389.087	493.46
389.466	500.92
389.846	510.64
390.225	509.51
390.605	513.12
390.984	490.98
391.363	510.41
391.743	516.51
392.122	512.9
392.501	532.78
392.881	538.66
393.26	562.16
393.639	563.06
394.018	572.78
394.397	555.83
394.776	556.51
395.155	576.62
395.534	574.14
395.913	596.51
396.292	599.22
396.671	611.65
397.05	622.95
397.429	631.09
397.808	659.33
398.186	648.03
398.565	653.01
398.944	639.67
399.323	697.75
399.701	685.32
400.08	699.11
400.458	660.69
400.837	722.61
401.215	697.07
401.594	726.9
401.972	727.81
402.351	774.58
402.729	785.21
403.107	787.24
403.486	791.31
403.864	811.19
404.242	831.08
404.62	844.41
404.999	860.23
405.377	837.86
405.755	890.74
406.133	890.29
406.511	906.56
406.889	932.77
407.267	940
407.645	992.66
408.023	1009.15
408.401	1020
408.779	1019.78
409.156	1065.65
409.534	1085.54
409.912	1091.86
410.29	1118.08
410.667	1131.64
411.045	1151.75
411.422	1189.04
411.8	1199.66
412.178	1232.43
412.555	1253.44
412.933	1248.24
413.31	1297.51
413.687	1344.74
414.065	1328.69
414.442	1375.25
414.819	1373.21
415.197	1394.45
415.574	1437.39
415.951	1470.16
416.328	1444.17
416.705	1501.57
417.082	1511.06
417.46	1490.27
417.837	1540.44
418.214	1537.95
418.591	1601
418.967	1606.88
419.344	1602.13
419.721	1644.84
420.098	1649.14
420.475	1702.47
420.852	1688.01
421.228	1732.3
421.605	1750.6
421.982	1711.28
422.358	1770.94
422.735	1798.51
423.111	1808.91
423.488	1881.9
423.864	1841.22
424.241	1871.5
424.617	1920.54
424.994	1928.68
425.37	1922.12
425.746	1984.27
426.123	1988.34
426.499	2011.61
426.875	2056.13
427.251	2073.31
427.627	2129.35
428.003	2162.8
428.379	2159.41
428.756	2222.91
429.132	2262
429.507	2267.2
429.883	2309.91
430.259	2340.64
430.635	2344.26
431.011	2413.64
431.387	2394.65
431.763	2454.99
432.138	2473.97
432.514	2548.55
432.89	2543.13
433.265	2603.69
433.641	2666.29
434.016	2670.81
434.392	2711.48
434.767	2776.11
435.143	2736.79
435.518	2806.85
435.894	2819.73
436.269	2888.65
436.644	2914.64
437.02	2955.54
437.395	2954.87
437.77	3032.6
438.145	3076.9
438.52	3053.17
438.895	3101.75
439.271	3126.16
439.646	3200.28
440.021	3204.12
440.395	3222.88
440.77	3233.28
441.145	3285.48
441.52	3296.33
441.895	3338.13
442.27	3361.63
442.645	3360.28
443.019	3427.4
443.394	3415.64
443.769	3458.58
444.143	3427.17
444.518	3435.08
444.892	3474.63
445.267	3545.58
445.641	3543.32
446.016	3563.44
446.39	3622.87
446.764	3677.11
447.139	3666.49
447.513	3726.14
447.887	3761.62
448.262	3732.25
448.636	3795.3
449.01	3877.55
449.384	3847.27
449.758	3879.14
450.132	3927.27
450.506	3941.05
450.88	4010.66
451.254	4019.7
451.628	4063.54
452.002	4082.97
452.376	4131.78
452.75	4263.08
453.123	4206.81
453.497	4312.34
453.871	4353.25
454.244	4381.27
454.618	4413.58
454.992	4460.59
455.365	4515.28
455.739	4693.58
456.112	4696.51
456.486	4721.15
456.859	4755.27
457.232	4897.87
457.606	4839.11
457.979	4952.1
458.352	5042.72
458.725	5070.52
459.099	5151.64
459.472	5246.78
459.845	5322.94
460.218	5374.92
460.591	5350.06
460.964	5395.03
461.337	5540.79
461.71	5616.94
462.083	5699.65
462.456	5703.49
462.829	5674.57
463.201	5873.66
463.574	5818.97
463.947	5969.48
464.32	6105.74
464.692	6155.23
465.065	6206.76
465.438	6274.55
465.81	6401.78
466.183	6466.19
466.555	6577.37
466.928	6644.94
467.3	6630.25
467.672	6752.28
468.045	6904.14
468.417	6981.2
468.789	7068.2
469.161	7132.38
469.534	7199.95
469.906	7310.91
470.278	7407.86
470.65	7499.61
471.022	7643.56
471.394	7820.5
471.766	7848.75
472.138	7931.91
472.51	8128.52
472.882	8302.3
473.253	8385.46
473.625	8423.65
473.997	8666.35
474.369	8672.91
474.74	8820.25
475.112	9019.57
475.484	9176.4
475.855	9274.02
476.227	9352.44
476.598	9627.68
476.97	9706.55
477.341	9981.8
477.713	10055.92
478.084	10087.56
478.455	10471.96
478.827	10493.42
479.198	10886.18
479.569	10849.12
479.94	11123.69
480.311	11249.56
480.682	11483
481.053	11789.44
481.424	11930
481.795	12108.3
482.166	12231.46
482.537	12355.97
482.908	12602.97
483.279	12804.55
483.65	12980.59
484.021	13313.69
484.391	13471.65
484.762	13579.22
485.133	13688.37
485.503	13947.12
485.874	14209.26
486.244	14306.21
486.615	14611.51
486.985	14742.8
487.356	15116.58
487.726	15282.23
488.097	15468.89
488.467	15537.36
488.837	15868.88
489.207	16057.12
489.578	16291.46
489.948	16410.33
490.318	16594.06
490.688	16653.94
491.058	17050.77
491.428	17275.17
491.798	17388.61
492.168	17793.35
492.538	17751.09
492.908	17966
493.278	18195.82
493.648	18212.54
494.017	18392.88
494.387	18692.08
494.757	18679.42
495.126	19039.87
495.496	19007.1
495.866	19190.6
496.235	19483.24
496.605	19647.53
496.974	19727.98
497.344	20003.91
497.713	20076.22
498.082	20224.69
498.452	20391.02
498.821	20423.11
499.19	20452.03
499.559	20771.12
499.928	20961.17
500.298	21158
500.667	21306.25
501.036	21266.25
501.405	21476.86
501.774	21539.91
502.143	21775.16
502.512	21882.5
502.88	22072.33
503.249	22141.71
503.618	22418.08
503.987	22456.95
504.356	22513.9
504.724	22649.94
505.093	22825.76
505.462	22989.37
505.83	23147.78
506.199	23317.95
506.567	23613.31
506.936	23616.47
507.304	23860.3
507.672	24006.29
508.041	24106.85
508.409	24340.74
508.777	24467.75
509.145	24632.26
509.514	24701.64
509.882	24881.75
510.25	24897.57
510.618	25075.87
510.986	25212.13
511.354	25438.57
511.722	25582.29
512.09	25954.71
512.458	26008.72
512.826	26157.19
513.193	26280.58
513.561	26419.79
513.929	26715.6
514.297	26915.14
514.664	27015.25
515.032	27265.86
515.4	27427.22
515.767	27507.89
516.135	27671.73
516.502	27699.75
516.869	28163.47
517.237	28242.79
517.604	28319.17
517.972	28688.65
518.339	28789.44
518.706	28910.57
519.073	29113.95
519.44	29387.84
519.808	29732.01
520.175	29744.44
520.542	30003.19
520.909	30160.25
521.276	30255.16
521.643	30709.16
522.009	30710.97
522.376	31003.17
522.743	31273.67
523.11	31508.69
523.477	31743.04
523.843	31956.82
524.21	32157.49
524.577	32433.19
524.943	32605.16
525.31	32738.49
525.676	33050.35
526.043	33231.36
526.409	33312.94
526.776	33726.94
527.142	33887.61
527.508	33983.88
527.874	34359.24
528.241	34332.35
528.607	34489.86
528.973	34863.18
529.339	34879.22
529.705	35229.05
530.071	35495.48
530.437	35662.93
530.803	35924.17
531.169	36188.12
531.535	36067.44
531.901	36412.07
532.267	36565.28
532.632	36851.6
532.998	36894.76
533.364	37249.56
533.73	37380.18
534.095	37627.4
534.461	37743.33
534.826	37810.22
535.192	37944.45
535.557	38266.93
535.923	38262.19
536.288	38589.86
536.653	38717.09
537.019	38585.79
537.384	38773.81
537.749	39065.55
538.114	38999.79
538.479	39219
538.845	39349.16
539.21	39543.73
539.575	39486.56
539.94	39799.55
540.305	39965.42
540.67	39859.88
541.034	39994.12
541.399	40308.23
541.764	40419.64
542.129	40408.57
542.494	40446.31
542.858	40722.46
543.223	40747.77
543.587	41056.91
543.952	40998.39
544.316	41211.71
544.681	41177.82
545.045	41524.47
545.41	41684.92
545.774	41799.27
546.138	41884.69
546.503	42140.05
546.867	42034.06
547.231	42361.29
547.595	42469.53
547.959	42727.83
548.324	42640.83
548.688	42775.51
549.052	42881.5
549.416	43100.7
549.779	43208.27
550.143	43259.57
550.507	43532.33
550.871	43747.24
551.235	43697.75
551.599	44116.04
551.962	44087.34
552.326	44230.16
552.689	44501.8
553.053	44383.61
553.417	44486.2
553.78	44964.38
554.143	44922.8
554.507	45117.6
554.87	45067.2
555.234	45641.2
555.597	45323.24
555.96	45607.08
556.323	45871.25
556.686	45821.31
557.05	46049.1
557.413	46234.63
557.776	46304.23
558.139	46531.57
558.502	46494.29
558.865	46653.6
559.228	47080.26
559.59	47045.01
559.953	47196.41
560.316	47581.26
560.679	47495.62
561.041	47844.98
561.404	47986.9
561.767	48180.8
562.129	48162.49
562.492	48585.98
562.854	48505.76
563.217	48506.21
563.579	48805.64
563.941	48983.49
564.304	49277.94
564.666	49482.23
565.028	49387.32
565.39	49546.41
565.753	49777.14
566.115	49886.51
566.477	50040.63
566.839	50126.73
567.201	50337.8
567.563	50467.74
567.925	50708.86
568.287	50731.69
568.648	50824.57
569.01	51046.03
569.372	51131.23
569.734	51106.14
570.095	51170.55
570.457	51501.84
570.819	51544.1
571.18	51593.13
571.542	51734.83
571.903	51738.89
572.265	51941.6
572.626	52046.23
572.987	52060.02
573.349	52177.3
573.71	52240.35
574.071	52265.21
574.432	52485.31
574.794	52629.49
575.155	52652.99
575.516	52629.72
575.877	52715.14
576.238	52790.84
576.599	52962.59
576.96	52972.76
577.32	53003.95
577.681	53156.26
578.042	53206.65
578.403	53073.55
578.763	53204.62
579.124	53285.52
579.485	53333.65
579.845	53441.9
580.206	53378.17
580.566	53389.47
580.927	53400.09
581.287	53581.78
581.648	53443.48
582.008	53604.61
582.368	53558.28
582.728	53659.3
583.089	53564.38
583.449	53625.17
583.809	53707.43
584.169	53706.3
584.529	53619.75
584.889	53994.65
585.249	53669.01
585.609	53678.5
585.969	53784.72
586.329	53702.68
586.688	53796.69
587.048	53821.78
587.408	53691.61
587.768	53712.63
588.127	53682.8
588.487	53524.38
588.846	53851.61
589.206	53679.86
589.565	53648.22
589.925	53803.25
590.284	53688.22
590.643	53781.1
591.003	53865.84
591.362	54011.83
591.721	53909.01
592.08	53870.36
592.44	53957.59
592.799	53934.77
593.158	53853.41
593.517	53980.64
593.876	53951.04
594.235	53867.43
594.593	53891.38
594.952	53986.07
595.311	53763.02
595.67	53871.72
596.029	54154.88
596.387	54025.39
596.746	54083.46
597.104	53997.14
597.463	53969.34
597.822	54077.82
598.18	54040.98
598.538	54031.71
598.897	54262.44
599.255	53961.21
599.613	54438.03
599.972	54240.97
600.33	54346.73
600.688	54274.87
601.046	54363.68
601.404	54441.65
601.762	54357.13
602.12	54521.65
602.478	54443.68
602.836	54476.22
603.194	54371.14
603.552	54373.63
603.91	54204.59
604.268	54389.9
604.625	54323.46
604.983	54448.88
605.341	54260.86
605.698	54383.12
606.056	54482.78
606.413	54415.89
606.771	54534.98
607.128	54465.38
607.485	54427.18
607.843	54487.97
608.2	54630.12
608.557	54752.15
608.914	54483.45
609.272	54763
609.629	54799.6
609.986	54851.35
610.343	54704.92
610.7	54907.85
611.057	54787.4
611.414	54826.72
611.771	54761.19
612.127	54887.06
612.484	54893.61
612.841	54969.77
613.198	54857.23
613.554	54932.48
613.911	54998.02
614.267	55112.82
614.624	55024.23
614.98	55098.13
615.337	55188.29
615.693	55138.13
616.05	55180.84
616.406	55217.22
616.762	55185.13
617.118	55186.49
617.475	55291.34
617.831	55340.16
618.187	55315.52
618.543	55347.16
618.899	55426.25
619.255	55330.89
619.611	55343.54
619.967	55431.68
620.323	55428.29
620.678	55458.34
621.034	55328.86
621.39	55320.72
621.746	55278.91
622.101	55519.36
622.457	55309.87
622.812	55400.49
623.168	55395.29
623.523	55314.39
623.879	55515.07
624.234	55292.25
624.589	55389.87
624.945	55421.73
625.3	55407.05
625.655	55399.81
626.01	55383.77
626.365	55371.57
626.72	55376.99
627.075	55399.36
627.43	55284.11
627.785	55220.84
628.14	55239.59
628.495	55286.82
628.85	55287.95
629.205	55152.59
629.559	55336.99
629.914	55193.04
630.269	55118.24
630.623	55035.98
630.978	54915.08
631.332	55102.42
631.687	55143.32
632.041	54984.91
632.396	54982.65
632.75	54858.59
633.104	54897.23
633.459	54816.78
633.813	54783.79
634.167	54816.55
634.521	54833.28
634.875	54802.54
635.229	54771.81
635.583	54648.87
635.937	54660.62
636.291	54637.35
636.645	54627.63
636.999	54570.68
637.352	54556.45
637.706	54504.47
638.06	54574.53
638.413	54593.96
638.767	54437.58
639.121	54476.45
639.474	54210.92
639.828	54263.8
640.181	54414.98
640.534	54392.38
640.888	54272.61
641.241	54115.33
641.594	54225.38
641.947	54263.8
642.301	54115.1
642.654	54153.97
643.007	54094.54
643.36	54008.66
643.713	53959.85
644.066	54130.92
644.419	53931.83
644.771	53653.87
645.124	53415.69
645.477	53240.1
645.83	53120.33
646.182	53050.05
646.535	52965.53
646.888	53071.29
647.24	52825.64
647.593	53030.39
647.945	52986.32
648.298	52851.86
648.65	52782.26
649.002	52671.75
649.355	52751.52
649.707	52574.35
650.059	52681.47
650.411	53062.25
650.763	53043.04
651.115	53357.16
651.467	53253.2
651.819	53190.38
652.171	53132.76
652.523	53100.67
652.875	53062.93
653.227	52983.83
653.578	53227.44
653.93	53047.79
654.282	52933.21
654.633	52870.84
654.985	52864.51
655.337	52942.7
655.688	52913.1
656.039	52992.65
656.391	52686.21
656.742	52718.76
657.094	52740.45
657.445	52810.5
657.796	52690.06
658.147	52645.76
658.498	52563.73
658.849	52706.1
659.2	52582.04
659.551	52555.6
659.902	52661.13
660.253	52595.14
660.604	52642.37
660.955	52445.09
661.306	52518.76
661.656	52522.83
662.007	52481.47
662.358	52473.79
662.708	52499.33
663.059	52436.28
663.409	52154.02
663.76	52443.73
664.11	52380.01
664.461	52361.25
664.811	52348.14
665.161	52327.35
665.511	52303.17
665.862	52290.07
666.212	52289.84
666.562	52330.29
666.912	52304.75
667.262	52201.25
667.612	52109.73
667.962	52216.17
668.312	52137.08
668.662	52294.36
669.011	52264.53
669.361	52141.37
669.711	52088.04
670.06	52036.51
670.41	51920.58
670.76	51804.88
671.109	51950.19
671.459	51913.35
671.808	51887.36
672.157	51947.93
672.507	51661.38
672.856	51646.01
673.205	51750.87
673.554	51793.81
673.904	51583.87
674.253	51787.25
674.602	51692.12
674.951	51146.37
675.3	50966.94
675.649	51554.94
675.998	51446.02
676.346	51452.57
676.695	51563.08
677.044	51324.22
677.393	51230.66
677.741	51320.15
678.09	51189.53
678.438	51035.41
678.787	51259.81
679.135	51220.94
679.484	51005.58
679.832	51117.89
680.181	50821.18
680.529	50981.85
680.877	50795.19
681.225	50680.84
681.573	50879.93
681.922	50717.68
682.27	50522.65
682.618	50684.91
682.966	50412.38
683.314	50530.11
683.661	50364.01
684.009	50320.4
684.357	50072.04
684.705	50004.02
685.053	50202.66
685.4	50119.28
685.748	49962.67
686.095	49879.51
686.443	49736.01
686.79	49802.9
687.138	49854.2
687.485	49731.71
687.832	49651.49
688.18	49621.66
688.527	49448.78
688.874	49451.27
689.221	49347.32
689.568	49248.79
689.915	49061.9
690.262	49151.17
690.609	49037.27
690.956	48847.44
691.303	48709.82
691.65	48625.08
691.997	48648.58
692.344	48397.29
692.69	48438.87
693.037	48344.41
693.383	47921.37
693.73	48106.9
694.077	47908.03
694.423	47772.22
694.769	47719.56
695.116	47561.15
695.462	47621.94
695.808	47323.42
696.155	47611.54
696.501	47360.25
696.847	47285.23
697.193	46852.02
697.539	47174.72
697.885	46868.06
698.231	46649.31
698.577	46786.03
698.923	46646.37
699.269	46460.84
699.614	46104.24
699.96	46127.06
700.306	46228.53
700.651	45964.13
700.997	45827.18
701.342	45698.15
701.688	45612.28
702.033	45464.26
702.379	45251.83
702.724	45311.27
703.069	45455.44
703.415	44722.81
703.76	44868.79
704.105	44952.18
704.45	44729.13
704.795	44458.86
705.14	44428.13
705.485	44318.07
705.83	44163.27
706.175	44135.48
706.52	44122.14
706.865	44006.67
707.209	43872.66
707.554	43758.54
707.899	43871.08
708.243	43551.09
708.588	43491.2
708.932	43283.75
709.277	43244.88
709.621	43292.56
709.966	43073.13
710.31	43046.24
710.654	42508.63
710.998	42851.67
711.342	42652.13
711.687	42665.01
712.031	42425.69
712.375	42277.9
712.719	42343.21
713.063	42156.55
713.407	42348.86
713.75	42123.55
714.094	42010.11
714.438	41872.26
714.782	41945.48
715.125	41679.27
715.469	41731.47
715.812	41514.3
716.156	41203.35
716.499	41319.05
716.843	41401.76
717.186	41046.52
717.53	41168.78
717.873	41177.14
718.216	41084.03
718.559	40979.4
718.902	40584.38
719.246	40575.35
719.589	40532.18
719.932	40408.12
720.275	40444.28
720.617	40413.32
720.96	40249.93
721.303	40266.65
721.646	40210.61
721.989	39955.47
722.331	40253.55
722.674	39985.98
723.016	39876.38
723.359	39861.69
723.701	39789.38
724.044	39598.87
724.386	39352.78
724.729	39483.4
725.071	39418.09
725.413	39385.32
725.755	39316.17
726.097	39171.09
726.439	38988.27
726.782	39011.77
727.124	39083.18
727.465	39078.44
727.807	38959.57
728.149	38664.44
728.491	38601.61
728.833	38665.34
729.175	38546.25
729.516	38426.48
729.858	38369.3
730.199	38500.82
730.541	38290.66
730.882	38262.64
731.224	38368.85
731.565	37889.31
731.906	37998.69
732.248	38114.85
732.589	37871.24
732.93	37670.11
733.271	37811.58
733.612	37807.28
733.953	37718.25
734.294	37597.57
734.635	37593.96
734.976	37657.23
735.317	37311.93
735.658	37575.42
735.999	37327.97
736.339	37385.37
736.68	37321.42
737.021	37162.33
737.361	37070.8
737.702	37293.85
738.042	36972.95
738.383	36963.24
738.723	36997.13
739.063	36866.06
739.404	36847.08
739.744	36650.03
740.084	36457.04
740.424	36648.67
740.764	36626.52
741.104	36627.2
741.444	36387.66
741.784	36306.76
742.124	36323.25
742.464	36231.96
742.804	36172.3
743.143	35990.16
743.483	36073.54
743.823	35782.03
744.162	35874
744.502	35819.09
744.841	35636.72
745.181	35661.12
745.52	35460
745.86	35773.21
746.199	35486.44
746.538	35342.26
746.877	35507.46
747.216	35398.53
747.556	35342.49
747.895	35278.76
748.234	35123.29
748.573	34980.24
748.911	34970.75
749.25	34869.05
749.589	34780.02
749.928	34964.87
750.267	34846.46
750.605	34580.47
750.944	34447.37
751.283	34407.15
751.621	34390.65
751.96	34282.63
752.298	34207.38
752.636	34127.15
