Data from white_poster_card_FLMS001491_00027.txt Node
Date: Wed Feb 08 11:51:18 GMT 2017
User: dcchb
Spectrometer: FLMS00149
Trigger mode: 0
Integration Time (sec): 2.000000E-2
Scans to average: 10
Electric dark correction enabled: true
Nonlinearity correction enabled: false
Boxcar width: 0
XAxis mode: Wavelengths
Number of Pixels in Spectrum: 2048
>>>>>Begin Spectral Data<<<<<
341.393	-0.68
341.776	-0.68
342.16	-0.68
342.543	-82.48
342.927	-68.7
343.31	-80.45
343.693	-68.25
344.077	-65.76
344.46	-76.83
344.843	-45.65
345.226	-39.32
345.61	-48.36
345.993	-34.58
346.376	-14.01
346.759	41.35
347.142	26.21
347.525	47.68
347.908	57.85
348.291	79.77
348.674	113.44
349.057	106.89
349.44	114.8
349.823	150.05
350.206	167.91
350.588	186.89
350.971	202.71
351.354	233.44
351.737	242.71
352.119	261.24
352.502	252.65
352.884	279.99
353.267	281.8
353.65	296.49
354.032	315.7
354.414	291.97
354.797	317.05
355.179	326.32
355.562	333.55
355.944	341.69
356.326	352.08
356.709	329.48
357.091	354.79
357.473	341.23
357.855	335.36
358.238	369.93
358.62	350.5
359.002	324.96
359.384	327.68
359.766	345.53
360.148	344.85
360.53	319.54
360.912	350.73
361.294	339.43
361.676	337.62
362.057	315.25
362.439	342.82
362.821	313.66
363.203	353.89
363.584	326.32
363.966	308.01
364.348	316.83
364.729	350.5
365.111	321.12
365.493	343.27
365.874	338.3
366.256	313.44
366.637	323.61
367.019	303.72
367.4	306.21
367.781	319.54
368.163	315.7
368.544	315.7
368.925	301.24
369.306	313.21
369.688	323.83
370.069	332.87
370.45	305.98
370.831	323.16
371.212	324.74
371.593	307.79
371.974	322.25
372.355	324.96
372.736	325.64
373.117	316.83
373.498	302.59
373.879	300.11
374.26	323.83
374.641	323.38
375.021	313.66
375.402	319.99
375.783	314.34
376.163	340.1
376.544	334
376.925	356.37
377.305	344.85
377.686	343.95
378.066	317.96
378.447	342.36
378.827	319.77
379.208	332.19
379.588	330.61
379.968	323.38
380.349	354.57
380.729	343.04
381.109	354.79
381.489	356.83
381.87	339.88
382.25	349.82
382.63	348.47
383.01	355.02
383.39	344.62
383.77	376.49
384.15	339.65
384.53	334
384.91	345.53
385.29	355.92
385.67	348.92
386.049	352.31
386.429	352.31
386.809	370.61
387.189	371.97
387.568	363.38
387.948	374.91
388.328	379.43
388.707	368.8
389.087	363.38
389.466	370.16
389.846	390.72
390.225	369.93
390.605	400.67
390.984	382.81
391.363	389.59
391.743	393.21
392.122	388.46
392.501	380.78
392.881	407.67
393.26	399.99
393.639	383.04
394.018	381.23
394.397	397.05
394.776	401.57
395.155	409.25
395.534	420.78
395.913	410.38
396.292	416.26
396.671	423.04
397.05	422.36
397.429	415.81
397.808	429.82
398.186	410.84
398.565	445.64
398.944	423.04
399.323	437.05
399.701	452.42
400.08	454.68
400.458	451.97
400.837	441.57
401.215	439.08
401.594	439.76
401.972	433.66
402.351	468.69
402.729	458.29
403.107	451.74
403.486	472.08
403.864	471.4
404.242	472.76
404.62	476.37
404.999	493.32
405.377	457.84
405.755	496.03
406.133	481.12
406.511	484.96
406.889	504.62
407.267	519.08
407.645	522.25
408.023	538.97
408.401	516.82
408.779	551.62
409.156	565.63
409.534	543.26
409.912	553.88
410.29	573.54
410.667	604.28
411.045	590.94
411.422	621.23
411.8	634.56
412.178	636.59
412.555	640.89
412.933	653.09
413.31	652.64
413.687	659.19
414.065	685.18
414.442	676.82
414.819	718.4
415.197	711.17
415.574	721.56
415.951	724.5
416.328	751.39
416.705	781.67
417.082	781.67
417.46	823.26
417.837	819.87
418.214	835.01
418.591	852.86
418.967	846.31
419.344	855.8
419.721	879.52
420.098	905.51
420.475	892.86
420.852	917.94
421.228	921.78
421.605	952.74
421.982	976.7
422.358	975.12
422.735	986.64
423.111	987.32
423.488	1029.58
423.864	1021.22
424.241	1044.04
424.617	1027.09
424.994	1079.52
425.37	1083.81
425.746	1093.98
426.123	1083.36
426.499	1103.93
426.875	1097.82
427.251	1150.25
427.627	1164.04
428.003	1159.52
428.379	1205.62
428.756	1227.76
429.132	1214.21
429.507	1238.16
429.883	1281.77
430.259	1293.3
430.635	1323.13
431.011	1304.6
431.387	1343.24
431.763	1355.44
432.138	1398.83
432.514	1400.19
432.89	1419.17
433.265	1437.02
433.641	1460.98
434.016	1438.83
434.392	1513.18
434.767	1516.34
435.143	1496.91
435.518	1561.77
435.894	1583.91
436.269	1586.4
436.644	1590.92
437.02	1649.45
437.395	1618.26
437.77	1624.59
438.145	1668.2
438.52	1700.07
438.895	1736.23
439.271	1698.03
439.646	1739.16
440.021	1743.23
440.395	1795.66
440.77	1772.38
441.145	1761.08
441.52	1803.79
441.895	1798.37
442.27	1826.39
442.645	1826.84
443.019	1855.32
443.394	1845.38
443.769	1858.93
444.143	1885.6
444.518	1905.26
444.892	1899.16
445.267	1893.51
445.641	1947.07
446.016	1926.28
446.39	1961.08
446.764	1973.51
447.139	1986.16
447.513	1969.89
447.887	2011.25
448.262	2023.45
448.636	2004.69
449.01	2009.44
449.384	2034.75
449.758	2061.64
450.132	2063.67
450.506	2134.63
450.88	2115.42
451.254	2111.36
451.628	2163.33
452.002	2174.18
452.376	2184.58
452.75	2206.5
453.123	2227.96
453.497	2281.97
453.871	2286.49
454.244	2311.58
454.618	2322.2
454.992	2353.38
455.365	2352.93
455.739	2429.77
456.112	2460.05
456.486	2468.64
456.859	2481.52
457.232	2486.04
457.606	2506.37
457.979	2550.22
458.352	2605.81
458.725	2632.47
459.099	2636.09
459.472	2676.09
459.845	2682.87
460.218	2712.47
460.591	2740.49
460.964	2749.76
461.337	2777.55
461.71	2850.55
462.083	2876.53
462.456	2922.64
462.829	2941.17
463.201	2962.86
463.574	2983.88
463.947	3068.17
464.32	3137.77
464.692	3112.01
465.065	3154.27
465.438	3152.46
465.81	3218.9
466.183	3256.64
466.555	3308.16
466.928	3363.3
467.3	3322.62
467.672	3354.49
468.045	3497.31
468.417	3440.59
468.789	3524.88
469.161	3552.67
469.534	3601.94
469.906	3668.6
470.278	3708.38
470.65	3737.08
471.022	3814.59
471.394	3839.22
471.766	3900.46
472.138	3937.75
472.51	4004.64
472.882	4096.16
473.253	4137.74
473.625	4169.83
473.997	4267.91
474.369	4315.82
474.74	4339.32
475.112	4398.08
475.484	4429.04
475.855	4500.22
476.227	4574.79
476.598	4670.39
476.97	4695.7
477.341	4850.49
477.713	4898.18
478.084	4928.01
478.455	5072.41
478.827	5088.45
479.198	5271.5
479.569	5264.04
479.94	5393.76
480.311	5396.47
480.682	5558.95
481.053	5666.97
481.424	5745.39
481.795	5802.33
482.166	5978.83
482.537	5998.71
482.908	6092.27
483.279	6137.47
483.65	6206.84
484.021	6336.33
484.391	6474.18
484.762	6543.78
485.133	6558.02
485.503	6660.39
485.874	6779.71
486.244	6870.55
486.615	6948.74
486.985	6982.19
487.356	7137.67
487.726	7237.1
488.097	7378.34
488.467	7404.55
488.837	7517.54
489.207	7712.34
489.578	7784.88
489.948	7850.19
490.318	8019.45
490.688	7952.79
491.058	8147.58
491.428	8203.85
491.798	8278.2
492.168	8412.66
492.538	8526.1
492.908	8598.19
493.278	8703.95
493.648	8739.43
494.017	8823.04
494.387	8902.82
494.757	8996.15
495.126	9106.88
495.496	9124.05
495.866	9175.58
496.235	9323.6
496.605	9391.39
496.974	9508
497.344	9595.45
497.713	9604.27
498.082	9683.14
498.452	9866.86
498.821	9865.96
499.19	9908.21
499.559	9999.96
499.928	10009.45
500.298	10129.45
500.667	10165.83
501.036	10204.7
501.405	10332.84
501.774	10334.42
502.143	10396.11
502.512	10539.61
502.88	10605.6
503.249	10606.05
503.618	10714.75
503.987	10785.48
504.356	10834.97
504.724	10925.36
505.093	10959.26
505.462	10994.97
505.83	11190.89
506.199	11178.92
506.567	11396.76
506.936	11353.6
507.304	11542.97
507.672	11559.02
508.041	11587.49
508.409	11643.54
508.777	11809.18
509.145	11987.26
509.514	11979.12
509.882	12012.57
510.25	12108.16
510.618	12142.96
510.986	12294.14
511.354	12359.45
511.722	12528.48
512.09	12588.37
512.458	12556.05
512.826	12747.91
513.193	12777.52
513.561	12868.59
513.929	12906.33
514.297	13151.52
514.664	13157.85
515.032	13264.51
515.4	13406.2
515.767	13408.69
516.135	13497.5
516.502	13480.32
516.869	13724.38
517.237	13868.56
517.604	13809.35
517.972	13891.84
518.339	14027.65
518.706	14175.9
519.073	14180.19
519.44	14260.19
519.808	14410.24
520.175	14431.03
520.542	14651.14
520.909	14698.82
521.276	14731.82
521.643	14961.41
522.009	15011.13
522.376	15125.03
522.743	15222.88
523.11	15461.29
523.477	15592.36
523.843	15701.51
524.21	15773.14
524.577	15946.93
524.943	16042.97
525.31	16228.5
525.676	16292.23
526.043	16362.06
526.409	16486.12
526.776	16698.54
527.142	16664.19
527.508	16789.16
527.874	17091.08
528.241	17015.37
528.607	17091.3
528.973	17333.78
529.339	17387.11
529.705	17579.65
530.071	17642.25
530.437	17701
530.803	17851.28
531.169	17978.96
531.535	17927.89
531.901	18050.37
532.267	18131.27
532.632	18293.76
532.998	18476.35
533.364	18490.36
533.73	18508.21
534.095	18665.5
534.461	18678.15
534.826	18861.2
535.192	19004.25
535.557	19117.24
535.923	19091.02
536.288	19128.31
536.653	19269.55
537.019	19260.28
537.384	19430.45
537.749	19498.7
538.114	19553.38
538.479	19629.77
538.845	19740.27
539.21	19664.79
539.575	19790.89
539.94	19905.47
540.305	19999.25
540.67	20067.72
541.034	20083.54
541.399	20150.88
541.764	20282.4
542.129	20405.34
542.494	20403.08
542.858	20512.68
543.223	20525.56
543.587	20683.3
543.952	20695.05
544.316	20750.19
544.681	20844.88
545.045	20935.95
545.41	21018.66
545.774	21148.6
546.138	21182.27
546.503	21248.93
546.867	21263.62
547.231	21514.46
547.595	21465.65
547.959	21567.34
548.324	21534.58
548.688	21586.78
549.052	21662.03
549.416	21746.77
549.779	21792.65
550.143	21869.03
550.507	22034.9
550.871	22187.44
551.235	22132.53
551.599	22386.08
551.962	22267.44
552.326	22483.25
552.689	22661.55
553.053	22489.58
553.417	22480.54
553.78	22865.61
554.143	22800.53
554.507	23020.41
554.87	23033.52
555.234	23318.93
555.597	23138.37
555.96	23336.56
556.323	23378.82
556.686	23390.35
557.05	23564.13
557.413	23742.65
557.776	23739.04
558.139	23946.71
558.502	23831.24
558.865	24029.65
559.228	24235.07
559.59	24203.88
559.953	24251.34
560.316	24575.85
560.679	24614.04
561.041	24699.46
561.404	24899.01
561.767	25123.41
562.129	25112.33
562.492	25202.95
562.854	25253.12
563.217	25329.73
563.579	25373.12
563.941	25491.31
564.304	25662.6
564.666	25842.03
565.028	25907.12
565.39	25915.02
565.753	26077.05
566.115	26204.06
566.477	26343.04
566.839	26438.85
567.201	26510.72
567.563	26576.48
567.925	26882.01
568.287	26708.22
568.648	26907.77
569.01	27134.65
569.372	27220.75
569.734	27157.03
570.095	27399.05
570.457	27536.9
570.819	27551.59
571.18	27616.22
571.542	27793.17
571.903	27828.65
572.265	27945.48
572.626	27969.89
572.987	28081.75
573.349	28201.29
573.71	28254.85
574.071	28309.09
574.432	28412.13
574.794	28533.49
575.155	28543.43
575.516	28482.41
575.877	28728.28
576.238	28750.2
576.599	28947.71
576.96	28799.92
577.32	28938.22
577.681	28984.55
578.042	29072.91
578.403	29037.88
578.763	29101.83
579.124	29142.28
579.485	29203.07
579.845	29267.25
580.206	29208.27
580.566	29392.9
580.927	29267.71
581.287	29442.16
581.648	29316.74
582.008	29472.45
582.368	29471.77
582.728	29458.66
583.089	29467.25
583.449	29547.25
583.809	29625.66
584.169	29639.45
584.529	29570.3
584.889	29787.24
585.249	29565.55
585.609	29443.75
585.969	29686.68
586.329	29627.24
586.688	29674.7
587.048	29625.44
587.408	29504.31
587.768	29677.19
588.127	29575.04
588.487	29663.17
588.846	29798.31
589.206	29649.84
589.565	29585.21
589.925	29758.99
590.284	29698.2
590.643	29676.28
591.003	29715.38
591.362	29871.08
591.721	29766.45
592.08	29847.12
592.44	29798.76
592.799	29895.71
593.158	29780.46
593.517	29839.44
593.876	29918.31
594.235	29882.6
594.593	29838.09
594.952	29817.97
595.311	29944.75
595.67	29838.76
596.029	30038.53
596.387	30041.7
596.746	30138.64
597.104	29959.89
597.463	30013.22
597.822	30122.37
598.18	30022.04
598.538	29916.05
598.897	30179.55
599.255	29928.25
599.613	30417.73
599.972	30181.81
600.33	30230.84
600.688	30084.86
601.046	30248.24
601.404	30319.43
601.762	30413.89
602.12	30521.46
602.478	30516.03
602.836	30505.19
603.194	30251.41
603.552	30412.76
603.91	30356.49
604.268	30503.15
604.625	30240.11
604.983	30464.06
605.341	30289.15
605.698	30521.91
606.056	30566.43
606.413	30549.48
606.771	30602.59
607.128	30661.34
607.485	30515.13
607.843	30599.65
608.2	30810.49
608.557	30904.05
608.914	30862.69
609.272	30893.42
609.629	30819.3
609.986	31030.6
610.343	30847.78
610.7	31051.61
611.057	31153.08
611.414	31012.07
611.771	31106.75
612.127	31298.84
612.484	31180.42
612.841	31256.35
613.198	31277.37
613.554	31297.26
613.911	31430.13
614.267	31376.58
614.624	31361.44
614.98	31461.09
615.337	31547.87
615.693	31496.57
616.05	31479.17
616.406	31585.61
616.762	31454.77
617.118	31585.16
617.475	31395.78
617.831	31729.79
618.187	31592.62
618.543	31617.02
618.899	31747.19
619.255	31666.06
619.611	31803.68
619.967	31870.8
620.323	31948.54
620.678	31775.21
621.034	31752.39
621.39	31694.53
621.746	31683.69
622.101	32011.81
622.457	31849.78
622.812	31822.44
623.168	31852.95
623.523	31885.94
623.879	31998.03
624.234	31741.99
624.589	31877.13
624.945	31843.23
625.3	31958.71
625.655	31836
626.01	31784.93
626.365	31874.87
626.72	31756.45
627.075	31827.41
627.43	31788.32
627.785	31673.74
628.14	31763.01
628.495	31820.41
628.85	31839.84
629.205	31672.16
629.559	31810.24
629.914	31688.88
630.269	31796.68
630.623	31663.12
630.978	31607.76
631.332	31741.76
631.687	31708.09
632.041	31657.47
632.396	31513.3
632.75	31476.69
633.104	31502.9
633.459	31261.32
633.813	31267.65
634.167	31400.76
634.521	31256.81
634.875	31380.64
635.229	31336.58
635.583	31097.26
635.937	31180.65
636.291	31172.29
636.645	31012.52
636.999	31031.73
637.352	31179.29
637.706	30987.89
638.06	31084.38
638.413	30988.11
638.767	30866.53
639.121	30783.37
639.474	30638.29
639.828	30573.89
640.181	30715.12
640.534	30702.7
640.888	30572.08
641.241	30526.2
641.594	30523.49
641.947	30600.1
642.301	30456.37
642.654	30541.34
643.007	30511.06
643.36	30468.58
643.713	30278.07
644.066	30466.09
644.419	30216.61
644.771	30110.85
645.124	29885.77
645.477	29798.54
645.83	29599.67
646.182	29400.58
646.535	29310.87
646.888	29439.9
647.24	29344.99
647.593	29426.57
647.945	29321.94
648.298	29159.46
648.65	29190.42
649.002	29116.3
649.355	29180.7
649.707	28952.69
650.059	29192.9
650.411	29580.69
650.763	29638.77
651.115	29784.3
651.467	29713.57
651.819	29744.75
652.171	29468.6
652.523	29518.09
652.875	29527.59
653.227	29398.32
653.578	29545.21
653.93	29473.12
654.282	29348.15
654.633	29293.69
654.985	29365.33
655.337	29355.39
655.688	29401.94
656.039	29442.84
656.391	29202.4
656.742	29196.75
657.094	29314.26
657.445	29288.95
657.796	29311.32
658.147	29190.87
658.498	29190.87
658.849	29268.38
659.2	29070.65
659.551	29122.85
659.902	29131.44
660.253	29049.63
660.604	29222.73
660.955	28945.68
661.306	29095.96
661.656	28985
662.007	28905.68
662.358	29030.2
662.708	28982.29
663.059	28965.79
663.409	28681.28
663.76	28952.46
664.11	28848.96
664.461	28940.48
664.811	28787.04
665.161	28767.61
665.511	28703.43
665.862	28808.51
666.212	28791.33
666.562	28943.19
666.912	28755.18
667.262	28679.47
667.612	28750.66
667.962	28778
668.312	28718.11
668.662	28821.16
669.011	28600.38
669.361	28671.11
669.711	28763.99
670.06	28597.21
670.41	28484.9
670.76	28547.27
671.109	28698.68
671.459	28648.51
671.808	28546.59
672.157	28627.04
672.507	28290.1
672.856	28266.6
673.205	28439.03
673.554	28444.9
673.904	28415.52
674.253	28547.95
674.602	28365.13
674.951	28005.59
675.3	27868.42
675.649	28311.57
675.998	28378.01
676.346	28276.54
676.695	28361.97
677.044	28043.78
677.393	28208.52
677.741	28204.68
678.09	28215.98
678.438	28011.01
678.787	28050.79
679.135	28102.54
679.484	27896.67
679.832	28083.78
680.181	27937.57
680.529	27940.06
680.877	27715.66
681.225	27860.06
681.573	27811.7
681.922	27715.66
682.27	27753.39
682.618	27724.69
682.966	27500.75
683.314	27653.51
683.661	27552.5
684.009	27471.14
684.357	27431.6
684.705	27312.73
685.053	27371.94
685.4	27377.13
685.748	27124.03
686.095	27165.61
686.443	27049.23
686.79	27060.76
687.138	26982.12
687.485	27001.1
687.832	26945.96
688.18	26766.08
688.527	26878.84
688.874	26830.93
689.221	26738.05
689.568	26675.68
689.915	26577.15
690.262	26561.56
690.609	26536.25
690.956	26335.8
691.303	26298.29
691.65	26182.36
691.997	26164.51
692.344	26150.72
692.69	26139.43
693.037	26063.5
693.383	25820.79
693.73	25941.01
694.077	25561.36
694.423	25737.85
694.769	25655.6
695.116	25668.03
695.462	25571.08
695.808	25426.9
696.155	25549.16
696.501	25269.84
696.847	25290.86
697.193	25116.18
697.539	25207.92
697.885	25045.22
698.231	24859.01
698.577	25004.77
698.923	24883.41
699.269	24766.58
699.614	24692.01
699.96	24616.3
700.306	24594.38
700.651	24519.58
700.997	24465.57
701.342	24221.96
701.688	24341.73
702.033	24254.73
702.379	24205.92
702.724	24105.35
703.069	24174.96
703.415	23898.81
703.76	23934.06
704.105	23923.44
704.45	23852.71
704.795	23784.01
705.14	23735.2
705.485	23669.43
705.83	23571.13
706.175	23555.99
706.52	23451.36
706.865	23402.32
707.209	23400.29
707.554	23262.89
707.899	23438.71
708.243	23231.48
708.588	23156.45
708.932	23007.08
709.277	23086.4
709.621	23037.13
709.966	22813.86
710.31	22869.68
710.654	22732.06
710.998	22829.68
711.342	22770.7
711.687	22627.2
712.031	22563.25
712.375	22508.11
712.719	22630.37
713.063	22421.56
713.407	22638.73
713.75	22401.67
714.094	22297.72
714.438	22215.46
714.782	22260.66
715.125	22183.15
715.469	22183.82
715.812	22142.69
716.156	22015.69
716.499	21977.5
716.843	21986.54
717.186	21764.17
717.53	21945.19
717.873	21881.91
718.216	21859.99
718.559	21778.64
718.902	21569.38
719.246	21650.28
719.589	21599.43
719.932	21591.97
720.275	21529.15
720.617	21577.74
720.96	21423.39
721.303	21516.04
721.646	21456.38
721.989	21276.28
722.331	21338.87
722.674	21273.11
723.016	21315.82
723.359	21188.82
723.701	21278.99
724.044	21071.54
724.386	21024.98
724.729	21119.9
725.071	21005.55
725.413	21006.91
725.755	20919
726.097	20895.72
726.439	20846.91
726.782	20741.83
727.124	20852.33
727.465	20827.7
727.807	20721.04
728.149	20616.18
728.491	20562.4
728.833	20655.5
729.175	20600.14
729.516	20485.79
729.858	20504.09
730.199	20524.21
730.541	20399.46
730.882	20395.17
731.224	20434.94
731.565	20370.09
731.906	20289.18
732.248	20321.05
732.589	20179.13
732.93	20170.09
733.271	20160.83
733.612	20278.56
733.953	20283.99
734.294	19951.79
734.635	20045.35
734.976	20087.16
735.317	19995.63
735.658	19997.67
735.999	19954.96
736.339	19905.24
736.68	19883.77
737.021	19795.64
737.361	19822.53
737.702	19851.46
738.042	19804
738.383	19793.6
738.723	19784.34
739.063	19759.71
739.404	19721.52
739.744	19680.16
740.084	19643.78
740.424	19566.94
740.764	19571.01
741.104	19608.75
741.444	19403.11
741.784	19396.55
742.124	19382.77
742.464	19339.6
742.804	19346.61
743.143	19299.38
743.483	19413.27
743.823	19188.42
744.162	19259.83
744.502	19099.16
744.841	19073.62
745.181	19120.85
745.52	19051.25
745.86	19021.19
746.199	19041.31
746.538	18963.8
746.877	18984.81
747.216	18968.99
747.556	18966.28
747.895	18899.16
748.234	18715.44
748.573	18813.52
748.911	18738.04
749.25	18754.54
749.589	18557.93
749.928	18687.87
750.267	18655.33
750.605	18544.15
750.944	18564.71
751.283	18405.62
751.621	18423.47
751.96	18406.07
752.298	18361.33
752.636	18423.02
752.975	18317.03
753.313	18182.35
753.651	18334.21
753.989	18136.92
754.327	18128.79
