Data from whiteboard_FLMS001491_00066.txt Node
Date: Wed Feb 08 11:27:29 GMT 2017
User: dcchb
Spectrometer: FLMS00149
Trigger mode: 0
Integration Time (sec): 2.000000E-2
Scans to average: 10
Electric dark correction enabled: true
Nonlinearity correction enabled: false
Boxcar width: 0
XAxis mode: Wavelengths
Number of Pixels in Spectrum: 2048
>>>>>Begin Spectral Data<<<<<
341.393	-18.83
341.776	-18.83
342.16	-18.83
342.543	-64.7
342.927	-84.14
343.31	-53.85
343.693	-61.54
344.077	-79.16
344.46	-64.7
344.843	-55.66
345.226	-47.75
345.61	-31.26
345.993	-22.22
346.376	-0.75
346.759	10.55
347.142	23.66
347.525	44.9
347.908	47.61
348.291	60.04
348.674	101.85
349.057	128.29
349.44	119.02
349.823	144.33
350.206	175.07
350.588	222.07
350.971	238.79
351.354	268.85
351.737	269.07
352.119	284.22
352.502	283.31
352.884	287.38
353.267	328.51
353.65	332.35
354.032	338
354.414	331.67
354.797	362.41
355.179	340.03
355.562	354.95
355.944	371.45
356.326	379.58
356.709	368.51
357.091	374.16
357.473	373.03
357.855	384.78
358.238	365.12
358.62	373.93
359.002	372.35
359.384	384.1
359.766	380.26
360.148	367.83
360.53	368.06
360.912	387.26
361.294	384.33
361.676	379.13
362.057	370.77
362.439	368.73
362.821	379.13
363.203	373.93
363.584	367.6
363.966	364.44
364.348	367.83
364.729	376.19
365.111	358.34
365.493	371.9
365.874	357.21
366.256	356.98
366.637	369.19
367.019	371.45
367.4	365.8
367.781	393.14
368.163	367.38
368.544	378.68
368.925	356.76
369.306	370.77
369.688	361.28
370.069	387.94
370.45	375.74
370.831	378
371.212	380.03
371.593	374.16
371.974	372.12
372.355	370.32
372.736	363.99
373.117	397.21
373.498	382.52
373.879	367.38
374.26	382.29
374.641	388.17
375.021	391.78
375.402	384.78
375.783	370.32
376.163	410.77
376.544	397.21
376.925	389.75
377.305	399.69
377.686	425.91
378.066	387.94
378.447	403.08
378.827	433.82
379.208	427.94
379.588	419.13
379.968	432.23
380.349	427.04
380.729	424.1
381.109	434.95
381.489	430.43
381.87	425.23
382.25	439.01
382.63	458.22
383.01	467.94
383.39	441.95
383.77	467.94
384.15	453.93
384.53	471.78
384.91	461.61
385.29	483.08
385.67	455.28
386.049	473.82
386.429	469.07
386.809	496.87
387.189	505.9
387.568	518.56
387.948	503.19
388.328	516.3
388.707	521.5
389.087	540.93
389.466	532.8
389.846	541.16
390.225	533.02
390.605	534.15
390.984	554.27
391.363	553.81
391.743	563.76
392.122	563.76
392.501	585.22
392.881	598.33
393.26	587.94
393.639	607.6
394.018	617.09
394.397	603.3
394.776	638.1
395.155	622.29
395.534	674.71
395.913	645.11
396.292	655.28
396.671	676.52
397.05	680.36
397.429	704.77
397.808	723.75
398.186	715.62
398.565	722.85
398.944	725.79
399.323	743.41
399.701	767.82
400.08	763.07
400.458	789.51
400.837	802.85
401.215	792
401.594	815.5
401.972	824.99
402.351	848.04
402.729	860.92
403.107	845.33
403.486	873.35
403.864	893.01
404.242	891.43
404.62	916.52
404.999	921.04
405.377	953.58
405.755	964.2
406.133	980.02
406.511	1007.81
406.889	1034.48
407.267	1034.25
407.645	1067.25
408.023	1116.96
408.401	1093.01
408.779	1137.53
409.156	1130.07
409.534	1174.14
409.912	1202.84
410.29	1213.46
410.667	1264.08
411.045	1257.52
411.422	1305.21
411.8	1285.77
412.178	1326.45
412.555	1344.98
412.933	1374.13
413.31	1371.19
413.687	1428.37
414.065	1464.07
414.442	1477.18
414.819	1506.33
415.197	1516.05
415.574	1531.19
415.951	1621.36
416.328	1593.79
416.705	1606.21
417.082	1617.29
417.46	1663.16
417.837	1678.76
418.214	1695.93
418.591	1710.39
418.967	1753.1
419.344	1752.2
419.721	1777.06
420.098	1819.54
420.475	1828.81
420.852	1854.8
421.228	1879.88
421.605	1891.86
421.982	1896.15
422.358	1936.6
422.735	1956.26
423.111	1966.66
423.488	2025.19
423.864	2036.71
424.241	2064.28
424.617	2064.51
424.994	2101.57
425.37	2119.65
425.746	2174.56
426.123	2184.05
426.499	2204.62
426.875	2227.44
427.251	2297.5
427.627	2343.6
428.003	2344.95
428.379	2389.02
428.756	2409.58
429.132	2498.39
429.507	2483.71
429.883	2508.56
430.259	2601.22
430.635	2578.62
431.011	2659.97
431.387	2677.83
431.763	2730.25
432.138	2772.74
432.514	2806.64
432.89	2825.62
433.265	2919.4
433.641	2937.93
434.016	2942
434.392	3012.05
434.767	3067.42
435.143	3082.33
435.518	3092.73
435.894	3144.48
436.269	3179.96
436.644	3248.88
437.02	3284.36
437.395	3318.94
437.77	3341.99
438.145	3406.39
438.52	3435.55
438.895	3495.88
439.271	3532.04
439.646	3591.93
440.021	3605.03
440.395	3693.17
440.77	3626.5
441.145	3662.21
441.52	3745.59
441.895	3746.95
442.27	3791.24
442.645	3783.33
443.019	3859.94
443.394	3852.71
443.769	3908.3
444.143	3898.36
444.518	3967.28
444.892	3984.23
445.267	4018.58
445.641	4035.3
446.016	4094.29
446.39	4120.05
446.764	4140.84
447.139	4088.18
447.513	4197.79
447.887	4217.67
448.262	4219.71
448.636	4286.14
449.01	4327.27
449.384	4411.34
449.758	4377.67
450.132	4503.09
450.506	4508.06
450.88	4541.96
451.254	4572.46
451.628	4627.6
452.002	4669.86
452.376	4732.01
452.75	4781.95
453.123	4813.81
453.497	4892.91
453.871	4980.82
454.244	5042.73
454.618	5068.5
454.992	5214.48
455.365	5195.05
455.739	5314.14
456.112	5368.83
456.486	5439.33
456.859	5459.9
457.232	5617.63
457.606	5564.08
457.979	5705.77
458.352	5806.33
458.725	5873.67
459.099	5828.25
459.472	6015.82
459.845	6041.58
460.218	6113.21
460.591	6217.62
460.964	6206.09
461.337	6375.58
461.71	6451.29
462.083	6560.66
462.456	6531.96
462.829	6627.78
463.201	6816.02
463.574	6769.02
463.947	6940.54
464.32	7105.96
464.692	7143.02
465.065	7289.46
465.438	7304.37
465.81	7409.9
466.183	7538.26
466.555	7700.29
466.928	7817.12
467.3	7775.09
467.672	7951.58
468.045	8201.52
468.417	8181.18
468.789	8189.77
469.161	8349.09
469.534	8511.57
469.906	8669.08
470.278	8690.55
470.65	8856.19
471.022	9022.29
471.394	9165.34
471.766	9222.51
472.138	9373.69
472.51	9549.28
472.882	9727.81
473.253	9780.01
473.625	9960.8
473.997	10240.79
474.369	10267
474.74	10348.13
475.112	10534.79
475.484	10779.31
475.855	10969.58
476.227	11015.46
476.598	11352.63
476.97	11427.43
477.341	11726.85
477.713	11890.69
478.084	11940.63
478.455	12355.99
478.827	12442.77
479.198	12847.28
479.569	12858.12
479.94	13295.62
480.311	13419.46
480.682	13711.89
481.053	13974.25
481.424	14202.04
481.795	14302.15
482.166	14656.72
482.537	14884.28
482.908	15247.44
483.279	15290.15
483.65	15536.02
484.021	15841.32
484.391	16029.56
484.762	16178.71
485.133	16406.28
485.503	16667.97
485.874	16943.89
486.244	17173.94
486.615	17536.19
486.985	17703.19
487.356	17939.8
487.726	18220.92
488.097	18570.29
488.467	18564.86
488.837	19015.02
489.207	19215.92
489.578	19465.41
489.948	19626.08
490.318	19891.38
490.688	20073.3
491.058	20459.73
491.428	20603.46
491.798	20825.14
492.168	21289.31
492.538	21198.92
492.908	21635.97
493.278	21830.32
493.648	21972.46
494.017	22323.86
494.387	22467.81
494.757	22659.67
495.126	22934.92
495.496	23010.17
495.866	23145.99
496.235	23479.76
496.605	23683.83
496.974	23844.73
497.344	23989.58
497.713	24194.77
498.082	24413.75
498.452	24683.8
498.821	24810.58
499.19	24844.25
499.559	25110
499.928	25381.18
500.298	25536.21
500.667	25875.18
501.036	25714.06
501.405	26175.51
501.774	26196.08
502.143	26417.31
502.512	26579.8
502.88	26740.7
503.249	26696.63
503.618	27013.46
503.987	27152.21
504.356	27382.94
504.724	27544.74
505.093	27644.85
505.462	27768.69
505.83	28177.95
506.199	28294.33
506.567	28629.69
506.936	28484.83
507.304	28946.74
507.672	29138.15
508.041	29197.58
508.409	29534.52
508.777	29765.93
509.145	30035.07
509.514	30119.59
509.882	30403.2
510.25	30419.92
510.618	30680.03
510.986	30724.09
511.354	30955.05
511.722	31259.45
512.09	31594.8
512.458	31631.41
512.826	31889.94
513.193	31934
513.561	32183.72
513.929	32346.65
514.297	32819.41
514.664	32842.91
515.032	33078.38
515.4	33375.1
515.767	33519.95
516.135	33763.56
516.502	33592.94
516.869	34233.61
517.237	34349.76
517.604	34316.09
517.972	34839.69
518.339	35133.24
518.706	35270.87
519.073	35469.28
519.44	35756.28
519.808	36290.95
520.175	36010.51
520.542	36612.07
520.909	36778.62
521.276	36976.81
521.643	37241.44
522.009	37650.24
522.376	37906.28
522.743	38031.7
523.11	38461.29
523.477	38849.76
523.843	39076.42
524.21	39399.57
524.577	39762.5
524.943	39842.95
525.31	40044.98
525.676	40502.82
526.043	40684.06
526.409	41039.08
526.776	41322.01
527.142	41470.03
527.508	41651.04
527.874	41931.93
528.241	42110.69
528.607	42178.93
528.973	42530.79
529.339	42679.49
529.705	43061.17
530.071	43272.69
530.437	43506.36
530.803	43706.58
531.169	43936.18
531.535	43988.6
531.901	44243.06
532.267	44263.17
532.632	44649.83
532.998	44799.2
533.364	45013.44
533.73	45043.26
534.095	45392.18
534.461	45525.29
534.826	45756.24
535.192	45916.46
535.557	46266.28
535.923	46154.87
536.288	46431.48
536.653	46565.94
537.019	46507.63
537.384	46736.55
537.749	47035.08
538.114	47108.97
538.479	47173.15
538.845	47404.33
539.21	47432.35
539.575	47669.64
539.94	47830.08
540.305	47955.96
540.67	47998.22
541.034	48294.48
541.399	48583.06
541.764	48534.47
542.129	48699.21
542.494	48891.07
542.858	49029.83
543.223	49161.12
543.587	49381
543.952	49374.9
544.316	49390.5
544.681	49525.86
545.045	49681.56
545.41	49902.8
545.774	50046.52
546.138	50054.88
546.503	50161.32
546.867	50268.44
547.231	50457.13
547.595	50559.28
547.959	50675.21
548.324	50846.73
548.688	50843.79
549.052	50922.21
549.416	50877.01
549.779	50953.84
550.143	51030.23
550.507	51266.15
550.871	51317.45
551.235	51303.44
551.599	51624.79
551.962	51667.5
552.326	51770.09
552.689	51970.31
553.053	51830.66
553.417	51956.76
553.78	52307.71
554.143	52183.87
554.507	52350.19
554.87	52376.86
555.234	52772.33
555.597	52609.85
555.96	52738.88
556.323	52870.86
556.686	52920.8
557.05	53047.35
557.413	53091.41
557.776	53152.66
558.139	53458.86
558.502	53477.85
558.865	53605.53
559.228	53821.57
559.59	53877.16
559.953	53998.74
560.316	54274.43
560.679	54263.14
561.041	54486.63
561.404	54610.92
561.767	54748.55
562.129	54691.15
562.492	55018.82
562.854	55012.27
563.217	55121.19
563.579	55269.66
563.941	55437.57
564.304	55571.8
564.666	55855.18
565.028	55804.34
565.39	55950.1
565.753	56145.35
566.115	56240.48
566.477	56300.37
566.839	56380.82
567.201	56555.5
567.563	56529.29
567.925	56771.32
568.287	56791.66
568.648	56898.77
569.01	56939.68
569.372	57182.38
569.734	57092.67
570.095	57211.31
570.457	57274.58
570.819	57326.11
571.18	57427.8
571.542	57483.16
571.903	57554.12
572.265	57644.97
572.626	57647
572.987	57715.7
573.349	57816.71
573.71	57851.06
574.071	57931.97
574.432	57943.26
574.794	58042.25
575.155	58025.52
575.516	57913.21
575.877	58124.05
576.238	58158.17
576.599	58209.25
576.96	58261.22
577.32	58264.84
577.681	58336.93
578.042	58261.45
578.403	58325.63
578.763	58360.65
579.124	58408.79
579.485	58458.73
579.845	58498.5
580.206	58469.58
580.566	58466.87
580.927	58463.25
581.287	58594.55
581.648	58487.21
582.008	58644.49
582.368	58631.16
582.728	58644.26
583.089	58612.63
583.449	58659.86
583.809	58712.51
584.169	58827.08
584.529	58759.97
584.889	58972.16
585.249	58831.38
585.609	58880.42
585.969	59022.33
586.329	58934.2
586.688	59033.63
587.048	59082.67
587.408	59032.73
587.768	59084.93
588.127	59082.44
588.487	59107.08
588.846	59270.24
589.206	59141.65
589.565	59205.15
589.925	59282.89
590.284	59241.31
590.643	59313.4
591.003	59332.38
591.362	59399.72
591.721	59343.91
592.08	59407.41
592.44	59422.32
592.799	59397.92
593.158	59375.32
593.517	59424.13
593.876	59459.61
594.235	59344.58
594.593	59382.32
594.952	59410.12
595.311	59343.91
595.67	59376.22
596.029	59497.35
596.387	59445.37
596.746	59415.77
597.104	59243.12
597.463	59234.53
597.822	59389.1
598.18	59236.56
598.538	59176.9
598.897	59366.28
599.255	59105.49
599.613	59374.87
599.972	59195.21
600.33	59257.13
600.688	59091.03
601.046	59178.94
601.404	59309.56
601.762	59209.45
602.12	59231.82
602.478	59248.77
602.836	59230.24
603.194	59154.31
603.552	59183.68
603.91	59111.6
604.268	59289.44
604.625	59279.05
604.983	59306.62
605.341	59237.47
605.698	59272.5
606.056	59394.75
606.413	59334.19
606.771	59446.28
607.128	59514.3
607.485	59430.68
607.843	59494.18
608.2	59584.13
608.557	59688.76
608.914	59609.21
609.272	59743.44
609.629	59790
609.986	59831.58
610.343	59880.16
610.7	60000.16
611.057	60006.26
611.414	60038.12
611.771	60046.03
612.127	60089.2
612.484	60147.05
612.841	60271.56
613.198	60211.68
613.554	60326.25
613.911	60392.47
614.267	60404.22
614.624	60407.61
614.98	60502.07
615.337	60621.84
615.693	60550.65
616.05	60530.09
616.406	60659.58
616.762	60572.57
617.118	60598.34
617.475	60568.28
617.831	60658.22
618.187	60619.13
618.543	60661.39
618.899	60831.55
619.255	60719.01
619.611	60663.87
619.967	60689.63
620.323	60729.18
620.678	60634.72
621.034	60599.92
621.39	60566.7
621.746	60584.33
622.101	60680.37
622.457	60534.83
622.812	60610.99
623.168	60591.1
623.523	60511.11
623.879	60571.9
624.234	60373.71
624.589	60432.92
624.945	60373.94
625.3	60427.27
625.655	60324.9
626.01	60308.4
626.365	60307.04
626.72	60295.97
627.075	60259.59
627.43	60276.54
627.785	60168.29
628.14	60103.43
628.495	60198.8
628.85	60155.41
629.205	60074.96
629.559	60212.81
629.914	60081.06
630.269	60047.84
630.623	60031.35
630.978	59987.73
631.332	60097.11
631.687	60133.26
632.041	59957.22
632.396	60036.77
632.75	59909.31
633.104	59968.75
633.459	59814.4
633.813	59940.95
634.167	59854.63
634.521	59827.96
634.875	59907.96
635.229	59879.71
635.583	59816.44
635.937	59858.92
636.291	59879.03
636.645	59901.86
636.999	59880.84
637.352	59874.06
637.706	59756.32
638.06	59939.14
638.413	59891.01
638.767	59793.39
639.121	59857.79
639.474	59762.2
639.828	59729.21
640.181	59868.41
640.534	59823.67
640.888	59722.43
641.241	59654.86
641.594	59754.74
641.947	59848.07
642.301	59785.93
642.654	59750.22
643.007	59741.41
643.36	59666.38
643.713	59668.19
644.066	59724.69
644.419	59643.11
644.771	59545.71
645.124	59293.29
645.477	59202.89
645.83	59067.3
646.182	58891.71
646.535	58762.23
646.888	58806.07
647.24	58616.24
647.593	58739.18
647.945	58637.71
648.298	58488.79
648.65	58465.28
649.002	58435.68
649.355	58522.01
649.707	58495.57
650.059	58502.8
650.411	58740.08
650.763	58735.56
651.115	58893.52
651.467	58833.86
651.819	58761.77
652.171	58710.48
652.523	58623.02
652.875	58602.46
653.227	58477.94
653.578	58645.39
653.93	58549.58
654.282	58412.4
654.633	58331.95
654.985	58364.27
655.337	58385.29
655.688	58277.95
656.039	58380.32
656.391	58185.07
656.742	58195.46
657.094	58169.93
657.445	58191.39
657.796	58200.66
658.147	58060.1
658.498	58054.9
658.849	58176.25
659.2	58115.24
659.551	58001.57
659.902	57993.43
660.253	57934
660.604	58058.74
660.955	57953.43
661.306	57975.58
661.656	57978.52
662.007	58058.06
662.358	58000.44
662.708	58049.93
663.059	57995.24
663.409	57844.51
663.76	58040.21
664.11	58034.56
664.461	58042.92
664.811	58096.71
665.161	58003.38
665.511	58011.74
665.862	58067.56
666.212	58051.28
666.562	58095.58
666.912	58028.69
667.262	58079.31
667.612	58005.41
667.962	58043.6
668.312	58036.14
668.662	58141.45
669.011	58046.31
669.361	58072.3
669.711	57999.99
670.06	58007.44
670.41	58010.16
670.76	57912.98
671.109	58000.21
671.459	57924.06
671.808	57929.25
672.157	57993.88
672.507	57863.27
672.856	57813.55
673.205	57760.22
673.554	57852.19
673.904	57828.01
674.253	57961.57
674.602	57757.05
674.951	57372.43
675.3	57247.01
675.649	57724.51
675.998	57666.44
676.346	57634.12
676.695	57716.38
677.044	57494.01
677.393	57532.88
677.741	57668.47
678.09	57458.08
678.438	57383.05
678.787	57443.39
679.135	57431.41
679.484	57171.31
679.832	57235.49
680.181	57044.08
680.529	57116.17
680.877	57023.97
681.225	56975.83
681.573	57065.1
681.922	56874.59
682.27	56758.44
682.618	56809.74
682.966	56633.47
683.314	56649.74
683.661	56537.43
684.009	56437.09
684.357	56322.97
684.705	56325.91
685.053	56353.25
685.4	56277.77
685.748	56183.08
686.095	56155.06
686.443	56044.11
686.79	55977.21
687.138	56072.35
687.485	56012.92
687.832	55850.21
688.18	56040.49
688.527	55808.63
688.874	55817.22
689.221	55766.15
689.568	55727.5
689.915	55608.41
690.262	55638.69
690.609	55473.95
690.956	55408.87
691.303	55383.56
691.65	55253.39
691.997	55231.92
692.344	55144.24
692.69	55139.5
693.037	55101.76
693.383	54856.79
693.73	54918.03
694.077	54767.75
694.423	54760.3
694.769	54780.41
695.116	54638.49
695.462	54707.19
695.808	54586.74
696.155	54651.15
696.501	54460.42
696.847	54461.32
697.193	54279.86
697.539	54406.18
697.885	54169.8
698.231	54016.14
698.577	54088.68
698.923	54066.98
699.269	53922.13
699.614	53731.62
699.96	53798.97
700.306	53672.19
700.651	53609.82
700.997	53406.43
701.342	53434.46
701.688	53394.23
702.033	53218.19
702.379	53201.02
702.724	53205.76
703.069	53315.36
703.415	52838.99
703.76	52897.52
704.105	52789.95
704.45	52745.89
704.795	52525.33
705.14	52485.78
705.485	52528.72
705.83	52307.03
706.175	52316.97
706.52	52316.52
706.865	52048.73
707.209	52090.76
707.554	51888.73
707.899	52036.53
708.243	51771
708.588	51636.31
708.932	51419.14
709.277	51391.57
709.621	51421.18
709.966	51253.5
710.31	51279.49
710.654	50834.75
710.998	50818.48
711.342	50951.36
711.687	50748.2
712.031	50587.07
712.375	50493.29
712.719	50408.1
713.063	50325.61
713.407	50437.02
713.75	50205.39
714.094	50170.59
714.438	50025.05
714.782	49992.97
715.125	49812.63
715.469	49923.14
715.812	49693.31
716.156	49513.88
716.499	49492.87
716.843	49360.21
717.186	49258.3
717.53	49354.79
717.873	49251.52
718.216	49253.1
718.559	49006.78
718.902	48870.06
719.246	48957.06
719.589	48757.52
719.932	48655.15
720.275	48476.17
720.617	48567.92
720.96	48408.83
721.303	48526.34
721.646	48554.58
721.989	48267.81
722.331	48427.58
722.674	48268.94
723.016	48164.31
723.359	48143.3
723.701	48144.65
724.044	47882.96
724.386	47800.25
724.729	47962.74
725.071	47823.98
725.413	47772.46
725.755	47689.75
726.097	47567.94
726.439	47468.06
726.782	47468.96
727.124	47643.2
727.465	47376.08
727.807	47418.8
728.149	47371.11
728.491	47236.2
728.833	47230.33
729.175	47214.28
729.516	47162.53
729.858	47163.21
730.199	47073.49
730.541	47031.01
730.882	47042.31
731.224	47108.75
731.565	46894.29
731.906	46919.37
732.248	46856.78
732.589	46759.6
732.93	46649.78
733.271	46662.21
733.612	46677.8
733.953	46771.81
734.294	46623.11
734.635	46395.32
734.976	46540.85
735.317	46354.87
735.658	46222.89
735.999	46172.05
736.339	46107.64
736.68	46127.53
737.021	46024.48
737.361	45891.38
737.702	46080.75
738.042	45803.02
738.383	45630.59
738.723	45768.22
739.063	45564.16
739.404	45559.86
739.744	45532.52
740.084	45322.58
740.424	45116.26
740.764	45083.26
741.104	45167.1
741.444	44810.95
741.784	44757.4
742.124	44773.44
742.464	44614.8
742.804	44578.42
743.143	44423.85
743.483	44481.47
743.823	44171.42
744.162	44139.79
744.502	44138.66
744.841	43713.81
745.181	43900.47
745.52	43729.85
745.86	43742.51
746.199	43504.1
746.538	43550.65
746.877	43491.89
747.216	43393.82
747.556	43169.19
747.895	43001.96
748.234	42782.53
748.573	42832.25
748.911	42712.7
749.25	42692.14
749.589	42541.18
749.928	42410.57
750.267	42457.57
750.605	42357.91
750.944	42106.39
751.283	42045.6
751.621	42148.2
751.96	41839.06
752.298	41825.5
752.636	41919.96
